PE UV       SUBTECH     SPECTRUM    ASCII       PEDS        4.00        
   -1
CICIMAUCR0004-1.Sample.ASC
24/05/03
14:00:46.00
24/05/03
14:00:46.00
Vinicio Soto Monge
C. kalinini
250,000000
1
Lambda 1050
1050L1511233
PerkinElmer UV WinLab 6.3.2.0749 / 2.02.05 Lambda 900 UV/VIS/NIR, Aug  7 2015 09:38:08

0
0
3350/servo 860,8/2
0
0
UV/VIS
1
1
1
DoubleDePol,CommonBeamDepol,RBeamAtt,SBeamAtt,60mm sphere, WB InGaAs Detector
0
0
0
0
Program
Program
3350/servo 860,8/2
3350/0,2 860,8/0,2
3350/0,2 860,8/0,2
0
15.00
 
 
 
0
 
860,8
319,2
860,8
Front
100
on
S:100 R:100
0
0
0
0
 
0
 
 
 
0
 
 
0
0
0
0
0
 
 
 
 
0
0


0
0
#HDR
-1
-1
#GR
nm
%R
1.0
0.0
2500,000000
-1,000000
2251
8
95,169100
5,381700
#DATA
2500.000000	8.112700
2499.000000	7.871300
2498.000000	7.996600
2497.000000	8.005300
2496.000000	8.039500
2495.000000	7.977000
2494.000000	7.977100
2493.000000	7.907000
2492.000000	7.899200
2491.000000	7.808100
2490.000000	7.814600
2489.000000	7.816600
2488.000000	7.746200
2487.000000	7.791400
2486.000000	7.820400
2485.000000	7.809400
2484.000000	7.713200
2483.000000	7.765900
2482.000000	7.769500
2481.000000	7.714000
2480.000000	7.749300
2479.000000	7.700200
2478.000000	7.690300
2477.000000	7.683300
2476.000000	7.708600
2475.000000	7.686300
2474.000000	7.743100
2473.000000	7.714000
2472.000000	7.764900
2471.000000	7.716100
2470.000000	7.709000
2469.000000	7.724000
2468.000000	7.751100
2467.000000	7.778700
2466.000000	7.818800
2465.000000	7.848800
2464.000000	7.883500
2463.000000	7.848300
2462.000000	7.939900
2461.000000	7.966400
2460.000000	8.002800
2459.000000	8.057500
2458.000000	8.096500
2457.000000	8.144600
2456.000000	8.193600
2455.000000	8.271500
2454.000000	8.341400
2453.000000	8.392000
2452.000000	8.451400
2451.000000	8.533100
2450.000000	8.602500
2449.000000	8.667500
2448.000000	8.769800
2447.000000	8.844100
2446.000000	8.901800
2445.000000	8.965200
2444.000000	9.063100
2443.000000	9.115900
2442.000000	9.198200
2441.000000	9.286500
2440.000000	9.334500
2439.000000	9.399800
2438.000000	9.479500
2437.000000	9.562200
2436.000000	9.624000
2435.000000	9.689100
2434.000000	9.745500
2433.000000	9.809100
2432.000000	9.863800
2431.000000	9.903500
2430.000000	9.962100
2429.000000	10.010100
2428.000000	10.053400
2427.000000	10.091900
2426.000000	10.134000
2425.000000	10.173100
2424.000000	10.205400
2423.000000	10.234200
2422.000000	10.276400
2421.000000	10.316500
2420.000000	10.335800
2419.000000	10.353900
2418.000000	10.380500
2417.000000	10.423200
2416.000000	10.444300
2415.000000	10.484200
2414.000000	10.486800
2413.000000	10.503900
2412.000000	10.543900
2411.000000	10.565400
2410.000000	10.580700
2409.000000	10.600700
2408.000000	10.608300
2407.000000	10.632200
2406.000000	10.655000
2405.000000	10.679900
2404.000000	10.703600
2403.000000	10.729800
2402.000000	10.761300
2401.000000	10.793000
2400.000000	10.809100
2399.000000	10.847600
2398.000000	10.889900
2397.000000	10.908500
2396.000000	10.939200
2395.000000	10.950700
2394.000000	10.968600
2393.000000	10.988400
2392.000000	10.992400
2391.000000	11.008800
2390.000000	11.031700
2389.000000	11.035700
2388.000000	11.043000
2387.000000	11.041800
2386.000000	11.038300
2385.000000	11.035100
2384.000000	11.023200
2383.000000	11.016400
2382.000000	11.019400
2381.000000	11.003800
2380.000000	10.989400
2379.000000	10.959400
2378.000000	10.933200
2377.000000	10.923000
2376.000000	10.902300
2375.000000	10.862200
2374.000000	10.820200
2373.000000	10.799700
2372.000000	10.761900
2371.000000	10.716600
2370.000000	10.672300
2369.000000	10.626400
2368.000000	10.562700
2367.000000	10.497900
2366.000000	10.444500
2365.000000	10.375800
2364.000000	10.312000
2363.000000	10.243700
2362.000000	10.175100
2361.000000	10.112500
2360.000000	10.034700
2359.000000	9.976000
2358.000000	9.932500
2357.000000	9.886400
2356.000000	9.844100
2355.000000	9.810800
2354.000000	9.784300
2353.000000	9.769600
2352.000000	9.766000
2351.000000	9.770600
2350.000000	9.776600
2349.000000	9.794900
2348.000000	9.827300
2347.000000	9.860100
2346.000000	9.895500
2345.000000	9.914300
2344.000000	9.953700
2343.000000	10.001700
2342.000000	10.019400
2341.000000	10.021100
2340.000000	10.040900
2339.000000	10.054800
2338.000000	10.058200
2337.000000	10.041100
2336.000000	10.031500
2335.000000	10.007500
2334.000000	9.980200
2333.000000	9.952300
2332.000000	9.897700
2331.000000	9.849800
2330.000000	9.781800
2329.000000	9.708300
2328.000000	9.637500
2327.000000	9.569500
2326.000000	9.500000
2325.000000	9.418200
2324.000000	9.322100
2323.000000	9.237100
2322.000000	9.140300
2321.000000	9.057200
2320.000000	8.933800
2319.000000	8.796900
2318.000000	8.698600
2317.000000	8.582900
2316.000000	8.490400
2315.000000	8.390700
2314.000000	8.280900
2313.000000	8.183000
2312.000000	8.094900
2311.000000	8.034500
2310.000000	7.981100
2309.000000	7.933500
2308.000000	7.893500
2307.000000	7.888200
2306.000000	7.897200
2305.000000	7.909200
2304.000000	7.937300
2303.000000	7.997400
2302.000000	8.047500
2301.000000	8.107400
2300.000000	8.176300
2299.000000	8.253100
2298.000000	8.346700
2297.000000	8.413000
2296.000000	8.495500
2295.000000	8.581400
2294.000000	8.624000
2293.000000	8.681800
2292.000000	8.708300
2291.000000	8.741900
2290.000000	8.765200
2289.000000	8.784300
2288.000000	8.771100
2287.000000	8.775100
2286.000000	8.754200
2285.000000	8.736500
2284.000000	8.713400
2283.000000	8.692100
2282.000000	8.632000
2281.000000	8.595400
2280.000000	8.557300
2279.000000	8.528100
2278.000000	8.477900
2277.000000	8.447400
2276.000000	8.447700
2275.000000	8.429600
2274.000000	8.430500
2273.000000	8.409500
2272.000000	8.451300
2271.000000	8.442400
2270.000000	8.498800
2269.000000	8.536400
2268.000000	8.609400
2267.000000	8.709100
2266.000000	8.822800
2265.000000	8.931200
2264.000000	9.077000
2263.000000	9.253300
2262.000000	9.424300
2261.000000	9.643900
2260.000000	9.877200
2259.000000	10.100300
2258.000000	10.332600
2257.000000	10.578300
2256.000000	10.851700
2255.000000	11.086100
2254.000000	11.332600
2253.000000	11.578600
2252.000000	11.836900
2251.000000	12.060200
2250.000000	12.270700
2249.000000	12.462300
2248.000000	12.680800
2247.000000	12.865900
2246.000000	13.029000
2245.000000	13.203700
2244.000000	13.342900
2243.000000	13.482100
2242.000000	13.583500
2241.000000	13.749200
2240.000000	13.862700
2239.000000	13.943400
2238.000000	14.054900
2237.000000	14.152900
2236.000000	14.245300
2235.000000	14.292400
2234.000000	14.347800
2233.000000	14.430700
2232.000000	14.460500
2231.000000	14.484400
2230.000000	14.538900
2229.000000	14.545400
2228.000000	14.587800
2227.000000	14.581300
2226.000000	14.582400
2225.000000	14.586800
2224.000000	14.565400
2223.000000	14.556300
2222.000000	14.536100
2221.000000	14.509100
2220.000000	14.470600
2219.000000	14.467700
2218.000000	14.408800
2217.000000	14.383200
2216.000000	14.372100
2215.000000	14.345800
2214.000000	14.318100
2213.000000	14.254500
2212.000000	14.246700
2211.000000	14.212700
2210.000000	14.179900
2209.000000	14.180800
2208.000000	14.156500
2207.000000	14.128300
2206.000000	14.119800
2205.000000	14.086000
2204.000000	14.085500
2203.000000	14.063300
2202.000000	14.042400
2201.000000	14.048900
2200.000000	14.029900
2199.000000	14.021000
2198.000000	14.021000
2197.000000	14.012000
2196.000000	14.003000
2195.000000	13.994700
2194.000000	13.997100
2193.000000	13.995700
2192.000000	13.988900
2191.000000	13.965300
2190.000000	13.984100
2189.000000	13.962400
2188.000000	13.955200
2187.000000	13.938500
2186.000000	13.945100
2185.000000	13.926200
2184.000000	13.910100
2183.000000	13.888900
2182.000000	13.882600
2181.000000	13.882500
2180.000000	13.880600
2179.000000	13.867500
2178.000000	13.862000
2177.000000	13.870100
2176.000000	13.863600
2175.000000	13.862400
2174.000000	13.870700
2173.000000	13.868900
2172.000000	13.879400
2171.000000	13.907800
2170.000000	13.928700
2169.000000	13.944000
2168.000000	13.949500
2167.000000	13.965800
2166.000000	14.014300
2165.000000	14.049500
2164.000000	14.059100
2163.000000	14.099400
2162.000000	14.129400
2161.000000	14.179500
2160.000000	14.191200
2159.000000	14.220400
2158.000000	14.279000
2157.000000	14.327200
2156.000000	14.373600
2155.000000	14.416100
2154.000000	14.463600
2153.000000	14.521700
2152.000000	14.572500
2151.000000	14.614800
2150.000000	14.663500
2149.000000	14.725000
2148.000000	14.794900
2147.000000	14.835000
2146.000000	14.873000
2145.000000	14.916600
2144.000000	14.980700
2143.000000	15.036200
2142.000000	15.059200
2141.000000	15.105800
2140.000000	15.165100
2139.000000	15.210300
2138.000000	15.234400
2137.000000	15.266000
2136.000000	15.307900
2135.000000	15.334700
2134.000000	15.350400
2133.000000	15.370400
2132.000000	15.405100
2131.000000	15.434900
2130.000000	15.437200
2129.000000	15.452400
2128.000000	15.451400
2127.000000	15.462800
2126.000000	15.462700
2125.000000	15.456700
2124.000000	15.458800
2123.000000	15.454300
2122.000000	15.446500
2121.000000	15.436400
2120.000000	15.418500
2119.000000	15.383900
2118.000000	15.366600
2117.000000	15.349700
2116.000000	15.326300
2115.000000	15.307200
2114.000000	15.270100
2113.000000	15.239700
2112.000000	15.213900
2111.000000	15.195700
2110.000000	15.177200
2109.000000	15.147100
2108.000000	15.114900
2107.000000	15.082900
2106.000000	15.049400
2105.000000	15.016600
2104.000000	14.988500
2103.000000	14.958800
2102.000000	14.922200
2101.000000	14.906400
2100.000000	14.892200
2099.000000	14.856300
2098.000000	14.838600
2097.000000	14.834400
2096.000000	14.811100
2095.000000	14.781300
2094.000000	14.759300
2093.000000	14.764600
2092.000000	14.762600
2091.000000	14.745900
2090.000000	14.743900
2089.000000	14.727000
2088.000000	14.707500
2087.000000	14.712600
2086.000000	14.703300
2085.000000	14.678800
2084.000000	14.659400
2083.000000	14.633800
2082.000000	14.625000
2081.000000	14.617600
2080.000000	14.594600
2079.000000	14.577200
2078.000000	14.541200
2077.000000	14.506200
2076.000000	14.476800
2075.000000	14.450200
2074.000000	14.414800
2073.000000	14.384200
2072.000000	14.354600
2071.000000	14.313700
2070.000000	14.285200
2069.000000	14.239900
2068.000000	14.196300
2067.000000	14.153700
2066.000000	14.114200
2065.000000	14.098100
2064.000000	14.075500
2063.000000	14.033900
2062.000000	14.019700
2061.000000	13.995200
2060.000000	13.986500
2059.000000	13.987500
2058.000000	13.986900
2057.000000	14.008600
2056.000000	14.032000
2055.000000	14.070300
2054.000000	14.140400
2053.000000	14.223000
2052.000000	14.318500
2051.000000	14.408400
2050.000000	14.523300
2049.000000	14.651700
2048.000000	14.821400
2047.000000	14.972400
2046.000000	15.117500
2045.000000	15.293700
2044.000000	15.492600
2043.000000	15.680600
2042.000000	15.862400
2041.000000	16.053700
2040.000000	16.244200
2039.000000	16.422000
2038.000000	16.605300
2037.000000	16.775500
2036.000000	16.952100
2035.000000	17.104200
2034.000000	17.264700
2033.000000	17.426500
2032.000000	17.574000
2031.000000	17.706400
2030.000000	17.833300
2029.000000	17.964300
2028.000000	18.112800
2027.000000	18.219700
2026.000000	18.352000
2025.000000	18.468600
2024.000000	18.580500
2023.000000	18.692000
2022.000000	18.791000
2021.000000	18.908000
2020.000000	19.007700
2019.000000	19.088500
2018.000000	19.183800
2017.000000	19.265500
2016.000000	19.372300
2015.000000	19.432800
2014.000000	19.520300
2013.000000	19.596800
2012.000000	19.660900
2011.000000	19.712400
2010.000000	19.754100
2009.000000	19.805500
2008.000000	19.881300
2007.000000	19.889500
2006.000000	19.902400
2005.000000	19.937500
2004.000000	19.962100
2003.000000	19.981800
2002.000000	19.986600
2001.000000	19.977000
2000.000000	19.969800
1999.000000	19.979700
1998.000000	19.965700
1997.000000	19.946100
1996.000000	19.925300
1995.000000	19.896500
1994.000000	19.876300
1993.000000	19.814400
1992.000000	19.760000
1991.000000	19.705500
1990.000000	19.660600
1989.000000	19.601700
1988.000000	19.545800
1987.000000	19.483900
1986.000000	19.431900
1985.000000	19.348400
1984.000000	19.289000
1983.000000	19.239200
1982.000000	19.163800
1981.000000	19.067700
1980.000000	19.014300
1979.000000	18.924600
1978.000000	18.833400
1977.000000	18.784600
1976.000000	18.694100
1975.000000	18.636700
1974.000000	18.548500
1973.000000	18.494400
1972.000000	18.413200
1971.000000	18.344100
1970.000000	18.256100
1969.000000	18.210800
1968.000000	18.136600
1967.000000	18.077500
1966.000000	18.010900
1965.000000	17.941500
1964.000000	17.876600
1963.000000	17.825200
1962.000000	17.751300
1961.000000	17.670400
1960.000000	17.610700
1959.000000	17.527600
1958.000000	17.460300
1957.000000	17.388700
1956.000000	17.310800
1955.000000	17.248800
1954.000000	17.192800
1953.000000	17.127300
1952.000000	17.058000
1951.000000	16.997500
1950.000000	16.937500
1949.000000	16.886800
1948.000000	16.832000
1947.000000	16.785700
1946.000000	16.731200
1945.000000	16.698100
1944.000000	16.659700
1943.000000	16.650800
1942.000000	16.641300
1941.000000	16.650900
1940.000000	16.659900
1939.000000	16.658200
1938.000000	16.674000
1937.000000	16.700400
1936.000000	16.715300
1935.000000	16.749300
1934.000000	16.830500
1933.000000	16.883400
1932.000000	16.963600
1931.000000	17.031400
1930.000000	17.160400
1929.000000	17.259800
1928.000000	17.378400
1927.000000	17.507200
1926.000000	17.617400
1925.000000	17.771700
1924.000000	17.935000
1923.000000	18.077500
1922.000000	18.255900
1921.000000	18.467300
1920.000000	18.657600
1919.000000	18.832600
1918.000000	19.036800
1917.000000	19.241600
1916.000000	19.462800
1915.000000	19.691900
1914.000000	19.966000
1913.000000	20.223400
1912.000000	20.483100
1911.000000	20.754900
1910.000000	21.005100
1909.000000	21.256900
1908.000000	21.527200
1907.000000	21.835000
1906.000000	22.154400
1905.000000	22.480000
1904.000000	22.790900
1903.000000	23.085600
1902.000000	23.390400
1901.000000	23.706800
1900.000000	24.046100
1899.000000	24.350300
1898.000000	24.684700
1897.000000	25.006900
1896.000000	25.285000
1895.000000	25.560600
1894.000000	25.879100
1893.000000	26.183800
1892.000000	26.485300
1891.000000	26.796200
1890.000000	27.083300
1889.000000	27.390900
1888.000000	27.703600
1887.000000	28.030800
1886.000000	28.375000
1885.000000	28.752300
1884.000000	29.174300
1883.000000	29.593800
1882.000000	29.981100
1881.000000	30.408900
1880.000000	30.800900
1879.000000	31.183400
1878.000000	31.547600
1877.000000	31.859000
1876.000000	32.159600
1875.000000	32.425900
1874.000000	32.667500
1873.000000	32.897900
1872.000000	33.105400
1871.000000	33.258100
1870.000000	33.361900
1869.000000	33.481400
1868.000000	33.589000
1867.000000	33.647000
1866.000000	33.690700
1865.000000	33.722400
1864.000000	33.758800
1863.000000	33.789400
1862.000000	33.800000
1861.000000	33.800100
1860.000000	33.791900
1859.000000	33.765400
1858.000000	33.740400
1857.000000	33.689000
1856.000000	33.618000
1855.000000	33.565500
1854.000000	33.491500
1853.000000	33.403000
1852.000000	33.327200
1851.000000	33.277000
1850.000000	33.206700
1849.000000	33.122600
1848.000000	33.020100
1847.000000	32.897600
1846.000000	32.804900
1845.000000	32.754000
1844.000000	32.712300
1843.000000	32.703600
1842.000000	32.673500
1841.000000	32.586600
1840.000000	32.514500
1839.000000	32.449700
1838.000000	32.379400
1837.000000	32.307600
1836.000000	32.223200
1835.000000	32.126900
1834.000000	32.036200
1833.000000	31.952700
1832.000000	31.885000
1831.000000	31.804400
1830.000000	31.703300
1829.000000	31.603200
1828.000000	31.492500
1827.000000	31.411300
1826.000000	31.351200
1825.000000	31.294100
1824.000000	31.263500
1823.000000	31.264000
1822.000000	31.251400
1821.000000	31.214800
1820.000000	31.171200
1819.000000	31.142000
1818.000000	31.130400
1817.000000	31.132100
1816.000000	31.139400
1815.000000	31.118700
1814.000000	31.091600
1813.000000	31.081300
1812.000000	31.064200
1811.000000	31.011300
1810.000000	30.950900
1809.000000	30.910400
1808.000000	30.865800
1807.000000	30.821400
1806.000000	30.763700
1805.000000	30.692800
1804.000000	30.641700
1803.000000	30.597900
1802.000000	30.549300
1801.000000	30.480400
1800.000000	30.410300
1799.000000	30.352300
1798.000000	30.300900
1797.000000	30.257900
1796.000000	30.201900
1795.000000	30.126700
1794.000000	30.063600
1793.000000	30.009300
1792.000000	29.933200
1791.000000	29.870700
1790.000000	29.808900
1789.000000	29.739000
1788.000000	29.662100
1787.000000	29.577600
1786.000000	29.504500
1785.000000	29.423600
1784.000000	29.316400
1783.000000	29.216300
1782.000000	29.131200
1781.000000	29.027500
1780.000000	28.930900
1779.000000	28.802600
1778.000000	28.669500
1777.000000	28.550000
1776.000000	28.401900
1775.000000	28.235300
1774.000000	28.079000
1773.000000	27.920300
1772.000000	27.753300
1771.000000	27.589700
1770.000000	27.427200
1769.000000	27.277100
1768.000000	27.146300
1767.000000	27.035800
1766.000000	26.931800
1765.000000	26.846100
1764.000000	26.815700
1763.000000	26.783900
1762.000000	26.821100
1761.000000	26.897300
1760.000000	26.952700
1759.000000	27.041100
1758.000000	27.094800
1757.000000	27.151700
1756.000000	27.187900
1755.000000	27.220400
1754.000000	27.243400
1753.000000	27.213600
1752.000000	27.183400
1751.000000	27.130100
1750.000000	27.040300
1749.000000	26.948900
1748.000000	26.825400
1747.000000	26.685400
1746.000000	26.520400
1745.000000	26.327800
1744.000000	26.115300
1743.000000	25.849400
1742.000000	25.593300
1741.000000	25.301700
1740.000000	25.007600
1739.000000	24.729500
1738.000000	24.481900
1737.000000	24.295100
1736.000000	24.138600
1735.000000	24.030600
1734.000000	23.997800
1733.000000	24.024000
1732.000000	24.083500
1731.000000	24.166700
1730.000000	24.273100
1729.000000	24.387300
1728.000000	24.526700
1727.000000	24.593500
1726.000000	24.672300
1725.000000	24.740900
1724.000000	24.778000
1723.000000	24.812900
1722.000000	24.847600
1721.000000	24.887500
1720.000000	24.931500
1719.000000	25.000600
1718.000000	25.073300
1717.000000	25.145100
1716.000000	25.252200
1715.000000	25.359400
1714.000000	25.462000
1713.000000	25.547800
1712.000000	25.608200
1711.000000	25.678400
1710.000000	25.690200
1709.000000	25.699000
1708.000000	25.705200
1707.000000	25.676000
1706.000000	25.633500
1705.000000	25.577100
1704.000000	25.527900
1703.000000	25.424700
1702.000000	25.300200
1701.000000	25.133800
1700.000000	24.952600
1699.000000	24.771100
1698.000000	24.626100
1697.000000	24.523200
1696.000000	24.472200
1695.000000	24.514900
1694.000000	24.565000
1693.000000	24.680900
1692.000000	24.838700
1691.000000	24.989300
1690.000000	25.127100
1689.000000	25.196800
1688.000000	25.229000
1687.000000	25.250400
1686.000000	25.272100
1685.000000	25.356500
1684.000000	25.553600
1683.000000	25.837700
1682.000000	26.300000
1681.000000	26.864800
1680.000000	27.501000
1679.000000	28.108500
1678.000000	28.693500
1677.000000	29.239300
1676.000000	29.722600
1675.000000	30.139300
1674.000000	30.501600
1673.000000	30.825300
1672.000000	31.088400
1671.000000	31.330000
1670.000000	31.581600
1669.000000	31.777400
1668.000000	31.937700
1667.000000	32.091100
1666.000000	32.208300
1665.000000	32.326300
1664.000000	32.430700
1663.000000	32.519500
1662.000000	32.613500
1661.000000	32.676300
1660.000000	32.760600
1659.000000	32.799400
1658.000000	32.851300
1657.000000	32.872200
1656.000000	32.905600
1655.000000	32.906000
1654.000000	32.896400
1653.000000	32.890800
1652.000000	32.881800
1651.000000	32.858300
1650.000000	32.847700
1649.000000	32.816500
1648.000000	32.775600
1647.000000	32.714400
1646.000000	32.653800
1645.000000	32.616500
1644.000000	32.556000
1643.000000	32.499100
1642.000000	32.442100
1641.000000	32.386000
1640.000000	32.338400
1639.000000	32.261000
1638.000000	32.194200
1637.000000	32.120500
1636.000000	32.059300
1635.000000	31.990000
1634.000000	31.900200
1633.000000	31.825700
1632.000000	31.748800
1631.000000	31.660900
1630.000000	31.582500
1629.000000	31.498700
1628.000000	31.398700
1627.000000	31.306400
1626.000000	31.229800
1625.000000	31.136000
1624.000000	31.049100
1623.000000	30.957800
1622.000000	30.874000
1621.000000	30.788300
1620.000000	30.703800
1619.000000	30.634900
1618.000000	30.550500
1617.000000	30.452700
