PE UV       SUBTECH     SPECTRUM    ASCII       PEDS        4.00        
   -1
CICIMAUCR0003-1.Sample.ASC
24/05/03
10:03:20.00
24/05/03
10:03:20.00
Vinicio Soto Monge
C. kalinini
250,000000
1
Lambda 1050
1050L1511233
PerkinElmer UV WinLab 6.3.2.0749 / 2.02.05 Lambda 900 UV/VIS/NIR, Aug  7 2015 09:38:08

0
0
3350/servo 860,8/2
0
0
UV/VIS
1
1
1
DoubleDePol,CommonBeamDepol,RBeamAtt,SBeamAtt,60mm sphere, WB InGaAs Detector
0
0
0
0
Program
Program
3350/servo 860,8/2
3350/0,2 860,8/0,2
3350/0,2 860,8/0,2
0
15.00
 
 
 
0
 
860,8
319,2
860,8
Front
100
on
S:100 R:100
0
0
0
0
 
0
 
 
 
0
 
 
0
0
0
0
0
 
 
 
 
0
0


0
0
#HDR
-1
-1
#GR
nm
%R
1.0
0.0
2500,000000
-1,000000
2251
8
96,293800
5,389400
#DATA
2500.000000	8.183300
2499.000000	8.079700
2498.000000	7.930000
2497.000000	8.037900
2496.000000	8.012600
2495.000000	8.018600
2494.000000	7.945300
2493.000000	7.981600
2492.000000	7.902400
2491.000000	7.919200
2490.000000	7.871400
2489.000000	7.810900
2488.000000	7.886800
2487.000000	7.815400
2486.000000	7.827200
2485.000000	7.782300
2484.000000	7.744500
2483.000000	7.814400
2482.000000	7.720400
2481.000000	7.777700
2480.000000	7.771500
2479.000000	7.785800
2478.000000	7.795000
2477.000000	7.781800
2476.000000	7.760500
2475.000000	7.806000
2474.000000	7.719500
2473.000000	7.709000
2472.000000	7.752100
2471.000000	7.771400
2470.000000	7.790400
2469.000000	7.766300
2468.000000	7.733400
2467.000000	7.774900
2466.000000	7.840300
2465.000000	7.801700
2464.000000	7.835100
2463.000000	7.887200
2462.000000	7.885500
2461.000000	7.911300
2460.000000	7.942800
2459.000000	8.027100
2458.000000	8.046900
2457.000000	8.085100
2456.000000	8.170600
2455.000000	8.197200
2454.000000	8.263000
2453.000000	8.350500
2452.000000	8.408500
2451.000000	8.486100
2450.000000	8.533300
2449.000000	8.591500
2448.000000	8.659300
2447.000000	8.731600
2446.000000	8.831600
2445.000000	8.918600
2444.000000	8.978500
2443.000000	9.021300
2442.000000	9.088200
2441.000000	9.162900
2440.000000	9.212100
2439.000000	9.291700
2438.000000	9.379500
2437.000000	9.416400
2436.000000	9.478600
2435.000000	9.545400
2434.000000	9.585900
2433.000000	9.652400
2432.000000	9.706100
2431.000000	9.762700
2430.000000	9.794900
2429.000000	9.836000
2428.000000	9.863000
2427.000000	9.913600
2426.000000	9.958700
2425.000000	9.987900
2424.000000	10.026700
2423.000000	10.047900
2422.000000	10.076900
2421.000000	10.113000
2420.000000	10.140600
2419.000000	10.166400
2418.000000	10.188000
2417.000000	10.219500
2416.000000	10.251500
2415.000000	10.268600
2414.000000	10.296800
2413.000000	10.308500
2412.000000	10.333300
2411.000000	10.357700
2410.000000	10.362600
2409.000000	10.391200
2408.000000	10.426500
2407.000000	10.440900
2406.000000	10.474500
2405.000000	10.498600
2404.000000	10.509800
2403.000000	10.535200
2402.000000	10.573000
2401.000000	10.588100
2400.000000	10.600000
2399.000000	10.625500
2398.000000	10.633100
2397.000000	10.651200
2396.000000	10.663600
2395.000000	10.670700
2394.000000	10.687000
2393.000000	10.720700
2392.000000	10.740700
2391.000000	10.750200
2390.000000	10.746000
2389.000000	10.753700
2388.000000	10.765400
2387.000000	10.763000
2386.000000	10.772300
2385.000000	10.772100
2384.000000	10.767700
2383.000000	10.758400
2382.000000	10.732100
2381.000000	10.714600
2380.000000	10.708500
2379.000000	10.687800
2378.000000	10.657500
2377.000000	10.637100
2376.000000	10.609000
2375.000000	10.575700
2374.000000	10.554600
2373.000000	10.509200
2372.000000	10.470100
2371.000000	10.448700
2370.000000	10.394300
2369.000000	10.341200
2368.000000	10.293200
2367.000000	10.228900
2366.000000	10.168300
2365.000000	10.098700
2364.000000	10.028200
2363.000000	9.972300
2362.000000	9.901400
2361.000000	9.828900
2360.000000	9.767800
2359.000000	9.696300
2358.000000	9.640600
2357.000000	9.574800
2356.000000	9.515400
2355.000000	9.493200
2354.000000	9.470200
2353.000000	9.451400
2352.000000	9.444100
2351.000000	9.438800
2350.000000	9.444500
2349.000000	9.468900
2348.000000	9.506800
2347.000000	9.540100
2346.000000	9.567500
2345.000000	9.603900
2344.000000	9.648400
2343.000000	9.695500
2342.000000	9.749700
2341.000000	9.768500
2340.000000	9.779100
2339.000000	9.799600
2338.000000	9.801100
2337.000000	9.801600
2336.000000	9.798800
2335.000000	9.781300
2334.000000	9.751700
2333.000000	9.709800
2332.000000	9.672200
2331.000000	9.620800
2330.000000	9.555700
2329.000000	9.490500
2328.000000	9.414300
2327.000000	9.341400
2326.000000	9.262900
2325.000000	9.170800
2324.000000	9.080600
2323.000000	8.981700
2322.000000	8.885300
2321.000000	8.774200
2320.000000	8.647500
2319.000000	8.545800
2318.000000	8.439800
2317.000000	8.318700
2316.000000	8.210800
2315.000000	8.088500
2314.000000	7.993600
2313.000000	7.895300
2312.000000	7.818900
2311.000000	7.731800
2310.000000	7.685400
2309.000000	7.634000
2308.000000	7.601500
2307.000000	7.582800
2306.000000	7.590900
2305.000000	7.633200
2304.000000	7.638700
2303.000000	7.675500
2302.000000	7.740500
2301.000000	7.813500
2300.000000	7.904400
2299.000000	7.987700
2298.000000	8.048200
2297.000000	8.126100
2296.000000	8.197900
2295.000000	8.286400
2294.000000	8.345400
2293.000000	8.391400
2292.000000	8.456400
2291.000000	8.497500
2290.000000	8.533300
2289.000000	8.546100
2288.000000	8.554400
2287.000000	8.551100
2286.000000	8.547600
2285.000000	8.527700
2284.000000	8.501500
2283.000000	8.462400
2282.000000	8.433600
2281.000000	8.391800
2280.000000	8.370400
2279.000000	8.347400
2278.000000	8.321200
2277.000000	8.305700
2276.000000	8.275800
2275.000000	8.264600
2274.000000	8.265900
2273.000000	8.286900
2272.000000	8.279700
2271.000000	8.301900
2270.000000	8.341900
2269.000000	8.411100
2268.000000	8.483700
2267.000000	8.557100
2266.000000	8.660900
2265.000000	8.793200
2264.000000	8.926400
2263.000000	9.096300
2262.000000	9.285300
2261.000000	9.496500
2260.000000	9.692800
2259.000000	9.931400
2258.000000	10.170500
2257.000000	10.409600
2256.000000	10.647400
2255.000000	10.905000
2254.000000	11.165200
2253.000000	11.384300
2252.000000	11.626300
2251.000000	11.846500
2250.000000	12.062800
2249.000000	12.245700
2248.000000	12.431900
2247.000000	12.605000
2246.000000	12.796200
2245.000000	12.958600
2244.000000	13.083100
2243.000000	13.237100
2242.000000	13.344000
2241.000000	13.471300
2240.000000	13.576500
2239.000000	13.683700
2238.000000	13.767200
2237.000000	13.831400
2236.000000	13.915100
2235.000000	13.998700
2234.000000	14.048100
2233.000000	14.108000
2232.000000	14.156500
2231.000000	14.201100
2230.000000	14.234500
2229.000000	14.231900
2228.000000	14.258800
2227.000000	14.295000
2226.000000	14.294600
2225.000000	14.260800
2224.000000	14.273100
2223.000000	14.270500
2222.000000	14.231600
2221.000000	14.230300
2220.000000	14.214700
2219.000000	14.185300
2218.000000	14.150700
2217.000000	14.150500
2216.000000	14.137400
2215.000000	14.094000
2214.000000	14.059600
2213.000000	14.048600
2212.000000	13.991100
2211.000000	13.972900
2210.000000	13.979400
2209.000000	13.945500
2208.000000	13.930000
2207.000000	13.901700
2206.000000	13.873300
2205.000000	13.872700
2204.000000	13.855500
2203.000000	13.841100
2202.000000	13.836100
2201.000000	13.821100
2200.000000	13.816600
2199.000000	13.795300
2198.000000	13.798900
2197.000000	13.788800
2196.000000	13.786000
2195.000000	13.761500
2194.000000	13.750900
2193.000000	13.751800
2192.000000	13.747500
2191.000000	13.739600
2190.000000	13.728900
2189.000000	13.706700
2188.000000	13.701300
2187.000000	13.689400
2186.000000	13.674500
2185.000000	13.656400
2184.000000	13.644600
2183.000000	13.642000
2182.000000	13.624800
2181.000000	13.616000
2180.000000	13.622900
2179.000000	13.600900
2178.000000	13.602200
2177.000000	13.613000
2176.000000	13.603700
2175.000000	13.610300
2174.000000	13.631000
2173.000000	13.636500
2172.000000	13.637800
2171.000000	13.652100
2170.000000	13.676700
2169.000000	13.698400
2168.000000	13.727500
2167.000000	13.738700
2166.000000	13.774100
2165.000000	13.812400
2164.000000	13.845500
2163.000000	13.877900
2162.000000	13.896100
2161.000000	13.935200
2160.000000	13.977800
2159.000000	14.005600
2158.000000	14.043100
2157.000000	14.103700
2156.000000	14.146900
2155.000000	14.181900
2154.000000	14.240700
2153.000000	14.285500
2152.000000	14.331100
2151.000000	14.378300
2150.000000	14.415100
2149.000000	14.468200
2148.000000	14.532200
2147.000000	14.576700
2146.000000	14.611000
2145.000000	14.639000
2144.000000	14.686100
2143.000000	14.741800
2142.000000	14.773700
2141.000000	14.797800
2140.000000	14.833000
2139.000000	14.877800
2138.000000	14.911700
2137.000000	14.935000
2136.000000	14.951400
2135.000000	14.978300
2134.000000	15.007200
2133.000000	15.023700
2132.000000	15.030100
2131.000000	15.042900
2130.000000	15.073200
2129.000000	15.070500
2128.000000	15.064800
2127.000000	15.067700
2126.000000	15.075500
2125.000000	15.068100
2124.000000	15.056200
2123.000000	15.043200
2122.000000	15.038300
2121.000000	15.025600
2120.000000	15.013600
2119.000000	14.986300
2118.000000	14.967700
2117.000000	14.948600
2116.000000	14.922300
2115.000000	14.900700
2114.000000	14.867000
2113.000000	14.836600
2112.000000	14.815500
2111.000000	14.805100
2110.000000	14.788600
2109.000000	14.745900
2108.000000	14.697700
2107.000000	14.671700
2106.000000	14.651200
2105.000000	14.625800
2104.000000	14.595900
2103.000000	14.561600
2102.000000	14.533700
2101.000000	14.516500
2100.000000	14.501500
2099.000000	14.476700
2098.000000	14.457900
2097.000000	14.423900
2096.000000	14.401100
2095.000000	14.390600
2094.000000	14.383800
2093.000000	14.382800
2092.000000	14.357700
2091.000000	14.345900
2090.000000	14.331100
2089.000000	14.328400
2088.000000	14.321700
2087.000000	14.300300
2086.000000	14.285600
2085.000000	14.275200
2084.000000	14.250400
2083.000000	14.240800
2082.000000	14.230100
2081.000000	14.198000
2080.000000	14.180200
2079.000000	14.155300
2078.000000	14.127600
2077.000000	14.094000
2076.000000	14.065300
2075.000000	14.046200
2074.000000	14.012000
2073.000000	13.967400
2072.000000	13.941200
2071.000000	13.915700
2070.000000	13.881000
2069.000000	13.834200
2068.000000	13.809200
2067.000000	13.767100
2066.000000	13.725400
2065.000000	13.683100
2064.000000	13.645300
2063.000000	13.619600
2062.000000	13.570200
2061.000000	13.555000
2060.000000	13.552400
2059.000000	13.543700
2058.000000	13.547000
2057.000000	13.544800
2056.000000	13.567400
2055.000000	13.595400
2054.000000	13.614200
2053.000000	13.664400
2052.000000	13.731600
2051.000000	13.819600
2050.000000	13.905300
2049.000000	14.015800
2048.000000	14.141900
2047.000000	14.267600
2046.000000	14.401500
2045.000000	14.539500
2044.000000	14.705200
2043.000000	14.872300
2042.000000	15.015900
2041.000000	15.181600
2040.000000	15.327700
2039.000000	15.491100
2038.000000	15.654600
2037.000000	15.776600
2036.000000	15.919500
2035.000000	16.067000
2034.000000	16.183500
2033.000000	16.319600
2032.000000	16.432900
2031.000000	16.550500
2030.000000	16.653400
2029.000000	16.749200
2028.000000	16.858800
2027.000000	16.948700
2026.000000	17.040700
2025.000000	17.135700
2024.000000	17.241400
2023.000000	17.311400
2022.000000	17.386200
2021.000000	17.448400
2020.000000	17.532100
2019.000000	17.595300
2018.000000	17.654700
2017.000000	17.717600
2016.000000	17.766800
2015.000000	17.844400
2014.000000	17.893400
2013.000000	17.926500
2012.000000	17.966500
2011.000000	17.998500
2010.000000	18.039300
2009.000000	18.060600
2008.000000	18.096600
2007.000000	18.088900
2006.000000	18.123000
2005.000000	18.123700
2004.000000	18.139800
2003.000000	18.130300
2002.000000	18.110700
2001.000000	18.098300
2000.000000	18.102000
1999.000000	18.075000
1998.000000	18.072900
1997.000000	18.044300
1996.000000	18.006700
1995.000000	17.955300
1994.000000	17.895600
1993.000000	17.874400
1992.000000	17.817400
1991.000000	17.765500
1990.000000	17.715900
1989.000000	17.665800
1988.000000	17.563800
1987.000000	17.526900
1986.000000	17.464000
1985.000000	17.394900
1984.000000	17.334000
1983.000000	17.250400
1982.000000	17.165300
1981.000000	17.103800
1980.000000	17.029500
1979.000000	16.962600
1978.000000	16.880300
1977.000000	16.790500
1976.000000	16.713700
1975.000000	16.662100
1974.000000	16.572500
1973.000000	16.501700
1972.000000	16.439500
1971.000000	16.367900
1970.000000	16.303600
1969.000000	16.226100
1968.000000	16.158500
1967.000000	16.105200
1966.000000	16.038500
1965.000000	15.969700
1964.000000	15.907900
1963.000000	15.836900
1962.000000	15.752900
1961.000000	15.699100
1960.000000	15.604800
1959.000000	15.558100
1958.000000	15.508900
1957.000000	15.440500
1956.000000	15.366200
1955.000000	15.290000
1954.000000	15.245300
1953.000000	15.180500
1952.000000	15.108100
1951.000000	15.068200
1950.000000	15.007300
1949.000000	14.946100
1948.000000	14.913000
1947.000000	14.875100
1946.000000	14.839200
1945.000000	14.811400
1944.000000	14.789500
1943.000000	14.764600
1942.000000	14.752500
1941.000000	14.749300
1940.000000	14.742700
1939.000000	14.730000
1938.000000	14.756800
1937.000000	14.774300
1936.000000	14.801100
1935.000000	14.832900
1934.000000	14.881900
1933.000000	14.930100
1932.000000	15.005900
1931.000000	15.076000
1930.000000	15.178000
1929.000000	15.267600
1928.000000	15.352100
1927.000000	15.462600
1926.000000	15.573600
1925.000000	15.695700
1924.000000	15.840600
1923.000000	15.963600
1922.000000	16.135600
1921.000000	16.314200
1920.000000	16.497500
1919.000000	16.655700
1918.000000	16.815600
1917.000000	17.000500
1916.000000	17.186400
1915.000000	17.412700
1914.000000	17.641400
1913.000000	17.879100
1912.000000	18.111100
1911.000000	18.316400
1910.000000	18.541500
1909.000000	18.775500
1908.000000	19.029300
1907.000000	19.309200
1906.000000	19.582200
1905.000000	19.877100
1904.000000	20.152600
1903.000000	20.418800
1902.000000	20.708400
1901.000000	20.982100
1900.000000	21.287900
1899.000000	21.573200
1898.000000	21.875000
1897.000000	22.134600
1896.000000	22.390200
1895.000000	22.668600
1894.000000	22.950200
1893.000000	23.239400
1892.000000	23.559000
1891.000000	23.857900
1890.000000	24.145500
1889.000000	24.467300
1888.000000	24.766900
1887.000000	25.093700
1886.000000	25.452500
1885.000000	25.876900
1884.000000	26.317000
1883.000000	26.768000
1882.000000	27.237000
1881.000000	27.691900
1880.000000	28.110800
1879.000000	28.572500
1878.000000	29.001500
1877.000000	29.372400
1876.000000	29.729600
1875.000000	30.063700
1874.000000	30.369800
1873.000000	30.649600
1872.000000	30.898900
1871.000000	31.101500
1870.000000	31.282600
1869.000000	31.450500
1868.000000	31.548000
1867.000000	31.628200
1866.000000	31.671500
1865.000000	31.732800
1864.000000	31.788100
1863.000000	31.829300
1862.000000	31.885100
1861.000000	31.910800
1860.000000	31.921100
1859.000000	31.914600
1858.000000	31.890600
1857.000000	31.860000
1856.000000	31.812700
1855.000000	31.762600
1854.000000	31.704600
1853.000000	31.626400
1852.000000	31.559500
1851.000000	31.517400
1850.000000	31.458000
1849.000000	31.385100
1848.000000	31.301100
1847.000000	31.183000
1846.000000	31.077900
1845.000000	31.018600
1844.000000	30.979000
1843.000000	30.976900
1842.000000	30.951500
1841.000000	30.890600
1840.000000	30.823400
1839.000000	30.750400
1838.000000	30.684000
1837.000000	30.607900
1836.000000	30.534000
1835.000000	30.458300
1834.000000	30.365200
1833.000000	30.272300
1832.000000	30.206500
1831.000000	30.128800
1830.000000	30.024000
1829.000000	29.922600
1828.000000	29.832900
1827.000000	29.745500
1826.000000	29.656500
1825.000000	29.599300
1824.000000	29.575500
1823.000000	29.563700
1822.000000	29.536400
1821.000000	29.494800
1820.000000	29.440900
1819.000000	29.406500
1818.000000	29.391700
1817.000000	29.394000
1816.000000	29.399400
1815.000000	29.376300
1814.000000	29.356200
1813.000000	29.332400
1812.000000	29.297700
1811.000000	29.255200
1810.000000	29.209600
1809.000000	29.167500
1808.000000	29.122100
1807.000000	29.082200
1806.000000	29.015900
1805.000000	28.953300
1804.000000	28.895000
1803.000000	28.838600
1802.000000	28.792300
1801.000000	28.740900
1800.000000	28.670700
1799.000000	28.599400
1798.000000	28.544000
1797.000000	28.506000
1796.000000	28.451400
1795.000000	28.402900
1794.000000	28.340500
1793.000000	28.260400
1792.000000	28.196500
1791.000000	28.136200
1790.000000	28.078200
1789.000000	28.005800
1788.000000	27.937100
1787.000000	27.851400
1786.000000	27.760500
1785.000000	27.683000
1784.000000	27.579900
1783.000000	27.491300
1782.000000	27.399900
1781.000000	27.303700
1780.000000	27.214200
1779.000000	27.091300
1778.000000	26.979100
1777.000000	26.857700
1776.000000	26.713900
1775.000000	26.576100
1774.000000	26.407000
1773.000000	26.245700
1772.000000	26.073100
1771.000000	25.911900
1770.000000	25.770500
1769.000000	25.617400
1768.000000	25.461400
1767.000000	25.328700
1766.000000	25.229600
1765.000000	25.169100
1764.000000	25.121300
1763.000000	25.113600
1762.000000	25.136100
1761.000000	25.197800
1760.000000	25.282000
1759.000000	25.346500
1758.000000	25.424000
1757.000000	25.481800
1756.000000	25.548300
1755.000000	25.566300
1754.000000	25.590400
1753.000000	25.576000
1752.000000	25.545200
1751.000000	25.513000
1750.000000	25.452400
1749.000000	25.374100
1748.000000	25.268800
1747.000000	25.155300
1746.000000	24.992200
1745.000000	24.820100
1744.000000	24.605700
1743.000000	24.388200
1742.000000	24.127400
1741.000000	23.847400
1740.000000	23.570000
1739.000000	23.284100
1738.000000	23.050600
1737.000000	22.834000
1736.000000	22.688100
1735.000000	22.587500
1734.000000	22.520800
1733.000000	22.532400
1732.000000	22.592800
1731.000000	22.676900
1730.000000	22.774300
1729.000000	22.909300
1728.000000	23.016700
1727.000000	23.122000
1726.000000	23.219800
1725.000000	23.282500
1724.000000	23.324500
1723.000000	23.362400
1722.000000	23.401900
1721.000000	23.422600
1720.000000	23.478200
1719.000000	23.506600
1718.000000	23.594100
1717.000000	23.671500
1716.000000	23.739500
1715.000000	23.854000
1714.000000	23.918400
1713.000000	24.011000
1712.000000	24.080400
1711.000000	24.101000
1710.000000	24.139100
1709.000000	24.162700
1708.000000	24.152900
1707.000000	24.148500
1706.000000	24.111500
1705.000000	24.076100
1704.000000	24.018800
1703.000000	23.930300
1702.000000	23.806800
1701.000000	23.658900
1700.000000	23.519600
1699.000000	23.365100
1698.000000	23.241700
1697.000000	23.143300
1696.000000	23.116600
1695.000000	23.146700
1694.000000	23.222100
1693.000000	23.378100
1692.000000	23.534700
1691.000000	23.709000
1690.000000	23.835100
1689.000000	23.940300
1688.000000	23.975600
1687.000000	24.002400
1686.000000	24.019800
1685.000000	24.096900
1684.000000	24.263400
1683.000000	24.546100
1682.000000	24.983600
1681.000000	25.494800
1680.000000	26.085200
1679.000000	26.684600
1678.000000	27.299800
1677.000000	27.792100
1676.000000	28.250500
1675.000000	28.646000
1674.000000	29.006000
1673.000000	29.317400
1672.000000	29.579100
1671.000000	29.802300
1670.000000	30.024200
1669.000000	30.232200
1668.000000	30.360100
1667.000000	30.472800
1666.000000	30.604500
1665.000000	30.704800
1664.000000	30.783500
1663.000000	30.867200
1662.000000	30.948200
1661.000000	31.021600
1660.000000	31.059700
1659.000000	31.101400
1658.000000	31.130700
1657.000000	31.141200
1656.000000	31.164600
1655.000000	31.155300
1654.000000	31.156800
1653.000000	31.128600
1652.000000	31.146000
1651.000000	31.125000
1650.000000	31.082900
1649.000000	31.033200
1648.000000	30.991400
1647.000000	30.937100
1646.000000	30.878900
1645.000000	30.830200
1644.000000	30.772100
1643.000000	30.718300
1642.000000	30.662400
1641.000000	30.591100
1640.000000	30.526300
1639.000000	30.460600
1638.000000	30.384300
1637.000000	30.310000
1636.000000	30.238900
1635.000000	30.166500
1634.000000	30.078100
1633.000000	29.983500
1632.000000	29.894600
1631.000000	29.826900
1630.000000	29.739500
1629.000000	29.648000
1628.000000	29.562400
1627.000000	29.461700
1626.000000	29.372800
1625.000000	29.280500
1624.000000	29.187700
1623.000000	29.097900
1622.000000	29.017000
1621.000000	28.921900
1620.000000	28.839500
1619.000000	28.750900
1618.000000	28.670500
1617.000000	28.588300
1616.000000	28.514000
