PE UV       SUBTECH     SPECTRUM    ASCII       PEDS        4.00        
   -1
CICIMAUCR0003-2.Sample.ASC
24/05/03
14:40:28.00
24/05/03
14:40:28.00
Vinicio Soto Monge
C. kalinini
250,000000
1
Lambda 1050
1050L1511233
PerkinElmer UV WinLab 6.3.2.0749 / 2.02.05 Lambda 900 UV/VIS/NIR, Aug  7 2015 09:38:08

0
0
3350/servo 860,8/2
0
0
UV/VIS
1
1
1
DoubleDePol,CommonBeamDepol,RBeamAtt,SBeamAtt,60mm sphere, WB InGaAs Detector
0
0
0
0
Program
Program
3350/servo 860,8/2
3350/0,2 860,8/0,2
3350/0,2 860,8/0,2
0
15.00
 
 
 
0
 
860,8
319,2
860,8
Front
100
on
S:100 R:100
0
0
0
0
 
0
 
 
 
0
 
 
0
0
0
0
0
 
 
 
 
0
0


0
0
#HDR
-1
-1
#GR
nm
%R
1.0
0.0
2500,000000
-1,000000
2251
8
99,737200
5,267900
#DATA
2500.000000	8.092000
2499.000000	8.148800
2498.000000	7.963700
2497.000000	8.016100
2496.000000	7.928100
2495.000000	7.944500
2494.000000	7.841900
2493.000000	7.811100
2492.000000	7.832900
2491.000000	7.859500
2490.000000	7.794600
2489.000000	7.761500
2488.000000	7.774300
2487.000000	7.797300
2486.000000	7.664100
2485.000000	7.785400
2484.000000	7.703900
2483.000000	7.703300
2482.000000	7.772900
2481.000000	7.736000
2480.000000	7.687600
2479.000000	7.702500
2478.000000	7.679200
2477.000000	7.714200
2476.000000	7.754800
2475.000000	7.694400
2474.000000	7.740200
2473.000000	7.753400
2472.000000	7.724300
2471.000000	7.719600
2470.000000	7.746000
2469.000000	7.736000
2468.000000	7.770300
2467.000000	7.780000
2466.000000	7.812400
2465.000000	7.789800
2464.000000	7.828700
2463.000000	7.858800
2462.000000	7.873300
2461.000000	7.910800
2460.000000	7.964400
2459.000000	7.996000
2458.000000	8.079900
2457.000000	8.122000
2456.000000	8.168700
2455.000000	8.253500
2454.000000	8.315600
2453.000000	8.389200
2452.000000	8.461700
2451.000000	8.523300
2450.000000	8.596800
2449.000000	8.695000
2448.000000	8.762100
2447.000000	8.850700
2446.000000	8.921700
2445.000000	8.972000
2444.000000	9.064900
2443.000000	9.147400
2442.000000	9.214300
2441.000000	9.287000
2440.000000	9.337300
2439.000000	9.440700
2438.000000	9.468000
2437.000000	9.552200
2436.000000	9.618700
2435.000000	9.698900
2434.000000	9.734300
2433.000000	9.783500
2432.000000	9.846200
2431.000000	9.909300
2430.000000	9.948900
2429.000000	9.987800
2428.000000	10.040700
2427.000000	10.064800
2426.000000	10.088200
2425.000000	10.148700
2424.000000	10.183600
2423.000000	10.227200
2422.000000	10.237100
2421.000000	10.254900
2420.000000	10.274100
2419.000000	10.300800
2418.000000	10.350700
2417.000000	10.369100
2416.000000	10.400500
2415.000000	10.435300
2414.000000	10.457200
2413.000000	10.472800
2412.000000	10.505600
2411.000000	10.529500
2410.000000	10.557700
2409.000000	10.577600
2408.000000	10.602800
2407.000000	10.637000
2406.000000	10.653800
2405.000000	10.680500
2404.000000	10.705000
2403.000000	10.726700
2402.000000	10.761000
2401.000000	10.779500
2400.000000	10.802400
2399.000000	10.848100
2398.000000	10.922400
2397.000000	11.006100
2396.000000	11.067800
2395.000000	11.097700
2394.000000	11.108600
2393.000000	11.126500
2392.000000	11.150800
2391.000000	11.188800
2390.000000	11.240900
2389.000000	11.270900
2388.000000	11.268400
2387.000000	11.261700
2386.000000	11.282200
2385.000000	11.308700
2384.000000	11.303300
2383.000000	11.301600
2382.000000	11.307700
2381.000000	11.294200
2380.000000	11.290500
2379.000000	11.285200
2378.000000	11.263800
2377.000000	11.271100
2376.000000	11.279800
2375.000000	11.247600
2374.000000	11.228600
2373.000000	11.211900
2372.000000	11.166700
2371.000000	11.151500
2370.000000	11.130000
2369.000000	11.072300
2368.000000	11.022000
2367.000000	10.971800
2366.000000	10.914000
2365.000000	10.853200
2364.000000	10.805100
2363.000000	10.760400
2362.000000	10.687200
2361.000000	10.622200
2360.000000	10.587600
2359.000000	10.531900
2358.000000	10.467700
2357.000000	10.413300
2356.000000	10.383600
2355.000000	10.372000
2354.000000	10.363600
2353.000000	10.360600
2352.000000	10.369500
2351.000000	10.381600
2350.000000	10.425200
2349.000000	10.480200
2348.000000	10.531400
2347.000000	10.575300
2346.000000	10.614800
2345.000000	10.661600
2344.000000	10.723100
2343.000000	10.794500
2342.000000	10.827200
2341.000000	10.844300
2340.000000	10.881200
2339.000000	10.918400
2338.000000	10.934700
2337.000000	10.946000
2336.000000	10.952800
2335.000000	10.937700
2334.000000	10.909500
2333.000000	10.878000
2332.000000	10.846900
2331.000000	10.811400
2330.000000	10.758600
2329.000000	10.701100
2328.000000	10.639100
2327.000000	10.563000
2326.000000	10.504400
2325.000000	10.412400
2324.000000	10.303900
2323.000000	10.217500
2322.000000	10.122500
2321.000000	10.005200
2320.000000	9.890900
2319.000000	9.772100
2318.000000	9.629400
2317.000000	9.512600
2316.000000	9.419400
2315.000000	9.310600
2314.000000	9.186200
2313.000000	9.066000
2312.000000	8.968700
2311.000000	8.889900
2310.000000	8.836400
2309.000000	8.812900
2308.000000	8.775700
2307.000000	8.753200
2306.000000	8.757000
2305.000000	8.782200
2304.000000	8.820700
2303.000000	8.882400
2302.000000	8.969200
2301.000000	9.042400
2300.000000	9.138500
2299.000000	9.236700
2298.000000	9.337100
2297.000000	9.431000
2296.000000	9.498000
2295.000000	9.605600
2294.000000	9.681000
2293.000000	9.754700
2292.000000	9.791800
2291.000000	9.822300
2290.000000	9.849300
2289.000000	9.863700
2288.000000	9.872700
2287.000000	9.841100
2286.000000	9.805900
2285.000000	9.790900
2284.000000	9.771500
2283.000000	9.706500
2282.000000	9.679800
2281.000000	9.615700
2280.000000	9.558000
2279.000000	9.523100
2278.000000	9.471200
2277.000000	9.432800
2276.000000	9.386300
2275.000000	9.353700
2274.000000	9.372200
2273.000000	9.353300
2272.000000	9.367800
2271.000000	9.385800
2270.000000	9.438400
2269.000000	9.493000
2268.000000	9.580300
2267.000000	9.672900
2266.000000	9.790600
2265.000000	9.969900
2264.000000	10.140300
2263.000000	10.314300
2262.000000	10.521500
2261.000000	10.781200
2260.000000	11.026400
2259.000000	11.278400
2258.000000	11.576200
2257.000000	11.847400
2256.000000	12.126400
2255.000000	12.398200
2254.000000	12.680600
2253.000000	12.947400
2252.000000	13.228100
2251.000000	13.472800
2250.000000	13.684900
2249.000000	13.911700
2248.000000	14.114500
2247.000000	14.353500
2246.000000	14.524800
2245.000000	14.685600
2244.000000	14.870800
2243.000000	15.016300
2242.000000	15.159700
2241.000000	15.292200
2240.000000	15.378700
2239.000000	15.521100
2238.000000	15.620200
2237.000000	15.713100
2236.000000	15.779900
2235.000000	15.860600
2234.000000	15.934200
2233.000000	16.007800
2232.000000	16.060300
2231.000000	16.089500
2230.000000	16.111400
2229.000000	16.132300
2228.000000	16.162300
2227.000000	16.161500
2226.000000	16.193000
2225.000000	16.186200
2224.000000	16.185600
2223.000000	16.160500
2222.000000	16.163000
2221.000000	16.135600
2220.000000	16.099600
2219.000000	16.059000
2218.000000	16.042900
2217.000000	16.014700
2216.000000	15.973900
2215.000000	15.943900
2214.000000	15.914500
2213.000000	15.888400
2212.000000	15.893800
2211.000000	15.856400
2210.000000	15.849400
2209.000000	15.810500
2208.000000	15.815200
2207.000000	15.787900
2206.000000	15.779900
2205.000000	15.762800
2204.000000	15.740300
2203.000000	15.722200
2202.000000	15.730300
2201.000000	15.701900
2200.000000	15.704800
2199.000000	15.710100
2198.000000	15.716800
2197.000000	15.700900
2196.000000	15.696100
2195.000000	15.696700
2194.000000	15.682100
2193.000000	15.680600
2192.000000	15.672700
2191.000000	15.669500
2190.000000	15.651700
2189.000000	15.632200
2188.000000	15.636500
2187.000000	15.624700
2186.000000	15.614800
2185.000000	15.616600
2184.000000	15.601200
2183.000000	15.587400
2182.000000	15.567900
2181.000000	15.557700
2180.000000	15.558200
2179.000000	15.547000
2178.000000	15.541400
2177.000000	15.530800
2176.000000	15.533500
2175.000000	15.544400
2174.000000	15.528700
2173.000000	15.543200
2172.000000	15.546200
2171.000000	15.549800
2170.000000	15.548300
2169.000000	15.575500
2168.000000	15.597000
2167.000000	15.616500
2166.000000	15.632700
2165.000000	15.649200
2164.000000	15.682700
2163.000000	15.694400
2162.000000	15.708900
2161.000000	15.749300
2160.000000	15.792700
2159.000000	15.854600
2158.000000	15.886400
2157.000000	15.901300
2156.000000	15.940300
2155.000000	16.007700
2154.000000	16.045800
2153.000000	16.103300
2152.000000	16.151500
2151.000000	16.207600
2150.000000	16.266700
2149.000000	16.317300
2148.000000	16.347200
2147.000000	16.383900
2146.000000	16.439500
2145.000000	16.496600
2144.000000	16.547200
2143.000000	16.578200
2142.000000	16.617500
2141.000000	16.654500
2140.000000	16.703600
2139.000000	16.748800
2138.000000	16.779600
2137.000000	16.825500
2136.000000	16.840200
2135.000000	16.859700
2134.000000	16.893700
2133.000000	16.926600
2132.000000	16.931300
2131.000000	16.951300
2130.000000	16.988900
2129.000000	17.005600
2128.000000	17.002900
2127.000000	17.005500
2126.000000	17.013400
2125.000000	17.020000
2124.000000	17.016300
2123.000000	17.029100
2122.000000	17.020000
2121.000000	17.003700
2120.000000	16.988200
2119.000000	16.981100
2118.000000	16.982900
2117.000000	16.949000
2116.000000	16.930400
2115.000000	16.902000
2114.000000	16.866500
2113.000000	16.859600
2112.000000	16.847100
2111.000000	16.815400
2110.000000	16.778500
2109.000000	16.746200
2108.000000	16.722600
2107.000000	16.703900
2106.000000	16.680300
2105.000000	16.649600
2104.000000	16.617400
2103.000000	16.587400
2102.000000	16.559900
2101.000000	16.546000
2100.000000	16.521200
2099.000000	16.491200
2098.000000	16.465000
2097.000000	16.444300
2096.000000	16.439700
2095.000000	16.429500
2094.000000	16.421400
2093.000000	16.385300
2092.000000	16.352900
2091.000000	16.357200
2090.000000	16.356800
2089.000000	16.348100
2088.000000	16.332100
2087.000000	16.315400
2086.000000	16.289400
2085.000000	16.274400
2084.000000	16.263800
2083.000000	16.244100
2082.000000	16.217100
2081.000000	16.189300
2080.000000	16.157600
2079.000000	16.151800
2078.000000	16.136500
2077.000000	16.099100
2076.000000	16.058500
2075.000000	16.020400
2074.000000	16.002700
2073.000000	15.970700
2072.000000	15.929800
2071.000000	15.898500
2070.000000	15.864500
2069.000000	15.833400
2068.000000	15.800000
2067.000000	15.751100
2066.000000	15.709700
2065.000000	15.685900
2064.000000	15.674800
2063.000000	15.653000
2062.000000	15.621500
2061.000000	15.604600
2060.000000	15.597900
2059.000000	15.602700
2058.000000	15.611500
2057.000000	15.633000
2056.000000	15.678900
2055.000000	15.733900
2054.000000	15.781100
2053.000000	15.839300
2052.000000	15.923400
2051.000000	16.026400
2050.000000	16.145700
2049.000000	16.262300
2048.000000	16.392600
2047.000000	16.535700
2046.000000	16.704800
2045.000000	16.881500
2044.000000	17.020300
2043.000000	17.169300
2042.000000	17.321000
2041.000000	17.491600
2040.000000	17.652000
2039.000000	17.822200
2038.000000	17.948200
2037.000000	18.095700
2036.000000	18.257900
2035.000000	18.384700
2034.000000	18.508500
2033.000000	18.641600
2032.000000	18.772200
2031.000000	18.885800
2030.000000	19.004600
2029.000000	19.090000
2028.000000	19.197700
2027.000000	19.300100
2026.000000	19.396200
2025.000000	19.477700
2024.000000	19.569700
2023.000000	19.660800
2022.000000	19.735700
2021.000000	19.809300
2020.000000	19.889800
2019.000000	19.959800
2018.000000	20.022100
2017.000000	20.078300
2016.000000	20.142800
2015.000000	20.200900
2014.000000	20.234200
2013.000000	20.290500
2012.000000	20.325800
2011.000000	20.361200
2010.000000	20.397100
2009.000000	20.408800
2008.000000	20.407700
2007.000000	20.454700
2006.000000	20.445900
2005.000000	20.437800
2004.000000	20.464600
2003.000000	20.430100
2002.000000	20.427700
2001.000000	20.407500
2000.000000	20.391400
1999.000000	20.356000
1998.000000	20.312100
1997.000000	20.271300
1996.000000	20.247000
1995.000000	20.190000
1994.000000	20.149900
1993.000000	20.103600
1992.000000	20.038100
1991.000000	19.978700
1990.000000	19.920100
1989.000000	19.842400
1988.000000	19.781100
1987.000000	19.694200
1986.000000	19.651000
1985.000000	19.545700
1984.000000	19.457700
1983.000000	19.419800
1982.000000	19.329900
1981.000000	19.252900
1980.000000	19.166800
1979.000000	19.070700
1978.000000	19.004200
1977.000000	18.901500
1976.000000	18.839000
1975.000000	18.757600
1974.000000	18.679400
1973.000000	18.589600
1972.000000	18.525100
1971.000000	18.431200
1970.000000	18.363100
1969.000000	18.254600
1968.000000	18.208100
1967.000000	18.112800
1966.000000	18.047500
1965.000000	17.973000
1964.000000	17.883800
1963.000000	17.823800
1962.000000	17.744700
1961.000000	17.666700
1960.000000	17.570800
1959.000000	17.505900
1958.000000	17.450600
1957.000000	17.399900
1956.000000	17.283400
1955.000000	17.206300
1954.000000	17.145500
1953.000000	17.068300
1952.000000	16.993200
1951.000000	16.927900
1950.000000	16.863700
1949.000000	16.796400
1948.000000	16.754700
1947.000000	16.682800
1946.000000	16.644500
1945.000000	16.596700
1944.000000	16.554400
1943.000000	16.524600
1942.000000	16.506200
1941.000000	16.492100
1940.000000	16.475100
1939.000000	16.478100
1938.000000	16.473200
1937.000000	16.494700
1936.000000	16.517800
1935.000000	16.559900
1934.000000	16.592400
1933.000000	16.660800
1932.000000	16.704000
1931.000000	16.781200
1930.000000	16.870800
1929.000000	16.968300
1928.000000	17.079300
1927.000000	17.210500
1926.000000	17.317000
1925.000000	17.438600
1924.000000	17.575800
1923.000000	17.727100
1922.000000	17.901800
1921.000000	18.089800
1920.000000	18.284700
1919.000000	18.471200
1918.000000	18.670400
1917.000000	18.883400
1916.000000	19.087900
1915.000000	19.293700
1914.000000	19.570200
1913.000000	19.844700
1912.000000	20.096900
1911.000000	20.335300
1910.000000	20.576700
1909.000000	20.812600
1908.000000	21.055400
1907.000000	21.375300
1906.000000	21.692300
1905.000000	22.006300
1904.000000	22.318500
1903.000000	22.625600
1902.000000	22.921500
1901.000000	23.253700
1900.000000	23.609900
1899.000000	23.976200
1898.000000	24.302700
1897.000000	24.618800
1896.000000	24.896600
1895.000000	25.190300
1894.000000	25.481500
1893.000000	25.813000
1892.000000	26.183800
1891.000000	26.498500
1890.000000	26.832700
1889.000000	27.184000
1888.000000	27.503900
1887.000000	27.842300
1886.000000	28.237500
1885.000000	28.680000
1884.000000	29.154900
1883.000000	29.618800
1882.000000	30.117700
1881.000000	30.613900
1880.000000	31.049200
1879.000000	31.497900
1878.000000	31.936200
1877.000000	32.319900
1876.000000	32.692200
1875.000000	33.053100
1874.000000	33.369100
1873.000000	33.681100
1872.000000	33.949400
1871.000000	34.179000
1870.000000	34.381500
1869.000000	34.584000
1868.000000	34.705300
1867.000000	34.800200
1866.000000	34.872100
1865.000000	34.926400
1864.000000	34.977100
1863.000000	35.044600
1862.000000	35.113900
1861.000000	35.146500
1860.000000	35.178600
1859.000000	35.188700
1858.000000	35.187400
1857.000000	35.178700
1856.000000	35.148700
1855.000000	35.121600
1854.000000	35.084500
1853.000000	34.993300
1852.000000	34.940200
1851.000000	34.899300
1850.000000	34.848100
1849.000000	34.813200
1848.000000	34.769400
1847.000000	34.667400
1846.000000	34.569300
1845.000000	34.505300
1844.000000	34.452400
1843.000000	34.433400
1842.000000	34.432000
1841.000000	34.402000
1840.000000	34.345400
1839.000000	34.293700
1838.000000	34.249600
1837.000000	34.193600
1836.000000	34.114300
1835.000000	34.016200
1834.000000	33.914000
1833.000000	33.830000
1832.000000	33.762000
1831.000000	33.696900
1830.000000	33.616600
1829.000000	33.522500
1828.000000	33.430600
1827.000000	33.359900
1826.000000	33.281700
1825.000000	33.212100
1824.000000	33.173400
1823.000000	33.158400
1822.000000	33.145700
1821.000000	33.131800
1820.000000	33.096500
1819.000000	33.053000
1818.000000	33.025400
1817.000000	33.018500
1816.000000	33.026200
1815.000000	33.004300
1814.000000	32.994700
1813.000000	32.977800
1812.000000	32.948100
1811.000000	32.908100
1810.000000	32.865200
1809.000000	32.814600
1808.000000	32.775900
1807.000000	32.732700
1806.000000	32.679300
1805.000000	32.615900
1804.000000	32.567600
1803.000000	32.518200
1802.000000	32.459100
1801.000000	32.399800
1800.000000	32.343400
1799.000000	32.273500
1798.000000	32.210300
1797.000000	32.164700
1796.000000	32.114800
1795.000000	32.043000
1794.000000	31.998900
1793.000000	31.934800
1792.000000	31.871400
1791.000000	31.800200
1790.000000	31.744300
1789.000000	31.664100
1788.000000	31.597100
1787.000000	31.523200
1786.000000	31.448300
1785.000000	31.350400
1784.000000	31.265400
1783.000000	31.167100
1782.000000	31.076200
1781.000000	30.992300
1780.000000	30.881200
1779.000000	30.790900
1778.000000	30.677800
1777.000000	30.544800
1776.000000	30.414400
1775.000000	30.287400
1774.000000	30.143000
1773.000000	29.962200
1772.000000	29.821500
1771.000000	29.671400
1770.000000	29.527400
1769.000000	29.378400
1768.000000	29.229900
1767.000000	29.128800
1766.000000	29.035000
1765.000000	28.945900
1764.000000	28.903700
1763.000000	28.883600
1762.000000	28.909400
1761.000000	28.957300
1760.000000	29.022100
1759.000000	29.088700
1758.000000	29.151000
1757.000000	29.203100
1756.000000	29.250900
1755.000000	29.269000
1754.000000	29.279800
1753.000000	29.261200
1752.000000	29.239700
1751.000000	29.196100
1750.000000	29.139000
1749.000000	29.040300
1748.000000	28.942400
1747.000000	28.822600
1746.000000	28.665800
1745.000000	28.503600
1744.000000	28.317500
1743.000000	28.091600
1742.000000	27.855100
1741.000000	27.584000
1740.000000	27.319200
1739.000000	27.080800
1738.000000	26.846100
1737.000000	26.670300
1736.000000	26.520500
1735.000000	26.435700
1734.000000	26.409600
1733.000000	26.437200
1732.000000	26.497500
1731.000000	26.579900
1730.000000	26.691900
1729.000000	26.818900
1728.000000	26.943000
1727.000000	27.039800
1726.000000	27.144700
1725.000000	27.217900
1724.000000	27.264900
1723.000000	27.308000
1722.000000	27.343000
1721.000000	27.357600
1720.000000	27.378500
1719.000000	27.440300
1718.000000	27.493200
1717.000000	27.558200
1716.000000	27.658800
1715.000000	27.755600
1714.000000	27.815600
1713.000000	27.913500
1712.000000	27.966700
1711.000000	27.998300
1710.000000	28.038600
1709.000000	28.003000
1708.000000	28.005000
1707.000000	27.969300
1706.000000	27.949100
1705.000000	27.906100
1704.000000	27.840000
1703.000000	27.731800
1702.000000	27.610800
1701.000000	27.437100
1700.000000	27.271900
1699.000000	27.102300
1698.000000	26.974800
1697.000000	26.848800
1696.000000	26.814000
1695.000000	26.828800
1694.000000	26.887300
1693.000000	27.032200
1692.000000	27.185500
1691.000000	27.362500
1690.000000	27.510500
1689.000000	27.630100
1688.000000	27.648700
1687.000000	27.692500
1686.000000	27.728700
1685.000000	27.808200
1684.000000	27.935200
1683.000000	28.232100
1682.000000	28.645400
1681.000000	29.183100
1680.000000	29.781300
1679.000000	30.371000
1678.000000	30.964100
1677.000000	31.482800
1676.000000	31.983200
1675.000000	32.393100
1674.000000	32.748900
1673.000000	33.050800
1672.000000	33.308900
1671.000000	33.586600
1670.000000	33.763900
1669.000000	33.972400
1668.000000	34.106600
1667.000000	34.255800
1666.000000	34.373400
1665.000000	34.459300
1664.000000	34.568100
1663.000000	34.656100
1662.000000	34.703300
1661.000000	34.777900
1660.000000	34.825800
1659.000000	34.855100
1658.000000	34.885100
1657.000000	34.903900
1656.000000	34.919600
1655.000000	34.908900
1654.000000	34.927100
1653.000000	34.894000
1652.000000	34.865400
1651.000000	34.851000
1650.000000	34.812500
1649.000000	34.759300
1648.000000	34.723000
1647.000000	34.679800
1646.000000	34.627900
1645.000000	34.576200
1644.000000	34.512400
1643.000000	34.453400
1642.000000	34.382500
1641.000000	34.317100
1640.000000	34.263000
1639.000000	34.202800
1638.000000	34.122300
1637.000000	34.064300
1636.000000	33.973500
1635.000000	33.910000
1634.000000	33.831800
1633.000000	33.745800
1632.000000	33.644500
1631.000000	33.566100
1630.000000	33.484000
1629.000000	33.394600
1628.000000	33.304200
1627.000000	33.225300
1626.000000	33.137600
1625.000000	33.045700
1624.000000	32.956200
1623.000000	32.860600
1622.000000	32.786900
1621.000000	32.713500
1620.000000	32.613300
1619.000000	32.538800
1618.000000	32.459300
