PE UV       SUBTECH     SPECTRUM    ASCII       PEDS        4.00        
   -1
CICIMAUCR0002-1.Sample.ASC
24/05/03
09:51:02.00
24/05/03
09:51:02.00
Vinicio Soto Monge
C. kalinini
250,000000
1
Lambda 1050
1050L1511233
PerkinElmer UV WinLab 6.3.2.0749 / 2.02.05 Lambda 900 UV/VIS/NIR, Aug  7 2015 09:38:08

0
0
3350/servo 860,8/2
0
0
UV/VIS
1
1
1
DoubleDePol,CommonBeamDepol,RBeamAtt,SBeamAtt,60mm sphere, WB InGaAs Detector
0
0
0
0
Program
Program
3350/servo 860,8/2
3350/0,2 860,8/0,2
3350/0,2 860,8/0,2
0
15.00
 
 
 
0
 
860,8
319,2
860,8
Front
100
on
S:100 R:100
0
0
0
0
 
0
 
 
 
0
 
 
0
0
0
0
0
 
 
 
 
0
0


0
0
#HDR
-1
-1
#GR
nm
%R
1.0
0.0
2500,000000
-1,000000
2251
8
99,963300
5,163900
#DATA
2500.000000	5.315300
2499.000000	5.371300
2498.000000	5.377200
2497.000000	5.356300
2496.000000	5.361200
2495.000000	5.353900
2494.000000	5.365000
2493.000000	5.336300
2492.000000	5.255600
2491.000000	5.290000
2490.000000	5.318500
2489.000000	5.277500
2488.000000	5.296500
2487.000000	5.298100
2486.000000	5.232400
2485.000000	5.230900
2484.000000	5.309500
2483.000000	5.180600
2482.000000	5.186100
2481.000000	5.221600
2480.000000	5.182000
2479.000000	5.201100
2478.000000	5.225400
2477.000000	5.279100
2476.000000	5.235300
2475.000000	5.230200
2474.000000	5.190800
2473.000000	5.220600
2472.000000	5.246200
2471.000000	5.190700
2470.000000	5.185200
2469.000000	5.186700
2468.000000	5.163900
2467.000000	5.205600
2466.000000	5.188100
2465.000000	5.182800
2464.000000	5.185200
2463.000000	5.199800
2462.000000	5.191100
2461.000000	5.211800
2460.000000	5.217300
2459.000000	5.237900
2458.000000	5.280900
2457.000000	5.240300
2456.000000	5.283900
2455.000000	5.287300
2454.000000	5.289200
2453.000000	5.315500
2452.000000	5.314200
2451.000000	5.317900
2450.000000	5.323700
2449.000000	5.330800
2448.000000	5.352900
2447.000000	5.368300
2446.000000	5.393400
2445.000000	5.413900
2444.000000	5.406600
2443.000000	5.442700
2442.000000	5.427000
2441.000000	5.452200
2440.000000	5.467500
2439.000000	5.501800
2438.000000	5.512700
2437.000000	5.523800
2436.000000	5.519300
2435.000000	5.546600
2434.000000	5.539000
2433.000000	5.546600
2432.000000	5.562500
2431.000000	5.575500
2430.000000	5.594900
2429.000000	5.597000
2428.000000	5.621000
2427.000000	5.612000
2426.000000	5.607900
2425.000000	5.631200
2424.000000	5.644700
2423.000000	5.645100
2422.000000	5.647600
2421.000000	5.651900
2420.000000	5.676000
2419.000000	5.673500
2418.000000	5.656700
2417.000000	5.683200
2416.000000	5.704800
2415.000000	5.687500
2414.000000	5.686000
2413.000000	5.705500
2412.000000	5.703900
2411.000000	5.714900
2410.000000	5.712900
2409.000000	5.725300
2408.000000	5.722200
2407.000000	5.721500
2406.000000	5.735700
2405.000000	5.742500
2404.000000	5.730700
2403.000000	5.754700
2402.000000	5.770600
2401.000000	5.768200
2400.000000	5.779500
2399.000000	5.801400
2398.000000	5.824600
2397.000000	5.821400
2396.000000	5.811300
2395.000000	5.811700
2394.000000	5.823200
2393.000000	5.835000
2392.000000	5.843300
2391.000000	5.846000
2390.000000	5.842900
2389.000000	5.852900
2388.000000	5.854500
2387.000000	5.854500
2386.000000	5.851500
2385.000000	5.843100
2384.000000	5.832600
2383.000000	5.847300
2382.000000	5.848900
2381.000000	5.846700
2380.000000	5.846000
2379.000000	5.825300
2378.000000	5.816700
2377.000000	5.817000
2376.000000	5.810300
2375.000000	5.797300
2374.000000	5.795300
2373.000000	5.797100
2372.000000	5.786200
2371.000000	5.776800
2370.000000	5.759200
2369.000000	5.743300
2368.000000	5.738100
2367.000000	5.720500
2366.000000	5.697800
2365.000000	5.670600
2364.000000	5.648100
2363.000000	5.626900
2362.000000	5.617000
2361.000000	5.600700
2360.000000	5.582900
2359.000000	5.570700
2358.000000	5.555000
2357.000000	5.546900
2356.000000	5.531000
2355.000000	5.523800
2354.000000	5.526500
2353.000000	5.524500
2352.000000	5.538900
2351.000000	5.538900
2350.000000	5.544100
2349.000000	5.549100
2348.000000	5.551900
2347.000000	5.556900
2346.000000	5.574500
2345.000000	5.598400
2344.000000	5.607400
2343.000000	5.608700
2342.000000	5.629300
2341.000000	5.652800
2340.000000	5.660600
2339.000000	5.649700
2338.000000	5.655100
2337.000000	5.672100
2336.000000	5.674400
2335.000000	5.671900
2334.000000	5.659400
2333.000000	5.649800
2332.000000	5.644200
2331.000000	5.633500
2330.000000	5.631800
2329.000000	5.614200
2328.000000	5.595300
2327.000000	5.581900
2326.000000	5.555600
2325.000000	5.532300
2324.000000	5.516000
2323.000000	5.489000
2322.000000	5.462700
2321.000000	5.444800
2320.000000	5.423700
2319.000000	5.389700
2318.000000	5.351800
2317.000000	5.326900
2316.000000	5.309800
2315.000000	5.276200
2314.000000	5.254100
2313.000000	5.254700
2312.000000	5.231800
2311.000000	5.216000
2310.000000	5.209100
2309.000000	5.218500
2308.000000	5.208800
2307.000000	5.199000
2306.000000	5.207800
2305.000000	5.221400
2304.000000	5.221100
2303.000000	5.246600
2302.000000	5.280000
2301.000000	5.278800
2300.000000	5.309100
2299.000000	5.325300
2298.000000	5.346300
2297.000000	5.369100
2296.000000	5.404300
2295.000000	5.411700
2294.000000	5.431200
2293.000000	5.441600
2292.000000	5.464100
2291.000000	5.467200
2290.000000	5.500800
2289.000000	5.484800
2288.000000	5.501500
2287.000000	5.506700
2286.000000	5.515400
2285.000000	5.512200
2284.000000	5.518000
2283.000000	5.518300
2282.000000	5.535600
2281.000000	5.515000
2280.000000	5.537700
2279.000000	5.532700
2278.000000	5.536600
2277.000000	5.549500
2276.000000	5.557700
2275.000000	5.544700
2274.000000	5.561100
2273.000000	5.575100
2272.000000	5.560500
2271.000000	5.591700
2270.000000	5.640700
2269.000000	5.637200
2268.000000	5.669700
2267.000000	5.684600
2266.000000	5.716900
2265.000000	5.755800
2264.000000	5.807500
2263.000000	5.859000
2262.000000	5.872600
2261.000000	5.926300
2260.000000	6.009900
2259.000000	6.062700
2258.000000	6.127900
2257.000000	6.195600
2256.000000	6.258600
2255.000000	6.331500
2254.000000	6.401300
2253.000000	6.481700
2252.000000	6.557000
2251.000000	6.623200
2250.000000	6.674000
2249.000000	6.747200
2248.000000	6.819300
2247.000000	6.881100
2246.000000	6.930500
2245.000000	6.963800
2244.000000	7.045200
2243.000000	7.083800
2242.000000	7.116100
2241.000000	7.152300
2240.000000	7.209900
2239.000000	7.246600
2238.000000	7.299300
2237.000000	7.315800
2236.000000	7.375400
2235.000000	7.389300
2234.000000	7.424300
2233.000000	7.444100
2232.000000	7.467100
2231.000000	7.512000
2230.000000	7.518100
2229.000000	7.507700
2228.000000	7.557700
2227.000000	7.570200
2226.000000	7.574400
2225.000000	7.564100
2224.000000	7.573900
2223.000000	7.566300
2222.000000	7.574600
2221.000000	7.587600
2220.000000	7.583800
2219.000000	7.600200
2218.000000	7.586200
2217.000000	7.572600
2216.000000	7.579300
2215.000000	7.580600
2214.000000	7.575000
2213.000000	7.561600
2212.000000	7.570400
2211.000000	7.563700
2210.000000	7.548600
2209.000000	7.569100
2208.000000	7.574800
2207.000000	7.543800
2206.000000	7.539600
2205.000000	7.560300
2204.000000	7.545000
2203.000000	7.564100
2202.000000	7.546000
2201.000000	7.537400
2200.000000	7.539500
2199.000000	7.550000
2198.000000	7.537700
2197.000000	7.529100
2196.000000	7.534100
2195.000000	7.522500
2194.000000	7.520000
2193.000000	7.531500
2192.000000	7.511900
2191.000000	7.504700
2190.000000	7.502100
2189.000000	7.503200
2188.000000	7.497800
2187.000000	7.491100
2186.000000	7.477200
2185.000000	7.484700
2184.000000	7.503300
2183.000000	7.491300
2182.000000	7.452500
2181.000000	7.460300
2180.000000	7.466300
2179.000000	7.459300
2178.000000	7.467100
2177.000000	7.452000
2176.000000	7.452900
2175.000000	7.445200
2174.000000	7.456000
2173.000000	7.466600
2172.000000	7.470500
2171.000000	7.485300
2170.000000	7.487300
2169.000000	7.499400
2168.000000	7.516600
2167.000000	7.512000
2166.000000	7.519600
2165.000000	7.526700
2164.000000	7.537700
2163.000000	7.542400
2162.000000	7.563600
2161.000000	7.580600
2160.000000	7.579900
2159.000000	7.587400
2158.000000	7.599000
2157.000000	7.603400
2156.000000	7.622400
2155.000000	7.644200
2154.000000	7.653000
2153.000000	7.653200
2152.000000	7.668000
2151.000000	7.692600
2150.000000	7.696100
2149.000000	7.705400
2148.000000	7.737600
2147.000000	7.734000
2146.000000	7.750300
2145.000000	7.741000
2144.000000	7.742300
2143.000000	7.759900
2142.000000	7.777900
2141.000000	7.780700
2140.000000	7.779100
2139.000000	7.801700
2138.000000	7.806700
2137.000000	7.808200
2136.000000	7.814500
2135.000000	7.817900
2134.000000	7.811700
2133.000000	7.822500
2132.000000	7.829300
2131.000000	7.840400
2130.000000	7.814800
2129.000000	7.807300
2128.000000	7.816600
2127.000000	7.818400
2126.000000	7.806900
2125.000000	7.801200
2124.000000	7.801000
2123.000000	7.812200
2122.000000	7.800700
2121.000000	7.777200
2120.000000	7.767100
2119.000000	7.774300
2118.000000	7.763200
2117.000000	7.755600
2116.000000	7.745400
2115.000000	7.728600
2114.000000	7.725000
2113.000000	7.724100
2112.000000	7.715700
2111.000000	7.705600
2110.000000	7.690300
2109.000000	7.682900
2108.000000	7.673700
2107.000000	7.661800
2106.000000	7.649700
2105.000000	7.642300
2104.000000	7.644000
2103.000000	7.635500
2102.000000	7.625100
2101.000000	7.615300
2100.000000	7.591600
2099.000000	7.586200
2098.000000	7.594000
2097.000000	7.588000
2096.000000	7.582300
2095.000000	7.580000
2094.000000	7.580700
2093.000000	7.565700
2092.000000	7.560000
2091.000000	7.565300
2090.000000	7.550400
2089.000000	7.542100
2088.000000	7.547200
2087.000000	7.549400
2086.000000	7.548200
2085.000000	7.540900
2084.000000	7.544600
2083.000000	7.547100
2082.000000	7.537200
2081.000000	7.536000
2080.000000	7.533100
2079.000000	7.524000
2078.000000	7.516600
2077.000000	7.496500
2076.000000	7.491800
2075.000000	7.496800
2074.000000	7.495100
2073.000000	7.489900
2072.000000	7.471400
2071.000000	7.446900
2070.000000	7.439900
2069.000000	7.434400
2068.000000	7.427300
2067.000000	7.432700
2066.000000	7.416500
2065.000000	7.383100
2064.000000	7.365800
2063.000000	7.359900
2062.000000	7.354300
2061.000000	7.366600
2060.000000	7.346400
2059.000000	7.324500
2058.000000	7.314400
2057.000000	7.313900
2056.000000	7.321700
2055.000000	7.330900
2054.000000	7.345100
2053.000000	7.363100
2052.000000	7.371700
2051.000000	7.402600
2050.000000	7.435400
2049.000000	7.478200
2048.000000	7.523600
2047.000000	7.564200
2046.000000	7.621900
2045.000000	7.687500
2044.000000	7.744300
2043.000000	7.795800
2042.000000	7.869100
2041.000000	7.942000
2040.000000	8.021000
2039.000000	8.097300
2038.000000	8.157800
2037.000000	8.213100
2036.000000	8.273300
2035.000000	8.332500
2034.000000	8.404400
2033.000000	8.477400
2032.000000	8.518300
2031.000000	8.568100
2030.000000	8.637300
2029.000000	8.687500
2028.000000	8.721900
2027.000000	8.754500
2026.000000	8.810800
2025.000000	8.861000
2024.000000	8.912100
2023.000000	8.945300
2022.000000	8.998600
2021.000000	9.035000
2020.000000	9.083800
2019.000000	9.104100
2018.000000	9.146700
2017.000000	9.170500
2016.000000	9.200900
2015.000000	9.260000
2014.000000	9.285100
2013.000000	9.289700
2012.000000	9.335400
2011.000000	9.360500
2010.000000	9.370400
2009.000000	9.399600
2008.000000	9.427200
2007.000000	9.438500
2006.000000	9.451300
2005.000000	9.468300
2004.000000	9.477200
2003.000000	9.465600
2002.000000	9.479700
2001.000000	9.477300
2000.000000	9.470700
1999.000000	9.462300
1998.000000	9.481900
1997.000000	9.459700
1996.000000	9.439200
1995.000000	9.416100
1994.000000	9.437700
1993.000000	9.389500
1992.000000	9.377800
1991.000000	9.347400
1990.000000	9.332200
1989.000000	9.306200
1988.000000	9.279100
1987.000000	9.239900
1986.000000	9.239700
1985.000000	9.181600
1984.000000	9.149500
1983.000000	9.134000
1982.000000	9.077600
1981.000000	9.043000
1980.000000	9.016500
1979.000000	8.978900
1978.000000	8.952800
1977.000000	8.934300
1976.000000	8.872900
1975.000000	8.843100
1974.000000	8.822700
1973.000000	8.771600
1972.000000	8.740200
1971.000000	8.712700
1970.000000	8.693400
1969.000000	8.645600
1968.000000	8.611900
1967.000000	8.611000
1966.000000	8.564600
1965.000000	8.538400
1964.000000	8.496600
1963.000000	8.478500
1962.000000	8.438200
1961.000000	8.413000
1960.000000	8.390700
1959.000000	8.351500
1958.000000	8.310400
1957.000000	8.296300
1956.000000	8.263400
1955.000000	8.230100
1954.000000	8.224400
1953.000000	8.186600
1952.000000	8.150900
1951.000000	8.134100
1950.000000	8.108300
1949.000000	8.086700
1948.000000	8.071300
1947.000000	8.046200
1946.000000	8.021600
1945.000000	8.017100
1944.000000	8.017400
1943.000000	8.016000
1942.000000	8.015200
1941.000000	8.004500
1940.000000	8.034400
1939.000000	8.037700
1938.000000	8.049300
1937.000000	8.039800
1936.000000	8.044000
1935.000000	8.072300
1934.000000	8.093900
1933.000000	8.103600
1932.000000	8.150200
1931.000000	8.170000
1930.000000	8.220200
1929.000000	8.262400
1928.000000	8.317400
1927.000000	8.366500
1926.000000	8.401800
1925.000000	8.450900
1924.000000	8.503400
1923.000000	8.593600
1922.000000	8.683600
1921.000000	8.783900
1920.000000	8.870000
1919.000000	8.915900
1918.000000	8.959600
1917.000000	9.049600
1916.000000	9.124700
1915.000000	9.235200
1914.000000	9.354500
1913.000000	9.500000
1912.000000	9.590500
1911.000000	9.663000
1910.000000	9.740100
1909.000000	9.837000
1908.000000	9.958300
1907.000000	10.104500
1906.000000	10.268900
1905.000000	10.406400
1904.000000	10.513900
1903.000000	10.640400
1902.000000	10.755900
1901.000000	10.920400
1900.000000	11.077300
1899.000000	11.214500
1898.000000	11.335700
1897.000000	11.454600
1896.000000	11.545000
1895.000000	11.659900
1894.000000	11.781200
1893.000000	11.946400
1892.000000	12.118500
1891.000000	12.278100
1890.000000	12.418700
1889.000000	12.578800
1888.000000	12.740900
1887.000000	12.919200
1886.000000	13.133900
1885.000000	13.408900
1884.000000	13.696600
1883.000000	13.983100
1882.000000	14.270200
1881.000000	14.551700
1880.000000	14.800100
1879.000000	15.092500
1878.000000	15.372700
1877.000000	15.600100
1876.000000	15.840400
1875.000000	16.055400
1874.000000	16.270900
1873.000000	16.448600
1872.000000	16.599000
1871.000000	16.741400
1870.000000	16.859800
1869.000000	16.947800
1868.000000	16.997000
1867.000000	17.016900
1866.000000	17.045200
1865.000000	17.046300
1864.000000	17.052200
1863.000000	17.067100
1862.000000	17.076600
1861.000000	17.059700
1860.000000	17.038000
1859.000000	17.016000
1858.000000	16.994500
1857.000000	16.951000
1856.000000	16.897000
1855.000000	16.847800
1854.000000	16.771000
1853.000000	16.691000
1852.000000	16.630900
1851.000000	16.583800
1850.000000	16.540600
1849.000000	16.471300
1848.000000	16.380500
1847.000000	16.286600
1846.000000	16.219000
1845.000000	16.177100
1844.000000	16.133700
1843.000000	16.112500
1842.000000	16.097600
1841.000000	16.060900
1840.000000	16.015100
1839.000000	15.963000
1838.000000	15.920500
1837.000000	15.864100
1836.000000	15.794800
1835.000000	15.731200
1834.000000	15.666400
1833.000000	15.595000
1832.000000	15.532000
1831.000000	15.467500
1830.000000	15.394400
1829.000000	15.313500
1828.000000	15.237300
1827.000000	15.174800
1826.000000	15.101400
1825.000000	15.022500
1824.000000	14.963500
1823.000000	14.955100
1822.000000	14.955100
1821.000000	14.927700
1820.000000	14.902400
1819.000000	14.884100
1818.000000	14.880300
1817.000000	14.879100
1816.000000	14.879300
1815.000000	14.876000
1814.000000	14.868400
1813.000000	14.844800
1812.000000	14.808700
1811.000000	14.778700
1810.000000	14.744900
1809.000000	14.700500
1808.000000	14.668700
1807.000000	14.635900
1806.000000	14.589700
1805.000000	14.551300
1804.000000	14.513100
1803.000000	14.482900
1802.000000	14.441200
1801.000000	14.411600
1800.000000	14.346800
1799.000000	14.306100
1798.000000	14.283700
1797.000000	14.247100
1796.000000	14.210600
1795.000000	14.160200
1794.000000	14.123300
1793.000000	14.073700
1792.000000	14.033300
1791.000000	13.987200
1790.000000	13.932200
1789.000000	13.883300
1788.000000	13.821700
1787.000000	13.748400
1786.000000	13.696100
1785.000000	13.642000
1784.000000	13.577800
1783.000000	13.486400
1782.000000	13.418900
1781.000000	13.348300
1780.000000	13.275200
1779.000000	13.206400
1778.000000	13.111500
1777.000000	13.018200
1776.000000	12.918600
1775.000000	12.812200
1774.000000	12.708200
1773.000000	12.581400
1772.000000	12.468200
1771.000000	12.360100
1770.000000	12.238700
1769.000000	12.137600
1768.000000	12.063700
1767.000000	11.952000
1766.000000	11.885300
1765.000000	11.857900
1764.000000	11.850900
1763.000000	11.865300
1762.000000	11.903200
1761.000000	11.943000
1760.000000	12.001100
1759.000000	12.051500
1758.000000	12.113200
1757.000000	12.156600
1756.000000	12.204700
1755.000000	12.214900
1754.000000	12.220900
1753.000000	12.211200
1752.000000	12.205500
1751.000000	12.169900
1750.000000	12.130800
1749.000000	12.065100
1748.000000	12.027900
1747.000000	11.950000
1746.000000	11.838800
1745.000000	11.739000
1744.000000	11.597900
1743.000000	11.457400
1742.000000	11.280000
1741.000000	11.112700
1740.000000	10.928800
1739.000000	10.770500
1738.000000	10.633200
1737.000000	10.502500
1736.000000	10.430200
1735.000000	10.374600
1734.000000	10.370100
1733.000000	10.394700
1732.000000	10.429800
1731.000000	10.508100
1730.000000	10.592900
1729.000000	10.687200
1728.000000	10.776100
1727.000000	10.859800
1726.000000	10.906000
1725.000000	10.967100
1724.000000	11.003800
1723.000000	11.038100
1722.000000	11.053400
1721.000000	11.088200
1720.000000	11.117400
1719.000000	11.150100
1718.000000	11.178500
1717.000000	11.234300
1716.000000	11.274100
1715.000000	11.336300
1714.000000	11.374600
1713.000000	11.426200
1712.000000	11.472600
1711.000000	11.487300
1710.000000	11.526100
1709.000000	11.525800
1708.000000	11.548700
1707.000000	11.521500
1706.000000	11.547400
1705.000000	11.527200
1704.000000	11.488800
1703.000000	11.451100
1702.000000	11.406200
1701.000000	11.333700
1700.000000	11.254900
1699.000000	11.196600
1698.000000	11.121800
1697.000000	11.119000
1696.000000	11.114300
1695.000000	11.153700
1694.000000	11.241100
1693.000000	11.355200
1692.000000	11.476900
1691.000000	11.561900
1690.000000	11.642400
1689.000000	11.713200
1688.000000	11.717800
1687.000000	11.700900
1686.000000	11.719400
1685.000000	11.772200
1684.000000	11.890800
1683.000000	12.089400
1682.000000	12.401300
1681.000000	12.761200
1680.000000	13.139600
1679.000000	13.528500
1678.000000	13.907300
1677.000000	14.235500
1676.000000	14.558400
1675.000000	14.827800
1674.000000	15.059600
1673.000000	15.266600
1672.000000	15.430900
1671.000000	15.593600
1670.000000	15.722400
1669.000000	15.820100
1668.000000	15.934600
1667.000000	16.025500
1666.000000	16.068100
1665.000000	16.135300
1664.000000	16.193400
1663.000000	16.232300
1662.000000	16.280200
1661.000000	16.323200
1660.000000	16.351100
1659.000000	16.371000
1658.000000	16.373300
1657.000000	16.372400
1656.000000	16.376400
1655.000000	16.380400
1654.000000	16.369100
1653.000000	16.353400
1652.000000	16.311800
1651.000000	16.300500
1650.000000	16.267300
1649.000000	16.240500
1648.000000	16.207600
1647.000000	16.164900
1646.000000	16.121400
1645.000000	16.078400
1644.000000	16.024500
1643.000000	15.984300
1642.000000	15.924900
1641.000000	15.881900
1640.000000	15.840600
1639.000000	15.770500
1638.000000	15.719100
1637.000000	15.676300
1636.000000	15.618300
1635.000000	15.567700
1634.000000	15.505800
1633.000000	15.442100
1632.000000	15.387000
1631.000000	15.335300
1630.000000	15.266500
1629.000000	15.218300
1628.000000	15.148600
1627.000000	15.084900
1626.000000	15.019600
1625.000000	14.961700
1624.000000	14.922300
1623.000000	14.861800
1622.000000	14.797200
1621.000000	14.731300
1620.000000	14.688300
1619.000000	14.641700
1618.000000	14.587500
1617.000000	14.527800
1616.000000	14.477900
1615.000000	14.427900
1614.000000	14.386900
1613.000000	14.350500
1612.000000	14.296900
1611.000000	14.249400
1610.000000	14.226200
1609.000000	14.189200
1608.000000	14.146000
1607.000000	14.117000
1606.000000	14.077200
1605.000000	14.030600
1604.000000	13.986400
1603.000000	13.951500
1602.000000	13.901800
1601.000000	13.877600
1600.000000	13.844900
1599.000000	13.807400
1598.000000	13.772900
1597.000000	13.745700
