PE UV       SUBTECH     SPECTRUM    ASCII       PEDS        4.00        
   -1
CICIMAUCR0002-2.Sample.ASC
24/05/03
14:12:31.00
24/05/03
14:12:31.00
Vinicio Soto Monge
C. kalinini
250,000000
1
Lambda 1050
1050L1511233
PerkinElmer UV WinLab 6.3.2.0749 / 2.02.05 Lambda 900 UV/VIS/NIR, Aug  7 2015 09:38:08

0
0
3350/servo 860,8/2
0
0
UV/VIS
1
1
1
DoubleDePol,CommonBeamDepol,RBeamAtt,SBeamAtt,60mm sphere, WB InGaAs Detector
0
0
0
0
Program
Program
3350/servo 860,8/2
3350/0,2 860,8/0,2
3350/0,2 860,8/0,2
0
15.00
 
 
 
0
 
860,8
319,2
860,8
Front
100
on
S:100 R:100
0
0
0
0
 
0
 
 
 
0
 
 
0
0
0
0
0
 
 
 
 
0
0


0
0
#HDR
-1
-1
#GR
nm
%R
1.0
0.0
2500,000000
-1,000000
2251
8
99,661500
5,320700
#DATA
2500.000000	8.147200
2499.000000	7.973000
2498.000000	8.147400
2497.000000	8.052500
2496.000000	8.101000
2495.000000	8.019900
2494.000000	8.008000
2493.000000	7.813500
2492.000000	7.975100
2491.000000	7.905000
2490.000000	7.775800
2489.000000	7.870200
2488.000000	7.845300
2487.000000	7.817200
2486.000000	7.846700
2485.000000	7.814200
2484.000000	7.856300
2483.000000	7.755500
2482.000000	7.761300
2481.000000	7.796100
2480.000000	7.763100
2479.000000	7.831700
2478.000000	7.784600
2477.000000	7.812400
2476.000000	7.809900
2475.000000	7.786100
2474.000000	7.790200
2473.000000	7.819500
2472.000000	7.820500
2471.000000	7.791000
2470.000000	7.803600
2469.000000	7.874900
2468.000000	7.873400
2467.000000	7.864400
2466.000000	7.909600
2465.000000	7.879800
2464.000000	7.912900
2463.000000	7.968800
2462.000000	7.997100
2461.000000	8.058100
2460.000000	8.119100
2459.000000	8.133900
2458.000000	8.178800
2457.000000	8.227900
2456.000000	8.300300
2455.000000	8.356300
2454.000000	8.417300
2453.000000	8.526600
2452.000000	8.550800
2451.000000	8.631800
2450.000000	8.711500
2449.000000	8.769900
2448.000000	8.823400
2447.000000	8.926900
2446.000000	8.981500
2445.000000	9.074300
2444.000000	9.148500
2443.000000	9.256600
2442.000000	9.298500
2441.000000	9.371800
2440.000000	9.450300
2439.000000	9.511300
2438.000000	9.583500
2437.000000	9.662000
2436.000000	9.719600
2435.000000	9.785700
2434.000000	9.848600
2433.000000	9.906100
2432.000000	9.961900
2431.000000	10.032200
2430.000000	10.084500
2429.000000	10.126400
2428.000000	10.162100
2427.000000	10.213100
2426.000000	10.251400
2425.000000	10.292600
2424.000000	10.323300
2423.000000	10.359500
2422.000000	10.390600
2421.000000	10.421300
2420.000000	10.465400
2419.000000	10.492200
2418.000000	10.499300
2417.000000	10.537500
2416.000000	10.571200
2415.000000	10.591100
2414.000000	10.602900
2413.000000	10.637100
2412.000000	10.649500
2411.000000	10.673300
2410.000000	10.708500
2409.000000	10.739000
2408.000000	10.753300
2407.000000	10.771100
2406.000000	10.785700
2405.000000	10.806300
2404.000000	10.833100
2403.000000	10.863200
2402.000000	10.890900
2401.000000	10.908100
2400.000000	10.934500
2399.000000	10.970500
2398.000000	11.008400
2397.000000	11.067500
2396.000000	11.102800
2395.000000	11.108400
2394.000000	11.129400
2393.000000	11.159200
2392.000000	11.175400
2391.000000	11.195800
2390.000000	11.192400
2389.000000	11.214700
2388.000000	11.246600
2387.000000	11.228900
2386.000000	11.218500
2385.000000	11.226500
2384.000000	11.226100
2383.000000	11.220300
2382.000000	11.215700
2381.000000	11.201700
2380.000000	11.176900
2379.000000	11.164800
2378.000000	11.141600
2377.000000	11.115300
2376.000000	11.093300
2375.000000	11.070800
2374.000000	11.044500
2373.000000	11.015900
2372.000000	10.972300
2371.000000	10.933300
2370.000000	10.903400
2369.000000	10.848500
2368.000000	10.786600
2367.000000	10.734500
2366.000000	10.682600
2365.000000	10.619900
2364.000000	10.553400
2363.000000	10.497500
2362.000000	10.433700
2361.000000	10.360100
2360.000000	10.290500
2359.000000	10.226100
2358.000000	10.174700
2357.000000	10.135600
2356.000000	10.105800
2355.000000	10.073700
2354.000000	10.039000
2353.000000	10.025100
2352.000000	10.035800
2351.000000	10.041900
2350.000000	10.050400
2349.000000	10.062600
2348.000000	10.103200
2347.000000	10.127000
2346.000000	10.153100
2345.000000	10.195100
2344.000000	10.235500
2343.000000	10.264600
2342.000000	10.294300
2341.000000	10.328900
2340.000000	10.359900
2339.000000	10.375600
2338.000000	10.363900
2337.000000	10.346900
2336.000000	10.336100
2335.000000	10.321700
2334.000000	10.291900
2333.000000	10.271700
2332.000000	10.248000
2331.000000	10.186200
2330.000000	10.122500
2329.000000	10.072400
2328.000000	10.014100
2327.000000	9.944300
2326.000000	9.868300
2325.000000	9.776400
2324.000000	9.689300
2323.000000	9.599700
2322.000000	9.506200
2321.000000	9.413000
2320.000000	9.309600
2319.000000	9.193200
2318.000000	9.079600
2317.000000	8.967500
2316.000000	8.849100
2315.000000	8.752100
2314.000000	8.655900
2313.000000	8.564900
2312.000000	8.480600
2311.000000	8.410900
2310.000000	8.345500
2309.000000	8.310500
2308.000000	8.279600
2307.000000	8.263100
2306.000000	8.272100
2305.000000	8.274000
2304.000000	8.307200
2303.000000	8.353100
2302.000000	8.423700
2301.000000	8.476700
2300.000000	8.549500
2299.000000	8.642800
2298.000000	8.724800
2297.000000	8.803900
2296.000000	8.892800
2295.000000	8.940000
2294.000000	9.004600
2293.000000	9.077700
2292.000000	9.132100
2291.000000	9.165300
2290.000000	9.182600
2289.000000	9.204000
2288.000000	9.194800
2287.000000	9.200900
2286.000000	9.186400
2285.000000	9.169200
2284.000000	9.145700
2283.000000	9.102700
2282.000000	9.075900
2281.000000	9.042700
2280.000000	9.011000
2279.000000	8.965800
2278.000000	8.917400
2277.000000	8.891500
2276.000000	8.879600
2275.000000	8.866200
2274.000000	8.855900
2273.000000	8.856900
2272.000000	8.861900
2271.000000	8.895700
2270.000000	8.923900
2269.000000	8.981300
2268.000000	9.055200
2267.000000	9.131800
2266.000000	9.251000
2265.000000	9.364300
2264.000000	9.509900
2263.000000	9.694300
2262.000000	9.876200
2261.000000	10.071400
2260.000000	10.287400
2259.000000	10.504400
2258.000000	10.752300
2257.000000	10.996000
2256.000000	11.229100
2255.000000	11.510000
2254.000000	11.734900
2253.000000	11.988700
2252.000000	12.220200
2251.000000	12.445500
2250.000000	12.647100
2249.000000	12.858400
2248.000000	13.050300
2247.000000	13.236100
2246.000000	13.417600
2245.000000	13.561900
2244.000000	13.706500
2243.000000	13.836500
2242.000000	13.962700
2241.000000	14.073200
2240.000000	14.190400
2239.000000	14.280200
2238.000000	14.371800
2237.000000	14.431000
2236.000000	14.506000
2235.000000	14.571800
2234.000000	14.611300
2233.000000	14.659000
2232.000000	14.707200
2231.000000	14.738100
2230.000000	14.775900
2229.000000	14.774600
2228.000000	14.782600
2227.000000	14.762700
2226.000000	14.759900
2225.000000	14.741900
2224.000000	14.743700
2223.000000	14.698200
2222.000000	14.670500
2221.000000	14.649300
2220.000000	14.601200
2219.000000	14.581000
2218.000000	14.550500
2217.000000	14.508000
2216.000000	14.463700
2215.000000	14.430800
2214.000000	14.396900
2213.000000	14.352800
2212.000000	14.303600
2211.000000	14.260400
2210.000000	14.234200
2209.000000	14.219200
2208.000000	14.175800
2207.000000	14.146600
2206.000000	14.136900
2205.000000	14.108900
2204.000000	14.086800
2203.000000	14.051200
2202.000000	14.052000
2201.000000	14.033200
2200.000000	14.005700
2199.000000	13.994800
2198.000000	13.968200
2197.000000	13.972600
2196.000000	13.944900
2195.000000	13.934600
2194.000000	13.927300
2193.000000	13.910600
2192.000000	13.891100
2191.000000	13.881900
2190.000000	13.865200
2189.000000	13.848500
2188.000000	13.830600
2187.000000	13.821700
2186.000000	13.810200
2185.000000	13.811100
2184.000000	13.774100
2183.000000	13.756700
2182.000000	13.748600
2181.000000	13.721300
2180.000000	13.729100
2179.000000	13.716400
2178.000000	13.699900
2177.000000	13.691800
2176.000000	13.689800
2175.000000	13.700000
2174.000000	13.703300
2173.000000	13.717100
2172.000000	13.738500
2171.000000	13.742000
2170.000000	13.738300
2169.000000	13.770600
2168.000000	13.805700
2167.000000	13.818500
2166.000000	13.849900
2165.000000	13.879100
2164.000000	13.896000
2163.000000	13.918900
2162.000000	13.952100
2161.000000	13.995300
2160.000000	14.035900
2159.000000	14.077300
2158.000000	14.117800
2157.000000	14.165500
2156.000000	14.218600
2155.000000	14.258400
2154.000000	14.320000
2153.000000	14.376000
2152.000000	14.443900
2151.000000	14.494300
2150.000000	14.537700
2149.000000	14.590700
2148.000000	14.656000
2147.000000	14.722400
2146.000000	14.787100
2145.000000	14.839200
2144.000000	14.880700
2143.000000	14.935400
2142.000000	14.970000
2141.000000	15.019000
2140.000000	15.056800
2139.000000	15.087100
2138.000000	15.141700
2137.000000	15.193300
2136.000000	15.227400
2135.000000	15.262600
2134.000000	15.284700
2133.000000	15.302800
2132.000000	15.325600
2131.000000	15.348400
2130.000000	15.366700
2129.000000	15.377300
2128.000000	15.395000
2127.000000	15.404900
2126.000000	15.402300
2125.000000	15.412800
2124.000000	15.412600
2123.000000	15.410200
2122.000000	15.398000
2121.000000	15.377100
2120.000000	15.370700
2119.000000	15.363000
2118.000000	15.340300
2117.000000	15.316200
2116.000000	15.295600
2115.000000	15.274200
2114.000000	15.239000
2113.000000	15.207400
2112.000000	15.188100
2111.000000	15.159900
2110.000000	15.121200
2109.000000	15.085400
2108.000000	15.055800
2107.000000	15.031500
2106.000000	15.009800
2105.000000	14.978800
2104.000000	14.949800
2103.000000	14.919400
2102.000000	14.898900
2101.000000	14.864600
2100.000000	14.819100
2099.000000	14.795400
2098.000000	14.771200
2097.000000	14.763200
2096.000000	14.752200
2095.000000	14.721600
2094.000000	14.701700
2093.000000	14.700200
2092.000000	14.675900
2091.000000	14.654100
2090.000000	14.656700
2089.000000	14.637200
2088.000000	14.617600
2087.000000	14.610400
2086.000000	14.595500
2085.000000	14.574100
2084.000000	14.544100
2083.000000	14.521700
2082.000000	14.510400
2081.000000	14.476000
2080.000000	14.438400
2079.000000	14.407000
2078.000000	14.380100
2077.000000	14.330600
2076.000000	14.283900
2075.000000	14.255200
2074.000000	14.213000
2073.000000	14.165800
2072.000000	14.117900
2071.000000	14.067300
2070.000000	14.017800
2069.000000	13.963600
2068.000000	13.896300
2067.000000	13.848900
2066.000000	13.799700
2065.000000	13.758100
2064.000000	13.710800
2063.000000	13.671500
2062.000000	13.622700
2061.000000	13.590500
2060.000000	13.563000
2059.000000	13.530300
2058.000000	13.519100
2057.000000	13.536700
2056.000000	13.546200
2055.000000	13.567900
2054.000000	13.606700
2053.000000	13.659900
2052.000000	13.707900
2051.000000	13.791700
2050.000000	13.886900
2049.000000	14.004100
2048.000000	14.128200
2047.000000	14.249400
2046.000000	14.391600
2045.000000	14.533300
2044.000000	14.699000
2043.000000	14.853300
2042.000000	15.010200
2041.000000	15.167700
2040.000000	15.326300
2039.000000	15.483900
2038.000000	15.639800
2037.000000	15.790600
2036.000000	15.930900
2035.000000	16.069500
2034.000000	16.213100
2033.000000	16.337000
2032.000000	16.467100
2031.000000	16.589300
2030.000000	16.686700
2029.000000	16.784300
2028.000000	16.888200
2027.000000	17.003600
2026.000000	17.091300
2025.000000	17.187100
2024.000000	17.281100
2023.000000	17.371100
2022.000000	17.453900
2021.000000	17.550700
2020.000000	17.617100
2019.000000	17.673000
2018.000000	17.765100
2017.000000	17.826400
2016.000000	17.878800
2015.000000	17.942800
2014.000000	17.971800
2013.000000	18.014700
2012.000000	18.079700
2011.000000	18.104000
2010.000000	18.148700
2009.000000	18.190700
2008.000000	18.202700
2007.000000	18.210100
2006.000000	18.222600
2005.000000	18.224100
2004.000000	18.231900
2003.000000	18.226200
2002.000000	18.206900
2001.000000	18.197600
2000.000000	18.168500
1999.000000	18.162600
1998.000000	18.115300
1997.000000	18.105600
1996.000000	18.054300
1995.000000	18.019400
1994.000000	17.970100
1993.000000	17.937000
1992.000000	17.866200
1991.000000	17.820500
1990.000000	17.750700
1989.000000	17.686600
1988.000000	17.623300
1987.000000	17.537400
1986.000000	17.472600
1985.000000	17.402100
1984.000000	17.311500
1983.000000	17.240800
1982.000000	17.184000
1981.000000	17.104500
1980.000000	17.018500
1979.000000	16.941300
1978.000000	16.850600
1977.000000	16.787900
1976.000000	16.700800
1975.000000	16.650200
1974.000000	16.573400
1973.000000	16.488000
1972.000000	16.414800
1971.000000	16.368900
1970.000000	16.248700
1969.000000	16.197400
1968.000000	16.123000
1967.000000	16.056500
1966.000000	15.999600
1965.000000	15.931300
1964.000000	15.868200
1963.000000	15.783200
1962.000000	15.712400
1961.000000	15.653100
1960.000000	15.571900
1959.000000	15.499500
1958.000000	15.436000
1957.000000	15.374400
1956.000000	15.304000
1955.000000	15.236100
1954.000000	15.147000
1953.000000	15.093200
1952.000000	15.015800
1951.000000	14.954600
1950.000000	14.901500
1949.000000	14.824300
1948.000000	14.782300
1947.000000	14.715600
1946.000000	14.707300
1945.000000	14.665600
1944.000000	14.639100
1943.000000	14.609600
1942.000000	14.590400
1941.000000	14.600000
1940.000000	14.565500
1939.000000	14.565300
1938.000000	14.593000
1937.000000	14.601000
1936.000000	14.620900
1935.000000	14.645000
1934.000000	14.703300
1933.000000	14.749500
1932.000000	14.832500
1931.000000	14.903500
1930.000000	14.995300
1929.000000	15.073300
1928.000000	15.179600
1927.000000	15.263500
1926.000000	15.375700
1925.000000	15.510100
1924.000000	15.640800
1923.000000	15.775700
1922.000000	15.958900
1921.000000	16.139200
1920.000000	16.308500
1919.000000	16.466300
1918.000000	16.653800
1917.000000	16.850000
1916.000000	17.041900
1915.000000	17.253300
1914.000000	17.471600
1913.000000	17.743800
1912.000000	17.977300
1911.000000	18.219200
1910.000000	18.461800
1909.000000	18.709900
1908.000000	18.962300
1907.000000	19.245100
1906.000000	19.560600
1905.000000	19.851700
1904.000000	20.183700
1903.000000	20.481900
1902.000000	20.776000
1901.000000	21.076500
1900.000000	21.432600
1899.000000	21.741700
1898.000000	22.040400
1897.000000	22.347500
1896.000000	22.630300
1895.000000	22.912300
1894.000000	23.209800
1893.000000	23.546200
1892.000000	23.881600
1891.000000	24.206500
1890.000000	24.515900
1889.000000	24.826900
1888.000000	25.149500
1887.000000	25.488800
1886.000000	25.845900
1885.000000	26.222900
1884.000000	26.644200
1883.000000	27.088200
1882.000000	27.505200
1881.000000	27.949000
1880.000000	28.358100
1879.000000	28.746900
1878.000000	29.133900
1877.000000	29.484100
1876.000000	29.811900
1875.000000	30.128500
1874.000000	30.414100
1873.000000	30.674100
1872.000000	30.915700
1871.000000	31.099100
1870.000000	31.246200
1869.000000	31.389700
1868.000000	31.470800
1867.000000	31.527900
1866.000000	31.569200
1865.000000	31.613500
1864.000000	31.650100
1863.000000	31.692200
1862.000000	31.746000
1861.000000	31.777500
1860.000000	31.785600
1859.000000	31.781100
1858.000000	31.774200
1857.000000	31.743600
1856.000000	31.701200
1855.000000	31.663200
1854.000000	31.599300
1853.000000	31.517100
1852.000000	31.462000
1851.000000	31.418300
1850.000000	31.367300
1849.000000	31.324100
1848.000000	31.252300
1847.000000	31.152400
1846.000000	31.064900
1845.000000	30.998800
1844.000000	30.944800
1843.000000	30.935300
1842.000000	30.920800
1841.000000	30.874600
1840.000000	30.836000
1839.000000	30.786500
1838.000000	30.715900
1837.000000	30.638600
1836.000000	30.570900
1835.000000	30.489100
1834.000000	30.389100
1833.000000	30.309700
1832.000000	30.231900
1831.000000	30.165800
1830.000000	30.099400
1829.000000	30.017700
1828.000000	29.927300
1827.000000	29.863200
1826.000000	29.811900
1825.000000	29.741300
1824.000000	29.718400
1823.000000	29.736600
1822.000000	29.736500
1821.000000	29.716000
1820.000000	29.686000
1819.000000	29.652200
1818.000000	29.632800
1817.000000	29.645100
1816.000000	29.642400
1815.000000	29.618900
1814.000000	29.608700
1813.000000	29.594200
1812.000000	29.590500
1811.000000	29.573200
1810.000000	29.513400
1809.000000	29.467600
1808.000000	29.441100
1807.000000	29.389000
1806.000000	29.331500
1805.000000	29.284400
1804.000000	29.242900
1803.000000	29.213800
1802.000000	29.166100
1801.000000	29.116600
1800.000000	29.054200
1799.000000	28.994000
1798.000000	28.953200
1797.000000	28.920300
1796.000000	28.875800
1795.000000	28.816400
1794.000000	28.760500
1793.000000	28.707000
1792.000000	28.657400
1791.000000	28.613900
1790.000000	28.544100
1789.000000	28.482600
1788.000000	28.422800
1787.000000	28.354900
1786.000000	28.288800
1785.000000	28.223700
1784.000000	28.134200
1783.000000	28.055700
1782.000000	27.954600
1781.000000	27.887100
1780.000000	27.799900
1779.000000	27.701900
1778.000000	27.576900
1777.000000	27.466600
1776.000000	27.338300
1775.000000	27.205800
1774.000000	27.067000
1773.000000	26.925500
1772.000000	26.771200
1771.000000	26.631900
1770.000000	26.476300
1769.000000	26.327900
1768.000000	26.201300
1767.000000	26.095100
1766.000000	25.998500
1765.000000	25.934800
1764.000000	25.904300
1763.000000	25.893100
1762.000000	25.919900
1761.000000	25.957900
1760.000000	26.021600
1759.000000	26.075300
1758.000000	26.140400
1757.000000	26.211700
1756.000000	26.269700
1755.000000	26.267600
1754.000000	26.301900
1753.000000	26.278800
1752.000000	26.247300
1751.000000	26.204600
1750.000000	26.146700
1749.000000	26.065600
1748.000000	25.978000
1747.000000	25.844200
1746.000000	25.692800
1745.000000	25.520000
1744.000000	25.319700
1743.000000	25.102600
1742.000000	24.853200
1741.000000	24.597700
1740.000000	24.343800
1739.000000	24.085700
1738.000000	23.861900
1737.000000	23.659800
1736.000000	23.531500
1735.000000	23.451300
1734.000000	23.397900
1733.000000	23.391800
1732.000000	23.431800
1731.000000	23.502900
1730.000000	23.606900
1729.000000	23.712600
1728.000000	23.796800
1727.000000	23.876800
1726.000000	23.971500
1725.000000	24.037300
1724.000000	24.065800
1723.000000	24.109800
1722.000000	24.141600
1721.000000	24.193200
1720.000000	24.269000
1719.000000	24.361100
1718.000000	24.452300
1717.000000	24.557100
1716.000000	24.674900
1715.000000	24.774300
1714.000000	24.872700
1713.000000	24.990900
1712.000000	25.066700
1711.000000	25.135300
1710.000000	25.169900
1709.000000	25.194400
1708.000000	25.209100
1707.000000	25.207200
1706.000000	25.207600
1705.000000	25.152300
1704.000000	25.105800
1703.000000	25.040300
1702.000000	24.943200
1701.000000	24.824500
1700.000000	24.650500
1699.000000	24.514000
1698.000000	24.382600
1697.000000	24.303600
1696.000000	24.239200
1695.000000	24.255400
1694.000000	24.299100
1693.000000	24.420300
1692.000000	24.544300
1691.000000	24.695900
1690.000000	24.840700
1689.000000	24.894300
1688.000000	24.922800
1687.000000	24.959300
1686.000000	25.008200
1685.000000	25.088300
1684.000000	25.245300
1683.000000	25.558900
1682.000000	25.965000
1681.000000	26.481800
1680.000000	27.047800
1679.000000	27.617000
1678.000000	28.180600
1677.000000	28.645100
1676.000000	29.100100
1675.000000	29.476200
1674.000000	29.835900
1673.000000	30.126000
1672.000000	30.408600
1671.000000	30.645800
1670.000000	30.874200
1669.000000	31.051400
1668.000000	31.232200
1667.000000	31.383500
1666.000000	31.502100
1665.000000	31.623000
1664.000000	31.746700
1663.000000	31.833400
1662.000000	31.931300
1661.000000	32.025800
1660.000000	32.086800
1659.000000	32.145800
1658.000000	32.199400
1657.000000	32.211000
1656.000000	32.234100
1655.000000	32.267800
1654.000000	32.271800
1653.000000	32.258300
1652.000000	32.258500
1651.000000	32.244300
1650.000000	32.211900
1649.000000	32.188300
1648.000000	32.146500
1647.000000	32.101100
1646.000000	32.050400
1645.000000	32.013100
1644.000000	31.947400
1643.000000	31.918000
1642.000000	31.859900
1641.000000	31.801100
1640.000000	31.754400
1639.000000	31.685700
1638.000000	31.621900
1637.000000	31.554400
1636.000000	31.490400
1635.000000	31.427800
1634.000000	31.353300
1633.000000	31.281500
1632.000000	31.201500
1631.000000	31.108900
1630.000000	31.026500
1629.000000	30.941500
1628.000000	30.873500
1627.000000	30.795800
1626.000000	30.706000
1625.000000	30.613500
1624.000000	30.536100
1623.000000	30.450200
1622.000000	30.370300
1621.000000	30.307700
1620.000000	30.216700
1619.000000	30.143500
1618.000000	30.060200
