PE UV       SUBTECH     SPECTRUM    ASCII       PEDS        4.00        
   -1
CICIMAUCR0004-2.Sample.ASC
24/05/03
14:52:45.00
24/05/03
14:52:45.00
Vinicio Soto Monge
C. kalinini
250,000000
1
Lambda 1050
1050L1511233
PerkinElmer UV WinLab 6.3.2.0749 / 2.02.05 Lambda 900 UV/VIS/NIR, Aug  7 2015 09:38:08

0
0
3350/servo 860,8/2
0
0
UV/VIS
1
1
1
DoubleDePol,CommonBeamDepol,RBeamAtt,SBeamAtt,60mm sphere, WB InGaAs Detector
0
0
0
0
Program
Program
3350/servo 860,8/2
3350/0,2 860,8/0,2
3350/0,2 860,8/0,2
0
15.00
 
 
 
0
 
860,8
319,2
860,8
Front
100
on
S:100 R:100
0
0
0
0
 
0
 
 
 
0
 
 
0
0
0
0
0
 
 
 
 
0
0


0
0
#HDR
-1
-1
#GR
nm
%R
1.0
0.0
2500,000000
-1,000000
2251
8
96,189800
5,469500
#DATA
2500.000000	8.561200
2499.000000	8.530300
2498.000000	8.566600
2497.000000	8.576200
2496.000000	8.502700
2495.000000	8.385800
2494.000000	8.480900
2493.000000	8.409800
2492.000000	8.403900
2491.000000	8.354400
2490.000000	8.251300
2489.000000	8.302700
2488.000000	8.324100
2487.000000	8.374200
2486.000000	8.405200
2485.000000	8.260800
2484.000000	8.280900
2483.000000	8.200300
2482.000000	8.253800
2481.000000	8.255400
2480.000000	8.248400
2479.000000	8.289400
2478.000000	8.281000
2477.000000	8.253000
2476.000000	8.249800
2475.000000	8.232800
2474.000000	8.249700
2473.000000	8.263400
2472.000000	8.304200
2471.000000	8.303600
2470.000000	8.298800
2469.000000	8.312000
2468.000000	8.316500
2467.000000	8.384900
2466.000000	8.364900
2465.000000	8.410200
2464.000000	8.429100
2463.000000	8.451900
2462.000000	8.487900
2461.000000	8.549300
2460.000000	8.587400
2459.000000	8.671500
2458.000000	8.729500
2457.000000	8.785500
2456.000000	8.859800
2455.000000	8.923700
2454.000000	8.983400
2453.000000	9.082200
2452.000000	9.176700
2451.000000	9.261700
2450.000000	9.362700
2449.000000	9.414000
2448.000000	9.490400
2447.000000	9.594400
2446.000000	9.666400
2445.000000	9.756700
2444.000000	9.825700
2443.000000	9.929600
2442.000000	9.996500
2441.000000	10.086600
2440.000000	10.168000
2439.000000	10.241900
2438.000000	10.323900
2437.000000	10.391600
2436.000000	10.469800
2435.000000	10.540600
2434.000000	10.610900
2433.000000	10.686200
2432.000000	10.750200
2431.000000	10.775000
2430.000000	10.839400
2429.000000	10.914800
2428.000000	10.963600
2427.000000	11.025400
2426.000000	11.043200
2425.000000	11.090800
2424.000000	11.123000
2423.000000	11.166600
2422.000000	11.196300
2421.000000	11.238100
2420.000000	11.266000
2419.000000	11.293400
2418.000000	11.317000
2417.000000	11.345300
2416.000000	11.374800
2415.000000	11.408300
2414.000000	11.422700
2413.000000	11.451000
2412.000000	11.485500
2411.000000	11.526300
2410.000000	11.553600
2409.000000	11.565000
2408.000000	11.584100
2407.000000	11.596500
2406.000000	11.622000
2405.000000	11.646900
2404.000000	11.669700
2403.000000	11.703600
2402.000000	11.721400
2401.000000	11.739100
2400.000000	11.770000
2399.000000	11.806100
2398.000000	11.845900
2397.000000	11.899700
2396.000000	11.936100
2395.000000	11.941200
2394.000000	11.957200
2393.000000	11.976700
2392.000000	12.003700
2391.000000	12.016500
2390.000000	12.047800
2389.000000	12.063600
2388.000000	12.052500
2387.000000	12.051200
2386.000000	12.068000
2385.000000	12.067900
2384.000000	12.067100
2383.000000	12.062400
2382.000000	12.039300
2381.000000	12.016500
2380.000000	12.004700
2379.000000	12.002000
2378.000000	11.980900
2377.000000	11.951400
2376.000000	11.923700
2375.000000	11.892900
2374.000000	11.873900
2373.000000	11.840200
2372.000000	11.784600
2371.000000	11.752700
2370.000000	11.719800
2369.000000	11.662400
2368.000000	11.604300
2367.000000	11.551700
2366.000000	11.488600
2365.000000	11.422700
2364.000000	11.362200
2363.000000	11.308700
2362.000000	11.245600
2361.000000	11.174100
2360.000000	11.116700
2359.000000	11.054800
2358.000000	11.001300
2357.000000	10.971000
2356.000000	10.931400
2355.000000	10.898000
2354.000000	10.884400
2353.000000	10.875400
2352.000000	10.862100
2351.000000	10.864600
2350.000000	10.896400
2349.000000	10.939500
2348.000000	10.967300
2347.000000	10.993200
2346.000000	11.036200
2345.000000	11.069100
2344.000000	11.095400
2343.000000	11.141500
2342.000000	11.166300
2341.000000	11.193900
2340.000000	11.205500
2339.000000	11.212000
2338.000000	11.232700
2337.000000	11.223400
2336.000000	11.187200
2335.000000	11.170000
2334.000000	11.151000
2333.000000	11.111600
2332.000000	11.054400
2331.000000	11.008700
2330.000000	10.957000
2329.000000	10.911500
2328.000000	10.847800
2327.000000	10.772300
2326.000000	10.684500
2325.000000	10.599200
2324.000000	10.521400
2323.000000	10.417600
2322.000000	10.330100
2321.000000	10.218200
2320.000000	10.099300
2319.000000	9.990500
2318.000000	9.892300
2317.000000	9.761100
2316.000000	9.638900
2315.000000	9.538500
2314.000000	9.439300
2313.000000	9.353600
2312.000000	9.280000
2311.000000	9.190800
2310.000000	9.124500
2309.000000	9.047800
2308.000000	9.021500
2307.000000	9.017500
2306.000000	9.036100
2305.000000	9.036200
2304.000000	9.076500
2303.000000	9.140200
2302.000000	9.217800
2301.000000	9.299700
2300.000000	9.355700
2299.000000	9.445800
2298.000000	9.527100
2297.000000	9.607700
2296.000000	9.698000
2295.000000	9.779900
2294.000000	9.853000
2293.000000	9.909400
2292.000000	9.949900
2291.000000	9.979000
2290.000000	10.002300
2289.000000	10.027300
2288.000000	10.022000
2287.000000	10.015400
2286.000000	10.004400
2285.000000	9.971400
2284.000000	9.939600
2283.000000	9.902800
2282.000000	9.857900
2281.000000	9.838600
2280.000000	9.795600
2279.000000	9.752600
2278.000000	9.729300
2277.000000	9.680000
2276.000000	9.658800
2275.000000	9.658000
2274.000000	9.621800
2273.000000	9.631300
2272.000000	9.638500
2271.000000	9.670400
2270.000000	9.700300
2269.000000	9.777500
2268.000000	9.863400
2267.000000	9.958100
2266.000000	10.085400
2265.000000	10.223100
2264.000000	10.396700
2263.000000	10.575200
2262.000000	10.786500
2261.000000	11.014700
2260.000000	11.265800
2259.000000	11.499400
2258.000000	11.775100
2257.000000	12.032100
2256.000000	12.348200
2255.000000	12.591100
2254.000000	12.847900
2253.000000	13.104200
2252.000000	13.370000
2251.000000	13.591500
2250.000000	13.837500
2249.000000	14.051500
2248.000000	14.259400
2247.000000	14.480000
2246.000000	14.648000
2245.000000	14.796300
2244.000000	14.955100
2243.000000	15.141100
2242.000000	15.251900
2241.000000	15.366700
2240.000000	15.523600
2239.000000	15.607300
2238.000000	15.694200
2237.000000	15.809100
2236.000000	15.872500
2235.000000	15.933100
2234.000000	15.996200
2233.000000	16.061200
2232.000000	16.084000
2231.000000	16.129800
2230.000000	16.160400
2229.000000	16.156300
2228.000000	16.170400
2227.000000	16.173900
2226.000000	16.167500
2225.000000	16.150300
2224.000000	16.135600
2223.000000	16.121200
2222.000000	16.097200
2221.000000	16.054100
2220.000000	16.024300
2219.000000	15.961300
2218.000000	15.933700
2217.000000	15.902100
2216.000000	15.860500
2215.000000	15.831600
2214.000000	15.750100
2213.000000	15.734100
2212.000000	15.715900
2211.000000	15.665000
2210.000000	15.632500
2209.000000	15.603500
2208.000000	15.579700
2207.000000	15.561500
2206.000000	15.531700
2205.000000	15.537300
2204.000000	15.505600
2203.000000	15.495800
2202.000000	15.444300
2201.000000	15.444900
2200.000000	15.436700
2199.000000	15.433300
2198.000000	15.421100
2197.000000	15.407500
2196.000000	15.388200
2195.000000	15.409800
2194.000000	15.403200
2193.000000	15.385100
2192.000000	15.370300
2191.000000	15.371900
2190.000000	15.355500
2189.000000	15.349600
2188.000000	15.354000
2187.000000	15.325500
2186.000000	15.307000
2185.000000	15.292900
2184.000000	15.284400
2183.000000	15.269600
2182.000000	15.258400
2181.000000	15.258700
2180.000000	15.236100
2179.000000	15.242000
2178.000000	15.217100
2177.000000	15.209200
2176.000000	15.217800
2175.000000	15.209500
2174.000000	15.213900
2173.000000	15.220000
2172.000000	15.230000
2171.000000	15.236400
2170.000000	15.254700
2169.000000	15.279900
2168.000000	15.299400
2167.000000	15.308200
2166.000000	15.353000
2165.000000	15.361100
2164.000000	15.391300
2163.000000	15.418800
2162.000000	15.455400
2161.000000	15.485700
2160.000000	15.531000
2159.000000	15.569400
2158.000000	15.610500
2157.000000	15.675600
2156.000000	15.726900
2155.000000	15.785200
2154.000000	15.839700
2153.000000	15.903300
2152.000000	15.964600
2151.000000	16.038300
2150.000000	16.088800
2149.000000	16.142300
2148.000000	16.190100
2147.000000	16.257600
2146.000000	16.314700
2145.000000	16.373500
2144.000000	16.423600
2143.000000	16.484700
2142.000000	16.548900
2141.000000	16.590000
2140.000000	16.642700
2139.000000	16.698200
2138.000000	16.735800
2137.000000	16.782300
2136.000000	16.821500
2135.000000	16.851100
2134.000000	16.904000
2133.000000	16.944500
2132.000000	16.964900
2131.000000	16.988000
2130.000000	17.015100
2129.000000	17.032200
2128.000000	17.054800
2127.000000	17.062300
2126.000000	17.072800
2125.000000	17.087700
2124.000000	17.090000
2123.000000	17.081100
2122.000000	17.081900
2121.000000	17.078000
2120.000000	17.073200
2119.000000	17.073100
2118.000000	17.061900
2117.000000	17.040300
2116.000000	17.016800
2115.000000	17.001100
2114.000000	16.975400
2113.000000	16.952900
2112.000000	16.941700
2111.000000	16.924500
2110.000000	16.901000
2109.000000	16.870800
2108.000000	16.844600
2107.000000	16.810200
2106.000000	16.785300
2105.000000	16.765300
2104.000000	16.743500
2103.000000	16.721500
2102.000000	16.705500
2101.000000	16.685500
2100.000000	16.668400
2099.000000	16.638200
2098.000000	16.608200
2097.000000	16.600500
2096.000000	16.569200
2095.000000	16.559500
2094.000000	16.568300
2093.000000	16.546100
2092.000000	16.536900
2091.000000	16.543100
2090.000000	16.542200
2089.000000	16.525900
2088.000000	16.507900
2087.000000	16.509800
2086.000000	16.508000
2085.000000	16.494300
2084.000000	16.483400
2083.000000	16.477400
2082.000000	16.462000
2081.000000	16.424700
2080.000000	16.381900
2079.000000	16.360600
2078.000000	16.333500
2077.000000	16.303700
2076.000000	16.274800
2075.000000	16.251100
2074.000000	16.213000
2073.000000	16.179000
2072.000000	16.141400
2071.000000	16.089500
2070.000000	16.047500
2069.000000	16.006800
2068.000000	15.951800
2067.000000	15.902500
2066.000000	15.854700
2065.000000	15.833700
2064.000000	15.797500
2063.000000	15.762200
2062.000000	15.726100
2061.000000	15.704800
2060.000000	15.695200
2059.000000	15.685100
2058.000000	15.703400
2057.000000	15.722000
2056.000000	15.775400
2055.000000	15.814400
2054.000000	15.871300
2053.000000	15.951200
2052.000000	16.045900
2051.000000	16.160800
2050.000000	16.275400
2049.000000	16.413200
2048.000000	16.564900
2047.000000	16.746000
2046.000000	16.914400
2045.000000	17.081900
2044.000000	17.290700
2043.000000	17.487500
2042.000000	17.677200
2041.000000	17.873700
2040.000000	18.057500
2039.000000	18.242200
2038.000000	18.425100
2037.000000	18.606300
2036.000000	18.776300
2035.000000	18.923100
2034.000000	19.090900
2033.000000	19.270500
2032.000000	19.422200
2031.000000	19.549600
2030.000000	19.685100
2029.000000	19.820900
2028.000000	19.952600
2027.000000	20.077300
2026.000000	20.186300
2025.000000	20.296200
2024.000000	20.431200
2023.000000	20.511400
2022.000000	20.610000
2021.000000	20.713400
2020.000000	20.828900
2019.000000	20.918800
2018.000000	20.999800
2017.000000	21.075500
2016.000000	21.165700
2015.000000	21.222800
2014.000000	21.303100
2013.000000	21.354800
2012.000000	21.418000
2011.000000	21.479200
2010.000000	21.536200
2009.000000	21.571400
2008.000000	21.593000
2007.000000	21.612300
2006.000000	21.651200
2005.000000	21.665900
2004.000000	21.674400
2003.000000	21.663000
2002.000000	21.663900
2001.000000	21.660700
2000.000000	21.659500
1999.000000	21.654900
1998.000000	21.636900
1997.000000	21.579800
1996.000000	21.581000
1995.000000	21.536300
1994.000000	21.502900
1993.000000	21.447500
1992.000000	21.403300
1991.000000	21.356500
1990.000000	21.301200
1989.000000	21.227900
1988.000000	21.152200
1987.000000	21.097800
1986.000000	21.015800
1985.000000	20.947200
1984.000000	20.871000
1983.000000	20.797000
1982.000000	20.724900
1981.000000	20.657700
1980.000000	20.561400
1979.000000	20.499500
1978.000000	20.414500
1977.000000	20.328800
1976.000000	20.245200
1975.000000	20.160000
1974.000000	20.109900
1973.000000	20.035200
1972.000000	19.961000
1971.000000	19.882600
1970.000000	19.812100
1969.000000	19.757400
1968.000000	19.662800
1967.000000	19.583300
1966.000000	19.523100
1965.000000	19.467200
1964.000000	19.387500
1963.000000	19.308000
1962.000000	19.240400
1961.000000	19.178500
1960.000000	19.087400
1959.000000	19.021700
1958.000000	18.947900
1957.000000	18.864000
1956.000000	18.794500
1955.000000	18.722700
1954.000000	18.662700
1953.000000	18.585700
1952.000000	18.507500
1951.000000	18.442200
1950.000000	18.381000
1949.000000	18.344000
1948.000000	18.301100
1947.000000	18.244700
1946.000000	18.185500
1945.000000	18.161300
1944.000000	18.110200
1943.000000	18.106700
1942.000000	18.093000
1941.000000	18.094700
1940.000000	18.077600
1939.000000	18.090900
1938.000000	18.113100
1937.000000	18.125700
1936.000000	18.165300
1935.000000	18.204700
1934.000000	18.264100
1933.000000	18.329000
1932.000000	18.431800
1931.000000	18.508800
1930.000000	18.601400
1929.000000	18.730800
1928.000000	18.840700
1927.000000	18.967300
1926.000000	19.119800
1925.000000	19.276400
1924.000000	19.417300
1923.000000	19.578800
1922.000000	19.771300
1921.000000	20.008500
1920.000000	20.201400
1919.000000	20.388500
1918.000000	20.608400
1917.000000	20.811400
1916.000000	21.031800
1915.000000	21.300800
1914.000000	21.556600
1913.000000	21.833300
1912.000000	22.132400
1911.000000	22.392200
1910.000000	22.668000
1909.000000	22.921200
1908.000000	23.203800
1907.000000	23.554700
1906.000000	23.886600
1905.000000	24.238900
1904.000000	24.548700
1903.000000	24.867500
1902.000000	25.173900
1901.000000	25.540100
1900.000000	25.905000
1899.000000	26.262700
1898.000000	26.574800
1897.000000	26.910300
1896.000000	27.193900
1895.000000	27.478300
1894.000000	27.776700
1893.000000	28.082900
1892.000000	28.436800
1891.000000	28.772000
1890.000000	29.065500
1889.000000	29.376400
1888.000000	29.700000
1887.000000	30.006500
1886.000000	30.363400
1885.000000	30.750300
1884.000000	31.178200
1883.000000	31.584900
1882.000000	31.966900
1881.000000	32.388900
1880.000000	32.739700
1879.000000	33.077700
1878.000000	33.438600
1877.000000	33.760700
1876.000000	34.049400
1875.000000	34.338900
1874.000000	34.616800
1873.000000	34.852100
1872.000000	35.054000
1871.000000	35.224200
1870.000000	35.372000
1869.000000	35.497100
1868.000000	35.568000
1867.000000	35.623600
1866.000000	35.636000
1865.000000	35.635900
1864.000000	35.624500
1863.000000	35.636100
1862.000000	35.670100
1861.000000	35.689400
1860.000000	35.691300
1859.000000	35.691900
1858.000000	35.673700
1857.000000	35.626600
1856.000000	35.571500
1855.000000	35.519700
1854.000000	35.453800
1853.000000	35.374700
1852.000000	35.299400
1851.000000	35.226600
1850.000000	35.166600
1849.000000	35.116400
1848.000000	35.072200
1847.000000	34.976500
1846.000000	34.866200
1845.000000	34.782800
1844.000000	34.693800
1843.000000	34.646400
1842.000000	34.634800
1841.000000	34.620100
1840.000000	34.577200
1839.000000	34.505300
1838.000000	34.424600
1837.000000	34.357400
1836.000000	34.281400
1835.000000	34.184200
1834.000000	34.075900
1833.000000	33.984000
1832.000000	33.892700
1831.000000	33.799700
1830.000000	33.732100
1829.000000	33.649200
1828.000000	33.548300
1827.000000	33.470900
1826.000000	33.406300
1825.000000	33.335800
1824.000000	33.289800
1823.000000	33.263500
1822.000000	33.254500
1821.000000	33.263600
1820.000000	33.244300
1819.000000	33.194300
1818.000000	33.158300
1817.000000	33.137800
1816.000000	33.144700
1815.000000	33.133900
1814.000000	33.100400
1813.000000	33.075200
1812.000000	33.048400
1811.000000	33.004400
1810.000000	32.962500
1809.000000	32.906600
1808.000000	32.869000
1807.000000	32.835600
1806.000000	32.763900
1805.000000	32.702400
1804.000000	32.651300
1803.000000	32.594200
1802.000000	32.548200
1801.000000	32.488000
1800.000000	32.425300
1799.000000	32.385000
1798.000000	32.321900
1797.000000	32.257500
1796.000000	32.210300
1795.000000	32.163200
1794.000000	32.110200
1793.000000	32.040500
1792.000000	31.985500
1791.000000	31.926500
1790.000000	31.855000
1789.000000	31.796600
1788.000000	31.744100
1787.000000	31.667300
1786.000000	31.599400
1785.000000	31.515600
1784.000000	31.430500
1783.000000	31.348000
1782.000000	31.266000
1781.000000	31.186100
1780.000000	31.095000
1779.000000	30.990700
1778.000000	30.863300
1777.000000	30.742700
1776.000000	30.624500
1775.000000	30.486100
1774.000000	30.347500
1773.000000	30.196000
1772.000000	30.055600
1771.000000	29.892000
1770.000000	29.752300
1769.000000	29.627500
1768.000000	29.489600
1767.000000	29.378600
1766.000000	29.295200
1765.000000	29.235500
1764.000000	29.203000
1763.000000	29.195800
1762.000000	29.230500
1761.000000	29.284300
1760.000000	29.346700
1759.000000	29.410300
1758.000000	29.464600
1757.000000	29.520300
1756.000000	29.574900
1755.000000	29.592100
1754.000000	29.587800
1753.000000	29.577900
1752.000000	29.546900
1751.000000	29.500100
1750.000000	29.438900
1749.000000	29.352500
1748.000000	29.256500
1747.000000	29.113900
1746.000000	28.967000
1745.000000	28.780900
1744.000000	28.591600
1743.000000	28.367000
1742.000000	28.115300
1741.000000	27.850700
1740.000000	27.585500
1739.000000	27.332400
1738.000000	27.122600
1737.000000	26.936200
1736.000000	26.825200
1735.000000	26.741200
1734.000000	26.697600
1733.000000	26.703300
1732.000000	26.755200
1731.000000	26.820300
1730.000000	26.928900
1729.000000	27.034200
1728.000000	27.144700
1727.000000	27.232000
1726.000000	27.287300
1725.000000	27.371500
1724.000000	27.401300
1723.000000	27.427700
1722.000000	27.464100
1721.000000	27.498200
1720.000000	27.552800
1719.000000	27.615900
1718.000000	27.701000
1717.000000	27.790100
1716.000000	27.904500
1715.000000	28.005700
1714.000000	28.105100
1713.000000	28.177500
1712.000000	28.237000
1711.000000	28.297700
1710.000000	28.308200
1709.000000	28.332500
1708.000000	28.342900
1707.000000	28.330000
1706.000000	28.285500
1705.000000	28.252500
1704.000000	28.177400
1703.000000	28.076500
1702.000000	27.953100
1701.000000	27.804700
1700.000000	27.635800
1699.000000	27.463800
1698.000000	27.334100
1697.000000	27.241600
1696.000000	27.189500
1695.000000	27.212500
1694.000000	27.267200
1693.000000	27.367100
1692.000000	27.498500
1691.000000	27.630300
1690.000000	27.741300
1689.000000	27.812400
1688.000000	27.847300
1687.000000	27.877000
1686.000000	27.891300
1685.000000	27.969900
1684.000000	28.159400
1683.000000	28.457500
1682.000000	28.880100
1681.000000	29.385900
1680.000000	29.986900
1679.000000	30.541900
1678.000000	31.108500
1677.000000	31.585800
1676.000000	32.030900
1675.000000	32.417800
1674.000000	32.778200
1673.000000	33.060000
1672.000000	33.326000
1671.000000	33.561100
1670.000000	33.770000
1669.000000	33.951000
1668.000000	34.138200
1667.000000	34.271300
1666.000000	34.402700
1665.000000	34.497500
1664.000000	34.625500
1663.000000	34.720400
1662.000000	34.792900
1661.000000	34.877200
1660.000000	34.941200
1659.000000	34.998400
1658.000000	35.037300
1657.000000	35.067300
1656.000000	35.073200
1655.000000	35.076200
1654.000000	35.095000
1653.000000	35.076300
1652.000000	35.081000
1651.000000	35.073000
1650.000000	35.034500
1649.000000	35.002100
1648.000000	34.958500
1647.000000	34.930000
1646.000000	34.881900
1645.000000	34.831700
1644.000000	34.791300
1643.000000	34.748700
1642.000000	34.691600
1641.000000	34.636900
1640.000000	34.576800
1639.000000	34.529900
1638.000000	34.479600
1637.000000	34.397500
1636.000000	34.327800
1635.000000	34.276500
1634.000000	34.211500
1633.000000	34.139000
1632.000000	34.076400
1631.000000	33.991200
1630.000000	33.912500
1629.000000	33.842500
1628.000000	33.749500
1627.000000	33.667700
1626.000000	33.591400
1625.000000	33.516400
1624.000000	33.437200
1623.000000	33.360100
1622.000000	33.279900
1621.000000	33.204300
1620.000000	33.135700
1619.000000	33.061000
