PE UV       SUBTECH     SPECTRUM    ASCII       PEDS        4.00        
   -1
CICIMAUCR0004-3.Sample.ASC
24/05/03
16:17:29.00
24/05/03
16:17:29.00
Vinicio Soto Monge
C. kalinini
250,000000
1
Lambda 1050
1050L1511233
PerkinElmer UV WinLab 6.3.2.0749 / 2.02.05 Lambda 900 UV/VIS/NIR, Aug  7 2015 09:38:08

0
0
3350/servo 860,8/2
0
0
UV/VIS
1
1
1
DoubleDePol,CommonBeamDepol,RBeamAtt,SBeamAtt,60mm sphere, WB InGaAs Detector
0
0
0
0
Program
Program
3350/servo 860,8/2
3350/0,2 860,8/0,2
3350/0,2 860,8/0,2
0
15.00
 
 
 
0
 
860,8
319,2
860,8
Front
100
on
S:100 R:100
0
0
0
0
 
0
 
 
 
0
 
 
0
0
0
0
0
 
 
 
 
0
0


0
0
#HDR
-1
-1
#GR
nm
%R
1.0
0.0
2500,000000
-1,000000
2251
8
98,738200
4,896700
#DATA
2500.000000	9.008200
2499.000000	9.131100
2498.000000	9.070700
2497.000000	9.083700
2496.000000	8.913200
2495.000000	8.990100
2494.000000	8.889600
2493.000000	8.980000
2492.000000	8.873500
2491.000000	8.871200
2490.000000	8.868700
2489.000000	8.814100
2488.000000	8.841400
2487.000000	8.773600
2486.000000	8.759900
2485.000000	8.747600
2484.000000	8.739200
2483.000000	8.769500
2482.000000	8.732400
2481.000000	8.784100
2480.000000	8.756000
2479.000000	8.709300
2478.000000	8.700200
2477.000000	8.709100
2476.000000	8.737100
2475.000000	8.715400
2474.000000	8.713800
2473.000000	8.794200
2472.000000	8.765200
2471.000000	8.751600
2470.000000	8.774900
2469.000000	8.828800
2468.000000	8.780200
2467.000000	8.816500
2466.000000	8.849800
2465.000000	8.842200
2464.000000	8.878900
2463.000000	8.909000
2462.000000	8.974500
2461.000000	8.994600
2460.000000	9.040200
2459.000000	9.118600
2458.000000	9.178700
2457.000000	9.261700
2456.000000	9.301800
2455.000000	9.374600
2454.000000	9.455100
2453.000000	9.520500
2452.000000	9.628700
2451.000000	9.708000
2450.000000	9.807100
2449.000000	9.876600
2448.000000	9.971300
2447.000000	10.069200
2446.000000	10.168000
2445.000000	10.252000
2444.000000	10.322900
2443.000000	10.416600
2442.000000	10.503200
2441.000000	10.611300
2440.000000	10.677200
2439.000000	10.782900
2438.000000	10.879600
2437.000000	10.931000
2436.000000	11.004400
2435.000000	11.071100
2434.000000	11.153200
2433.000000	11.238700
2432.000000	11.287300
2431.000000	11.351700
2430.000000	11.391600
2429.000000	11.454500
2428.000000	11.519800
2427.000000	11.568200
2426.000000	11.636100
2425.000000	11.688500
2424.000000	11.717900
2423.000000	11.757100
2422.000000	11.798400
2421.000000	11.834800
2420.000000	11.876600
2419.000000	11.910500
2418.000000	11.930400
2417.000000	11.971500
2416.000000	11.993200
2415.000000	12.028400
2414.000000	12.059300
2413.000000	12.093000
2412.000000	12.125500
2411.000000	12.172400
2410.000000	12.201000
2409.000000	12.209000
2408.000000	12.238000
2407.000000	12.270100
2406.000000	12.296900
2405.000000	12.319400
2404.000000	12.358400
2403.000000	12.392500
2402.000000	12.409200
2401.000000	12.447800
2400.000000	12.479700
2399.000000	12.519300
2398.000000	12.563400
2397.000000	12.620000
2396.000000	12.683300
2395.000000	12.714900
2394.000000	12.738500
2393.000000	12.770600
2392.000000	12.791300
2391.000000	12.835500
2390.000000	12.845900
2389.000000	12.844700
2388.000000	12.868100
2387.000000	12.884600
2386.000000	12.892500
2385.000000	12.892100
2384.000000	12.899800
2383.000000	12.891700
2382.000000	12.894400
2381.000000	12.900700
2380.000000	12.885900
2379.000000	12.865900
2378.000000	12.844600
2377.000000	12.831700
2376.000000	12.813100
2375.000000	12.765000
2374.000000	12.731700
2373.000000	12.715900
2372.000000	12.676400
2371.000000	12.637400
2370.000000	12.607100
2369.000000	12.556600
2368.000000	12.489400
2367.000000	12.432100
2366.000000	12.381000
2365.000000	12.324800
2364.000000	12.258400
2363.000000	12.164500
2362.000000	12.081900
2361.000000	12.020200
2360.000000	11.954800
2359.000000	11.882900
2358.000000	11.803500
2357.000000	11.746300
2356.000000	11.706900
2355.000000	11.680400
2354.000000	11.653300
2353.000000	11.634900
2352.000000	11.642900
2351.000000	11.656900
2350.000000	11.666500
2349.000000	11.694200
2348.000000	11.734600
2347.000000	11.768100
2346.000000	11.807300
2345.000000	11.860700
2344.000000	11.911700
2343.000000	11.949100
2342.000000	12.003300
2341.000000	12.054600
2340.000000	12.091500
2339.000000	12.105700
2338.000000	12.112700
2337.000000	12.107100
2336.000000	12.101100
2335.000000	12.070300
2334.000000	12.050400
2333.000000	12.024200
2332.000000	11.992100
2331.000000	11.945600
2330.000000	11.885400
2329.000000	11.807600
2328.000000	11.726300
2327.000000	11.660000
2326.000000	11.579500
2325.000000	11.482600
2324.000000	11.374900
2323.000000	11.262100
2322.000000	11.148200
2321.000000	11.019600
2320.000000	10.880700
2319.000000	10.757500
2318.000000	10.625500
2317.000000	10.488700
2316.000000	10.339000
2315.000000	10.219700
2314.000000	10.094600
2313.000000	9.970200
2312.000000	9.849100
2311.000000	9.764600
2310.000000	9.663100
2309.000000	9.614500
2308.000000	9.580000
2307.000000	9.543400
2306.000000	9.535900
2305.000000	9.540900
2304.000000	9.584700
2303.000000	9.647000
2302.000000	9.732400
2301.000000	9.813600
2300.000000	9.909100
2299.000000	10.022100
2298.000000	10.128800
2297.000000	10.223700
2296.000000	10.320700
2295.000000	10.409600
2294.000000	10.501500
2293.000000	10.578900
2292.000000	10.628300
2291.000000	10.681500
2290.000000	10.697400
2289.000000	10.728600
2288.000000	10.721000
2287.000000	10.703900
2286.000000	10.687500
2285.000000	10.642700
2284.000000	10.572100
2283.000000	10.550200
2282.000000	10.507500
2281.000000	10.453200
2280.000000	10.408500
2279.000000	10.342200
2278.000000	10.289700
2277.000000	10.240000
2276.000000	10.194200
2275.000000	10.153300
2274.000000	10.109200
2273.000000	10.113900
2272.000000	10.122500
2271.000000	10.133500
2270.000000	10.171000
2269.000000	10.251000
2268.000000	10.325900
2267.000000	10.447800
2266.000000	10.564700
2265.000000	10.755900
2264.000000	10.923600
2263.000000	11.126100
2262.000000	11.386800
2261.000000	11.643700
2260.000000	11.922900
2259.000000	12.197100
2258.000000	12.486400
2257.000000	12.805000
2256.000000	13.114800
2255.000000	13.414000
2254.000000	13.717800
2253.000000	14.016600
2252.000000	14.341600
2251.000000	14.610300
2250.000000	14.851000
2249.000000	15.109000
2248.000000	15.334200
2247.000000	15.574600
2246.000000	15.764500
2245.000000	15.963200
2244.000000	16.126900
2243.000000	16.311700
2242.000000	16.442700
2241.000000	16.578500
2240.000000	16.710700
2239.000000	16.826300
2238.000000	16.937400
2237.000000	17.040300
2236.000000	17.128100
2235.000000	17.199500
2234.000000	17.259900
2233.000000	17.334600
2232.000000	17.367000
2231.000000	17.406200
2230.000000	17.421100
2229.000000	17.459300
2228.000000	17.458600
2227.000000	17.471700
2226.000000	17.478200
2225.000000	17.455700
2224.000000	17.458800
2223.000000	17.440800
2222.000000	17.404100
2221.000000	17.374500
2220.000000	17.332900
2219.000000	17.290000
2218.000000	17.275600
2217.000000	17.226400
2216.000000	17.156000
2215.000000	17.130900
2214.000000	17.084200
2213.000000	17.074300
2212.000000	17.033600
2211.000000	17.006000
2210.000000	16.959200
2209.000000	16.939400
2208.000000	16.920800
2207.000000	16.879300
2206.000000	16.849300
2205.000000	16.836500
2204.000000	16.806000
2203.000000	16.792200
2202.000000	16.769000
2201.000000	16.763900
2200.000000	16.741200
2199.000000	16.757100
2198.000000	16.741300
2197.000000	16.720500
2196.000000	16.718700
2195.000000	16.689400
2194.000000	16.686200
2193.000000	16.671200
2192.000000	16.672400
2191.000000	16.660600
2190.000000	16.673300
2189.000000	16.636400
2188.000000	16.624700
2187.000000	16.615900
2186.000000	16.593700
2185.000000	16.589500
2184.000000	16.578600
2183.000000	16.550200
2182.000000	16.541100
2181.000000	16.508200
2180.000000	16.497500
2179.000000	16.500700
2178.000000	16.484200
2177.000000	16.491300
2176.000000	16.489000
2175.000000	16.482200
2174.000000	16.469200
2173.000000	16.475800
2172.000000	16.474200
2171.000000	16.505000
2170.000000	16.521200
2169.000000	16.518500
2168.000000	16.545300
2167.000000	16.579200
2166.000000	16.589500
2165.000000	16.606100
2164.000000	16.643500
2163.000000	16.674600
2162.000000	16.703800
2161.000000	16.746100
2160.000000	16.777200
2159.000000	16.833700
2158.000000	16.868700
2157.000000	16.900400
2156.000000	16.966000
2155.000000	17.024300
2154.000000	17.086100
2153.000000	17.148100
2152.000000	17.205400
2151.000000	17.268100
2150.000000	17.334800
2149.000000	17.393300
2148.000000	17.446700
2147.000000	17.501700
2146.000000	17.551800
2145.000000	17.622100
2144.000000	17.674800
2143.000000	17.717700
2142.000000	17.769100
2141.000000	17.811800
2140.000000	17.862600
2139.000000	17.915700
2138.000000	17.967600
2137.000000	18.013800
2136.000000	18.034100
2135.000000	18.074100
2134.000000	18.104300
2133.000000	18.133100
2132.000000	18.165600
2131.000000	18.192300
2130.000000	18.210900
2129.000000	18.241500
2128.000000	18.246400
2127.000000	18.235300
2126.000000	18.253600
2125.000000	18.276600
2124.000000	18.277100
2123.000000	18.278000
2122.000000	18.255300
2121.000000	18.238300
2120.000000	18.229400
2119.000000	18.230200
2118.000000	18.218200
2117.000000	18.190100
2116.000000	18.155700
2115.000000	18.134600
2114.000000	18.106300
2113.000000	18.074300
2112.000000	18.054600
2111.000000	18.022500
2110.000000	17.999400
2109.000000	17.977100
2108.000000	17.937000
2107.000000	17.903600
2106.000000	17.876400
2105.000000	17.851000
2104.000000	17.820400
2103.000000	17.794200
2102.000000	17.762100
2101.000000	17.734300
2100.000000	17.704600
2099.000000	17.663900
2098.000000	17.639700
2097.000000	17.619400
2096.000000	17.589700
2095.000000	17.576200
2094.000000	17.565200
2093.000000	17.541100
2092.000000	17.522800
2091.000000	17.509200
2090.000000	17.493800
2089.000000	17.478300
2088.000000	17.460500
2087.000000	17.449900
2086.000000	17.428100
2085.000000	17.402900
2084.000000	17.382600
2083.000000	17.370500
2082.000000	17.351000
2081.000000	17.313900
2080.000000	17.273500
2079.000000	17.229300
2078.000000	17.215000
2077.000000	17.179100
2076.000000	17.139700
2075.000000	17.099900
2074.000000	17.059100
2073.000000	17.021600
2072.000000	16.985400
2071.000000	16.929700
2070.000000	16.875400
2069.000000	16.824300
2068.000000	16.777700
2067.000000	16.744800
2066.000000	16.697900
2065.000000	16.651100
2064.000000	16.618000
2063.000000	16.573000
2062.000000	16.568800
2061.000000	16.540900
2060.000000	16.523800
2059.000000	16.527000
2058.000000	16.521100
2057.000000	16.539700
2056.000000	16.564500
2055.000000	16.611100
2054.000000	16.666800
2053.000000	16.733000
2052.000000	16.823700
2051.000000	16.930800
2050.000000	17.057300
2049.000000	17.190100
2048.000000	17.336900
2047.000000	17.480600
2046.000000	17.640900
2045.000000	17.802400
2044.000000	17.985600
2043.000000	18.144800
2042.000000	18.320800
2041.000000	18.513800
2040.000000	18.706100
2039.000000	18.854200
2038.000000	19.003200
2037.000000	19.161900
2036.000000	19.322100
2035.000000	19.481700
2034.000000	19.611100
2033.000000	19.751500
2032.000000	19.873400
2031.000000	19.987600
2030.000000	20.107700
2029.000000	20.215500
2028.000000	20.348300
2027.000000	20.470300
2026.000000	20.553500
2025.000000	20.627000
2024.000000	20.718200
2023.000000	20.813600
2022.000000	20.897900
2021.000000	20.989800
2020.000000	21.055400
2019.000000	21.134800
2018.000000	21.203700
2017.000000	21.264900
2016.000000	21.332300
2015.000000	21.387000
2014.000000	21.424600
2013.000000	21.459700
2012.000000	21.506100
2011.000000	21.533600
2010.000000	21.584600
2009.000000	21.583100
2008.000000	21.604400
2007.000000	21.618300
2006.000000	21.608800
2005.000000	21.620400
2004.000000	21.598700
2003.000000	21.574900
2002.000000	21.565400
2001.000000	21.552200
2000.000000	21.519300
1999.000000	21.485000
1998.000000	21.449000
1997.000000	21.405500
1996.000000	21.347800
1995.000000	21.297100
1994.000000	21.245100
1993.000000	21.198300
1992.000000	21.124500
1991.000000	21.063400
1990.000000	21.001100
1989.000000	20.919900
1988.000000	20.833700
1987.000000	20.740600
1986.000000	20.658900
1985.000000	20.594200
1984.000000	20.498900
1983.000000	20.438100
1982.000000	20.326200
1981.000000	20.236200
1980.000000	20.153600
1979.000000	20.043900
1978.000000	19.949200
1977.000000	19.859500
1976.000000	19.767400
1975.000000	19.673600
1974.000000	19.608900
1973.000000	19.499400
1972.000000	19.415200
1971.000000	19.350000
1970.000000	19.228200
1969.000000	19.172300
1968.000000	19.098400
1967.000000	18.986300
1966.000000	18.907700
1965.000000	18.827200
1964.000000	18.714400
1963.000000	18.644200
1962.000000	18.558100
1961.000000	18.479600
1960.000000	18.392700
1959.000000	18.293000
1958.000000	18.235300
1957.000000	18.135000
1956.000000	18.053100
1955.000000	17.986100
1954.000000	17.876500
1953.000000	17.790900
1952.000000	17.733500
1951.000000	17.631100
1950.000000	17.591900
1949.000000	17.507400
1948.000000	17.446800
1947.000000	17.388400
1946.000000	17.333600
1945.000000	17.271900
1944.000000	17.218800
1943.000000	17.172100
1942.000000	17.148300
1941.000000	17.133700
1940.000000	17.141000
1939.000000	17.112700
1938.000000	17.128300
1937.000000	17.132100
1936.000000	17.146600
1935.000000	17.169000
1934.000000	17.224900
1933.000000	17.289800
1932.000000	17.346200
1931.000000	17.416300
1930.000000	17.500200
1929.000000	17.613300
1928.000000	17.723800
1927.000000	17.849900
1926.000000	17.981300
1925.000000	18.119600
1924.000000	18.292600
1923.000000	18.449200
1922.000000	18.625600
1921.000000	18.832100
1920.000000	19.045500
1919.000000	19.252900
1918.000000	19.454600
1917.000000	19.687700
1916.000000	19.894100
1915.000000	20.138000
1914.000000	20.417400
1913.000000	20.707000
1912.000000	20.999300
1911.000000	21.260900
1910.000000	21.533100
1909.000000	21.804100
1908.000000	22.092100
1907.000000	22.435100
1906.000000	22.783800
1905.000000	23.152100
1904.000000	23.474100
1903.000000	23.816600
1902.000000	24.148300
1901.000000	24.527000
1900.000000	24.905100
1899.000000	25.310200
1898.000000	25.655600
1897.000000	26.035800
1896.000000	26.362200
1895.000000	26.665800
1894.000000	27.016400
1893.000000	27.378700
1892.000000	27.783000
1891.000000	28.166300
1890.000000	28.518800
1889.000000	28.877800
1888.000000	29.266100
1887.000000	29.652400
1886.000000	30.094200
1885.000000	30.574200
1884.000000	31.085700
1883.000000	31.586000
1882.000000	32.110300
1881.000000	32.626100
1880.000000	33.096400
1879.000000	33.561000
1878.000000	34.009700
1877.000000	34.420600
1876.000000	34.811600
1875.000000	35.190000
1874.000000	35.541500
1873.000000	35.854100
1872.000000	36.142200
1871.000000	36.411100
1870.000000	36.627400
1869.000000	36.844400
1868.000000	36.980700
1867.000000	37.086000
1866.000000	37.155000
1865.000000	37.238400
1864.000000	37.291700
1863.000000	37.337500
1862.000000	37.412000
1861.000000	37.457200
1860.000000	37.496700
1859.000000	37.514000
1858.000000	37.526300
1857.000000	37.518700
1856.000000	37.476700
1855.000000	37.466600
1854.000000	37.444900
1853.000000	37.364300
1852.000000	37.321800
1851.000000	37.281900
1850.000000	37.228100
1849.000000	37.183900
1848.000000	37.139400
1847.000000	37.081300
1846.000000	36.993900
1845.000000	36.908100
1844.000000	36.840600
1843.000000	36.823000
1842.000000	36.817500
1841.000000	36.784400
1840.000000	36.732800
1839.000000	36.676200
1838.000000	36.608000
1837.000000	36.550500
1836.000000	36.512300
1835.000000	36.421100
1834.000000	36.313800
1833.000000	36.225900
1832.000000	36.158700
1831.000000	36.094600
1830.000000	36.007800
1829.000000	35.909500
1828.000000	35.808100
1827.000000	35.740200
1826.000000	35.684500
1825.000000	35.620800
1824.000000	35.571500
1823.000000	35.535500
1822.000000	35.528400
1821.000000	35.527300
1820.000000	35.489800
1819.000000	35.433500
1818.000000	35.405500
1817.000000	35.405400
1816.000000	35.407100
1815.000000	35.392200
1814.000000	35.370300
1813.000000	35.348700
1812.000000	35.322000
1811.000000	35.286600
1810.000000	35.234800
1809.000000	35.176200
1808.000000	35.126100
1807.000000	35.084900
1806.000000	35.012900
1805.000000	34.955100
1804.000000	34.915100
1803.000000	34.857100
1802.000000	34.804000
1801.000000	34.743300
1800.000000	34.675900
1799.000000	34.610000
1798.000000	34.548500
1797.000000	34.493200
1796.000000	34.430600
1795.000000	34.376500
1794.000000	34.313500
1793.000000	34.258500
1792.000000	34.191900
1791.000000	34.116000
1790.000000	34.057000
1789.000000	33.988200
1788.000000	33.897700
1787.000000	33.826900
1786.000000	33.758600
1785.000000	33.678200
1784.000000	33.578400
1783.000000	33.478200
1782.000000	33.380600
1781.000000	33.292200
1780.000000	33.200100
1779.000000	33.094300
1778.000000	32.970500
1777.000000	32.838600
1776.000000	32.722900
1775.000000	32.573700
1774.000000	32.420700
1773.000000	32.265800
1772.000000	32.115700
1771.000000	31.959600
1770.000000	31.808100
1769.000000	31.674300
1768.000000	31.524700
1767.000000	31.405700
1766.000000	31.300100
1765.000000	31.234700
1764.000000	31.186900
1763.000000	31.180200
1762.000000	31.206000
1761.000000	31.245000
1760.000000	31.313400
1759.000000	31.386300
1758.000000	31.470400
1757.000000	31.528800
1756.000000	31.579400
1755.000000	31.608700
1754.000000	31.618900
1753.000000	31.615000
1752.000000	31.590200
1751.000000	31.539600
1750.000000	31.468000
1749.000000	31.392600
1748.000000	31.285600
1747.000000	31.171700
1746.000000	31.007900
1745.000000	30.845000
1744.000000	30.636600
1743.000000	30.400100
1742.000000	30.179700
1741.000000	29.894300
1740.000000	29.624300
1739.000000	29.347000
1738.000000	29.114600
1737.000000	28.908900
1736.000000	28.787400
1735.000000	28.702700
1734.000000	28.658400
1733.000000	28.670500
1732.000000	28.729800
1731.000000	28.819500
1730.000000	28.939800
1729.000000	29.066400
1728.000000	29.206100
1727.000000	29.321300
1726.000000	29.405600
1725.000000	29.465700
1724.000000	29.527700
1723.000000	29.585600
1722.000000	29.627800
1721.000000	29.657400
1720.000000	29.716500
1719.000000	29.734000
1718.000000	29.838700
1717.000000	29.928300
1716.000000	30.030300
1715.000000	30.107400
1714.000000	30.175400
1713.000000	30.281800
1712.000000	30.348300
1711.000000	30.402600
1710.000000	30.425400
1709.000000	30.436700
1708.000000	30.423200
1707.000000	30.392200
1706.000000	30.376700
1705.000000	30.311500
1704.000000	30.229600
1703.000000	30.140600
1702.000000	30.013000
1701.000000	29.845200
1700.000000	29.647900
1699.000000	29.471000
1698.000000	29.326300
1697.000000	29.200600
1696.000000	29.150700
1695.000000	29.155700
1694.000000	29.232200
1693.000000	29.352000
1692.000000	29.520400
1691.000000	29.702700
1690.000000	29.844700
1689.000000	29.935900
1688.000000	29.996300
1687.000000	30.038200
1686.000000	30.064700
1685.000000	30.115100
1684.000000	30.292000
1683.000000	30.598800
1682.000000	31.032100
1681.000000	31.582100
1680.000000	32.223100
1679.000000	32.820600
1678.000000	33.416100
1677.000000	33.959900
1676.000000	34.437900
1675.000000	34.895500
1674.000000	35.258000
1673.000000	35.566100
1672.000000	35.853800
1671.000000	36.133000
1670.000000	36.327000
1669.000000	36.531900
1668.000000	36.700900
1667.000000	36.827300
1666.000000	36.955800
1665.000000	37.069700
1664.000000	37.164100
1663.000000	37.257500
1662.000000	37.345800
1661.000000	37.415700
1660.000000	37.454500
1659.000000	37.502000
1658.000000	37.532800
1657.000000	37.549600
1656.000000	37.583300
1655.000000	37.579300
1654.000000	37.566400
1653.000000	37.558800
1652.000000	37.556600
1651.000000	37.535500
1650.000000	37.500500
1649.000000	37.456700
1648.000000	37.406900
1647.000000	37.362900
1646.000000	37.301200
1645.000000	37.243900
1644.000000	37.183100
1643.000000	37.141300
1642.000000	37.089800
1641.000000	37.022400
1640.000000	36.964400
1639.000000	36.892900
1638.000000	36.828700
1637.000000	36.749900
1636.000000	36.667800
1635.000000	36.603000
1634.000000	36.530500
1633.000000	36.445900
1632.000000	36.354600
1631.000000	36.270400
1630.000000	36.193500
1629.000000	36.103400
1628.000000	36.008100
1627.000000	35.932200
1626.000000	35.836000
1625.000000	35.741100
1624.000000	35.651400
1623.000000	35.582900
1622.000000	35.494600
1621.000000	35.400300
