PE UV       SUBTECH     SPECTRUM    ASCII       PEDS        4.00        
   -1
CICIMAUCR0205-2.Sample.ASC
24/05/31
16:02:27.00
24/05/31
16:02:27.00
Vinicio Soto Monge
C. cupreomarginata. Sex F. Dorsal
250,000000
1
Lambda 1050
1050L1511233
PerkinElmer UV WinLab 6.3.2.0749 / 2.02.05 Lambda 900 UV/VIS/NIR, Aug  7 2015 09:38:08

0
0
3350/servo 860,8/2
0
0
UV/VIS
1
1
1
DoubleDePol,CommonBeamDepol,RBeamAtt,SBeamAtt,60mm sphere, WB InGaAs Detector
0
0
0
0
Program
Program
3350/servo 860,8/2
3350/0,2 860,8/0,2
3350/0,2 860,8/0,2
0
15.00
 
 
 
0
 
860,8
319,2
860,8
Front
100
on
S:100 R:100
0
0
0
0
 
0
 
 
 
0
 
 
0
0
0
0
0
 
 
 
 
0
0


0
0
#HDR
-1
-1
#GR
nm
%R
1.0
0.0
2500,000000
-1,000000
2251
8
68,667400
5,592200
#DATA
2482.000000	9.037772
2481.000000	9.085115
2480.000000	9.152646
2479.000000	9.198246
2478.000000	9.138197
2477.000000	9.174165
2476.000000	9.207981
2475.000000	9.201730
2474.000000	9.114013
2473.000000	9.139324
2472.000000	9.186462
2471.000000	9.243540
2470.000000	9.283812
2469.000000	9.243642
2468.000000	9.250098
2467.000000	9.271925
2466.000000	9.305229
2465.000000	9.322649
2464.000000	9.326646
2463.000000	9.372862
2462.000000	9.366918
2461.000000	9.446540
2460.000000	9.511406
2459.000000	9.535282
2458.000000	9.603735
2457.000000	9.608551
2456.000000	9.663784
2455.000000	9.757958
2454.000000	9.837375
2453.000000	9.907569
2452.000000	9.913718
2451.000000	10.033100
2450.000000	10.132089
2449.000000	10.195623
2448.000000	10.259157
2447.000000	10.360503
2446.000000	10.430288
2445.000000	10.517698
2444.000000	10.576723
2443.000000	10.642818
2442.000000	10.725002
2441.000000	10.798681
2440.000000	10.886808
2439.000000	10.973091
2438.000000	11.036522
2437.000000	11.117784
2436.000000	11.172915
2435.000000	11.236244
2434.000000	11.322117
2433.000000	11.387290
2432.000000	11.433916
2431.000000	11.506672
2430.000000	11.566721
2429.000000	11.624312
2428.000000	11.672167
2427.000000	11.718383
2426.000000	11.795340
2425.000000	11.852726
2424.000000	11.894535
2423.000000	11.933782
2422.000000	11.969853
2421.000000	12.013712
2420.000000	12.052447
2419.000000	12.110857
2418.000000	12.145186
2417.000000	12.178387
2416.000000	12.234850
2415.000000	12.272458
2414.000000	12.296027
2413.000000	12.338861
2412.000000	12.375137
2411.000000	12.405674
2410.000000	12.432419
2409.000000	12.472179
2408.000000	12.512042
2407.000000	12.524748
2406.000000	12.547497
2405.000000	12.578137
2404.000000	12.609187
2403.000000	12.650791
2402.000000	12.694547
2401.000000	12.706844
2400.000000	12.740763
2399.000000	12.780830
2398.000000	12.809728
2397.000000	12.847233
2396.000000	12.867523
2395.000000	12.894269
2394.000000	12.920399
2393.000000	12.943558
2392.000000	12.968152
2391.000000	12.986495
2390.000000	13.002583
2389.000000	13.025332
2388.000000	13.054742
2387.000000	13.068064
2386.000000	13.067859
2385.000000	13.078824
2384.000000	13.087739
2383.000000	13.092043
2382.000000	13.100958
2381.000000	13.091428
2380.000000	13.082205
2379.000000	13.083640
2378.000000	13.082000
2377.000000	13.087739
2376.000000	13.071446
2375.000000	13.033633
2374.000000	13.022873
2373.000000	13.021336
2372.000000	12.992746
2371.000000	12.963746
2370.000000	12.928392
2369.000000	12.898367
2368.000000	12.884226
2367.000000	12.847745
2366.000000	12.803784
2365.000000	12.764639
2364.000000	12.723752
2363.000000	12.681533
2362.000000	12.638597
2361.000000	12.598017
2360.000000	12.544218
2359.000000	12.493084
2358.000000	12.458960
2357.000000	12.418893
2356.000000	12.365607
2355.000000	12.333532
2354.000000	12.322875
2353.000000	12.273175
2352.000000	12.249299
2351.000000	12.262825
2350.000000	12.256984
2349.000000	12.239974
2348.000000	12.245302
2347.000000	12.271126
2346.000000	12.288751
2345.000000	12.328921
2344.000000	12.351465
2343.000000	12.360585
2342.000000	12.401677
2341.000000	12.440412
2340.000000	12.467978
2339.000000	12.486013
2338.000000	12.494416
2337.000000	12.514911
2336.000000	12.540017
2335.000000	12.549444
2334.000000	12.547293
2333.000000	12.528335
2332.000000	12.494826
2331.000000	12.474126
2330.000000	12.460497
2329.000000	12.425964
2328.000000	12.359868
2327.000000	12.309861
2326.000000	12.282398
2325.000000	12.226550
2324.000000	12.150207
2323.000000	12.062797
2322.000000	11.978871
2321.000000	11.908164
2320.000000	11.823418
2319.000000	11.726683
2318.000000	11.588753
2317.000000	11.481361
2316.000000	11.377453
2315.000000	11.279385
2314.000000	11.186237
2313.000000	11.054250
2312.000000	10.932409
2311.000000	10.827169
2310.000000	10.744062
2309.000000	10.673458
2308.000000	10.618327
2307.000000	10.556331
2306.000000	10.522207
2305.000000	10.506118
2304.000000	10.501507
2303.000000	10.516263
2302.000000	10.572112
2301.000000	10.577338
2300.000000	10.623143
2299.000000	10.699589
2298.000000	10.782080
2297.000000	10.859345
2296.000000	10.949522
2295.000000	11.034473
2294.000000	11.109279
2293.000000	11.183367
2292.000000	11.218618
2291.000000	11.303262
2290.000000	11.342202
2289.000000	11.388417
2288.000000	11.403071
2287.000000	11.417622
2286.000000	11.428689
2285.000000	11.428279
2284.000000	11.402764
2283.000000	11.386470
2282.000000	11.354908
2281.000000	11.319350
2280.000000	11.275594
2279.000000	11.221180
2278.000000	11.177116
2277.000000	11.114505
2276.000000	11.091448
2275.000000	11.069212
2274.000000	11.036317
2273.000000	11.015720
2272.000000	10.973911
2271.000000	10.973809
2270.000000	10.985695
2269.000000	11.034883
2268.000000	11.043491
2267.000000	11.090629
2266.000000	11.191975
2265.000000	11.293731
2264.000000	11.379502
2263.000000	11.519174
2262.000000	11.698195
2261.000000	11.866662
2260.000000	12.048655
2259.000000	12.236285
2258.000000	12.443692
2257.000000	12.698646
2256.000000	12.945505
2255.000000	13.161930
2254.000000	13.364725
2253.000000	13.607178
2252.000000	13.850553
2251.000000	14.072819
2250.000000	14.267724
2249.000000	14.454636
2248.000000	14.668908
2247.000000	14.847213
2246.000000	15.015987
2245.000000	15.155351
2244.000000	15.293588
2243.000000	15.446479
2242.000000	15.559098
2241.000000	15.668335
2240.000000	15.752363
2239.000000	15.859858
2238.000000	15.947985
2237.000000	16.035396
2236.000000	16.113378
2235.000000	16.167074
2234.000000	16.199558
2233.000000	16.265961
2232.000000	16.313099
2231.000000	16.354294
2230.000000	16.362082
2229.000000	16.378580
2228.000000	16.394259
2227.000000	16.419057
2226.000000	16.423464
2225.000000	16.425308
2224.000000	16.388930
2223.000000	16.372842
2222.000000	16.335746
2221.000000	16.328368
2220.000000	16.315046
2219.000000	16.283997
2218.000000	16.245467
2217.000000	16.217286
2216.000000	16.161028
2215.000000	16.135103
2214.000000	16.098724
2213.000000	16.056198
2212.000000	16.016233
2211.000000	16.005166
2210.000000	15.958335
2209.000000	15.956696
2208.000000	15.871643
2207.000000	15.867544
2206.000000	15.838646
2205.000000	15.799911
2204.000000	15.785155
2203.000000	15.764762
2202.000000	15.757282
2201.000000	15.745190
2200.000000	15.706352
2199.000000	15.691186
2198.000000	15.661981
2197.000000	15.635748
2196.000000	15.617610
2195.000000	15.623144
2194.000000	15.592402
2193.000000	15.563504
2192.000000	15.588200
2191.000000	15.571087
2190.000000	15.551617
2189.000000	15.540857
2188.000000	15.508476
2187.000000	15.515956
2186.000000	15.487776
2185.000000	15.474967
2184.000000	15.474454
2183.000000	15.446274
2182.000000	15.467281
2181.000000	15.437461
2180.000000	15.398521
2179.000000	15.436642
2178.000000	15.404875
2177.000000	15.381408
2176.000000	15.379051
2175.000000	15.388172
2174.000000	15.396267
2173.000000	15.399854
2172.000000	15.413175
2171.000000	15.412663
2170.000000	15.438179
2169.000000	15.453345
2168.000000	15.465949
2167.000000	15.502327
2166.000000	15.515341
2165.000000	15.555614
2164.000000	15.576416
2163.000000	15.600497
2162.000000	15.633391
2161.000000	15.697847
2160.000000	15.730536
2159.000000	15.759126
2158.000000	15.815897
2157.000000	15.877586
2156.000000	15.914169
2155.000000	15.955364
2154.000000	16.009982
2153.000000	16.056505
2152.000000	16.109894
2151.000000	16.163898
2150.000000	16.240548
2149.000000	16.300495
2148.000000	16.352449
2147.000000	16.410142
2146.000000	16.456870
2145.000000	16.509029
2144.000000	16.562623
2143.000000	16.619188
2142.000000	16.668376
2141.000000	16.701987
2140.000000	16.748305
2139.000000	16.794931
2138.000000	16.829464
2137.000000	16.838277
2136.000000	16.872094
2135.000000	16.921178
2134.000000	16.949564
2133.000000	16.979179
2132.000000	16.981740
2131.000000	16.986147
2130.000000	17.010843
2129.000000	17.038818
2128.000000	17.038101
2127.000000	17.032772
2126.000000	17.042097
2125.000000	17.036666
2124.000000	17.027854
2123.000000	17.032055
2122.000000	17.019451
2121.000000	17.009101
2120.000000	16.999981
2119.000000	16.960836
2118.000000	16.953663
2117.000000	16.927839
2116.000000	16.890334
2115.000000	16.865945
2114.000000	16.834588
2113.000000	16.807535
2112.000000	16.771772
2111.000000	16.731705
2110.000000	16.704037
2109.000000	16.673499
2108.000000	16.651570
2107.000000	16.612323
2106.000000	16.568669
2105.000000	16.532598
2104.000000	16.498372
2103.000000	16.464965
2102.000000	16.436888
2101.000000	16.412909
2100.000000	16.373251
2099.000000	16.324986
2098.000000	16.287686
2097.000000	16.250693
2096.000000	16.216159
2095.000000	16.193000
2094.000000	16.168304
2093.000000	16.132541
2092.000000	16.109177
2091.000000	16.088682
2090.000000	16.063063
2089.000000	16.045745
2088.000000	16.015823
2087.000000	15.968480
2086.000000	15.949010
2085.000000	15.932102
2084.000000	15.896851
2083.000000	15.852480
2082.000000	15.819893
2081.000000	15.787922
2080.000000	15.737402
2079.000000	15.703791
2078.000000	15.656243
2077.000000	15.588200
2076.000000	15.537681
2075.000000	15.481935
2074.000000	15.434490
2073.000000	15.388889
2072.000000	15.313366
2071.000000	15.239380
2070.000000	15.186503
2069.000000	15.123277
2068.000000	15.047139
2067.000000	14.984630
2066.000000	14.924375
2065.000000	14.849570
2064.000000	14.775379
2063.000000	14.713587
2062.000000	14.657636
2061.000000	14.587954
2060.000000	14.525445
2059.000000	14.472466
2058.000000	14.420615
2057.000000	14.392332
2056.000000	14.375834
2055.000000	14.344067
2054.000000	14.324084
2053.000000	14.326749
2052.000000	14.326749
2051.000000	14.344169
2050.000000	14.376756
2049.000000	14.423586
2048.000000	14.468162
2047.000000	14.531184
2046.000000	14.601276
2045.000000	14.673622
2044.000000	14.752527
2043.000000	14.826718
2042.000000	14.912693
2041.000000	14.992623
2040.000000	15.078906
2039.000000	15.167238
2038.000000	15.239995
2037.000000	15.324228
2036.000000	15.402313
2035.000000	15.471688
2034.000000	15.535016
2033.000000	15.593529
2032.000000	15.647635
2031.000000	15.699282
2030.000000	15.749904
2029.000000	15.791713
2028.000000	15.844282
2027.000000	15.885067
2026.000000	15.910173
2025.000000	15.931897
2024.000000	15.965304
2023.000000	15.980367
2022.000000	15.988975
2021.000000	16.010904
2020.000000	16.032936
2019.000000	16.043389
2018.000000	16.046873
2017.000000	16.043184
2016.000000	16.037650
2015.000000	16.067060
2014.000000	16.049947
2013.000000	16.013056
2012.000000	15.991229
2011.000000	15.994406
2010.000000	15.971042
2009.000000	15.943784
2008.000000	15.911095
2007.000000	15.872155
2006.000000	15.840388
2005.000000	15.799501
2004.000000	15.775010
2003.000000	15.745497
2002.000000	15.675200
2001.000000	15.613716
2000.000000	15.571190
1999.000000	15.498843
1998.000000	15.444430
1997.000000	15.373415
1996.000000	15.294818
1995.000000	15.233129
1994.000000	15.168673
1993.000000	15.072860
1992.000000	15.007892
1991.000000	14.914538
1990.000000	14.846188
1989.000000	14.772817
1988.000000	14.689403
1987.000000	14.603735
1986.000000	14.513353
1985.000000	14.428198
1984.000000	14.334127
1983.000000	14.247127
1982.000000	14.153363
1981.000000	14.074253
1980.000000	13.973829
1979.000000	13.870638
1978.000000	13.799624
1977.000000	13.699814
1976.000000	13.610048
1975.000000	13.527966
1974.000000	13.431641
1973.000000	13.373026
1972.000000	13.270655
1971.000000	13.201792
1970.000000	13.112128
1969.000000	13.033530
1968.000000	12.932491
1967.000000	12.854611
1966.000000	12.800915
1965.000000	12.720678
1964.000000	12.637264
1963.000000	12.564611
1962.000000	12.503229
1961.000000	12.406596
1960.000000	12.358741
1959.000000	12.291313
1958.000000	12.216610
1957.000000	12.129712
1956.000000	12.073864
1955.000000	11.987888
1954.000000	11.935627
1953.000000	11.858874
1952.000000	11.792983
1951.000000	11.731294
1950.000000	11.694199
1949.000000	11.627283
1948.000000	11.550633
1947.000000	11.500421
1946.000000	11.472548
1945.000000	11.422951
1944.000000	11.412703
1943.000000	11.366488
1942.000000	11.339127
1941.000000	11.303774
1940.000000	11.316788
1939.000000	11.305311
1938.000000	11.310127
1937.000000	11.279180
1936.000000	11.300290
1935.000000	11.318120
1934.000000	11.316891
1933.000000	11.348247
1932.000000	11.406862
1931.000000	11.425718
1930.000000	11.475212
1929.000000	11.571640
1928.000000	11.641220
1927.000000	11.735393
1926.000000	11.793188
1925.000000	11.889411
1924.000000	11.965959
1923.000000	12.084009
1922.000000	12.197345
1921.000000	12.357409
1920.000000	12.497183
1919.000000	12.624865
1918.000000	12.772325
1917.000000	12.933414
1916.000000	13.086714
1915.000000	13.243909
1914.000000	13.418934
1913.000000	13.632079
1912.000000	13.887444
1911.000000	14.080914
1910.000000	14.283710
1909.000000	14.483738
1908.000000	14.692272
1907.000000	14.919764
1906.000000	15.200440
1905.000000	15.513189
1904.000000	15.836802
1903.000000	16.131823
1902.000000	16.413626
1901.000000	16.739288
1900.000000	17.033182
1899.000000	17.402088
1898.000000	17.748551
1897.000000	18.104340
1896.000000	18.469249
1895.000000	18.772981
1894.000000	19.095978
1893.000000	19.453407
1892.000000	19.866273
1891.000000	20.313878
1890.000000	20.797862
1889.000000	21.217287
1888.000000	21.662125
1887.000000	22.089441
1886.000000	22.541862
1885.000000	23.005658
1884.000000	23.528069
1883.000000	24.056219
1882.000000	24.586418
1881.000000	25.111596
1880.000000	25.619046
1879.000000	26.090322
1878.000000	26.555963
1877.000000	27.056752
1876.000000	27.493187
1875.000000	27.926856
1874.000000	28.363189
1873.000000	28.762222
1872.000000	29.174371
1871.000000	29.542252
1870.000000	29.870065
1869.000000	30.170723
1868.000000	30.449349
1867.000000	30.664852
1866.000000	30.832396
1865.000000	30.966534
1864.000000	31.125369
1863.000000	31.257355
1862.000000	31.381041
1861.000000	31.524504
1860.000000	31.652903
1859.000000	31.777716
1858.000000	31.884494
1857.000000	31.983893
1856.000000	32.045583
1855.000000	32.087289
1854.000000	32.141293
1853.000000	32.164862
1852.000000	32.151540
1851.000000	32.169473
1850.000000	32.184332
1849.000000	32.207594
1848.000000	32.231572
1847.000000	32.212307
1846.000000	32.182488
1845.000000	32.139756
1844.000000	32.116085
1843.000000	32.084625
1842.000000	32.091798
1841.000000	32.130431
1840.000000	32.103480
1839.000000	32.071918
1838.000000	32.047120
1837.000000	32.007667
1836.000000	31.961349
1835.000000	31.919950
1834.000000	31.872300
1833.000000	31.796162
1832.000000	31.730886
1831.000000	31.686925
1830.000000	31.647267
1829.000000	31.585066
1828.000000	31.526553
1827.000000	31.459945
1826.000000	31.392210
1825.000000	31.348659
1824.000000	31.287380
1823.000000	31.246390
1822.000000	31.237680
1821.000000	31.232249
1820.000000	31.215443
1819.000000	31.182651
1818.000000	31.138280
1817.000000	31.106308
1816.000000	31.090937
1815.000000	31.077411
1814.000000	31.069623
1813.000000	31.052920
1812.000000	31.024227
1811.000000	30.989386
1810.000000	30.953828
1809.000000	30.914478
1808.000000	30.879124
1807.000000	30.845513
1806.000000	30.812926
1805.000000	30.760050
1804.000000	30.706558
1803.000000	30.678481
1802.000000	30.633495
1801.000000	30.575187
1800.000000	30.512371
1799.000000	30.453038
1798.000000	30.407438
1797.000000	30.354049
1796.000000	30.320130
1795.000000	30.279346
1794.000000	30.238868
1793.000000	30.189988
1792.000000	30.127377
1791.000000	30.072041
1790.000000	30.020599
1789.000000	29.986681
1788.000000	29.930935
1787.000000	29.881747
1786.000000	29.840553
1785.000000	29.791571
1784.000000	29.725373
1783.000000	29.662761
1782.000000	29.606810
1781.000000	29.537538
1780.000000	29.465089
1779.000000	29.398789
1778.000000	29.343555
1777.000000	29.268135
1776.000000	29.192817
1775.000000	29.111657
1774.000000	29.020046
1773.000000	28.923106
1772.000000	28.823194
1771.000000	28.724204
1770.000000	28.621936
1769.000000	28.526737
1768.000000	28.437380
1767.000000	28.339723
1766.000000	28.255285
1765.000000	28.188574
1764.000000	28.126680
1763.000000	28.092966
1762.000000	28.079645
1761.000000	28.082514
1760.000000	28.124016
1759.000000	28.160291
1758.000000	28.205790
1757.000000	28.255694
1756.000000	28.311543
1755.000000	28.370567
1754.000000	28.436868
1753.000000	28.460334
1752.000000	28.476833
1751.000000	28.489232
1750.000000	28.477038
1749.000000	28.464126
1748.000000	28.430617
1747.000000	28.383787
1746.000000	28.333267
1745.000000	28.260101
1744.000000	28.171871
1743.000000	28.042242
1742.000000	27.900930
1741.000000	27.737792
1740.000000	27.558771
1739.000000	27.378929
1738.000000	27.200318
1737.000000	27.018734
1736.000000	26.872607
1735.000000	26.747999
1734.000000	26.636610
1733.000000	26.558012
1732.000000	26.513129
1731.000000	26.526450
1730.000000	26.570719
1729.000000	26.608634
1728.000000	26.659871
1727.000000	26.746257
1726.000000	26.817783
1725.000000	26.891462
1724.000000	26.954586
1723.000000	27.010844
1722.000000	27.056649
1721.000000	27.097434
1720.000000	27.168141
1719.000000	27.246841
1718.000000	27.321851
1717.000000	27.435290
1716.000000	27.531103
1715.000000	27.625276
1714.000000	27.724368
1713.000000	27.836167
1712.000000	27.934747
1711.000000	28.011602
1710.000000	28.083026
1709.000000	28.127090
1708.000000	28.151171
1707.000000	28.172793
1706.000000	28.175560
1705.000000	28.155885
1704.000000	28.119917
1703.000000	28.106493
1702.000000	28.038963
1701.000000	27.956266
1700.000000	27.876234
1699.000000	27.729389
1698.000000	27.612774
1697.000000	27.518089
1696.000000	27.413873
1695.000000	27.377700
1694.000000	27.339374
1693.000000	27.369297
1692.000000	27.413668
1691.000000	27.509788
1690.000000	27.602629
1689.000000	27.701517
1688.000000	27.791386
1687.000000	27.840778
1686.000000	27.890990
1685.000000	27.962517
1684.000000	28.033634
1683.000000	28.159882
1682.000000	28.332345
1681.000000	28.613430
1680.000000	28.949339
1679.000000	29.346527
1678.000000	29.782450
1677.000000	30.207614
1676.000000	30.631138
1675.000000	31.009368
1674.000000	31.342920
1673.000000	31.623391
1672.000000	31.868918
1671.000000	32.095385
1670.000000	32.300332
1669.000000	32.496365
1668.000000	32.669443
1667.000000	32.798150
1666.000000	32.913433
1665.000000	33.046956
1664.000000	33.140104
1663.000000	33.221059
1662.000000	33.332345
1661.000000	33.383275
1660.000000	33.447936
1659.000000	33.497533
1658.000000	33.559939
1657.000000	33.584226
1656.000000	33.610561
1655.000000	33.634028
1654.000000	33.642226
1653.000000	33.648682
1652.000000	33.636282
1651.000000	33.624703
1650.000000	33.623678
1649.000000	33.603286
1648.000000	33.573671
1647.000000	33.516285
1646.000000	33.475194
1645.000000	33.456748
1644.000000	33.408893
1643.000000	33.370568
1642.000000	33.315949
1641.000000	33.267172
1640.000000	33.221161
1639.000000	33.182221
1638.000000	33.115613
1637.000000	33.056896
1636.000000	32.992747
1635.000000	32.940486
1634.000000	32.887404
1633.000000	32.812291
1632.000000	32.743839
1631.000000	32.678153
1630.000000	32.614312
1629.000000	32.534690
1628.000000	32.457732
1627.000000	32.379032
1626.000000	32.297566
1625.000000	32.253912
1624.000000	32.168141
1623.000000	32.048657
1622.000000	31.990247
1621.000000	31.909498
1620.000000	31.837663
1619.000000	31.768391
1618.000000	31.699324
1617.000000	31.630769
1616.000000	31.527373
1615.000000	31.483924
1614.000000	31.394567
1613.000000	31.332263
1612.000000	31.264016
1611.000000	31.177220
1610.000000	31.127828
1609.000000	31.028019
1608.000000	30.984057
1607.000000	30.888039
1606.000000	30.815591
