PE UV       SUBTECH     SPECTRUM    ASCII       PEDS        4.00        
   -1
CICIMAUCR0257-1.ASC
24/06/27
12:19:21.00
24/06/27
12:19:21.00
Vinicio Soto Monge
C. resplendens. Sex F. Ventral
250,000000
1
Lambda 1050
1050L1511233
PerkinElmer UV WinLab 6.3.2.0749 / 2.02.05 Lambda 900 UV/VIS/NIR, Aug  7 2015 09:38:08

0
0
3350/servo 860,8/2
0
0
UV/VIS
1
1
1
DoubleDePol,CommonBeamDepol,RBeamAtt,SBeamAtt,60mm sphere, WB InGaAs Detector
0
0
0
0
Program
Program
3350/servo 860,8/2
3350/0,2 860,8/0,2
3350/0,2 860,8/0,2
0
15.00
 
 
 
0
 
860,8
319,2
860,8
Front
100
on
S:100 R:100
0
0
0
0
 
0
 
 
 
0
 
 
0
0
0
0
0
 
 
 
 
0
0


0
0
#HDR
-1
-1
#GR
nm
%R
1.0
0.0
2500,000000
-1,000000
2251
8
58,073700
4,602400
#DATA
2482.000000	5.574336
2481.000000	5.689390
2480.000000	5.571812
2479.000000	5.623203
2478.000000	5.629397
2477.000000	5.615632
2476.000000	5.662892
2475.000000	5.575713
2474.000000	5.607143
2473.000000	5.547609
2472.000000	5.544282
2471.000000	5.580874
2470.000000	5.592804
2469.000000	5.611502
2468.000000	5.579039
2467.000000	5.547379
2466.000000	5.540611
2465.000000	5.553115
2464.000000	5.555982
2463.000000	5.554835
2462.000000	5.551279
2461.000000	5.594640
2460.000000	5.574795
2459.000000	5.582939
2458.000000	5.614829
2457.000000	5.620449
2456.000000	5.615861
2455.000000	5.627447
2454.000000	5.640638
2453.000000	5.655895
2452.000000	5.696043
2451.000000	5.747204
2450.000000	5.754775
2449.000000	5.748466
2448.000000	5.779782
2447.000000	5.782764
2446.000000	5.842528
2445.000000	5.837481
2444.000000	5.841152
2443.000000	5.858932
2442.000000	5.896098
2441.000000	5.906651
2440.000000	5.928561
2439.000000	5.965383
2438.000000	5.988325
2437.000000	5.997387
2436.000000	6.014708
2435.000000	6.040977
2434.000000	6.065983
2433.000000	6.097070
2432.000000	6.119324
2431.000000	6.130795
2430.000000	6.151213
2429.000000	6.166355
2428.000000	6.187805
2427.000000	6.189985
2426.000000	6.189526
2425.000000	6.203865
2424.000000	6.234492
2423.000000	6.230363
2422.000000	6.236672
2421.000000	6.252731
2420.000000	6.257090
2419.000000	6.253878
2418.000000	6.259729
2417.000000	6.272576
2416.000000	6.310086
2415.000000	6.312725
2414.000000	6.332914
2413.000000	6.341746
2412.000000	6.335667
2411.000000	6.341746
2410.000000	6.355282
2409.000000	6.372603
2408.000000	6.371112
2407.000000	6.385910
2406.000000	6.383616
2405.000000	6.396348
2404.000000	6.401740
2403.000000	6.416079
2402.000000	6.428353
2401.000000	6.432138
2400.000000	6.452556
2399.000000	6.446477
2398.000000	6.459210
2397.000000	6.471025
2396.000000	6.482037
2395.000000	6.499358
2394.000000	6.508650
2393.000000	6.497867
2392.000000	6.511403
2391.000000	6.530789
2390.000000	6.538359
2389.000000	6.551551
2388.000000	6.547880
2387.000000	6.544439
2386.000000	6.561187
2385.000000	6.571740
2384.000000	6.568069
2383.000000	6.557057
2382.000000	6.556598
2381.000000	6.558090
2380.000000	6.552469
2379.000000	6.549028
2378.000000	6.535836
2377.000000	6.530903
2376.000000	6.531018
2375.000000	6.527462
2374.000000	6.528036
2373.000000	6.515647
2372.000000	6.502455
2371.000000	6.491099
2370.000000	6.467469
2369.000000	6.456112
2368.000000	6.442462
2367.000000	6.414128
2366.000000	6.401396
2365.000000	6.395316
2364.000000	6.374898
2363.000000	6.353562
2362.000000	6.331078
2361.000000	6.311234
2360.000000	6.295174
2359.000000	6.271659
2358.000000	6.254223
2357.000000	6.228872
2356.000000	6.207765
2355.000000	6.199850
2354.000000	6.187920
2353.000000	6.176449
2352.000000	6.173811
2351.000000	6.186200
2350.000000	6.196868
2349.000000	6.201915
2348.000000	6.205586
2347.000000	6.218318
2346.000000	6.233919
2345.000000	6.246881
2344.000000	6.267758
2343.000000	6.287603
2342.000000	6.293912
2341.000000	6.297354
2340.000000	6.316969
2339.000000	6.341746
2338.000000	6.336929
2337.000000	6.324425
2336.000000	6.340599
2335.000000	6.341288
2334.000000	6.332111
2333.000000	6.313298
2332.000000	6.301368
2331.000000	6.288177
2330.000000	6.283474
2329.000000	6.258582
2328.000000	6.239999
2327.000000	6.224972
2326.000000	6.191476
2325.000000	6.156719
2324.000000	6.135842
2323.000000	6.119782
2322.000000	6.074587
2321.000000	6.039944
2320.000000	6.026408
2319.000000	5.988898
2318.000000	5.953682
2317.000000	5.932690
2316.000000	5.895410
2315.000000	5.866961
2314.000000	5.826010
2313.000000	5.782191
2312.000000	5.759249
2311.000000	5.738027
2310.000000	5.722541
2309.000000	5.699944
2308.000000	5.668284
2307.000000	5.667939
2306.000000	5.677919
2305.000000	5.686981
2304.000000	5.668284
2303.000000	5.680672
2302.000000	5.690423
2301.000000	5.712791
2300.000000	5.735389
2299.000000	5.745942
2298.000000	5.757987
2297.000000	5.799856
2296.000000	5.808803
2295.000000	5.836334
2294.000000	5.848723
2293.000000	5.867764
2292.000000	5.887036
2291.000000	5.900113
2290.000000	5.913763
2289.000000	5.922022
2288.000000	5.919728
2287.000000	5.924431
2286.000000	5.933493
2285.000000	5.914566
2284.000000	5.901604
2283.000000	5.902522
2282.000000	5.892771
2281.000000	5.863405
2280.000000	5.838857
2279.000000	5.827960
2278.000000	5.826354
2277.000000	5.797562
2276.000000	5.790909
2275.000000	5.799741
2274.000000	5.773473
2273.000000	5.776799
2272.000000	5.777488
2271.000000	5.788844
2270.000000	5.791367
2269.000000	5.757528
2268.000000	5.782650
2267.000000	5.800085
2266.000000	5.834613
2265.000000	5.894836
2264.000000	5.919728
2263.000000	5.958271
2262.000000	6.029047
2261.000000	6.099593
2260.000000	6.145019
2259.000000	6.225316
2258.000000	6.305727
2257.000000	6.395660
2256.000000	6.503832
2255.000000	6.588029
2254.000000	6.668441
2253.000000	6.781889
2252.000000	6.882949
2251.000000	6.976437
2250.000000	7.063502
2249.000000	7.175115
2248.000000	7.267571
2247.000000	7.357734
2246.000000	7.424954
2245.000000	7.502498
2244.000000	7.569259
2243.000000	7.623631
2242.000000	7.711155
2241.000000	7.753483
2240.000000	7.839975
2239.000000	7.903868
2238.000000	7.935528
2237.000000	7.986001
2236.000000	8.047256
2235.000000	8.076392
2234.000000	8.131912
2233.000000	8.167128
2232.000000	8.182843
2231.000000	8.240313
2230.000000	8.288262
2229.000000	8.305353
2228.000000	8.332654
2227.000000	8.331737
2226.000000	8.347567
2225.000000	8.350779
2224.000000	8.350090
2223.000000	8.340340
2222.000000	8.366723
2221.000000	8.362594
2220.000000	8.362135
2219.000000	8.376244
2218.000000	8.353073
2217.000000	8.364200
2216.000000	8.337128
2215.000000	8.348829
2214.000000	8.336210
2213.000000	8.319004
2212.000000	8.323936
2211.000000	8.304092
2210.000000	8.298241
2209.000000	8.324166
2208.000000	8.300191
2207.000000	8.302142
2206.000000	8.297783
2205.000000	8.311433
2204.000000	8.298012
2203.000000	8.283903
2202.000000	8.274267
2201.000000	8.264975
2200.000000	8.289065
2199.000000	8.294112
2198.000000	8.249260
2197.000000	8.278626
2196.000000	8.267040
2195.000000	8.267155
2194.000000	8.270252
2193.000000	8.253849
2192.000000	8.253390
2191.000000	8.262452
2190.000000	8.257061
2189.000000	8.250178
2188.000000	8.226089
2187.000000	8.240313
2186.000000	8.232513
2185.000000	8.226777
2184.000000	8.220812
2183.000000	8.219894
2182.000000	8.214503
2181.000000	8.210832
2180.000000	8.191561
2179.000000	8.203606
2178.000000	8.204179
2177.000000	8.188120
2176.000000	8.189382
2175.000000	8.175960
2174.000000	8.174699
2173.000000	8.190643
2172.000000	8.203147
2171.000000	8.201770
2170.000000	8.188808
2169.000000	8.195920
2168.000000	8.200967
2167.000000	8.215077
2166.000000	8.214503
2165.000000	8.244787
2164.000000	8.229645
2163.000000	8.240083
2162.000000	8.260272
2161.000000	8.269220
2160.000000	8.261878
2159.000000	8.292735
2158.000000	8.309942
2157.000000	8.312351
2156.000000	8.335293
2155.000000	8.347911
2154.000000	8.352958
2153.000000	8.364773
2152.000000	8.382553
2151.000000	8.404348
2150.000000	8.428437
2149.000000	8.433370
2148.000000	8.469389
2147.000000	8.478336
2146.000000	8.462506
2145.000000	8.477992
2144.000000	8.517223
2143.000000	8.520550
2142.000000	8.528694
2141.000000	8.531791
2140.000000	8.551521
2139.000000	8.555651
2138.000000	8.561960
2137.000000	8.581231
2136.000000	8.603485
2135.000000	8.598897
2134.000000	8.595341
2133.000000	8.607614
2132.000000	8.604403
2131.000000	8.602567
2130.000000	8.598552
2129.000000	8.605320
2128.000000	8.615415
2127.000000	8.615300
2126.000000	8.599699
2125.000000	8.579855
2124.000000	8.581002
2123.000000	8.572743
2122.000000	8.553471
2121.000000	8.554618
2120.000000	8.551865
2119.000000	8.520664
2118.000000	8.503343
2117.000000	8.493937
2116.000000	8.483728
2115.000000	8.472142
2114.000000	8.444038
2113.000000	8.417310
2112.000000	8.402054
2111.000000	8.387371
2110.000000	8.372000
2109.000000	8.358923
2108.000000	8.366838
2107.000000	8.322445
2106.000000	8.302945
2105.000000	8.293079
2104.000000	8.281723
2103.000000	8.276332
2102.000000	8.257061
2101.000000	8.237445
2100.000000	8.226662
2099.000000	8.207620
2098.000000	8.198673
2097.000000	8.176534
2096.000000	8.154854
2095.000000	8.160016
2094.000000	8.146824
2093.000000	8.112182
2092.000000	8.108282
2091.000000	8.105987
2090.000000	8.090157
2089.000000	8.076507
2088.000000	8.080292
2087.000000	8.070198
2086.000000	8.055056
2085.000000	8.043929
2084.000000	8.041864
2083.000000	8.023970
2082.000000	8.016284
2081.000000	8.004010
2080.000000	7.985886
2079.000000	7.978430
2078.000000	7.970285
2077.000000	7.973153
2076.000000	7.968450
2075.000000	7.953652
2074.000000	7.939314
2073.000000	7.937593
2072.000000	7.907768
2071.000000	7.884826
2070.000000	7.887235
2069.000000	7.878058
2068.000000	7.860278
2067.000000	7.832060
2066.000000	7.821162
2065.000000	7.829651
2064.000000	7.818294
2063.000000	7.808659
2062.000000	7.824718
2061.000000	7.819327
2060.000000	7.799826
2059.000000	7.804415
2058.000000	7.817492
2057.000000	7.810838
2056.000000	7.815312
2055.000000	7.832863
2054.000000	7.852707
2053.000000	7.875076
2052.000000	7.908112
2051.000000	7.934037
2050.000000	7.986459
2049.000000	8.021217
2048.000000	8.047600
2047.000000	8.110576
2046.000000	8.161622
2045.000000	8.212782
2044.000000	8.275758
2043.000000	8.344011
2042.000000	8.390583
2041.000000	8.453100
2040.000000	8.520894
2039.000000	8.584787
2038.000000	8.644092
2037.000000	8.705577
2036.000000	8.766717
2035.000000	8.818452
2034.000000	8.870759
2033.000000	8.912399
2032.000000	8.976866
2031.000000	9.015179
2030.000000	9.056934
2029.000000	9.081711
2028.000000	9.130004
2027.000000	9.174856
2026.000000	9.219937
2025.000000	9.248270
2024.000000	9.269721
2023.000000	9.302987
2022.000000	9.326732
2021.000000	9.358507
2020.000000	9.386840
2019.000000	9.400261
2018.000000	9.419647
2017.000000	9.451881
2016.000000	9.462549
2015.000000	9.465875
2014.000000	9.486638
2013.000000	9.505450
2012.000000	9.514053
2011.000000	9.528966
2010.000000	9.541813
2009.000000	9.525524
2008.000000	9.530801
2007.000000	9.533439
2006.000000	9.529998
2005.000000	9.520592
2004.000000	9.507056
2003.000000	9.502697
2002.000000	9.476084
2001.000000	9.456010
2000.000000	9.432495
1999.000000	9.423777
1998.000000	9.392805
1997.000000	9.351395
1996.000000	9.320767
1995.000000	9.301381
1994.000000	9.265477
1993.000000	9.256759
1992.000000	9.223608
1991.000000	9.185409
1990.000000	9.131725
1989.000000	9.113486
1988.000000	9.069437
1987.000000	9.027339
1986.000000	8.983978
1985.000000	8.946927
1984.000000	8.899896
1983.000000	8.848850
1982.000000	8.833020
1981.000000	8.784612
1980.000000	8.714295
1979.000000	8.678735
1978.000000	8.647075
1977.000000	8.604517
1976.000000	8.566663
1975.000000	8.526056
1974.000000	8.469045
1973.000000	8.423275
1972.000000	8.398498
1971.000000	8.350893
1970.000000	8.314874
1969.000000	8.275185
1968.000000	8.247998
1967.000000	8.191905
1966.000000	8.167816
1965.000000	8.142809
1964.000000	8.120670
1963.000000	8.061480
1962.000000	8.037735
1961.000000	8.006075
1960.000000	7.974874
1959.000000	7.949982
1958.000000	7.882876
1957.000000	7.875650
1956.000000	7.838942
1955.000000	7.818983
1954.000000	7.797876
1953.000000	7.782161
1952.000000	7.748092
1951.000000	7.716317
1950.000000	7.660109
1949.000000	7.681216
1948.000000	7.637626
1947.000000	7.599198
1946.000000	7.574880
1945.000000	7.565818
1944.000000	7.555035
1943.000000	7.537025
1942.000000	7.539320
1941.000000	7.525210
1940.000000	7.522228
1939.000000	7.523031
1938.000000	7.491600
1937.000000	7.528996
1936.000000	7.528766
1935.000000	7.522687
1934.000000	7.527390
1933.000000	7.555494
1932.000000	7.566047
1931.000000	7.627073
1930.000000	7.626729
1929.000000	7.658618
1928.000000	7.690393
1927.000000	7.693605
1926.000000	7.785602
1925.000000	7.824259
1924.000000	7.873126
1923.000000	7.930481
1922.000000	7.990589
1921.000000	8.048518
1920.000000	8.125029
1919.000000	8.213127
1918.000000	8.302371
1917.000000	8.383700
1916.000000	8.457000
1915.000000	8.551636
1914.000000	8.610138
1913.000000	8.723128
1912.000000	8.862615
1911.000000	8.998432
1910.000000	9.093182
1909.000000	9.192636
1908.000000	9.308264
1907.000000	9.421482
1906.000000	9.574735
1905.000000	9.702981
1904.000000	9.898447
1903.000000	10.069136
1902.000000	10.238448
1901.000000	10.392044
1900.000000	10.577301
1899.000000	10.754414
1898.000000	10.958827
1897.000000	11.146148
1896.000000	11.331290
1895.000000	11.503011
1894.000000	11.683221
1893.000000	11.872263
1892.000000	12.085853
1891.000000	12.325712
1890.000000	12.587480
1889.000000	12.813345
1888.000000	13.074539
1887.000000	13.342732
1886.000000	13.643960
1885.000000	13.972375
1884.000000	14.347821
1883.000000	14.776493
1882.000000	15.276055
1881.000000	15.732945
1880.000000	16.240193
1879.000000	16.708669
1878.000000	17.168083
1877.000000	17.661910
1876.000000	18.124880
1875.000000	18.567890
1874.000000	18.979929
1873.000000	19.377399
1872.000000	19.781408
1871.000000	20.166031
1870.000000	20.505802
1869.000000	20.814143
1868.000000	21.112160
1867.000000	21.318867
1866.000000	21.525345
1865.000000	21.646594
1864.000000	21.771054
1863.000000	21.858349
1862.000000	21.938990
1861.000000	22.008848
1860.000000	22.107384
1859.000000	22.182634
1858.000000	22.206379
1857.000000	22.256163
1856.000000	22.282661
1855.000000	22.274402
1854.000000	22.225765
1853.000000	22.203855
1852.000000	22.168295
1851.000000	22.118740
1850.000000	22.050373
1849.000000	21.980744
1848.000000	21.909050
1847.000000	21.888403
1846.000000	21.827721
1845.000000	21.745015
1844.000000	21.674813
1843.000000	21.595204
1842.000000	21.547255
1841.000000	21.530737
1840.000000	21.515710
1839.000000	21.466270
1838.000000	21.398935
1837.000000	21.368995
1836.000000	21.320817
1835.000000	21.275736
1834.000000	21.185459
1833.000000	21.106080
1832.000000	21.001120
1831.000000	20.913596
1830.000000	20.824352
1829.000000	20.747955
1828.000000	20.647240
1827.000000	20.546639
1826.000000	20.470586
1825.000000	20.404513
1824.000000	20.326166
1823.000000	20.249999
1822.000000	20.204115
1821.000000	20.182664
1820.000000	20.162245
1819.000000	20.141942
1818.000000	20.109364
1817.000000	20.074607
1816.000000	20.057630
1815.000000	20.046274
1814.000000	20.041685
1813.000000	20.035491
1812.000000	20.015072
1811.000000	19.994998
1810.000000	19.961503
1809.000000	19.923763
1808.000000	19.883041
1807.000000	19.830045
1806.000000	19.771314
1805.000000	19.722332
1804.000000	19.666124
1803.000000	19.612211
1802.000000	19.558756
1801.000000	19.490962
1800.000000	19.438425
1799.000000	19.382217
1798.000000	19.322568
1797.000000	19.268998
1796.000000	19.207399
1795.000000	19.145800
1794.000000	19.096359
1793.000000	19.046231
1792.000000	18.984861
1791.000000	18.906514
1790.000000	18.832067
1789.000000	18.771156
1788.000000	18.697283
1787.000000	18.608842
1786.000000	18.542769
1785.000000	18.477613
1784.000000	18.372195
1783.000000	18.265973
1782.000000	18.178908
1781.000000	18.085649
1780.000000	17.982525
1779.000000	17.872059
1778.000000	17.763887
1777.000000	17.669366
1776.000000	17.562112
1775.000000	17.426066
1774.000000	17.297591
1773.000000	17.166477
1772.000000	17.013454
1771.000000	16.868116
1770.000000	16.722664
1769.000000	16.571476
1768.000000	16.441165
1767.000000	16.313723
1766.000000	16.200504
1765.000000	16.108506
1764.000000	16.032568
1763.000000	15.975787
1762.000000	15.958351
1761.000000	15.978196
1760.000000	16.009856
1759.000000	16.066178
1758.000000	16.141772
1757.000000	16.211401
1756.000000	16.272427
1755.000000	16.334370
1754.000000	16.364424
1753.000000	16.388169
1752.000000	16.396199
1751.000000	16.382549
1750.000000	16.357427
1749.000000	16.305578
1748.000000	16.224249
1747.000000	16.144640
1746.000000	16.045874
1745.000000	15.921185
1744.000000	15.787662
1743.000000	15.634409
1742.000000	15.440435
1741.000000	15.212621
1740.000000	14.983430
1739.000000	14.745865
1738.000000	14.511742
1737.000000	14.301249
1736.000000	14.128840
1735.000000	13.986599
1734.000000	13.877510
1733.000000	13.833347
1732.000000	13.841491
1731.000000	13.898502
1730.000000	13.972719
1729.000000	14.081923
1728.000000	14.201107
1727.000000	14.316735
1726.000000	14.447045
1725.000000	14.557511
1724.000000	14.610966
1723.000000	14.662930
1722.000000	14.675204
1721.000000	14.704799
1720.000000	14.713632
1719.000000	14.726709
1718.000000	14.759630
1717.000000	14.764907
1716.000000	14.788308
1715.000000	14.847269
1714.000000	14.907377
1713.000000	14.968059
1712.000000	15.029314
1711.000000	15.056041
1710.000000	15.081736
1709.000000	15.096305
1708.000000	15.076460
1707.000000	15.074280
1706.000000	15.056385
1705.000000	15.015204
1704.000000	14.984003
1703.000000	14.897856
1702.000000	14.811365
1701.000000	14.704914
1700.000000	14.556938
1699.000000	14.415156
1698.000000	14.260642
1697.000000	14.141114
1696.000000	14.033401
1695.000000	13.947598
1694.000000	13.943009
1693.000000	14.012294
1692.000000	14.126431
1691.000000	14.266262
1690.000000	14.446701
1689.000000	14.617275
1688.000000	14.746783
1687.000000	14.823524
1686.000000	14.836716
1685.000000	14.844975
1684.000000	14.872964
1683.000000	14.982283
1682.000000	15.190252
1681.000000	15.539659
1680.000000	15.983357
1679.000000	16.539587
1678.000000	17.144682
1677.000000	17.747828
1676.000000	18.323558
1675.000000	18.856960
1674.000000	19.315456
1673.000000	19.738736
1672.000000	20.117738
1671.000000	20.405546
1670.000000	20.707233
1669.000000	20.927132
1668.000000	21.133381
1667.000000	21.300284
1666.000000	21.458240
1665.000000	21.587174
1664.000000	21.697640
1663.000000	21.788146
1662.000000	21.865805
1661.000000	21.945643
1660.000000	22.015387
1659.000000	22.064024
1658.000000	22.114152
1657.000000	22.124820
1656.000000	22.142027
1655.000000	22.177013
1654.000000	22.163822
1653.000000	22.137209
1652.000000	22.135373
1651.000000	22.099010
1650.000000	22.080313
1649.000000	22.029267
1648.000000	22.006439
1647.000000	21.954590
1646.000000	21.894138
1645.000000	21.801911
1644.000000	21.754880
1643.000000	21.682727
1642.000000	21.622619
1641.000000	21.542781
1640.000000	21.483476
1639.000000	21.381384
1638.000000	21.316344
1637.000000	21.231687
1636.000000	21.186492
1635.000000	21.072699
1634.000000	20.989076
1633.000000	20.901322
1632.000000	20.807031
1631.000000	20.727996
1630.000000	20.613859
1629.000000	20.525991
1628.000000	20.465998
1627.000000	20.348305
1626.000000	20.223271
1625.000000	20.163393
1624.000000	20.052239
1623.000000	19.943149
1622.000000	19.861017
1621.000000	19.774870
1620.000000	19.680922
1619.000000	19.570341
1618.000000	19.508398
1617.000000	19.390247
1616.000000	19.326583
1615.000000	19.235388
1614.000000	19.162891
1613.000000	19.092803
1612.000000	18.983944
1611.000000	18.904794
1610.000000	18.831723
1609.000000	18.738923
1608.000000	18.691089
1607.000000	18.613430
1606.000000	18.532215
1605.000000	18.458801
1604.000000	18.367721
1603.000000	18.298321
1602.000000	18.231331
1601.000000	18.148051
1600.000000	18.094252
1599.000000	17.990325
1598.000000	17.931938
1597.000000	17.880777
1596.000000	17.796235
1595.000000	17.735324
1594.000000	17.662025
1593.000000	17.600081
1592.000000	17.536417
1591.000000	17.504298
1590.000000	17.456923
1589.000000	17.405877
1588.000000	17.350816
1587.000000	17.313994
1586.000000	17.287152
1585.000000	17.251592
1584.000000	17.221079
1583.000000	17.168542
1582.000000	17.139406
1581.000000	17.118414
1580.000000	17.100289
