PE UV       SUBTECH     SPECTRUM    ASCII       PEDS        4.00        
   -1
CICIMAUCR0070-1.Sample.ASC
24/04/17
15:12:00.00
24/04/17
15:12:00.00
Vinicio Soto Monge
C. resplendens
250,000000
1
Lambda 1050
1050L1511233
PerkinElmer UV WinLab 6.3.2.0749 / 2.02.05 Lambda 900 UV/VIS/NIR, Aug  7 2015 09:38:08

0
0
3350/servo 860,8/2
0
0
UV/VIS
1
1
1
DoubleDePol,CommonBeamDepol,RBeamAtt,SBeamAtt,60mm sphere, WB InGaAs Detector
0
0
0
0
Program
Program
3350/servo 860,8/2
3350/0,2 860,8/0,2
3350/0,2 860,8/0,2
0
15.00
 
 
 
0
 
860,8
319,2
860,8
Front
100
on
S:100 R:100
0
0
0
0
 
0
 
 
 
0
 
 
0
0
0
0
0
 
 
 
 
0
0


0
0
#HDR
-1
-1
#GR
nm
%R
1.0
0.0
2500,000000
-1,000000
2251
8
86,954100
5,179600
#DATA
2482.000000	22.913014
2481.000000	23.033186
2480.000000	22.987925
2479.000000	23.007804
2478.000000	23.052166
2477.000000	23.059578
2476.000000	23.107423
2475.000000	23.177167
2474.000000	23.225685
2473.000000	23.289589
2472.000000	23.360344
2471.000000	23.385389
2470.000000	23.438287
2469.000000	23.482762
2468.000000	23.572273
2467.000000	23.679080
2466.000000	23.734112
2465.000000	23.789817
2464.000000	23.873488
2463.000000	23.939190
2462.000000	24.002757
2461.000000	24.124725
2460.000000	24.200647
2459.000000	24.284430
2458.000000	24.410779
2457.000000	24.469966
2456.000000	24.607096
2455.000000	24.720305
2454.000000	24.832390
2453.000000	24.948631
2452.000000	25.060267
2451.000000	25.224464
2450.000000	25.344074
2449.000000	25.483114
2448.000000	25.627769
2447.000000	25.779612
2446.000000	25.930332
2445.000000	26.062071
2444.000000	26.199089
2443.000000	26.338241
2442.000000	26.504684
2441.000000	26.643836
2440.000000	26.791524
2439.000000	26.943704
2438.000000	27.079262
2437.000000	27.218975
2436.000000	27.354421
2435.000000	27.475491
2434.000000	27.632500
2433.000000	27.788723
2432.000000	27.895081
2431.000000	28.043891
2430.000000	28.170914
2429.000000	28.270757
2428.000000	28.401486
2427.000000	28.544793
2426.000000	28.663730
2425.000000	28.758631
2424.000000	28.885317
2423.000000	29.000322
2422.000000	29.092641
2421.000000	29.213150
2420.000000	29.413735
2419.000000	29.619487
2418.000000	29.844893
2417.000000	30.026049
2416.000000	30.099387
2415.000000	30.205295
2414.000000	30.285597
2413.000000	30.385777
2412.000000	30.525715
2411.000000	30.629153
2410.000000	30.695640
2409.000000	30.786386
2408.000000	30.896450
2407.000000	30.972709
2406.000000	31.073900
2405.000000	31.136906
2404.000000	31.205639
2403.000000	31.296835
2402.000000	31.360627
2401.000000	31.447106
2400.000000	31.471589
2399.000000	31.544029
2398.000000	31.635898
2397.000000	31.663077
2396.000000	31.722489
2395.000000	31.810990
2394.000000	31.840527
2393.000000	31.893537
2392.000000	31.949917
2391.000000	31.978331
2390.000000	32.027411
2389.000000	32.082555
2388.000000	32.103445
2387.000000	32.119954
2386.000000	32.161284
2385.000000	32.215979
2384.000000	32.224065
2383.000000	32.249447
2382.000000	32.284713
2381.000000	32.301335
2380.000000	32.316721
2379.000000	32.335252
2378.000000	32.327615
2377.000000	32.309758
2376.000000	32.341654
2375.000000	32.369394
2374.000000	32.351312
2373.000000	32.334803
2372.000000	32.360634
2371.000000	32.388038
2370.000000	32.384219
2369.000000	32.408703
2368.000000	32.431277
2367.000000	32.434534
2366.000000	32.441497
2365.000000	32.449247
2364.000000	32.477436
2363.000000	32.509220
2362.000000	32.522810
2361.000000	32.557176
2360.000000	32.576606
2359.000000	32.571103
2358.000000	32.552572
2357.000000	32.573461
2356.000000	32.597159
2355.000000	32.567509
2354.000000	32.552010
2353.000000	32.573461
2352.000000	32.574585
2351.000000	32.566386
2350.000000	32.591656
2349.000000	32.589409
2348.000000	32.579414
2347.000000	32.564252
2346.000000	32.579751
2345.000000	32.585029
2344.000000	32.561220
2343.000000	32.583120
2342.000000	32.595362
2341.000000	32.582222
2340.000000	32.626472
2339.000000	32.631526
2338.000000	32.643543
2337.000000	32.664095
2336.000000	32.664095
2335.000000	32.700821
2334.000000	32.726427
2333.000000	32.747991
2332.000000	32.785278
2331.000000	32.818634
2330.000000	32.861873
2329.000000	32.890625
2328.000000	32.960706
2327.000000	32.991479
2326.000000	33.012144
2325.000000	33.078519
2324.000000	33.113672
2323.000000	33.116143
2322.000000	33.172410
2321.000000	33.184090
2320.000000	33.177239
2319.000000	33.213965
2318.000000	33.218569
2317.000000	33.200488
2316.000000	33.184989
2315.000000	33.170950
2314.000000	33.145905
2313.000000	33.125015
2312.000000	33.087841
2311.000000	33.039884
2310.000000	33.006079
2309.000000	32.982943
2308.000000	32.936672
2307.000000	32.887480
2306.000000	32.869286
2305.000000	32.852551
2304.000000	32.836491
2303.000000	32.810548
2302.000000	32.797520
2301.000000	32.794487
2300.000000	32.784267
2299.000000	32.774271
2298.000000	32.793589
2297.000000	32.821105
2296.000000	32.812120
2295.000000	32.851990
2294.000000	32.852664
2293.000000	32.892983
2292.000000	32.943747
2291.000000	32.962952
2290.000000	32.974969
2289.000000	33.013492
2288.000000	33.077733
2287.000000	33.126812
2286.000000	33.164773
2285.000000	33.213403
2284.000000	33.300331
2283.000000	33.358058
2282.000000	33.411855
2281.000000	33.467673
2280.000000	33.524614
2279.000000	33.575715
2278.000000	33.633667
2277.000000	33.707567
2276.000000	33.742720
2275.000000	33.796291
2274.000000	33.834589
2273.000000	33.871427
2272.000000	33.942631
2271.000000	34.005974
2270.000000	34.076617
2269.000000	34.141981
2268.000000	34.196452
2267.000000	34.247777
2266.000000	34.345375
2265.000000	34.418151
2264.000000	34.552474
2263.000000	34.651531
2262.000000	34.790346
2261.000000	34.917256
2260.000000	35.092684
2259.000000	35.243854
2258.000000	35.434443
2257.000000	35.596282
2256.000000	35.810682
2255.000000	36.016658
2254.000000	36.210280
2253.000000	36.416032
2252.000000	36.653567
2251.000000	36.844494
2250.000000	37.015991
2249.000000	37.213432
2248.000000	37.423789
2247.000000	37.619545
2246.000000	37.753418
2245.000000	37.915032
2244.000000	38.052162
2243.000000	38.193561
2242.000000	38.296099
2241.000000	38.401221
2240.000000	38.491856
2239.000000	38.589902
2238.000000	38.655042
2237.000000	38.702324
2236.000000	38.717037
2235.000000	38.769149
2234.000000	38.779369
2233.000000	38.787455
2232.000000	38.770159
2231.000000	38.751853
2230.000000	38.732648
2229.000000	38.675370
2228.000000	38.646956
2227.000000	38.593945
2226.000000	38.499493
2225.000000	38.443225
2224.000000	38.356185
2223.000000	38.284082
2222.000000	38.191202
2221.000000	38.097311
2220.000000	37.993874
2219.000000	37.879767
2218.000000	37.796545
2217.000000	37.663458
2216.000000	37.564625
2215.000000	37.465006
2214.000000	37.355616
2213.000000	37.242745
2212.000000	37.147955
2211.000000	37.058108
2210.000000	36.973650
2209.000000	36.890204
2208.000000	36.809903
2207.000000	36.731847
2206.000000	36.649861
2205.000000	36.588091
2204.000000	36.531037
2203.000000	36.469267
2202.000000	36.422883
2201.000000	36.365829
2200.000000	36.325622
2199.000000	36.269917
2198.000000	36.219827
2197.000000	36.182540
2196.000000	36.135931
2195.000000	36.105158
2194.000000	36.069893
2193.000000	36.038558
2192.000000	36.010481
2191.000000	35.991950
2190.000000	35.950058
2189.000000	35.927259
2188.000000	35.916590
2187.000000	35.891320
2186.000000	35.875260
2185.000000	35.814163
2184.000000	35.789904
2183.000000	35.768790
2182.000000	35.741611
2181.000000	35.735771
2180.000000	35.684782
2179.000000	35.670519
2178.000000	35.641318
2177.000000	35.638061
2176.000000	35.622338
2175.000000	35.624921
2174.000000	35.622899
2173.000000	35.638061
2172.000000	35.602234
2171.000000	35.629750
2170.000000	35.651426
2169.000000	35.688938
2168.000000	35.719374
2167.000000	35.754077
2166.000000	35.800686
2165.000000	35.857852
2164.000000	35.901316
2163.000000	35.938603
2162.000000	36.016546
2161.000000	36.106281
2160.000000	36.194557
2159.000000	36.282832
2158.000000	36.384361
2157.000000	36.481284
2156.000000	36.585732
2155.000000	36.716236
2154.000000	36.842809
2153.000000	36.962307
2152.000000	37.091801
2151.000000	37.231626
2150.000000	37.375383
2149.000000	37.510155
2148.000000	37.650430
2147.000000	37.784753
2146.000000	37.930418
2145.000000	38.068784
2144.000000	38.199962
2143.000000	38.318561
2142.000000	38.459623
2141.000000	38.589902
2140.000000	38.715801
2139.000000	38.844509
2138.000000	38.952663
2137.000000	39.074632
2136.000000	39.197948
2135.000000	39.322949
2134.000000	39.435483
2133.000000	39.529711
2132.000000	39.620907
2131.000000	39.714686
2130.000000	39.813406
2129.000000	39.879107
2128.000000	39.960195
2127.000000	40.045551
2126.000000	40.113273
2125.000000	40.168081
2124.000000	40.224573
2123.000000	40.294092
2122.000000	40.348450
2121.000000	40.381020
2120.000000	40.409996
2119.000000	40.439871
2118.000000	40.476034
2117.000000	40.493892
2116.000000	40.521632
2115.000000	40.559705
2114.000000	40.564984
2113.000000	40.563187
2112.000000	40.577562
2111.000000	40.584863
2110.000000	40.583515
2109.000000	40.593735
2108.000000	40.598677
2107.000000	40.578798
2106.000000	40.587558
2105.000000	40.599463
2104.000000	40.584189
2103.000000	40.571049
2102.000000	40.563861
2101.000000	40.553416
2100.000000	40.551731
2099.000000	40.558919
2098.000000	40.550608
2097.000000	40.540276
2096.000000	40.541960
2095.000000	40.558133
2094.000000	40.577338
2093.000000	40.581943
2092.000000	40.593286
2091.000000	40.606314
2090.000000	40.613839
2089.000000	40.637087
2088.000000	40.635514
2087.000000	40.624171
2086.000000	40.626193
2085.000000	40.612940
2084.000000	40.585536
2083.000000	40.549260
2082.000000	40.519498
2081.000000	40.483559
2080.000000	40.430661
2079.000000	40.373158
2078.000000	40.295440
2077.000000	40.218395
2076.000000	40.139329
2075.000000	40.039037
2074.000000	39.939642
2073.000000	39.819471
2072.000000	39.691101
2071.000000	39.567897
2070.000000	39.442896
2069.000000	39.310595
2068.000000	39.158976
2067.000000	39.016455
2066.000000	38.870452
2065.000000	38.717598
2064.000000	38.556209
2063.000000	38.412340
2062.000000	38.283071
2061.000000	38.134036
2060.000000	38.013977
2059.000000	37.887404
2058.000000	37.785763
2057.000000	37.710965
2056.000000	37.653575
2055.000000	37.605506
2054.000000	37.596521
2053.000000	37.589895
2052.000000	37.619769
2051.000000	37.660875
2050.000000	37.723768
2049.000000	37.815188
2048.000000	37.935135
2047.000000	38.064516
2046.000000	38.200861
2045.000000	38.379770
2044.000000	38.533073
2043.000000	38.713668
2042.000000	38.882919
2041.000000	39.037120
2040.000000	39.189300
2039.000000	39.350802
2038.000000	39.526903
2037.000000	39.690427
2036.000000	39.844179
2035.000000	39.951772
2034.000000	40.075313
2033.000000	40.188970
2032.000000	40.316330
2031.000000	40.417746
2030.000000	40.519386
2029.000000	40.619566
2028.000000	40.698408
2027.000000	40.759954
2026.000000	40.841154
2025.000000	40.893827
2024.000000	40.933248
2023.000000	41.018266
2022.000000	41.072175
2021.000000	41.107665
2020.000000	41.131699
2019.000000	41.160002
2018.000000	41.179880
2017.000000	41.195604
2016.000000	41.198524
2015.000000	41.223344
2014.000000	41.206835
2013.000000	41.206498
2012.000000	41.174826
2011.000000	41.157755
2010.000000	41.129903
2009.000000	41.093402
2008.000000	41.035001
2007.000000	40.994232
2006.000000	40.921118
2005.000000	40.870467
2004.000000	40.789042
2003.000000	40.729405
2002.000000	40.640231
2001.000000	40.560154
2000.000000	40.478954
1999.000000	40.365409
1998.000000	40.267812
1997.000000	40.170551
1996.000000	40.054086
1995.000000	39.921224
1994.000000	39.818685
1993.000000	39.687170
1992.000000	39.552959
1991.000000	39.452330
1990.000000	39.295208
1989.000000	39.157404
1988.000000	39.018364
1987.000000	38.886513
1986.000000	38.747361
1985.000000	38.616407
1984.000000	38.482309
1983.000000	38.347650
1982.000000	38.196930
1981.000000	38.067212
1980.000000	37.907395
1979.000000	37.774195
1978.000000	37.614715
1977.000000	37.481516
1976.000000	37.338321
1975.000000	37.206357
1974.000000	37.090340
1973.000000	36.961633
1972.000000	36.809453
1971.000000	36.664124
1970.000000	36.530476
1969.000000	36.421310
1968.000000	36.279351
1967.000000	36.149745
1966.000000	36.043388
1965.000000	35.915017
1964.000000	35.773507
1963.000000	35.671642
1962.000000	35.523842
1961.000000	35.376379
1960.000000	35.262385
1959.000000	35.128511
1958.000000	35.001264
1957.000000	34.869076
1956.000000	34.749465
1955.000000	34.608292
1954.000000	34.515636
1953.000000	34.389625
1952.000000	34.250248
1951.000000	34.117273
1950.000000	33.997326
1949.000000	33.907478
1948.000000	33.807298
1947.000000	33.715990
1946.000000	33.600423
1945.000000	33.530679
1944.000000	33.469919
1943.000000	33.373557
1942.000000	33.342672
1941.000000	33.280115
1940.000000	33.234293
1939.000000	33.208125
1938.000000	33.178026
1937.000000	33.152082
1936.000000	33.151071
1935.000000	33.152419
1934.000000	33.166795
1933.000000	33.216772
1932.000000	33.282474
1931.000000	33.343233
1930.000000	33.420840
1929.000000	33.527197
1928.000000	33.671964
1927.000000	33.800110
1926.000000	33.934770
1925.000000	34.096608
1924.000000	34.246879
1923.000000	34.439602
1922.000000	34.657708
1921.000000	34.916920
1920.000000	35.212519
1919.000000	35.453424
1918.000000	35.705784
1917.000000	36.008684
1916.000000	36.306305
1915.000000	36.614708
1914.000000	37.020259
1913.000000	37.445689
1912.000000	37.898073
1911.000000	38.308678
1910.000000	38.756682
1909.000000	39.139210
1908.000000	39.554644
1907.000000	40.086207
1906.000000	40.686391
1905.000000	41.374064
1904.000000	42.018386
1903.000000	42.611158
1902.000000	43.215834
1901.000000	43.875542
1900.000000	44.612969
1899.000000	45.407449
1898.000000	46.137913
1897.000000	46.905551
1896.000000	47.571773
1895.000000	48.210367
1894.000000	48.907362
1893.000000	49.656918
1892.000000	50.448703
1891.000000	51.281706
1890.000000	52.038113
1889.000000	52.704447
1888.000000	53.409866
1887.000000	54.037341
1886.000000	54.655382
1885.000000	55.282521
1884.000000	55.927292
1883.000000	56.539942
1882.000000	57.077570
1881.000000	57.568813
1880.000000	58.022882
1879.000000	58.448873
1878.000000	58.905975
1877.000000	59.313996
1876.000000	59.702926
1875.000000	60.095224
1874.000000	60.490779
1873.000000	60.867916
1872.000000	61.203498
1871.000000	61.506173
1870.000000	61.780995
1869.000000	61.999326
1868.000000	62.218218
1867.000000	62.374666
1866.000000	62.460246
1865.000000	62.562785
1864.000000	62.661730
1863.000000	62.758653
1862.000000	62.896345
1861.000000	63.057397
1860.000000	63.199582
1859.000000	63.334915
1858.000000	63.444305
1857.000000	63.517531
1856.000000	63.567397
1855.000000	63.631750
1854.000000	63.716432
1853.000000	63.739118
1852.000000	63.742375
1851.000000	63.790219
1850.000000	63.845251
1849.000000	63.910616
1848.000000	63.984740
1847.000000	64.032135
1846.000000	63.957673
1845.000000	63.862547
1844.000000	63.844016
1843.000000	63.853450
1842.000000	63.943972
1841.000000	63.984179
1840.000000	63.945881
1839.000000	63.911402
1838.000000	63.859739
1837.000000	63.834919
1836.000000	63.813131
1835.000000	63.752371
1834.000000	63.648934
1833.000000	63.573237
1832.000000	63.512477
1831.000000	63.490352
1830.000000	63.481143
1829.000000	63.447225
1828.000000	63.396236
1827.000000	63.345585
1826.000000	63.331321
1825.000000	63.292574
1824.000000	63.241810
1823.000000	63.217551
1822.000000	63.301896
1821.000000	63.376470
1820.000000	63.358276
1819.000000	63.304479
1818.000000	63.246864
1817.000000	63.222268
1816.000000	63.214182
1815.000000	63.209240
1814.000000	63.180152
1813.000000	63.166899
1812.000000	63.155556
1811.000000	63.119842
1810.000000	63.059419
1809.000000	63.016067
1808.000000	62.989562
1807.000000	62.978107
1806.000000	62.952163
1805.000000	62.907913
1804.000000	62.875455
1803.000000	62.862427
1802.000000	62.848838
1801.000000	62.824579
1800.000000	62.791560
1799.000000	62.764493
1798.000000	62.729789
1797.000000	62.685539
1796.000000	62.667233
1795.000000	62.658023
1794.000000	62.629609
1793.000000	62.606473
1792.000000	62.582327
1791.000000	62.581653
1790.000000	62.561774
1789.000000	62.560314
1788.000000	62.568625
1787.000000	62.572780
1786.000000	62.588054
1785.000000	62.599735
1784.000000	62.594568
1783.000000	62.595354
1782.000000	62.584573
1781.000000	62.586707
1780.000000	62.580866
1779.000000	62.571545
1778.000000	62.555934
1777.000000	62.532349
1776.000000	62.497645
1775.000000	62.469118
1774.000000	62.437222
1773.000000	62.404203
1772.000000	62.379495
1771.000000	62.352765
1770.000000	62.310537
1769.000000	62.298295
1768.000000	62.261682
1767.000000	62.232369
1766.000000	62.198227
1765.000000	62.184750
1764.000000	62.177674
1763.000000	62.165657
1762.000000	62.152067
1761.000000	62.153752
1760.000000	62.168015
1759.000000	62.189803
1758.000000	62.186883
1757.000000	62.207324
1756.000000	62.226641
1755.000000	62.222149
1754.000000	62.232818
1753.000000	62.230909
1752.000000	62.236749
1751.000000	62.239107
1750.000000	62.236749
1749.000000	62.197777
1748.000000	62.175428
1747.000000	62.152067
1746.000000	62.115454
1745.000000	62.064466
1744.000000	61.997529
1743.000000	61.939689
1742.000000	61.883647
1741.000000	61.793574
1740.000000	61.733376
1739.000000	61.675200
1738.000000	61.628029
1737.000000	61.579512
1736.000000	61.535037
1735.000000	61.463383
1734.000000	61.436429
1733.000000	61.399366
1732.000000	61.364438
1731.000000	61.334114
1730.000000	61.317043
1729.000000	61.281441
1728.000000	61.260888
1727.000000	61.234159
1726.000000	61.213718
1725.000000	61.209900
1724.000000	61.225174
1723.000000	61.274141
1722.000000	61.357363
1721.000000	61.498761
1720.000000	61.679243
1719.000000	61.906221
1718.000000	62.132975
1717.000000	62.357931
1716.000000	62.621747
1715.000000	62.867818
1714.000000	63.083678
1713.000000	63.287071
1712.000000	63.474741
1711.000000	63.641858
1710.000000	63.812007
1709.000000	63.951946
1708.000000	64.062683
1707.000000	64.188807
1706.000000	64.260798
1705.000000	64.332901
1704.000000	64.369514
1703.000000	64.437012
1702.000000	64.460597
1701.000000	64.469694
1700.000000	64.499456
1699.000000	64.502489
1698.000000	64.512933
1697.000000	64.520234
1696.000000	64.507655
1695.000000	64.472165
1694.000000	64.424883
1693.000000	64.414438
1692.000000	64.322793
1691.000000	64.267986
1690.000000	64.239122
1689.000000	64.191278
1688.000000	64.209809
1687.000000	64.279890
1686.000000	64.403768
1685.000000	64.550670
1684.000000	64.741259
1683.000000	64.959478
1682.000000	65.216555
1681.000000	65.413659
1680.000000	65.655574
1679.000000	65.882216
1678.000000	66.098412
1677.000000	66.310229
1676.000000	66.494305
1675.000000	66.689162
1674.000000	66.899182
1673.000000	67.057651
1672.000000	67.245882
1671.000000	67.422995
1670.000000	67.594380
1669.000000	67.785307
1668.000000	67.949841
1667.000000	68.147955
1666.000000	68.300023
1665.000000	68.431650
1664.000000	68.579675
1663.000000	68.711189
1662.000000	68.844389
1661.000000	68.975679
1660.000000	69.073838
1659.000000	69.185474
1658.000000	69.265214
1657.000000	69.343157
1656.000000	69.408297
1655.000000	69.468158
1654.000000	69.513082
1653.000000	69.547561
1652.000000	69.570248
1651.000000	69.596191
1650.000000	69.609219
1649.000000	69.596865
1648.000000	69.601919
1647.000000	69.594394
1646.000000	69.583613
1645.000000	69.565755
1644.000000	69.555984
1643.000000	69.542844
1642.000000	69.524088
1641.000000	69.531389
1640.000000	69.513419
1639.000000	69.501963
1638.000000	69.480288
1637.000000	69.459847
1636.000000	69.424470
1635.000000	69.405377
1634.000000	69.363373
1633.000000	69.342483
1632.000000	69.313058
1631.000000	69.272065
1630.000000	69.210407
1629.000000	69.175254
1628.000000	69.131116
1627.000000	69.077207
1626.000000	69.029813
1625.000000	68.980845
1624.000000	68.922781
1623.000000	68.870108
1622.000000	68.828441
1621.000000	68.776329
1620.000000	68.741625
1619.000000	68.709056
1618.000000	68.667613
1617.000000	68.622689
1616.000000	68.574396
1615.000000	68.538344
1614.000000	68.504090
1613.000000	68.454224
1612.000000	68.411097
1611.000000	68.352359
1610.000000	68.320239
1609.000000	68.269250
1608.000000	68.200966
1607.000000	68.139869
1606.000000	68.076189
