PE UV       SUBTECH     SPECTRUM    ASCII       PEDS        4.00        
   -1
CICIMAUCR0236-1.Sample.ASC
24/06/19
14:03:29.00
24/06/19
14:03:29.00
Vinicio Soto Monge
C. resplendens. Sex M. Ventral 
250,000000
1
Lambda 1050
1050L1511233
PerkinElmer UV WinLab 6.3.2.0749 / 2.02.05 Lambda 900 UV/VIS/NIR, Aug  7 2015 09:38:08

0
0
3350/servo 860,8/2
0
0
UV/VIS
1
1
1
DoubleDePol,CommonBeamDepol,RBeamAtt,SBeamAtt,60mm sphere, WB InGaAs Detector
0
0
0
0
Program
Program
3350/servo 860,8/2
3350/0,2 860,8/0,2
3350/0,2 860,8/0,2
0
15.00
 
 
 
0
 
860,8
319,2
860,8
Front
100
on
S:100 R:100
0
0
0
0
 
0
 
 
 
0
 
 
0
0
0
0
0
 
 
 
 
0
0


0
0
#HDR
-1
-1
#GR
nm
%R
1.0
0.0
2500,000000
-1,000000
2251
8
62,605400
4,250900
#DATA
2482.000000	6.278399
2481.000000	6.277310
2480.000000	6.236053
2479.000000	6.220486
2478.000000	6.229195
2477.000000	6.271323
2476.000000	6.233549
2475.000000	6.271759
2474.000000	6.287434
2473.000000	6.229848
2472.000000	6.214608
2471.000000	6.183475
2470.000000	6.227345
2469.000000	6.218962
2468.000000	6.272630
2467.000000	6.217221
2466.000000	6.238992
2465.000000	6.287979
2464.000000	6.261199
2463.000000	6.241387
2462.000000	6.280467
2461.000000	6.291571
2460.000000	6.340884
2459.000000	6.303328
2458.000000	6.309859
2457.000000	6.330651
2456.000000	6.340231
2455.000000	6.346653
2454.000000	6.394660
2453.000000	6.413601
2452.000000	6.444952
2451.000000	6.468139
2450.000000	6.489584
2449.000000	6.492959
2448.000000	6.534107
2447.000000	6.572643
2446.000000	6.581243
2445.000000	6.619234
2444.000000	6.656573
2443.000000	6.683134
2442.000000	6.695217
2441.000000	6.703926
2440.000000	6.742679
2439.000000	6.780889
2438.000000	6.783828
2437.000000	6.850776
2436.000000	6.869935
2435.000000	6.893122
2434.000000	6.908253
2433.000000	6.943087
2432.000000	6.942325
2431.000000	6.960614
2430.000000	7.017655
2429.000000	7.038992
2428.000000	7.036597
2427.000000	7.054014
2426.000000	7.051619
2425.000000	7.100496
2424.000000	7.115628
2423.000000	7.149592
2422.000000	7.162437
2421.000000	7.171145
2420.000000	7.183229
2419.000000	7.191067
2418.000000	7.230800
2417.000000	7.256599
2416.000000	7.271622
2415.000000	7.284140
2414.000000	7.285555
2413.000000	7.302102
2412.000000	7.302211
2411.000000	7.317669
2410.000000	7.323765
2409.000000	7.356204
2408.000000	7.381351
2407.000000	7.391366
2406.000000	7.402143
2405.000000	7.421084
2404.000000	7.423697
2403.000000	7.438175
2402.000000	7.448516
2401.000000	7.457551
2400.000000	7.482807
2399.000000	7.497176
2398.000000	7.506429
2397.000000	7.528636
2396.000000	7.534950
2395.000000	7.543223
2394.000000	7.569458
2393.000000	7.583609
2392.000000	7.601027
2391.000000	7.616049
2390.000000	7.621601
2389.000000	7.635970
2388.000000	7.637276
2387.000000	7.639780
2386.000000	7.649577
2385.000000	7.664382
2384.000000	7.680820
2383.000000	7.676030
2382.000000	7.679949
2381.000000	7.669716
2380.000000	7.670152
2379.000000	7.676683
2378.000000	7.657851
2377.000000	7.663511
2376.000000	7.663185
2375.000000	7.666995
2374.000000	7.670805
2373.000000	7.648815
2372.000000	7.634011
2371.000000	7.628568
2370.000000	7.619315
2369.000000	7.604837
2368.000000	7.593842
2367.000000	7.573486
2366.000000	7.563688
2365.000000	7.543332
2364.000000	7.508824
2363.000000	7.494999
2362.000000	7.479105
2361.000000	7.445686
2360.000000	7.419016
2359.000000	7.414008
2358.000000	7.399857
2357.000000	7.372424
2356.000000	7.353156
2355.000000	7.333453
2354.000000	7.319410
2353.000000	7.311681
2352.000000	7.300034
2351.000000	7.306130
2350.000000	7.304823
2349.000000	7.306892
2348.000000	7.330296
2347.000000	7.346952
2346.000000	7.365784
2345.000000	7.385596
2344.000000	7.406824
2343.000000	7.427942
2342.000000	7.440352
2341.000000	7.464192
2340.000000	7.468437
2339.000000	7.476711
2338.000000	7.485637
2337.000000	7.492168
2336.000000	7.494563
2335.000000	7.484331
2334.000000	7.489991
2333.000000	7.490318
2332.000000	7.484004
2331.000000	7.471812
2330.000000	7.459402
2329.000000	7.452109
2328.000000	7.425221
2327.000000	7.406824
2326.000000	7.369050
2325.000000	7.331820
2324.000000	7.312117
2323.000000	7.281745
2322.000000	7.233086
2321.000000	7.208375
2320.000000	7.177024
2319.000000	7.127711
2318.000000	7.082099
2317.000000	7.041169
2316.000000	7.017220
2315.000000	6.969975
2314.000000	6.917288
2313.000000	6.890400
2312.000000	6.869282
2311.000000	6.807015
2310.000000	6.771745
2309.000000	6.725371
2308.000000	6.699789
2307.000000	6.683569
2306.000000	6.677147
2305.000000	6.665717
2304.000000	6.688468
2303.000000	6.702402
2302.000000	6.715465
2301.000000	6.722432
2300.000000	6.742026
2299.000000	6.789815
2298.000000	6.831072
2297.000000	6.847074
2296.000000	6.866234
2295.000000	6.912607
2294.000000	6.945156
2293.000000	6.971608
2292.000000	6.994904
2291.000000	7.027997
2290.000000	7.021574
2289.000000	7.036923
2288.000000	7.072629
2287.000000	7.045523
2286.000000	7.054341
2285.000000	7.057824
2284.000000	7.040733
2283.000000	7.043999
2282.000000	7.042475
2281.000000	7.017982
2280.000000	6.988699
2279.000000	6.959634
2278.000000	6.942652
2277.000000	6.909233
2276.000000	6.885501
2275.000000	6.872112
2274.000000	6.861226
2273.000000	6.848925
2272.000000	6.844244
2271.000000	6.851102
2270.000000	6.846639
2269.000000	6.857851
2268.000000	6.861008
2267.000000	6.895843
2266.000000	6.933835
2265.000000	6.969758
2264.000000	7.022445
2263.000000	7.086236
2262.000000	7.144693
2261.000000	7.203476
2260.000000	7.300469
2259.000000	7.403558
2258.000000	7.496632
2257.000000	7.612130
2256.000000	7.733398
2255.000000	7.865008
2254.000000	7.965593
2253.000000	8.106673
2252.000000	8.223805
2251.000000	8.321124
2250.000000	8.453060
2249.000000	8.568450
2248.000000	8.656625
2247.000000	8.760693
2246.000000	8.855291
2245.000000	8.956312
2244.000000	9.040895
2243.000000	9.108387
2242.000000	9.199174
2241.000000	9.269388
2240.000000	9.336227
2239.000000	9.399038
2238.000000	9.443452
2237.000000	9.500603
2236.000000	9.553399
2235.000000	9.591608
2234.000000	9.618605
2233.000000	9.693500
2232.000000	9.719952
2231.000000	9.728443
2230.000000	9.755876
2229.000000	9.790057
2228.000000	9.794411
2227.000000	9.802793
2226.000000	9.827722
2225.000000	9.834798
2224.000000	9.797677
2223.000000	9.802685
2222.000000	9.816836
2221.000000	9.805841
2220.000000	9.792670
2219.000000	9.803011
2218.000000	9.790928
2217.000000	9.743683
2216.000000	9.718755
2215.000000	9.726919
2214.000000	9.715925
2213.000000	9.694044
2212.000000	9.654964
2211.000000	9.684029
2210.000000	9.645602
2209.000000	9.636240
2208.000000	9.629382
2207.000000	9.609897
2206.000000	9.608373
2205.000000	9.611203
2204.000000	9.589758
2203.000000	9.576913
2202.000000	9.575389
2201.000000	9.564612
2200.000000	9.558951
2199.000000	9.594983
2198.000000	9.551657
2197.000000	9.535438
2196.000000	9.510509
2195.000000	9.527273
2194.000000	9.543275
2193.000000	9.529233
2192.000000	9.531301
2191.000000	9.502889
2190.000000	9.514319
2189.000000	9.503324
2188.000000	9.490479
2187.000000	9.483403
2186.000000	9.471320
2185.000000	9.457169
2184.000000	9.481879
2183.000000	9.460434
2182.000000	9.454665
2181.000000	9.451726
2180.000000	9.433437
2179.000000	9.425708
2178.000000	9.428430
2177.000000	9.400018
2176.000000	9.421790
2175.000000	9.408618
2174.000000	9.423640
2173.000000	9.419721
2172.000000	9.422007
2171.000000	9.432784
2170.000000	9.432458
2169.000000	9.419721
2168.000000	9.435397
2167.000000	9.433220
2166.000000	9.473062
2165.000000	9.474259
2164.000000	9.472626
2163.000000	9.485581
2162.000000	9.486887
2161.000000	9.512577
2160.000000	9.532498
2159.000000	9.523899
2158.000000	9.555685
2157.000000	9.592915
2156.000000	9.589758
2155.000000	9.610767
2154.000000	9.614686
2153.000000	9.659209
2152.000000	9.683485
2151.000000	9.682941
2150.000000	9.717340
2149.000000	9.762407
2148.000000	9.773619
2147.000000	9.772422
2146.000000	9.797351
2145.000000	9.827178
2144.000000	9.858638
2143.000000	9.858420
2142.000000	9.875728
2141.000000	9.890315
2140.000000	9.910345
2139.000000	9.920034
2138.000000	9.939302
2137.000000	9.933859
2136.000000	9.963033
2135.000000	9.965972
2134.000000	9.982845
2133.000000	9.995690
2132.000000	9.978599
2131.000000	10.006467
2130.000000	10.008753
2129.000000	9.998085
2128.000000	9.985240
2127.000000	9.996343
2126.000000	10.011692
2125.000000	10.002657
2124.000000	9.998847
2123.000000	9.982954
2122.000000	9.969347
2121.000000	9.959985
2120.000000	9.952691
2119.000000	9.939955
2118.000000	9.925912
2117.000000	9.919054
2116.000000	9.896629
2115.000000	9.879103
2114.000000	9.862557
2113.000000	9.831967
2112.000000	9.810414
2111.000000	9.792016
2110.000000	9.775579
2109.000000	9.748800
2108.000000	9.737587
2107.000000	9.707978
2106.000000	9.684900
2105.000000	9.678913
2104.000000	9.653222
2103.000000	9.628729
2102.000000	9.623177
2101.000000	9.594221
2100.000000	9.570599
2099.000000	9.553943
2098.000000	9.520633
2097.000000	9.505393
2096.000000	9.490806
2095.000000	9.472082
2094.000000	9.458475
2093.000000	9.432458
2092.000000	9.418197
2091.000000	9.388370
2090.000000	9.367252
2089.000000	9.359196
2088.000000	9.356366
2087.000000	9.325450
2086.000000	9.307380
2085.000000	9.299215
2084.000000	9.268735
2083.000000	9.248923
2082.000000	9.242609
2081.000000	9.222688
2080.000000	9.197433
2079.000000	9.174573
2078.000000	9.140609
2077.000000	9.110564
2076.000000	9.095324
2075.000000	9.062231
2074.000000	9.037411
2073.000000	9.016184
2072.000000	8.992888
2071.000000	8.973620
2070.000000	8.946623
2069.000000	8.906455
2068.000000	8.860408
2067.000000	8.839289
2066.000000	8.826662
2065.000000	8.792045
2064.000000	8.776913
2063.000000	8.768314
2062.000000	8.735765
2061.000000	8.716170
2060.000000	8.698535
2059.000000	8.666205
2058.000000	8.658040
2057.000000	8.666858
2056.000000	8.657496
2055.000000	8.645521
2054.000000	8.653468
2053.000000	8.684057
2052.000000	8.698100
2051.000000	8.708659
2050.000000	8.736200
2049.000000	8.746215
2048.000000	8.790847
2047.000000	8.824484
2046.000000	8.851590
2045.000000	8.877825
2044.000000	8.917776
2043.000000	8.954461
2042.000000	8.992997
2041.000000	9.039915
2040.000000	9.086288
2039.000000	9.115898
2038.000000	9.150624
2037.000000	9.188724
2036.000000	9.204400
2035.000000	9.232485
2034.000000	9.269279
2033.000000	9.283213
2032.000000	9.314347
2031.000000	9.331546
2030.000000	9.338295
2029.000000	9.349834
2028.000000	9.367252
2027.000000	9.382601
2026.000000	9.384887
2025.000000	9.390330
2024.000000	9.403610
2023.000000	9.411121
2022.000000	9.417653
2021.000000	9.426906
2020.000000	9.407420
2019.000000	9.405025
2018.000000	9.396534
2017.000000	9.402086
2016.000000	9.392507
2015.000000	9.392942
2014.000000	9.386193
2013.000000	9.367034
2012.000000	9.377484
2011.000000	9.355495
2010.000000	9.310210
2009.000000	9.293881
2008.000000	9.281689
2007.000000	9.273634
2006.000000	9.234880
2005.000000	9.207557
2004.000000	9.195364
2003.000000	9.180777
2002.000000	9.141588
2001.000000	9.094562
2000.000000	9.054720
1999.000000	9.050474
1998.000000	9.007911
1997.000000	8.972640
1996.000000	8.930077
1995.000000	8.899161
1994.000000	8.866177
1993.000000	8.841031
1992.000000	8.788343
1991.000000	8.737507
1990.000000	8.695052
1989.000000	8.661306
1988.000000	8.609272
1987.000000	8.582275
1986.000000	8.502264
1985.000000	8.477227
1984.000000	8.442283
1983.000000	8.392862
1982.000000	8.356721
1981.000000	8.307843
1980.000000	8.273335
1979.000000	8.214334
1978.000000	8.175363
1977.000000	8.132799
1976.000000	8.107109
1975.000000	8.080547
1974.000000	8.012946
1973.000000	7.963416
1972.000000	7.925642
1971.000000	7.908333
1970.000000	7.864790
1969.000000	7.821247
1968.000000	7.799040
1967.000000	7.757347
1966.000000	7.716090
1965.000000	7.676139
1964.000000	7.663402
1963.000000	7.634773
1962.000000	7.603530
1961.000000	7.565865
1960.000000	7.518948
1959.000000	7.499571
1958.000000	7.456354
1957.000000	7.418689
1956.000000	7.433929
1955.000000	7.388971
1954.000000	7.349346
1953.000000	7.333344
1952.000000	7.299925
1951.000000	7.285447
1950.000000	7.249088
1949.000000	7.229602
1948.000000	7.199013
1947.000000	7.161675
1946.000000	7.181052
1945.000000	7.148394
1944.000000	7.134134
1943.000000	7.116063
1942.000000	7.108117
1941.000000	7.089284
1940.000000	7.098428
1939.000000	7.091570
1938.000000	7.079487
1937.000000	7.076765
1936.000000	7.078181
1935.000000	7.078507
1934.000000	7.082317
1933.000000	7.096795
1932.000000	7.115628
1931.000000	7.134569
1930.000000	7.136311
1929.000000	7.170275
1928.000000	7.186277
1927.000000	7.232433
1926.000000	7.248435
1925.000000	7.269553
1924.000000	7.312117
1923.000000	7.356531
1922.000000	7.399421
1921.000000	7.467022
1920.000000	7.494563
1919.000000	7.573594
1918.000000	7.600809
1917.000000	7.676901
1916.000000	7.729262
1915.000000	7.780752
1914.000000	7.847917
1913.000000	7.957211
1912.000000	8.040052
1911.000000	8.141072
1910.000000	8.226962
1909.000000	8.284548
1908.000000	8.376642
1907.000000	8.487242
1906.000000	8.588915
1905.000000	8.726839
1904.000000	8.848978
1903.000000	8.986901
1902.000000	9.112850
1901.000000	9.256760
1900.000000	9.393378
1899.000000	9.569293
1898.000000	9.768612
1897.000000	9.931355
1896.000000	10.107814
1895.000000	10.259454
1894.000000	10.441138
1893.000000	10.671373
1892.000000	10.906398
1891.000000	11.174952
1890.000000	11.458636
1889.000000	11.741668
1888.000000	12.042878
1887.000000	12.344633
1886.000000	12.678066
1885.000000	13.074419
1884.000000	13.512791
1883.000000	13.955082
1882.000000	14.441134
1881.000000	14.944168
1880.000000	15.424451
1879.000000	15.880240
1878.000000	16.387737
1877.000000	16.896541
1876.000000	17.392934
1875.000000	17.882687
1874.000000	18.361664
1873.000000	18.827359
1872.000000	19.282387
1871.000000	19.697463
1870.000000	20.131808
1869.000000	20.482222
1868.000000	20.859416
1867.000000	21.159538
1866.000000	21.403925
1865.000000	21.622839
1864.000000	21.842297
1863.000000	22.022784
1862.000000	22.206537
1861.000000	22.407380
1860.000000	22.598100
1859.000000	22.760190
1858.000000	22.908346
1857.000000	23.022103
1856.000000	23.118116
1855.000000	23.171565
1854.000000	23.265074
1853.000000	23.324184
1852.000000	23.348677
1851.000000	23.374150
1850.000000	23.400167
1849.000000	23.424443
1848.000000	23.439139
1847.000000	23.432825
1846.000000	23.403977
1845.000000	23.363700
1844.000000	23.354229
1843.000000	23.335506
1842.000000	23.349548
1841.000000	23.359781
1840.000000	23.343997
1839.000000	23.312645
1838.000000	23.299256
1837.000000	23.264965
1836.000000	23.229042
1835.000000	23.181907
1834.000000	23.109734
1833.000000	23.043112
1832.000000	22.995432
1831.000000	22.947426
1830.000000	22.878301
1829.000000	22.808741
1828.000000	22.745276
1827.000000	22.667007
1826.000000	22.581771
1825.000000	22.511449
1824.000000	22.448638
1823.000000	22.396603
1822.000000	22.372110
1821.000000	22.360354
1820.000000	22.316375
1819.000000	22.277839
1818.000000	22.225043
1817.000000	22.177798
1816.000000	22.166695
1815.000000	22.162558
1814.000000	22.146120
1813.000000	22.124893
1812.000000	22.101597
1811.000000	22.060884
1810.000000	22.029207
1809.000000	21.987296
1808.000000	21.944406
1807.000000	21.906415
1806.000000	21.862545
1805.000000	21.807245
1804.000000	21.734201
1803.000000	21.684453
1802.000000	21.650053
1801.000000	21.596822
1800.000000	21.526826
1799.000000	21.462491
1798.000000	21.408279
1797.000000	21.351782
1796.000000	21.291910
1795.000000	21.245319
1794.000000	21.199054
1793.000000	21.150503
1792.000000	21.094441
1791.000000	21.033589
1790.000000	20.974479
1789.000000	20.903613
1788.000000	20.846462
1787.000000	20.781582
1786.000000	20.714852
1785.000000	20.651606
1784.000000	20.577147
1783.000000	20.506280
1782.000000	20.432583
1781.000000	20.353552
1780.000000	20.281923
1779.000000	20.197449
1778.000000	20.113955
1777.000000	20.036339
1776.000000	19.950559
1775.000000	19.852586
1774.000000	19.752545
1773.000000	19.649348
1772.000000	19.541143
1771.000000	19.408009
1770.000000	19.296974
1769.000000	19.202811
1768.000000	19.082632
1767.000000	18.978781
1766.000000	18.878632
1765.000000	18.791001
1764.000000	18.726665
1763.000000	18.688456
1762.000000	18.667773
1761.000000	18.674958
1760.000000	18.708486
1759.000000	18.768032
1758.000000	18.836503
1757.000000	18.912051
1756.000000	18.964847
1755.000000	19.037238
1754.000000	19.102880
1753.000000	19.128135
1752.000000	19.157309
1751.000000	19.164276
1750.000000	19.158942
1749.000000	19.136081
1748.000000	19.097981
1747.000000	19.043769
1746.000000	18.986510
1745.000000	18.910309
1744.000000	18.814079
1743.000000	18.705765
1742.000000	18.535946
1741.000000	18.361664
1740.000000	18.193804
1739.000000	17.990893
1738.000000	17.801806
1737.000000	17.608365
1736.000000	17.424285
1735.000000	17.297466
1734.000000	17.194595
1733.000000	17.148656
1732.000000	17.146153
1731.000000	17.179354
1730.000000	17.244996
1729.000000	17.316625
1728.000000	17.437240
1727.000000	17.545118
1726.000000	17.657024
1725.000000	17.742478
1724.000000	17.829891
1723.000000	17.918720
1722.000000	17.948220
1721.000000	17.984797
1720.000000	18.032694
1719.000000	18.062739
1718.000000	18.090824
1717.000000	18.128598
1716.000000	18.193151
1715.000000	18.257051
1714.000000	18.308541
1713.000000	18.362970
1712.000000	18.431768
1711.000000	18.492729
1710.000000	18.518855
1709.000000	18.546614
1708.000000	18.542042
1707.000000	18.524407
1706.000000	18.504921
1705.000000	18.450928
1704.000000	18.377448
1703.000000	18.326503
1702.000000	18.238981
1701.000000	18.128054
1700.000000	17.997642
1699.000000	17.836205
1698.000000	17.690770
1697.000000	17.544247
1696.000000	17.462059
1695.000000	17.390431
1694.000000	17.400554
1693.000000	17.426680
1692.000000	17.540437
1691.000000	17.673462
1690.000000	17.815740
1689.000000	17.997424
1688.000000	18.132299
1687.000000	18.235170
1686.000000	18.325958
1685.000000	18.376686
1684.000000	18.439389
1683.000000	18.553690
1682.000000	18.742014
1681.000000	19.067609
1680.000000	19.449158
1679.000000	19.924868
1678.000000	20.451198
1677.000000	21.002129
1676.000000	21.508755
1675.000000	21.987079
1674.000000	22.411081
1673.000000	22.790452
1672.000000	23.154148
1671.000000	23.414972
1670.000000	23.656746
1669.000000	23.884587
1668.000000	24.052664
1667.000000	24.225095
1666.000000	24.363563
1665.000000	24.466760
1664.000000	24.592927
1663.000000	24.673809
1662.000000	24.769278
1661.000000	24.803024
1660.000000	24.863004
1659.000000	24.919828
1658.000000	24.956949
1657.000000	24.968924
1656.000000	24.991893
1655.000000	24.996465
1654.000000	25.006697
1653.000000	24.999295
1652.000000	24.974149
1651.000000	24.951615
1650.000000	24.930605
1649.000000	24.875632
1648.000000	24.820114
1647.000000	24.776789
1646.000000	24.726170
1645.000000	24.674027
1644.000000	24.597826
1643.000000	24.509542
1642.000000	24.473727
1641.000000	24.394152
1640.000000	24.340376
1639.000000	24.238158
1638.000000	24.195595
1637.000000	24.111229
1636.000000	24.052119
1635.000000	23.958610
1634.000000	23.891880
1633.000000	23.789662
1632.000000	23.723912
1631.000000	23.621150
1630.000000	23.510114
1629.000000	23.430539
1628.000000	23.329627
1627.000000	23.252120
1626.000000	23.149685
1625.000000	23.056175
1624.000000	22.966476
1623.000000	22.869919
1622.000000	22.789908
1621.000000	22.695201
1620.000000	22.610619
1619.000000	22.520811
1618.000000	22.434268
1617.000000	22.351863
1616.000000	22.256829
1615.000000	22.190644
1614.000000	22.114878
1613.000000	22.004496
1612.000000	21.938201
1611.000000	21.850026
1610.000000	21.769471
1609.000000	21.702850
1608.000000	21.594209
1607.000000	21.518988
1606.000000	21.430595
1605.000000	21.369417
1604.000000	21.306170
1603.000000	21.210157
1602.000000	21.121982
1601.000000	21.047632
1600.000000	20.962831
1599.000000	20.866492
1598.000000	20.796061
1597.000000	20.721384
1596.000000	20.644965
1595.000000	20.568438
1594.000000	20.496592
1593.000000	20.430732
1592.000000	20.369772
1591.000000	20.282794
1590.000000	20.228256
1589.000000	20.162179
1588.000000	20.105464
1587.000000	20.035903
1586.000000	19.974834
1585.000000	19.929984
1584.000000	19.850736
1583.000000	19.805886
1582.000000	19.747647
1581.000000	19.698116
