PE UV       SUBTECH     SPECTRUM    ASCII       PEDS        4.00        
   -1
CICIMAUCR0236-3.Sample.ASC
24/06/19
16:24:54.00
24/06/19
16:24:54.00
Vinicio Soto Monge
C. resplendens. Sex M. Ventral 
250,000000
1
Lambda 1050
1050L1511233
PerkinElmer UV WinLab 6.3.2.0749 / 2.02.05 Lambda 900 UV/VIS/NIR, Aug  7 2015 09:38:08

0
0
3350/servo 860,8/2
0
0
UV/VIS
1
1
1
DoubleDePol,CommonBeamDepol,RBeamAtt,SBeamAtt,60mm sphere, WB InGaAs Detector
0
0
0
0
Program
Program
3350/servo 860,8/2
3350/0,2 860,8/0,2
3350/0,2 860,8/0,2
0
15.00
 
 
 
0
 
860,8
319,2
860,8
Front
100
on
S:100 R:100
0
0
0
0
 
0
 
 
 
0
 
 
0
0
0
0
0
 
 
 
 
0
0


0
0
#HDR
-1
-1
#GR
nm
%R
1.0
0.0
2500,000000
-1,000000
2251
8
58,327900
4,204200
#DATA
2482.000000	6.217538
2481.000000	6.200863
2480.000000	6.170523
2479.000000	6.150952
2478.000000	6.150026
2477.000000	6.109726
2476.000000	6.194957
2475.000000	6.140993
2474.000000	6.109032
2473.000000	6.080892
2472.000000	6.168438
2471.000000	6.168554
2470.000000	6.130339
2469.000000	6.143193
2468.000000	6.099188
2467.000000	6.137519
2466.000000	6.125707
2465.000000	6.170754
2464.000000	6.179439
2463.000000	6.125360
2462.000000	6.120728
2461.000000	6.148057
2460.000000	6.146783
2459.000000	6.155816
2458.000000	6.167396
2457.000000	6.180945
2456.000000	6.203758
2455.000000	6.243015
2454.000000	6.238151
2453.000000	6.253090
2452.000000	6.303348
2451.000000	6.325929
2450.000000	6.317823
2449.000000	6.378851
2448.000000	6.386262
2447.000000	6.426561
2446.000000	6.458060
2445.000000	6.473345
2444.000000	6.487589
2443.000000	6.521635
2442.000000	6.544911
2441.000000	6.590653
2440.000000	6.615203
2439.000000	6.656081
2438.000000	6.670441
2437.000000	6.689896
2436.000000	6.710740
2435.000000	6.718499
2434.000000	6.755671
2433.000000	6.780221
2432.000000	6.788907
2431.000000	6.831174
2430.000000	6.854335
2429.000000	6.863020
2428.000000	6.867420
2427.000000	6.897992
2426.000000	6.930649
2425.000000	6.947440
2424.000000	6.964000
2423.000000	6.992371
2422.000000	6.998856
2421.000000	6.996193
2420.000000	7.036723
2419.000000	7.062663
2418.000000	7.066716
2417.000000	7.061158
2416.000000	7.095667
2415.000000	7.113616
2414.000000	7.118364
2413.000000	7.128670
2412.000000	7.143840
2411.000000	7.179276
2410.000000	7.196530
2409.000000	7.211932
2408.000000	7.225018
2407.000000	7.231734
2406.000000	7.241693
2405.000000	7.254432
2404.000000	7.264043
2403.000000	7.285930
2402.000000	7.309322
2401.000000	7.341746
2400.000000	7.364096
2399.000000	7.388183
2398.000000	7.410186
2397.000000	7.405554
2396.000000	7.413312
2395.000000	7.440757
2394.000000	7.461602
2393.000000	7.481288
2392.000000	7.497037
2391.000000	7.510702
2390.000000	7.524367
2389.000000	7.548338
2388.000000	7.556212
2387.000000	7.553780
2386.000000	7.556675
2385.000000	7.577636
2384.000000	7.591532
2383.000000	7.587479
2382.000000	7.588984
2381.000000	7.597785
2380.000000	7.603575
2379.000000	7.603228
2378.000000	7.613419
2377.000000	7.612492
2376.000000	7.599638
2375.000000	7.596164
2374.000000	7.605660
2373.000000	7.608786
2372.000000	7.591995
2371.000000	7.572193
2370.000000	7.569645
2369.000000	7.569182
2368.000000	7.565245
2367.000000	7.559570
2366.000000	7.531083
2365.000000	7.512555
2364.000000	7.496806
2363.000000	7.480014
2362.000000	7.465307
2361.000000	7.460907
2360.000000	7.432072
2359.000000	7.400690
2358.000000	7.402543
2357.000000	7.372666
2356.000000	7.349042
2355.000000	7.342557
2354.000000	7.335725
2353.000000	7.323566
2352.000000	7.321481
2351.000000	7.338272
2350.000000	7.348810
2349.000000	7.354369
2348.000000	7.354253
2347.000000	7.374750
2346.000000	7.384825
2345.000000	7.397795
2344.000000	7.411112
2343.000000	7.422924
2342.000000	7.450948
2341.000000	7.485341
2340.000000	7.496458
2339.000000	7.505607
2338.000000	7.518345
2337.000000	7.521703
2336.000000	7.526683
2335.000000	7.535136
2334.000000	7.544748
2333.000000	7.546716
2332.000000	7.530620
2331.000000	7.524135
2330.000000	7.509776
2329.000000	7.496342
2328.000000	7.487078
2327.000000	7.468318
2326.000000	7.438905
2325.000000	7.409259
2324.000000	7.381003
2323.000000	7.348000
2322.000000	7.326576
2321.000000	7.307006
2320.000000	7.272497
2319.000000	7.222007
2318.000000	7.173833
2317.000000	7.138745
2316.000000	7.102036
2315.000000	7.053051
2314.000000	7.009857
2313.000000	6.977664
2312.000000	6.928101
2311.000000	6.881317
2310.000000	6.850745
2309.000000	6.817047
2308.000000	6.793886
2307.000000	6.797013
2306.000000	6.766325
2305.000000	6.754050
2304.000000	6.767136
2303.000000	6.768410
2302.000000	6.763546
2301.000000	6.808130
2300.000000	6.825037
2299.000000	6.842870
2298.000000	6.882706
2297.000000	6.930533
2296.000000	6.961799
2295.000000	6.995266
2294.000000	7.018079
2293.000000	7.072738
2292.000000	7.104120
2291.000000	7.112690
2290.000000	7.142914
2289.000000	7.142103
2288.000000	7.158432
2287.000000	7.164222
2286.000000	7.164222
2285.000000	7.166074
2284.000000	7.157968
2283.000000	7.146388
2282.000000	7.121722
2281.000000	7.123228
2280.000000	7.102036
2279.000000	7.078875
2278.000000	7.064516
2277.000000	7.032554
2276.000000	7.037650
2275.000000	7.011710
2274.000000	6.991792
2273.000000	6.980212
2272.000000	6.970716
2271.000000	6.953346
2270.000000	6.978475
2269.000000	6.978012
2268.000000	7.006499
2267.000000	7.021206
2266.000000	7.032670
2265.000000	7.079918
2264.000000	7.154842
2263.000000	7.207416
2262.000000	7.275160
2261.000000	7.349737
2260.000000	7.433925
2259.000000	7.538958
2258.000000	7.638548
2257.000000	7.767320
2256.000000	7.882659
2255.000000	7.989660
2254.000000	8.123527
2253.000000	8.245699
2252.000000	8.377250
2251.000000	8.496990
2250.000000	8.602833
2249.000000	8.759398
2248.000000	8.820310
2247.000000	8.943407
2246.000000	9.057009
2245.000000	9.157410
2244.000000	9.247620
2243.000000	9.325092
2242.000000	9.417965
2241.000000	9.503080
2240.000000	9.574993
2239.000000	9.629999
2238.000000	9.693111
2237.000000	9.753907
2236.000000	9.771857
2235.000000	9.825473
2234.000000	9.859287
2233.000000	9.912904
2232.000000	9.966173
2231.000000	9.971384
2230.000000	9.994544
2229.000000	10.036465
2228.000000	10.008325
2227.000000	10.041560
2226.000000	10.060088
2225.000000	10.060899
2224.000000	10.055225
2223.000000	10.043644
2222.000000	10.045729
2221.000000	10.035307
2220.000000	10.011336
2219.000000	9.967099
2218.000000	9.982385
2217.000000	9.981227
2216.000000	9.943128
2215.000000	9.942781
2214.000000	9.923326
2213.000000	9.866930
2212.000000	9.863572
2211.000000	9.873647
2210.000000	9.830916
2209.000000	9.837053
2208.000000	9.786911
2207.000000	9.813545
2206.000000	9.803471
2205.000000	9.762129
2204.000000	9.758076
2203.000000	9.763171
2202.000000	9.759118
2201.000000	9.766066
2200.000000	9.722062
2199.000000	9.716851
2198.000000	9.713376
2197.000000	9.718356
2196.000000	9.703302
2195.000000	9.703649
2194.000000	9.686163
2193.000000	9.681647
2192.000000	9.693574
2191.000000	9.678752
2190.000000	9.659413
2189.000000	9.674814
2188.000000	9.671803
2187.000000	9.642621
2186.000000	9.630925
2185.000000	9.628725
2184.000000	9.624672
2183.000000	9.602554
2182.000000	9.619461
2181.000000	9.579972
2180.000000	9.589931
2179.000000	9.587963
2178.000000	9.557622
2177.000000	9.557159
2176.000000	9.557970
2175.000000	9.550443
2174.000000	9.549285
2173.000000	9.567813
2172.000000	9.548242
2171.000000	9.535388
2170.000000	9.552296
2169.000000	9.554727
2168.000000	9.558201
2167.000000	9.562370
2166.000000	9.574645
2165.000000	9.590047
2164.000000	9.615176
2163.000000	9.616913
2162.000000	9.608691
2161.000000	9.639610
2160.000000	9.646327
2159.000000	9.652001
2158.000000	9.676551
2157.000000	9.695080
2156.000000	9.726578
2155.000000	9.750317
2154.000000	9.745685
2153.000000	9.784595
2152.000000	9.793048
2151.000000	9.823852
2150.000000	9.861603
2149.000000	9.880016
2148.000000	9.905377
2147.000000	9.919389
2146.000000	9.944749
2145.000000	9.996629
2144.000000	10.011683
2143.000000	10.024190
2142.000000	10.056962
2141.000000	10.062289
2140.000000	10.079196
2139.000000	10.114515
2138.000000	10.137907
2137.000000	10.162689
2136.000000	10.167205
2135.000000	10.174964
2134.000000	10.203567
2133.000000	10.220938
2132.000000	10.235645
2131.000000	10.254173
2130.000000	10.257879
2129.000000	10.264711
2128.000000	10.248614
2127.000000	10.252667
2126.000000	10.270617
2125.000000	10.267027
2124.000000	10.266564
2123.000000	10.266101
2122.000000	10.268069
2121.000000	10.255099
2120.000000	10.259847
2119.000000	10.243056
2118.000000	10.241666
2117.000000	10.238076
2116.000000	10.213411
2115.000000	10.203567
2114.000000	10.193493
2113.000000	10.186197
2112.000000	10.162226
2111.000000	10.149372
2110.000000	10.140455
2109.000000	10.147519
2108.000000	10.134549
2107.000000	10.100156
2106.000000	10.076995
2105.000000	10.071900
2104.000000	10.053140
2103.000000	10.012957
2102.000000	10.014925
2101.000000	10.015852
2100.000000	10.005082
2099.000000	9.980532
2098.000000	9.959340
2097.000000	9.944749
2096.000000	9.918346
2095.000000	9.917652
2094.000000	9.917304
2093.000000	9.903755
2092.000000	9.905377
2091.000000	9.872836
2090.000000	9.858361
2089.000000	9.866120
2088.000000	9.854192
2087.000000	9.844928
2086.000000	9.829063
2085.000000	9.822346
2084.000000	9.808218
2083.000000	9.784016
2082.000000	9.764445
2081.000000	9.747306
2080.000000	9.731905
2079.000000	9.710366
2078.000000	9.688826
2077.000000	9.672382
2076.000000	9.642390
2075.000000	9.620619
2074.000000	9.601743
2073.000000	9.573603
2072.000000	9.542105
2071.000000	9.506785
2070.000000	9.484899
2069.000000	9.463823
2068.000000	9.420281
2067.000000	9.390172
2066.000000	9.372802
2065.000000	9.334703
2064.000000	9.297878
2063.000000	9.279118
2062.000000	9.252020
2061.000000	9.234882
2060.000000	9.208826
2059.000000	9.192498
2058.000000	9.187634
2057.000000	9.171422
2056.000000	9.173622
2055.000000	9.164126
2054.000000	9.156368
2053.000000	9.164126
2052.000000	9.184160
2051.000000	9.204194
2050.000000	9.245883
2049.000000	9.278655
2048.000000	9.307605
2047.000000	9.337714
2046.000000	9.376739
2045.000000	9.433598
2044.000000	9.480151
2043.000000	9.517439
2042.000000	9.581130
2041.000000	9.640421
2040.000000	9.695659
2039.000000	9.739432
2038.000000	9.774752
2037.000000	9.839022
2036.000000	9.897155
2035.000000	9.937917
2034.000000	9.979027
2033.000000	9.996976
2032.000000	10.021874
2031.000000	10.035191
2030.000000	10.099693
2029.000000	10.122622
2028.000000	10.139876
2027.000000	10.172648
2026.000000	10.192335
2025.000000	10.210168
2024.000000	10.223138
2023.000000	10.226265
2022.000000	10.250351
2021.000000	10.278376
2020.000000	10.285787
2019.000000	10.279649
2018.000000	10.273975
2017.000000	10.292388
2016.000000	10.289956
2015.000000	10.291461
2014.000000	10.291809
2013.000000	10.293893
2012.000000	10.261700
2011.000000	10.270038
2010.000000	10.279649
2009.000000	10.267374
2008.000000	10.231012
2007.000000	10.221285
2006.000000	10.190018
2005.000000	10.171259
2004.000000	10.160373
2003.000000	10.119727
2002.000000	10.110578
2001.000000	10.084523
2000.000000	10.037739
1999.000000	9.992112
1998.000000	9.973352
1997.000000	9.951582
1996.000000	9.916146
1995.000000	9.872026
1994.000000	9.836127
1993.000000	9.785984
1992.000000	9.748117
1991.000000	9.720904
1990.000000	9.661034
1989.000000	9.630809
1988.000000	9.582404
1987.000000	9.514081
1986.000000	9.467991
1985.000000	9.431282
1984.000000	9.385888
1983.000000	9.333198
1982.000000	9.296257
1981.000000	9.256421
1980.000000	9.214153
1979.000000	9.144324
1978.000000	9.119427
1977.000000	9.060715
1976.000000	9.027596
1975.000000	8.979422
1974.000000	8.924184
1973.000000	8.908898
1972.000000	8.845207
1971.000000	8.806066
1970.000000	8.770283
1969.000000	8.723846
1968.000000	8.693390
1967.000000	8.659460
1966.000000	8.615687
1965.000000	8.571451
1964.000000	8.529993
1963.000000	8.500927
1962.000000	8.469892
1961.000000	8.438162
1960.000000	8.398442
1959.000000	8.374355
1958.000000	8.311706
1957.000000	8.308116
1956.000000	8.265269
1955.000000	8.213853
1954.000000	8.207252
1953.000000	8.154099
1952.000000	8.140087
1951.000000	8.106620
1950.000000	8.075817
1949.000000	8.037371
1948.000000	7.999503
1947.000000	7.968121
1946.000000	7.979585
1945.000000	7.936391
1944.000000	7.940328
1943.000000	7.919021
1942.000000	7.886596
1941.000000	7.891460
1940.000000	7.871542
1939.000000	7.862278
1938.000000	7.860077
1937.000000	7.847802
1936.000000	7.856024
1935.000000	7.871194
1934.000000	7.874668
1933.000000	7.881269
1932.000000	7.886249
1931.000000	7.905588
1930.000000	7.918789
1929.000000	7.953067
1928.000000	7.987576
1927.000000	8.010852
1926.000000	8.035518
1925.000000	8.063773
1924.000000	8.087166
1923.000000	8.149815
1922.000000	8.197293
1921.000000	8.252531
1920.000000	8.339730
1919.000000	8.407359
1918.000000	8.446037
1917.000000	8.519687
1916.000000	8.595074
1915.000000	8.666987
1914.000000	8.739943
1913.000000	8.865936
1912.000000	8.955682
1911.000000	9.083296
1910.000000	9.160537
1909.000000	9.258853
1908.000000	9.375929
1907.000000	9.500764
1906.000000	9.644127
1905.000000	9.777994
1904.000000	9.915336
1903.000000	10.049550
1902.000000	10.218043
1901.000000	10.405063
1900.000000	10.571008
1899.000000	10.784895
1898.000000	11.021131
1897.000000	11.188697
1896.000000	11.397488
1895.000000	11.636504
1894.000000	11.865098
1893.000000	12.091144
1892.000000	12.324370
1891.000000	12.646647
1890.000000	12.923762
1889.000000	13.234691
1888.000000	13.584761
1887.000000	13.899975
1886.000000	14.261046
1885.000000	14.655121
1884.000000	15.051628
1883.000000	15.515300
1882.000000	15.997501
1881.000000	16.473217
1880.000000	16.935036
1879.000000	17.403340
1878.000000	17.842231
1877.000000	18.321073
1876.000000	18.788451
1875.000000	19.208813
1874.000000	19.659979
1873.000000	20.102112
1872.000000	20.540539
1871.000000	20.927318
1870.000000	21.331468
1869.000000	21.692424
1868.000000	22.059633
1867.000000	22.329684
1866.000000	22.591976
1865.000000	22.815011
1864.000000	23.007937
1863.000000	23.170639
1862.000000	23.336121
1861.000000	23.521868
1860.000000	23.687465
1859.000000	23.855378
1858.000000	23.977086
1857.000000	24.102037
1856.000000	24.185183
1855.000000	24.249801
1854.000000	24.309091
1853.000000	24.379267
1852.000000	24.418756
1851.000000	24.435895
1850.000000	24.455813
1849.000000	24.462761
1848.000000	24.458824
1847.000000	24.504797
1846.000000	24.508271
1845.000000	24.484300
1844.000000	24.434505
1843.000000	24.393164
1842.000000	24.367571
1841.000000	24.381931
1840.000000	24.393511
1839.000000	24.358655
1838.000000	24.341979
1837.000000	24.301680
1836.000000	24.270761
1835.000000	24.244358
1834.000000	24.178003
1833.000000	24.098100
1832.000000	24.031513
1831.000000	23.993183
1830.000000	23.943851
1829.000000	23.899151
1828.000000	23.833491
1827.000000	23.771537
1826.000000	23.707614
1825.000000	23.646818
1824.000000	23.581043
1823.000000	23.520246
1822.000000	23.483421
1821.000000	23.477863
1820.000000	23.474157
1819.000000	23.451691
1818.000000	23.393096
1817.000000	23.353028
1816.000000	23.333689
1815.000000	23.325583
1814.000000	23.310181
1813.000000	23.287021
1812.000000	23.273588
1811.000000	23.237110
1810.000000	23.207349
1809.000000	23.168787
1808.000000	23.129877
1807.000000	23.095947
1806.000000	23.040709
1805.000000	22.994504
1804.000000	22.949689
1803.000000	22.892019
1802.000000	22.838403
1801.000000	22.799609
1800.000000	22.749235
1799.000000	22.690176
1798.000000	22.633549
1797.000000	22.584564
1796.000000	22.530253
1795.000000	22.479532
1794.000000	22.432284
1793.000000	22.374383
1792.000000	22.322504
1791.000000	22.270509
1790.000000	22.221524
1789.000000	22.175088
1788.000000	22.121008
1787.000000	22.056969
1786.000000	21.992352
1785.000000	21.938040
1784.000000	21.874349
1783.000000	21.803594
1782.000000	21.728786
1781.000000	21.662315
1780.000000	21.598161
1779.000000	21.519531
1778.000000	21.438238
1777.000000	21.371999
1776.000000	21.298233
1775.000000	21.209876
1774.000000	21.109359
1773.000000	21.023318
1772.000000	20.920139
1771.000000	20.800978
1770.000000	20.693861
1769.000000	20.594387
1768.000000	20.492597
1767.000000	20.379458
1766.000000	20.283921
1765.000000	20.207492
1764.000000	20.139168
1763.000000	20.108481
1762.000000	20.090879
1761.000000	20.081962
1760.000000	20.094121
1759.000000	20.139516
1758.000000	20.216293
1757.000000	20.279173
1756.000000	20.345412
1755.000000	20.400997
1754.000000	20.455772
1753.000000	20.502440
1752.000000	20.529538
1751.000000	20.519810
1750.000000	20.520621
1749.000000	20.501861
1748.000000	20.465499
1747.000000	20.424968
1746.000000	20.358845
1745.000000	20.288785
1744.000000	20.192901
1743.000000	20.080572
1742.000000	19.948095
1741.000000	19.792920
1740.000000	19.606941
1739.000000	19.429069
1738.000000	19.229542
1737.000000	19.056301
1736.000000	18.873334
1735.000000	18.737961
1734.000000	18.618106
1733.000000	18.567732
1732.000000	18.548972
1731.000000	18.554299
1730.000000	18.605831
1729.000000	18.661068
1728.000000	18.728929
1727.000000	18.810222
1726.000000	18.890241
1725.000000	18.995042
1724.000000	19.050164
1723.000000	19.110729
1722.000000	19.165156
1721.000000	19.207308
1720.000000	19.257913
1719.000000	19.309214
1718.000000	19.346155
1717.000000	19.410772
1716.000000	19.499129
1715.000000	19.578222
1714.000000	19.681170
1713.000000	19.760148
1712.000000	19.854411
1711.000000	19.909532
1710.000000	19.969171
1709.000000	20.010744
1708.000000	20.006691
1707.000000	20.026493
1706.000000	20.030083
1705.000000	20.007270
1704.000000	19.955390
1703.000000	19.890657
1702.000000	19.843294
1701.000000	19.719617
1700.000000	19.589687
1699.000000	19.486507
1698.000000	19.358082
1697.000000	19.211361
1696.000000	19.108992
1695.000000	19.024224
1694.000000	19.003148
1693.000000	19.025035
1692.000000	19.076451
1691.000000	19.186000
1690.000000	19.318015
1689.000000	19.440186
1688.000000	19.564558
1687.000000	19.673759
1686.000000	19.721933
1685.000000	19.799636
1684.000000	19.849315
1683.000000	19.962686
1682.000000	20.142642
1681.000000	20.407482
1680.000000	20.772259
1679.000000	21.220414
1678.000000	21.678296
1677.000000	22.185047
1676.000000	22.672111
1675.000000	23.103358
1674.000000	23.515151
1673.000000	23.864990
1672.000000	24.176614
1671.000000	24.459518
1670.000000	24.710462
1669.000000	24.940793
1668.000000	25.115654
1667.000000	25.320276
1666.000000	25.455997
1665.000000	25.591022
1664.000000	25.713425
1663.000000	25.807341
1662.000000	25.920595
1661.000000	26.010921
1660.000000	26.035355
1659.000000	26.113522
1658.000000	26.136682
1657.000000	26.195741
1656.000000	26.240441
1655.000000	26.245189
1654.000000	26.248895
1653.000000	26.263486
1652.000000	26.255380
1651.000000	26.243684
1650.000000	26.230482
1649.000000	26.202574
1648.000000	26.148957
1647.000000	26.120470
1646.000000	26.082487
1645.000000	26.014858
1644.000000	25.955568
1643.000000	25.902299
1642.000000	25.839765
1641.000000	25.797266
1640.000000	25.751177
1639.000000	25.677758
1638.000000	25.613256
1637.000000	25.550491
1636.000000	25.466998
1635.000000	25.412918
1634.000000	25.346100
1633.000000	25.245584
1632.000000	25.176682
1631.000000	25.078366
1630.000000	24.999852
1629.000000	24.935581
1628.000000	24.832865
1627.000000	24.755625
1626.000000	24.650940
1625.000000	24.582500
1624.000000	24.487427
1623.000000	24.419103
1622.000000	24.325651
1621.000000	24.228377
1620.000000	24.160633
1619.000000	24.068802
1618.000000	23.999552
1617.000000	23.912005
1616.000000	23.840555
1615.000000	23.760420
1614.000000	23.695571
1613.000000	23.605361
1612.000000	23.504150
1611.000000	23.430268
1610.000000	23.368198
1609.000000	23.283778
1608.000000	23.214644
1607.000000	23.127793
1606.000000	23.050089
1605.000000	22.979218
1604.000000	22.887503
1603.000000	22.822885
1602.000000	22.736497
1601.000000	22.637023
1600.000000	22.570552
1599.000000	22.503619
1598.000000	22.449191
1597.000000	22.342769
1596.000000	22.245148
1595.000000	22.179951
1594.000000	22.103869
1593.000000	22.020955
1592.000000	21.987256
1591.000000	21.896583
1590.000000	21.840651
1589.000000	21.770822
1588.000000	21.719869
1587.000000	21.653514
1586.000000	21.608004
1585.000000	21.543965
