PE UV       SUBTECH     SPECTRUM    ASCII       PEDS        4.00        
   -1
CICIMAUCR0020-1.Sample.ASC
24/04/12
14:23:27.00
24/04/12
14:23:27.00
Vinicio Soto Monge
C. resplendens
250,000000
1
Lambda 1050
1050L1511233
PerkinElmer UV WinLab 6.3.2.0749 / 2.02.05 Lambda 900 UV/VIS/NIR, Aug  7 2015 09:38:08

0
0
3350/servo 860,8/2
0
0
UV/VIS
1
1
1
DoubleDePol,CommonBeamDepol,RBeamAtt,SBeamAtt,60mm sphere, WB InGaAs Detector
0
0
0
0
Program
Program
3350/servo 860,8/2
3350/0,2 860,8/0,2
3350/0,2 860,8/0,2
0
15.00
 
 
 
0
 
860,8
319,2
860,8
Front
100
on
S:100 R:100
0
0
0
0
 
0
 
 
 
0
 
 
0
0
0
0
0
 
 
 
 
0
0


0
0
#HDR
-1
-1
#GR
nm
%R
1.0
0.0
2500,000000
-1,000000
2251
8
48,794800
3,290600
#DATA
2482.000000	8.267047
2481.000000	8.312451
2480.000000	8.266854
2479.000000	8.297091
2478.000000	8.312934
2477.000000	8.309070
2476.000000	8.333994
2475.000000	8.357372
2474.000000	8.376210
2473.000000	8.329164
2472.000000	8.304530
2471.000000	8.354088
2470.000000	8.336119
2469.000000	8.419199
2468.000000	8.413210
2467.000000	8.425286
2466.000000	8.471366
2465.000000	8.504308
2464.000000	8.556185
2463.000000	8.578211
2462.000000	8.625740
2461.000000	8.678197
2460.000000	8.733165
2459.000000	8.807744
2458.000000	8.875174
2457.000000	8.912173
2456.000000	8.986945
2455.000000	9.060462
2454.000000	9.124221
2453.000000	9.165374
2452.000000	9.234737
2451.000000	9.307480
2450.000000	9.381769
2449.000000	9.407756
2448.000000	9.472288
2447.000000	9.517982
2446.000000	9.594589
2445.000000	9.653615
2444.000000	9.709549
2443.000000	9.760363
2442.000000	9.829629
2441.000000	9.896962
2440.000000	9.951544
2439.000000	9.999653
2438.000000	10.045927
2437.000000	10.104179
2436.000000	10.181849
2435.000000	10.222134
2434.000000	10.255076
2433.000000	10.298162
2432.000000	10.346464
2431.000000	10.394283
2430.000000	10.450797
2429.000000	10.492917
2428.000000	10.545470
2427.000000	10.569041
2426.000000	10.562472
2425.000000	10.526439
2424.000000	10.468186
2423.000000	10.418917
2422.000000	10.414184
2421.000000	10.454082
2420.000000	10.478426
2419.000000	10.499196
2418.000000	10.533394
2417.000000	10.501804
2416.000000	10.484899
2415.000000	10.472726
2414.000000	10.498133
2413.000000	10.510306
2412.000000	10.526632
2411.000000	10.504606
2410.000000	10.498906
2409.000000	10.526535
2408.000000	10.534167
2407.000000	10.541992
2406.000000	10.519290
2405.000000	10.512624
2404.000000	10.521705
2403.000000	10.524893
2402.000000	10.518227
2401.000000	10.532718
2400.000000	10.533877
2399.000000	10.521898
2398.000000	10.540156
2397.000000	10.540833
2396.000000	10.538611
2395.000000	10.547015
2394.000000	10.548754
2393.000000	10.531752
2392.000000	10.544890
2391.000000	10.527211
2390.000000	10.507987
2389.000000	10.523637
2388.000000	10.506635
2387.000000	10.476011
2386.000000	10.467606
2385.000000	10.468766
2384.000000	10.427805
2383.000000	10.391578
2382.000000	10.394380
2381.000000	10.378440
2380.000000	10.371678
2379.000000	10.352453
2378.000000	10.306663
2377.000000	10.290916
2376.000000	10.260293
2375.000000	10.218946
2374.000000	10.205035
2373.000000	10.189964
2372.000000	10.144657
2371.000000	10.094229
2370.000000	10.054911
2369.000000	10.029311
2368.000000	9.980332
2367.000000	9.926137
2366.000000	9.893581
2365.000000	9.856002
2364.000000	9.786253
2363.000000	9.705975
2362.000000	9.679215
2361.000000	9.616036
2360.000000	9.548895
2359.000000	9.530251
2358.000000	9.502428
2357.000000	9.475476
2356.000000	9.432100
2355.000000	9.394617
2354.000000	9.388628
2353.000000	9.382542
2352.000000	9.371819
2351.000000	9.380417
2350.000000	9.392879
2349.000000	9.395294
2348.000000	9.403795
2347.000000	9.416643
2346.000000	9.447074
2345.000000	9.464849
2344.000000	9.457217
2343.000000	9.437703
2342.000000	9.440311
2341.000000	9.444176
2340.000000	9.431810
2339.000000	9.416837
2338.000000	9.395004
2337.000000	9.356652
2336.000000	9.348730
2335.000000	9.343031
2334.000000	9.283232
2333.000000	9.214063
2332.000000	9.168852
2331.000000	9.148179
2330.000000	9.128375
2329.000000	9.056694
2328.000000	9.011869
2327.000000	8.958930
2326.000000	8.902996
2325.000000	8.866576
2324.000000	8.789872
2323.000000	8.738961
2322.000000	8.700126
2321.000000	8.610573
2320.000000	8.548167
2319.000000	8.497449
2318.000000	8.416301
2317.000000	8.357469
2316.000000	8.310229
2315.000000	8.224734
2314.000000	8.173340
2313.000000	8.143876
2312.000000	8.123686
2311.000000	8.062342
2310.000000	8.033940
2309.000000	8.029206
2308.000000	8.009402
2307.000000	8.002640
2306.000000	8.041668
2305.000000	8.086686
2304.000000	8.093062
2303.000000	8.120691
2302.000000	8.166288
2301.000000	8.215267
2300.000000	8.257870
2299.000000	8.289363
2298.000000	8.355923
2297.000000	8.372153
2296.000000	8.401714
2295.000000	8.434946
2294.000000	8.464410
2293.000000	8.478708
2292.000000	8.486436
2291.000000	8.481026
2290.000000	8.456199
2289.000000	8.455909
2288.000000	8.443544
2287.000000	8.403356
2286.000000	8.373988
2285.000000	8.348098
2284.000000	8.310133
2283.000000	8.262024
2282.000000	8.202322
2281.000000	8.191502
2280.000000	8.157207
2279.000000	8.105524
2278.000000	8.053357
2277.000000	8.030076
2276.000000	8.012493
2275.000000	7.963225
2274.000000	7.939750
2273.000000	7.924680
2272.000000	7.949507
2271.000000	7.940137
2270.000000	7.952405
2269.000000	7.979261
2268.000000	8.037321
2267.000000	8.056835
2266.000000	8.130641
2265.000000	8.221836
2264.000000	8.309263
2263.000000	8.430019
2262.000000	8.515225
2261.000000	8.643999
2260.000000	8.774125
2259.000000	8.926278
2258.000000	9.078720
2257.000000	9.208364
2256.000000	9.358970
2255.000000	9.504360
2254.000000	9.616615
2253.000000	9.784224
2252.000000	9.913288
2251.000000	10.037329
2250.000000	10.166393
2249.000000	10.263963
2248.000000	10.374286
2247.000000	10.478329
2246.000000	10.558125
2245.000000	10.623430
2244.000000	10.719068
2243.000000	10.815094
2242.000000	10.904646
2241.000000	10.938554
2240.000000	11.005405
2239.000000	11.076796
2238.000000	11.137947
2237.000000	11.193977
2236.000000	11.225567
2235.000000	11.281791
2234.000000	11.324780
2233.000000	11.358978
2232.000000	11.409116
2231.000000	11.414043
2230.000000	11.435393
2229.000000	11.439643
2228.000000	11.461186
2227.000000	11.483405
2226.000000	11.483308
2225.000000	11.510841
2224.000000	11.502629
2223.000000	11.438967
2222.000000	11.453071
2221.000000	11.452395
2220.000000	11.442251
2219.000000	11.425056
2218.000000	11.431432
2217.000000	11.412497
2216.000000	11.407184
2215.000000	11.378782
2214.000000	11.375498
2213.000000	11.373469
2212.000000	11.365161
2211.000000	11.324297
2210.000000	11.327775
2209.000000	11.302561
2208.000000	11.305266
2207.000000	11.288940
2206.000000	11.228079
2205.000000	11.210497
2204.000000	11.192721
2203.000000	11.210593
2202.000000	11.209627
2201.000000	11.183930
2200.000000	11.194847
2199.000000	11.174463
2198.000000	11.145965
2197.000000	11.122876
2196.000000	11.102493
2195.000000	11.076313
2194.000000	11.084041
2193.000000	11.064720
2192.000000	11.056992
2191.000000	11.037381
2190.000000	11.042404
2189.000000	11.014486
2188.000000	11.008303
2187.000000	10.999029
2186.000000	10.996324
2185.000000	10.954494
2184.000000	10.935560
2183.000000	10.953528
2182.000000	10.940776
2181.000000	10.940197
2180.000000	10.943191
2179.000000	10.935173
2178.000000	10.904839
2177.000000	10.894792
2176.000000	10.948311
2175.000000	10.920682
2174.000000	10.919233
2173.000000	10.929377
2172.000000	10.900009
2171.000000	10.913051
2170.000000	10.941839
2169.000000	10.931599
2168.000000	10.935463
2167.000000	10.952272
2166.000000	10.990334
2165.000000	10.982896
2164.000000	10.995261
2163.000000	11.001154
2162.000000	11.049843
2161.000000	11.066169
2160.000000	11.077955
2159.000000	11.088292
2158.000000	11.094378
2157.000000	11.127996
2156.000000	11.127320
2155.000000	11.155818
2154.000000	11.180936
2153.000000	11.201899
2152.000000	11.201223
2151.000000	11.211753
2150.000000	11.244502
2149.000000	11.257736
2148.000000	11.311352
2147.000000	11.326422
2146.000000	11.335793
2145.000000	11.338305
2144.000000	11.349897
2143.000000	11.353375
2142.000000	11.362070
2141.000000	11.363036
2140.000000	11.351540
2139.000000	11.358109
2138.000000	11.365547
2137.000000	11.372503
2136.000000	11.372020
2135.000000	11.372986
2134.000000	11.362939
2133.000000	11.350091
2132.000000	11.313767
2131.000000	11.314154
2130.000000	11.313477
2129.000000	11.288650
2128.000000	11.264016
2127.000000	11.257640
2126.000000	11.223828
2125.000000	11.187118
2124.000000	11.184510
2123.000000	11.153113
2122.000000	11.096890
2121.000000	11.094474
2120.000000	11.071289
2119.000000	11.032454
2118.000000	11.001637
2117.000000	10.973622
2116.000000	10.936043
2115.000000	10.906578
2114.000000	10.883103
2113.000000	10.864845
2112.000000	10.834801
2111.000000	10.776838
2110.000000	10.726410
2109.000000	10.693082
2108.000000	10.688638
2107.000000	10.657531
2106.000000	10.624686
2105.000000	10.589521
2104.000000	10.551846
2103.000000	10.545083
2102.000000	10.544021
2101.000000	10.510789
2100.000000	10.473209
2099.000000	10.451860
2098.000000	10.442875
2097.000000	10.438818
2096.000000	10.408581
2095.000000	10.381338
2094.000000	10.369939
2093.000000	10.341924
2092.000000	10.323858
2091.000000	10.319511
2090.000000	10.303185
2089.000000	10.292558
2088.000000	10.281159
2087.000000	10.259037
2086.000000	10.251598
2085.000000	10.244353
2084.000000	10.233823
2083.000000	10.225901
2082.000000	10.219719
2081.000000	10.188032
2080.000000	10.157119
2079.000000	10.155863
2078.000000	10.148038
2077.000000	10.127558
2076.000000	10.104855
2075.000000	10.083506
2074.000000	10.088433
2073.000000	10.089592
2072.000000	10.083699
2071.000000	10.063026
2070.000000	10.032885
2069.000000	10.016172
2068.000000	10.026799
2067.000000	10.030856
2066.000000	10.004290
2065.000000	10.000329
2064.000000	10.016172
2063.000000	10.004870
2062.000000	9.994533
2061.000000	9.990765
2060.000000	9.984872
2059.000000	10.017815
2058.000000	10.039937
2057.000000	10.059258
2056.000000	10.066793
2055.000000	10.091910
2054.000000	10.141469
2053.000000	10.166103
2052.000000	10.214405
2051.000000	10.273431
2050.000000	10.324631
2049.000000	10.382208
2048.000000	10.467606
2047.000000	10.524313
2046.000000	10.597733
2045.000000	10.683518
2044.000000	10.763217
2043.000000	10.827652
2042.000000	10.902521
2041.000000	10.982413
2040.000000	11.069647
2039.000000	11.162677
2038.000000	11.238898
2037.000000	11.308357
2036.000000	11.389022
2035.000000	11.457515
2034.000000	11.514995
2033.000000	11.568417
2032.000000	11.646087
2031.000000	11.687724
2030.000000	11.741050
2029.000000	11.799882
2028.000000	11.847412
2027.000000	11.898129
2026.000000	11.957541
2025.000000	11.980340
2024.000000	12.004298
2023.000000	12.040042
2022.000000	12.106506
2021.000000	12.137709
2020.000000	12.183789
2019.000000	12.199150
2018.000000	12.228228
2017.000000	12.262329
2016.000000	12.278848
2015.000000	12.308506
2014.000000	12.322031
2013.000000	12.326185
2012.000000	12.333527
2011.000000	12.354104
2010.000000	12.354683
2009.000000	12.363667
2008.000000	12.374584
2007.000000	12.375260
2006.000000	12.373135
2005.000000	12.344636
2004.000000	12.349563
2003.000000	12.350239
2002.000000	12.322321
2001.000000	12.324446
2000.000000	12.296334
1999.000000	12.260204
1998.000000	12.238274
1997.000000	12.221755
1996.000000	12.186881
1995.000000	12.142732
1994.000000	12.113171
1993.000000	12.093561
1992.000000	12.047094
1991.000000	12.025841
1990.000000	11.984880
1989.000000	11.958604
1988.000000	11.871853
1987.000000	11.848378
1986.000000	11.805485
1985.000000	11.758729
1984.000000	11.710523
1983.000000	11.660385
1982.000000	11.594114
1981.000000	11.573634
1980.000000	11.514802
1979.000000	11.460993
1978.000000	11.430272
1977.000000	11.373662
1976.000000	11.318501
1975.000000	11.277734
1974.000000	11.244019
1973.000000	11.179100
1972.000000	11.139009
1971.000000	11.079307
1970.000000	11.058827
1969.000000	10.997966
1968.000000	10.954301
1967.000000	10.911408
1966.000000	10.888320
1965.000000	10.838665
1964.000000	10.795773
1963.000000	10.771718
1962.000000	10.736554
1961.000000	10.699844
1960.000000	10.643137
1959.000000	10.609325
1958.000000	10.551363
1957.000000	10.528660
1956.000000	10.465674
1955.000000	10.417855
1954.000000	10.399693
1953.000000	10.368780
1952.000000	10.345401
1951.000000	10.291786
1950.000000	10.250825
1949.000000	10.231987
1948.000000	10.204455
1947.000000	10.157891
1946.000000	10.161369
1945.000000	10.151033
1944.000000	10.111811
1943.000000	10.113163
1942.000000	10.077710
1941.000000	10.071720
1940.000000	10.077323
1939.000000	10.095678
1938.000000	10.133547
1937.000000	10.173928
1936.000000	10.177212
1935.000000	10.190930
1934.000000	10.202716
1933.000000	10.221071
1932.000000	10.246478
1931.000000	10.277585
1930.000000	10.320767
1929.000000	10.412445
1928.000000	10.524313
1927.000000	10.606717
1926.000000	10.682262
1925.000000	10.768047
1924.000000	10.791619
1923.000000	10.812872
1922.000000	10.937395
1921.000000	11.130605
1920.000000	11.300339
1919.000000	11.450270
1918.000000	11.549386
1917.000000	11.570543
1916.000000	11.588028
1915.000000	11.694873
1914.000000	11.896873
1913.000000	12.143698
1912.000000	12.372072
1911.000000	12.544028
1910.000000	12.626046
1909.000000	12.647492
1908.000000	12.722844
1907.000000	12.923685
1906.000000	13.143654
1905.000000	13.464285
1904.000000	13.755645
1903.000000	13.900939
1902.000000	14.001794
1901.000000	14.171722
1900.000000	14.416518
1899.000000	14.696672
1898.000000	14.969677
1897.000000	15.165591
1896.000000	15.230123
1895.000000	15.273112
1894.000000	15.406234
1893.000000	15.585339
1892.000000	15.857668
1891.000000	16.217037
1890.000000	16.481638
1889.000000	16.672045
1888.000000	16.843616
1887.000000	16.978379
1886.000000	17.186659
1885.000000	17.497050
1884.000000	17.842412
1883.000000	18.167100
1882.000000	18.474303
1881.000000	18.768948
1880.000000	18.974619
1879.000000	19.201544
1878.000000	19.450784
1877.000000	19.708719
1876.000000	19.970614
1875.000000	20.277721
1874.000000	20.522324
1873.000000	20.782867
1872.000000	21.089200
1871.000000	21.329456
1870.000000	21.547300
1869.000000	21.768622
1868.000000	21.885803
1867.000000	21.864550
1866.000000	21.814122
1865.000000	21.761473
1864.000000	21.657816
1863.000000	21.567201
1862.000000	21.543533
1861.000000	21.566331
1860.000000	21.638978
1859.000000	21.759831
1858.000000	21.859913
1857.000000	21.816634
1856.000000	21.705152
1855.000000	21.669505
1854.000000	21.709306
1853.000000	21.703027
1852.000000	21.664288
1851.000000	21.541214
1850.000000	21.308976
1849.000000	21.234397
1848.000000	21.392636
1847.000000	21.613281
1846.000000	21.664482
1845.000000	21.453400
1844.000000	21.150448
1843.000000	20.943134
1842.000000	20.953084
1841.000000	21.105430
1840.000000	21.192085
1839.000000	21.175082
1838.000000	21.102435
1837.000000	21.080409
1836.000000	21.110937
1835.000000	21.096542
1834.000000	20.979458
1833.000000	20.761710
1832.000000	20.594294
1831.000000	20.521358
1830.000000	20.535559
1829.000000	20.523000
1828.000000	20.439437
1827.000000	20.403114
1826.000000	20.393067
1825.000000	20.336360
1824.000000	20.190583
1823.000000	20.006551
1822.000000	19.956413
1821.000000	20.083932
1820.000000	20.243812
1819.000000	20.273277
1818.000000	20.171745
1817.000000	20.047222
1816.000000	20.014086
1815.000000	20.040363
1814.000000	20.025196
1813.000000	19.976604
1812.000000	19.968199
1811.000000	20.000465
1810.000000	19.984622
1809.000000	19.925596
1808.000000	19.825707
1807.000000	19.785423
1806.000000	19.781269
1805.000000	19.768131
1804.000000	19.733063
1803.000000	19.668531
1802.000000	19.635203
1801.000000	19.641192
1800.000000	19.610375
1799.000000	19.566806
1798.000000	19.504303
1797.000000	19.433975
1796.000000	19.411080
1795.000000	19.382871
1794.000000	19.357561
1793.000000	19.344326
1792.000000	19.307519
1791.000000	19.249653
1790.000000	19.195458
1789.000000	19.146479
1788.000000	19.103780
1787.000000	19.046204
1786.000000	18.989786
1785.000000	18.957037
1784.000000	18.900524
1783.000000	18.837054
1782.000000	18.773875
1781.000000	18.717071
1780.000000	18.675531
1779.000000	18.627422
1778.000000	18.569556
1777.000000	18.499807
1776.000000	18.429479
1775.000000	18.335289
1774.000000	18.241969
1773.000000	18.142370
1772.000000	18.027700
1771.000000	17.928873
1770.000000	17.843668
1769.000000	17.745517
1768.000000	17.664080
1767.000000	17.566702
1766.000000	17.517627
1765.000000	17.438894
1764.000000	17.412231
1763.000000	17.403440
1762.000000	17.413487
1761.000000	17.447975
1760.000000	17.494731
1759.000000	17.542744
1758.000000	17.593751
1757.000000	17.641377
1756.000000	17.675672
1755.000000	17.717019
1754.000000	17.731413
1753.000000	17.714507
1752.000000	17.693930
1751.000000	17.668717
1750.000000	17.635388
1749.000000	17.593461
1748.000000	17.507290
1747.000000	17.443917
1746.000000	17.367117
1745.000000	17.266261
1744.000000	17.132464
1743.000000	16.988040
1742.000000	16.794927
1741.000000	16.634466
1740.000000	16.436137
1739.000000	16.267078
1738.000000	16.083336
1737.000000	15.941810
1736.000000	15.823759
1735.000000	15.752948
1734.000000	15.730149
1733.000000	15.719909
1732.000000	15.761256
1731.000000	15.832647
1730.000000	15.916113
1729.000000	16.001415
1728.000000	16.083336
1727.000000	16.175787
1726.000000	16.235875
1725.000000	16.291906
1724.000000	16.343203
1723.000000	16.355568
1722.000000	16.358563
1721.000000	16.365808
1720.000000	16.380589
1719.000000	16.399524
1718.000000	16.417589
1717.000000	16.456037
1716.000000	16.462606
1715.000000	16.515159
1714.000000	16.553511
1713.000000	16.611668
1712.000000	16.632341
1711.000000	16.657265
1710.000000	16.654560
1709.000000	16.656589
1708.000000	16.649633
1707.000000	16.631665
1706.000000	16.607031
1705.000000	16.575054
1704.000000	16.513710
1703.000000	16.451883
1702.000000	16.382424
1701.000000	16.316443
1700.000000	16.170087
1699.000000	16.047496
1698.000000	15.924808
1697.000000	15.831294
1696.000000	15.779804
1695.000000	15.752272
1694.000000	15.801347
1693.000000	15.907419
1692.000000	16.010303
1691.000000	16.156080
1690.000000	16.309295
1689.000000	16.373730
1688.000000	16.422032
1687.000000	16.423578
1686.000000	16.439325
1685.000000	16.461640
1684.000000	16.506272
1683.000000	16.670307
1682.000000	16.926985
1681.000000	17.270125
1680.000000	17.682531
1679.000000	18.150001
1678.000000	18.541251
1677.000000	18.931051
1676.000000	19.298149
1675.000000	19.586610
1674.000000	19.858746
1673.000000	20.067895
1672.000000	20.290859
1671.000000	20.460883
1670.000000	20.603858
1669.000000	20.737076
1668.000000	20.857156
1667.000000	20.941395
1666.000000	21.010951
1665.000000	21.096059
1664.000000	21.175565
1663.000000	21.251593
1662.000000	21.289849
1661.000000	21.341242
1660.000000	21.377372
1659.000000	21.404229
1658.000000	21.420265
1657.000000	21.443064
1656.000000	21.458520
1655.000000	21.470886
1654.000000	21.466345
1653.000000	21.446928
1652.000000	21.444126
1651.000000	21.423646
1650.000000	21.397563
1649.000000	21.364524
1648.000000	21.361046
1647.000000	21.317381
1646.000000	21.285791
1645.000000	21.249275
1644.000000	21.209377
1643.000000	21.136247
1642.000000	21.102242
1641.000000	21.054326
1640.000000	21.017133
1639.000000	20.985640
1638.000000	20.944390
1637.000000	20.884302
1636.000000	20.824987
1635.000000	20.748476
1634.000000	20.714374
1633.000000	20.653996
1632.000000	20.590044
1631.000000	20.544833
1630.000000	20.494115
1629.000000	20.422435
1628.000000	20.344861
1627.000000	20.265935
1626.000000	20.212996
1625.000000	20.161698
1624.000000	20.104702
1623.000000	20.019206
1622.000000	19.953419
1621.000000	19.899996
1620.000000	19.835271
1619.000000	19.760982
1618.000000	19.686500
1617.000000	19.619649
1616.000000	19.561686
1615.000000	19.502951
1614.000000	19.446630
1613.000000	19.392821
1612.000000	19.346354
1611.000000	19.284914
1610.000000	19.217097
1609.000000	19.168602
1608.000000	19.108514
1607.000000	19.055671
1606.000000	18.988530
1605.000000	18.930857
1604.000000	18.875986
1603.000000	18.794838
1602.000000	18.746246
1601.000000	18.712144
1600.000000	18.652539
1599.000000	18.592354
