PE UV       SUBTECH     SPECTRUM    ASCII       PEDS        4.00        
   -1
CICIMAUCR0235-2.Sample.ASC
24/06/19
14:37:02.00
24/06/19
14:37:02.00
Vinicio Soto Monge
C. resplendens. Sex M. Ventral 
250,000000
1
Lambda 1050
1050L1511233
PerkinElmer UV WinLab 6.3.2.0749 / 2.02.05 Lambda 900 UV/VIS/NIR, Aug  7 2015 09:38:08

0
0
3350/servo 860,8/2
0
0
UV/VIS
1
1
1
DoubleDePol,CommonBeamDepol,RBeamAtt,SBeamAtt,60mm sphere, WB InGaAs Detector
0
0
0
0
Program
Program
3350/servo 860,8/2
3350/0,2 860,8/0,2
3350/0,2 860,8/0,2
0
15.00
 
 
 
0
 
860,8
319,2
860,8
Front
100
on
S:100 R:100
0
0
0
0
 
0
 
 
 
0
 
 
0
0
0
0
0
 
 
 
 
0
0


0
0
#HDR
-1
-1
#GR
nm
%R
1.0
0.0
2500,000000
-1,000000
2251
8
67,363000
4,361100
#DATA
2482.000000	6.193071
2481.000000	6.253582
2480.000000	6.200014
2479.000000	6.281454
2478.000000	6.245293
2477.000000	6.267155
2476.000000	6.284562
2475.000000	6.181674
2474.000000	6.209857
2473.000000	6.241044
2472.000000	6.164371
2471.000000	6.239594
2470.000000	6.214830
2469.000000	6.199806
2468.000000	6.229440
2467.000000	6.215452
2466.000000	6.207785
2465.000000	6.294405
2464.000000	6.287878
2463.000000	6.292437
2462.000000	6.271300
2461.000000	6.307564
2460.000000	6.347041
2459.000000	6.367867
2458.000000	6.386518
2457.000000	6.399262
2456.000000	6.422679
2455.000000	6.448582
2454.000000	6.476557
2453.000000	6.506502
2452.000000	6.517278
2451.000000	6.567737
2450.000000	6.608561
2449.000000	6.669796
2448.000000	6.682437
2447.000000	6.695907
2446.000000	6.745434
2445.000000	6.768229
2444.000000	6.814855
2443.000000	6.839722
2442.000000	6.880131
2441.000000	6.915256
2440.000000	6.958359
2439.000000	6.986439
2438.000000	7.050679
2437.000000	7.086322
2436.000000	7.092124
2435.000000	7.142998
2434.000000	7.165586
2433.000000	7.174393
2432.000000	7.220605
2431.000000	7.249616
2430.000000	7.286917
2429.000000	7.296450
2428.000000	7.315514
2427.000000	7.336755
2426.000000	7.364006
2425.000000	7.402861
2424.000000	7.441094
2423.000000	7.453838
2422.000000	7.477048
2421.000000	7.514556
2420.000000	7.527818
2419.000000	7.532688
2418.000000	7.561907
2417.000000	7.592162
2416.000000	7.606357
2415.000000	7.630395
2414.000000	7.641378
2413.000000	7.670494
2412.000000	7.675364
2411.000000	7.692253
2410.000000	7.704272
2409.000000	7.706655
2408.000000	7.735666
2407.000000	7.751519
2406.000000	7.773900
2405.000000	7.783847
2404.000000	7.794726
2403.000000	7.804984
2402.000000	7.829747
2401.000000	7.856272
2400.000000	7.858448
2399.000000	7.862282
2398.000000	7.876063
2397.000000	7.887149
2396.000000	7.887253
2395.000000	7.910773
2394.000000	7.934500
2393.000000	7.949214
2392.000000	7.948695
2391.000000	7.951907
2390.000000	7.966517
2389.000000	7.972008
2388.000000	7.980298
2387.000000	7.994803
2386.000000	7.991281
2385.000000	7.984131
2384.000000	7.990866
2383.000000	7.992109
2382.000000	7.986203
2381.000000	7.984442
2380.000000	7.988794
2379.000000	7.989623
2378.000000	7.972630
2377.000000	7.956259
2376.000000	7.947556
2375.000000	7.948488
2374.000000	7.946416
2373.000000	7.919787
2372.000000	7.902795
2371.000000	7.882590
2370.000000	7.864458
2369.000000	7.858241
2368.000000	7.835239
2367.000000	7.807056
2366.000000	7.784986
2365.000000	7.763953
2364.000000	7.742712
2363.000000	7.712250
2362.000000	7.680233
2361.000000	7.655677
2360.000000	7.633607
2359.000000	7.609465
2358.000000	7.581697
2357.000000	7.557037
2356.000000	7.531755
2355.000000	7.509582
2354.000000	7.485648
2353.000000	7.480156
2352.000000	7.481296
2351.000000	7.477877
2350.000000	7.469795
2349.000000	7.473214
2348.000000	7.489792
2347.000000	7.505541
2346.000000	7.531548
2345.000000	7.549059
2344.000000	7.554654
2343.000000	7.554965
2342.000000	7.575273
2341.000000	7.610087
2340.000000	7.628219
2339.000000	7.632053
2338.000000	7.634851
2337.000000	7.635887
2336.000000	7.646352
2335.000000	7.637130
2334.000000	7.635162
2333.000000	7.620448
2332.000000	7.598068
2331.000000	7.588121
2330.000000	7.570507
2329.000000	7.553203
2328.000000	7.535796
2327.000000	7.504091
2326.000000	7.471556
2325.000000	7.424619
2324.000000	7.390841
2323.000000	7.367632
2322.000000	7.329399
2321.000000	7.291683
2320.000000	7.242260
2319.000000	7.202783
2318.000000	7.141030
2317.000000	7.080727
2316.000000	7.048710
2315.000000	6.999287
2314.000000	6.935668
2313.000000	6.886037
2312.000000	6.851741
2311.000000	6.826460
2310.000000	6.784911
2309.000000	6.759940
2308.000000	6.731135
2307.000000	6.705128
2306.000000	6.700259
2305.000000	6.692384
2304.000000	6.698290
2303.000000	6.694974
2302.000000	6.719945
2301.000000	6.740668
2300.000000	6.768540
2299.000000	6.812575
2298.000000	6.835681
2297.000000	6.865833
2296.000000	6.905309
2295.000000	6.954422
2294.000000	6.976803
2293.000000	7.008301
2292.000000	7.053269
2291.000000	7.072852
2290.000000	7.073059
2289.000000	7.086736
2288.000000	7.103522
2287.000000	7.119582
2286.000000	7.113158
2285.000000	7.115230
2284.000000	7.101242
2283.000000	7.090259
2282.000000	7.080209
2281.000000	7.058139
2280.000000	7.019077
2279.000000	7.017005
2278.000000	6.988718
2277.000000	6.971726
2276.000000	6.959914
2275.000000	6.940642
2274.000000	6.923649
2273.000000	6.917121
2272.000000	6.902097
2271.000000	6.895673
2270.000000	6.922406
2269.000000	6.910179
2268.000000	6.948102
2267.000000	6.972865
2266.000000	7.024776
2265.000000	7.078447
2264.000000	7.131290
2263.000000	7.184858
2262.000000	7.281322
2261.000000	7.359447
2260.000000	7.475597
2259.000000	7.565533
2258.000000	7.669250
2257.000000	7.795969
2256.000000	7.938023
2255.000000	8.061427
2254.000000	8.194259
2253.000000	8.325952
2252.000000	8.451531
2251.000000	8.592859
2250.000000	8.743306
2249.000000	8.869196
2248.000000	8.973638
2247.000000	9.089271
2246.000000	9.191744
2245.000000	9.296705
2244.000000	9.394205
2243.000000	9.496782
2242.000000	9.569622
2241.000000	9.654792
2240.000000	9.721001
2239.000000	9.782133
2238.000000	9.863159
2237.000000	9.927399
2236.000000	9.974336
2235.000000	10.020858
2234.000000	10.061889
2233.000000	10.112452
2232.000000	10.139081
2231.000000	10.164155
2230.000000	10.214408
2229.000000	10.227359
2228.000000	10.232540
2227.000000	10.251191
2226.000000	10.256060
2225.000000	10.276161
2224.000000	10.271706
2223.000000	10.237410
2222.000000	10.238550
2221.000000	10.226013
2220.000000	10.232747
2219.000000	10.218138
2218.000000	10.204875
2217.000000	10.171408
2216.000000	10.145712
2215.000000	10.141775
2214.000000	10.119187
2213.000000	10.105303
2212.000000	10.070696
2211.000000	10.038162
2210.000000	10.036089
2209.000000	10.031012
2208.000000	10.017024
2207.000000	10.004902
2206.000000	9.984697
2205.000000	9.965736
2204.000000	9.965632
2203.000000	9.942734
2202.000000	9.941387
2201.000000	9.923047
2200.000000	9.911961
2199.000000	9.911132
2198.000000	9.897247
2197.000000	9.887611
2196.000000	9.865956
2195.000000	9.874763
2194.000000	9.870826
2193.000000	9.865024
2192.000000	9.855906
2191.000000	9.842229
2190.000000	9.848238
2189.000000	9.827308
2188.000000	9.820470
2187.000000	9.812906
2186.000000	9.807104
2185.000000	9.779646
2184.000000	9.777781
2183.000000	9.768974
2182.000000	9.764933
2181.000000	9.772497
2180.000000	9.736129
2179.000000	9.736854
2178.000000	9.732088
2177.000000	9.728772
2176.000000	9.717996
2175.000000	9.706910
2174.000000	9.709397
2173.000000	9.715199
2172.000000	9.719343
2171.000000	9.715095
2170.000000	9.714474
2169.000000	9.720483
2168.000000	9.722866
2167.000000	9.727632
2166.000000	9.747008
2165.000000	9.763379
2164.000000	9.775709
2163.000000	9.768560
2162.000000	9.780786
2161.000000	9.802856
2160.000000	9.801405
2159.000000	9.817672
2158.000000	9.851658
2157.000000	9.867096
2156.000000	9.896522
2155.000000	9.899423
2154.000000	9.943459
2153.000000	9.978480
2152.000000	9.992054
2151.000000	10.025106
2150.000000	10.064894
2149.000000	10.084477
2148.000000	10.106443
2147.000000	10.145816
2146.000000	10.161254
2145.000000	10.175656
2144.000000	10.200420
2143.000000	10.232644
2142.000000	10.263210
2141.000000	10.278544
2140.000000	10.301029
2139.000000	10.330351
2138.000000	10.340920
2137.000000	10.364647
2136.000000	10.379464
2135.000000	10.409719
2134.000000	10.433550
2133.000000	10.432721
2132.000000	10.438213
2131.000000	10.453133
2130.000000	10.456345
2129.000000	10.465981
2128.000000	10.459868
2127.000000	10.471369
2126.000000	10.471783
2125.000000	10.488361
2124.000000	10.466395
2123.000000	10.466292
2122.000000	10.455205
2121.000000	10.456241
2120.000000	10.430752
2119.000000	10.415418
2118.000000	10.416039
2117.000000	10.424225
2116.000000	10.401533
2115.000000	10.376977
2114.000000	10.363818
2113.000000	10.350763
2112.000000	10.329626
2111.000000	10.293568
2110.000000	10.281653
2109.000000	10.283932
2108.000000	10.258133
2107.000000	10.221246
2106.000000	10.208709
2105.000000	10.205808
2104.000000	10.169647
2103.000000	10.150996
2102.000000	10.128098
2101.000000	10.115975
2100.000000	10.092248
2099.000000	10.063340
2098.000000	10.047590
2097.000000	10.027282
2096.000000	9.998685
2095.000000	9.989463
2094.000000	9.971745
2093.000000	9.961073
2092.000000	9.938900
2091.000000	9.919317
2090.000000	9.919939
2089.000000	9.904604
2088.000000	9.885539
2087.000000	9.867096
2086.000000	9.845026
2085.000000	9.811559
2084.000000	9.788868
2083.000000	9.778610
2082.000000	9.755608
2081.000000	9.739444
2080.000000	9.735403
2079.000000	9.703698
2078.000000	9.664428
2077.000000	9.629096
2076.000000	9.611067
2075.000000	9.580087
2074.000000	9.545687
2073.000000	9.517919
2072.000000	9.480722
2071.000000	9.449120
2070.000000	9.409643
2069.000000	9.371617
2068.000000	9.336181
2067.000000	9.321468
2066.000000	9.294114
2065.000000	9.258575
2064.000000	9.231014
2063.000000	9.193609
2062.000000	9.176720
2061.000000	9.157863
2060.000000	9.138798
2059.000000	9.115796
2058.000000	9.101601
2057.000000	9.089685
2056.000000	9.089064
2055.000000	9.079324
2054.000000	9.077563
2053.000000	9.096109
2052.000000	9.115278
2051.000000	9.128540
2050.000000	9.161800
2049.000000	9.203038
2048.000000	9.248628
2047.000000	9.287172
2046.000000	9.323541
2045.000000	9.366022
2044.000000	9.433163
2043.000000	9.480307
2042.000000	9.533047
2041.000000	9.597391
2040.000000	9.650441
2039.000000	9.689710
2038.000000	9.743693
2037.000000	9.797779
2036.000000	9.826687
2035.000000	9.871551
2034.000000	9.906676
2033.000000	9.946982
2032.000000	9.979206
2031.000000	9.998892
2030.000000	10.029458
2029.000000	10.069349
2028.000000	10.082094
2027.000000	10.095460
2026.000000	10.113592
2025.000000	10.141879
2024.000000	10.160011
2023.000000	10.166020
2022.000000	10.170476
2021.000000	10.182391
2020.000000	10.182909
2019.000000	10.194618
2018.000000	10.202389
2017.000000	10.202803
2016.000000	10.199488
2015.000000	10.208398
2014.000000	10.190888
2013.000000	10.175449
2012.000000	10.173377
2011.000000	10.160425
2010.000000	10.148717
2009.000000	10.141464
2008.000000	10.116908
2007.000000	10.114214
2006.000000	10.075773
2005.000000	10.045207
2004.000000	10.026246
2003.000000	10.002001
2002.000000	9.977651
2001.000000	9.950090
2000.000000	9.922633
1999.000000	9.883571
1998.000000	9.837359
1997.000000	9.789697
1996.000000	9.758716
1995.000000	9.723902
1994.000000	9.670956
1993.000000	9.628889
1992.000000	9.583092
1991.000000	9.532632
1990.000000	9.490980
1989.000000	9.431816
1988.000000	9.391511
1987.000000	9.350894
1986.000000	9.296705
1985.000000	9.260751
1984.000000	9.202727
1983.000000	9.151646
1982.000000	9.117454
1981.000000	9.057772
1980.000000	9.005344
1979.000000	8.969805
1978.000000	8.910849
1977.000000	8.857902
1976.000000	8.803505
1975.000000	8.759780
1974.000000	8.704244
1973.000000	8.666425
1972.000000	8.625083
1971.000000	8.590684
1970.000000	8.534422
1969.000000	8.493598
1968.000000	8.453500
1967.000000	8.415473
1966.000000	8.389777
1965.000000	8.348643
1964.000000	8.323361
1963.000000	8.268653
1962.000000	8.225861
1961.000000	8.198818
1960.000000	8.152710
1959.000000	8.107017
1958.000000	8.079352
1957.000000	8.047024
1956.000000	8.034384
1955.000000	7.977500
1954.000000	7.949110
1953.000000	7.927351
1952.000000	7.887253
1951.000000	7.855858
1950.000000	7.829955
1949.000000	7.797006
1948.000000	7.779184
1947.000000	7.740433
1946.000000	7.724269
1945.000000	7.718259
1944.000000	7.689662
1943.000000	7.662308
1942.000000	7.654641
1941.000000	7.640446
1940.000000	7.629566
1939.000000	7.645937
1938.000000	7.607704
1937.000000	7.609051
1936.000000	7.641482
1935.000000	7.664381
1934.000000	7.644383
1933.000000	7.679923
1932.000000	7.675778
1931.000000	7.713182
1930.000000	7.744681
1929.000000	7.768097
1928.000000	7.800528
1927.000000	7.830473
1926.000000	7.867463
1925.000000	7.921652
1924.000000	7.968589
1923.000000	8.000191
1922.000000	8.075725
1921.000000	8.163279
1920.000000	8.211252
1919.000000	8.271969
1918.000000	8.357968
1917.000000	8.427803
1916.000000	8.506031
1915.000000	8.575452
1914.000000	8.688702
1913.000000	8.794077
1912.000000	8.915719
1911.000000	9.011975
1910.000000	9.122116
1909.000000	9.242100
1908.000000	9.367576
1907.000000	9.507765
1906.000000	9.643498
1905.000000	9.786899
1904.000000	9.987806
1903.000000	10.129652
1902.000000	10.300200
1901.000000	10.449403
1900.000000	10.653936
1899.000000	10.837849
1898.000000	11.052225
1897.000000	11.250955
1896.000000	11.456110
1895.000000	11.679396
1894.000000	11.916257
1893.000000	12.175911
1892.000000	12.417849
1891.000000	12.734491
1890.000000	13.034141
1889.000000	13.347674
1888.000000	13.685661
1887.000000	14.020539
1886.000000	14.382771
1885.000000	14.809348
1884.000000	15.255092
1883.000000	15.742593
1882.000000	16.217556
1881.000000	16.724122
1880.000000	17.249648
1879.000000	17.729689
1878.000000	18.256977
1877.000000	18.781364
1876.000000	19.288551
1875.000000	19.791594
1874.000000	20.277126
1873.000000	20.738827
1872.000000	21.201771
1871.000000	21.613530
1870.000000	21.992859
1869.000000	22.352190
1868.000000	22.690487
1867.000000	22.970657
1866.000000	23.198089
1865.000000	23.387597
1864.000000	23.584877
1863.000000	23.773350
1862.000000	23.964724
1861.000000	24.153300
1860.000000	24.331411
1859.000000	24.488489
1858.000000	24.616762
1857.000000	24.742963
1856.000000	24.818808
1855.000000	24.880562
1854.000000	24.942833
1853.000000	24.986765
1852.000000	24.988734
1851.000000	25.012254
1850.000000	25.032977
1849.000000	25.058155
1848.000000	25.078463
1847.000000	25.072972
1846.000000	25.029558
1845.000000	24.959722
1844.000000	24.938378
1843.000000	24.928638
1842.000000	24.937653
1841.000000	24.947081
1840.000000	24.922007
1839.000000	24.897554
1838.000000	24.877453
1837.000000	24.851654
1836.000000	24.794770
1835.000000	24.724002
1834.000000	24.648882
1833.000000	24.567960
1832.000000	24.511698
1831.000000	24.457405
1830.000000	24.399071
1829.000000	24.337421
1828.000000	24.270176
1827.000000	24.188321
1826.000000	24.099214
1825.000000	24.010728
1824.000000	23.941618
1823.000000	23.880175
1822.000000	23.873440
1821.000000	23.870228
1820.000000	23.824742
1819.000000	23.771692
1818.000000	23.724859
1817.000000	23.690563
1816.000000	23.664038
1815.000000	23.660100
1814.000000	23.634197
1813.000000	23.613993
1812.000000	23.607983
1811.000000	23.573169
1810.000000	23.526543
1809.000000	23.484994
1808.000000	23.449455
1807.000000	23.399306
1806.000000	23.350711
1805.000000	23.296211
1804.000000	23.237255
1803.000000	23.187624
1802.000000	23.142759
1801.000000	23.089088
1800.000000	23.035830
1799.000000	22.967549
1798.000000	22.903309
1797.000000	22.860309
1796.000000	22.794411
1795.000000	22.734730
1794.000000	22.688726
1793.000000	22.633189
1792.000000	22.563354
1791.000000	22.513412
1790.000000	22.459844
1789.000000	22.390734
1788.000000	22.341517
1787.000000	22.275723
1786.000000	22.200396
1785.000000	22.141544
1784.000000	22.070465
1783.000000	21.983223
1782.000000	21.904684
1781.000000	21.823036
1780.000000	21.741907
1779.000000	21.669171
1778.000000	21.584104
1777.000000	21.498727
1776.000000	21.413246
1775.000000	21.306420
1774.000000	21.190788
1773.000000	21.073498
1772.000000	20.966258
1771.000000	20.848968
1770.000000	20.729916
1769.000000	20.613351
1768.000000	20.509012
1767.000000	20.385298
1766.000000	20.284897
1765.000000	20.205322
1764.000000	20.123156
1763.000000	20.070417
1762.000000	20.051145
1761.000000	20.066894
1760.000000	20.103470
1759.000000	20.161182
1758.000000	20.230811
1757.000000	20.301475
1756.000000	20.342299
1755.000000	20.406850
1754.000000	20.455859
1753.000000	20.485699
1752.000000	20.508598
1751.000000	20.514193
1750.000000	20.505593
1749.000000	20.478861
1748.000000	20.439073
1747.000000	20.375662
1746.000000	20.313494
1745.000000	20.241068
1744.000000	20.128959
1743.000000	19.975922
1742.000000	19.822471
1741.000000	19.627056
1740.000000	19.440241
1739.000000	19.237470
1738.000000	19.025788
1737.000000	18.830787
1736.000000	18.653298
1735.000000	18.504820
1734.000000	18.407631
1733.000000	18.356549
1732.000000	18.353752
1731.000000	18.382556
1730.000000	18.446382
1729.000000	18.541085
1728.000000	18.640968
1727.000000	18.759605
1726.000000	18.860628
1725.000000	18.945902
1724.000000	19.051173
1723.000000	19.122148
1722.000000	19.161107
1721.000000	19.198926
1720.000000	19.228559
1719.000000	19.277361
1718.000000	19.319117
1717.000000	19.348336
1716.000000	19.413405
1715.000000	19.473604
1714.000000	19.568825
1713.000000	19.651405
1712.000000	19.717303
1711.000000	19.749838
1710.000000	19.806307
1709.000000	19.851689
1708.000000	19.852726
1707.000000	19.837909
1706.000000	19.806100
1705.000000	19.760924
1704.000000	19.697616
1703.000000	19.620114
1702.000000	19.547481
1701.000000	19.437029
1700.000000	19.301710
1699.000000	19.162143
1698.000000	19.013665
1697.000000	18.850681
1696.000000	18.736189
1695.000000	18.678372
1694.000000	18.665006
1693.000000	18.731526
1692.000000	18.815660
1691.000000	18.950150
1690.000000	19.107331
1689.000000	19.266378
1688.000000	19.401904
1687.000000	19.518573
1686.000000	19.594418
1685.000000	19.645499
1684.000000	19.709118
1683.000000	19.826408
1682.000000	20.046586
1681.000000	20.351935
1680.000000	20.764523
1679.000000	21.264561
1678.000000	21.804593
1677.000000	22.360064
1676.000000	22.892429
1675.000000	23.391846
1674.000000	23.836036
1673.000000	24.238781
1672.000000	24.557806
1671.000000	24.872998
1670.000000	25.092347
1669.000000	25.339051
1668.000000	25.518509
1667.000000	25.709779
1666.000000	25.889652
1665.000000	25.980728
1664.000000	26.115943
1663.000000	26.229400
1662.000000	26.279238
1661.000000	26.365133
1660.000000	26.429270
1659.000000	26.488226
1658.000000	26.542208
1657.000000	26.596605
1656.000000	26.604791
1655.000000	26.620644
1654.000000	26.616085
1653.000000	26.616292
1652.000000	26.604791
1651.000000	26.604791
1650.000000	26.539411
1649.000000	26.517859
1648.000000	26.461390
1647.000000	26.426783
1646.000000	26.370832
1645.000000	26.314777
1644.000000	26.253956
1643.000000	26.183499
1642.000000	26.120813
1641.000000	26.044450
1640.000000	25.989328
1639.000000	25.924673
1638.000000	25.841368
1637.000000	25.790287
1636.000000	25.712577
1635.000000	25.621190
1634.000000	25.530010
1633.000000	25.464008
1632.000000	25.396142
1631.000000	25.285172
1630.000000	25.211503
1629.000000	25.130270
1628.000000	25.027900
1627.000000	24.914547
1626.000000	24.823678
1625.000000	24.735710
1624.000000	24.631475
1623.000000	24.550761
1622.000000	24.463933
1621.000000	24.369230
1620.000000	24.283335
1619.000000	24.197543
1618.000000	24.107917
1617.000000	24.025752
1616.000000	23.951668
1615.000000	23.859763
1614.000000	23.774490
1613.000000	23.698645
1612.000000	23.606429
1611.000000	23.534832
1610.000000	23.459712
1609.000000	23.386043
1608.000000	23.298386
1607.000000	23.242642
1606.000000	23.154468
1605.000000	23.068572
1604.000000	22.989204
1603.000000	22.888699
1602.000000	22.820211
1601.000000	22.732969
1600.000000	22.662097
1599.000000	22.579206
1598.000000	22.502533
1597.000000	22.414565
1596.000000	22.337580
1595.000000	22.263289
1594.000000	22.199153
1593.000000	22.140611
1592.000000	22.061658
1591.000000	21.989129
1590.000000	21.927582
1589.000000	21.854846
1588.000000	21.799309
1587.000000	21.755584
1586.000000	21.684505
