PE UV       SUBTECH     SPECTRUM    ASCII       PEDS        4.00        
   -1
CICIMAUCR0244-1.Sample.ASC
24/06/21
13:52:35.00
24/06/21
13:52:35.00
Vinicio Soto Monge
C. cupreomarginata. Ventral. Sex M
250,000000
1
Lambda 1050
1050L1511233
PerkinElmer UV WinLab 6.3.2.0749 / 2.02.05 Lambda 900 UV/VIS/NIR, Aug  7 2015 09:38:08

0
0
3350/servo 860,8/2
0
0
UV/VIS
1
1
1
DoubleDePol,CommonBeamDepol,RBeamAtt,SBeamAtt,60mm sphere, WB InGaAs Detector
0
0
0
0
Program
Program
3350/servo 860,8/2
3350/0,2 860,8/0,2
3350/0,2 860,8/0,2
0
15.00
 
 
 
0
 
860,8
319,2
860,8
Front
100
on
S:100 R:100
0
0
0
0
 
0
 
 
 
0
 
 
0
0
0
0
0
 
 
 
 
0
0


0
0
#HDR
-1
-1
#GR
nm
%R
1.0
0.0
2500,000000
-1,000000
2251
8
56,160800
3,823800
#DATA
2482.000000	4.730279
2481.000000	4.669499
2480.000000	4.671190
2479.000000	4.583572
2478.000000	4.661492
2477.000000	4.622588
2476.000000	4.681677
2475.000000	4.643563
2474.000000	4.642773
2473.000000	4.682918
2472.000000	4.600374
2471.000000	4.605786
2470.000000	4.614357
2469.000000	4.616161
2468.000000	4.641420
2467.000000	4.600261
2466.000000	4.613342
2465.000000	4.620784
2464.000000	4.597893
2463.000000	4.622250
2462.000000	4.617063
2461.000000	4.624618
2460.000000	4.602291
2459.000000	4.583121
2458.000000	4.603869
2457.000000	4.642322
2456.000000	4.649314
2455.000000	4.648412
2454.000000	4.622476
2453.000000	4.679084
2452.000000	4.678746
2451.000000	4.662395
2450.000000	4.686752
2449.000000	4.706824
2448.000000	4.704230
2447.000000	4.716860
2446.000000	4.740992
2445.000000	4.774145
2444.000000	4.779896
2443.000000	4.777077
2442.000000	4.764447
2441.000000	4.802562
2440.000000	4.809215
2439.000000	4.835602
2438.000000	4.845864
2437.000000	4.854772
2436.000000	4.851051
2435.000000	4.884429
2434.000000	4.902810
2433.000000	4.921078
2432.000000	4.920853
2431.000000	4.911155
2430.000000	4.920176
2429.000000	4.933257
2428.000000	4.973514
2427.000000	4.975995
2426.000000	4.996856
2425.000000	5.000690
2424.000000	4.964606
2423.000000	4.998548
2422.000000	5.025950
2421.000000	5.037678
2420.000000	5.039933
2419.000000	5.036550
2418.000000	5.039256
2417.000000	5.037114
2416.000000	5.051999
2415.000000	5.071845
2414.000000	5.073086
2413.000000	5.099247
2412.000000	5.112554
2411.000000	5.122590
2410.000000	5.115824
2409.000000	5.121575
2408.000000	5.117515
2407.000000	5.115486
2406.000000	5.133979
2405.000000	5.145819
2404.000000	5.163749
2403.000000	5.171868
2402.000000	5.180213
2401.000000	5.194872
2400.000000	5.183370
2399.000000	5.179987
2398.000000	5.198030
2397.000000	5.218779
2396.000000	5.233438
2395.000000	5.234791
2394.000000	5.255202
2393.000000	5.278431
2392.000000	5.299744
2391.000000	5.292189
2390.000000	5.274259
2389.000000	5.284408
2388.000000	5.292076
2387.000000	5.307638
2386.000000	5.314404
2385.000000	5.313953
2384.000000	5.333686
2383.000000	5.337069
2382.000000	5.336618
2381.000000	5.342820
2380.000000	5.347106
2379.000000	5.355337
2378.000000	5.343723
2377.000000	5.335829
2376.000000	5.338986
2375.000000	5.326921
2374.000000	5.323989
2373.000000	5.325116
2372.000000	5.326695
2371.000000	5.323989
2370.000000	5.317335
2369.000000	5.323763
2368.000000	5.326469
2367.000000	5.308540
2366.000000	5.304367
2365.000000	5.308089
2364.000000	5.285423
2363.000000	5.274485
2362.000000	5.273470
2361.000000	5.261066
2360.000000	5.250578
2359.000000	5.242798
2358.000000	5.221710
2357.000000	5.225545
2356.000000	5.233213
2355.000000	5.223853
2354.000000	5.226559
2353.000000	5.222500
2352.000000	5.224417
2351.000000	5.221372
2350.000000	5.219342
2349.000000	5.234340
2348.000000	5.242459
2347.000000	5.249225
2346.000000	5.262532
2345.000000	5.260727
2344.000000	5.269861
2343.000000	5.288242
2342.000000	5.300985
2341.000000	5.321846
2340.000000	5.335829
2339.000000	5.334927
2338.000000	5.329514
2337.000000	5.318463
2336.000000	5.330755
2335.000000	5.353533
2334.000000	5.352518
2333.000000	5.342144
2332.000000	5.349248
2331.000000	5.353759
2330.000000	5.317335
2329.000000	5.320267
2328.000000	5.332333
2327.000000	5.321170
2326.000000	5.302563
2325.000000	5.280912
2324.000000	5.265689
2323.000000	5.256668
2322.000000	5.247647
2321.000000	5.217425
2320.000000	5.202991
2319.000000	5.197466
2318.000000	5.184836
2317.000000	5.167809
2316.000000	5.129920
2315.000000	5.112666
2314.000000	5.093271
2313.000000	5.069026
2312.000000	5.056960
2311.000000	5.059892
2310.000000	5.037565
2309.000000	5.003510
2308.000000	5.009937
2307.000000	4.997646
2306.000000	4.985354
2305.000000	4.989527
2304.000000	4.995842
2303.000000	4.991556
2302.000000	4.981069
2301.000000	4.996969
2300.000000	5.001593
2299.000000	5.014335
2298.000000	5.037903
2297.000000	5.061584
2296.000000	5.084701
2295.000000	5.092594
2294.000000	5.101728
2293.000000	5.127439
2292.000000	5.139617
2291.000000	5.143226
2290.000000	5.145932
2289.000000	5.149653
2288.000000	5.165779
2287.000000	5.159915
2286.000000	5.158675
2285.000000	5.156983
2284.000000	5.156983
2283.000000	5.141196
2282.000000	5.141873
2281.000000	5.142662
2280.000000	5.141196
2279.000000	5.108607
2278.000000	5.094624
2277.000000	5.097218
2276.000000	5.085152
2275.000000	5.078386
2274.000000	5.081769
2273.000000	5.077484
2272.000000	5.066433
2271.000000	5.046699
2270.000000	5.065869
2269.000000	5.072860
2268.000000	5.095752
2267.000000	5.081092
2266.000000	5.095413
2265.000000	5.140407
2264.000000	5.162396
2263.000000	5.199270
2262.000000	5.233438
2261.000000	5.261517
2260.000000	5.331657
2259.000000	5.371576
2258.000000	5.403826
2257.000000	5.476898
2256.000000	5.517156
2255.000000	5.588198
2254.000000	5.689010
2253.000000	5.730733
2252.000000	5.787229
2251.000000	5.875411
2250.000000	5.944311
2249.000000	5.988289
2248.000000	6.068465
2247.000000	6.118195
2246.000000	6.180554
2245.000000	6.213707
2244.000000	6.263098
2243.000000	6.332449
2242.000000	6.396612
2241.000000	6.433712
2240.000000	6.430667
2239.000000	6.499680
2238.000000	6.540952
2237.000000	6.576924
2236.000000	6.596207
2235.000000	6.639509
2234.000000	6.672549
2233.000000	6.673226
2232.000000	6.706040
2231.000000	6.703559
2230.000000	6.735021
2229.000000	6.752612
2228.000000	6.777533
2227.000000	6.761521
2226.000000	6.783285
2225.000000	6.782157
2224.000000	6.782946
2223.000000	6.753063
2222.000000	6.780578
2221.000000	6.776970
2220.000000	6.765580
2219.000000	6.777872
2218.000000	6.744042
2217.000000	6.735698
2216.000000	6.714610
2215.000000	6.704236
2214.000000	6.716866
2213.000000	6.698259
2212.000000	6.692847
2211.000000	6.678638
2210.000000	6.662964
2209.000000	6.674353
2208.000000	6.659581
2207.000000	6.617407
2206.000000	6.613798
2205.000000	6.621015
2204.000000	6.623947
2203.000000	6.624398
2202.000000	6.622819
2201.000000	6.606694
2200.000000	6.580307
2199.000000	6.591020
2198.000000	6.593388
2197.000000	6.591358
2196.000000	6.591358
2195.000000	6.571399
2194.000000	6.584141
2193.000000	6.581435
2192.000000	6.576586
2191.000000	6.567790
2190.000000	6.569707
2189.000000	6.573992
2188.000000	6.557979
2187.000000	6.579630
2186.000000	6.568128
2185.000000	6.549860
2184.000000	6.568354
2183.000000	6.522909
2182.000000	6.540726
2181.000000	6.545914
2180.000000	6.518399
2179.000000	6.528435
2178.000000	6.518061
2177.000000	6.509265
2176.000000	6.502837
2175.000000	6.501710
2174.000000	6.492350
2173.000000	6.504529
2172.000000	6.489644
2171.000000	6.508024
2170.000000	6.510505
2169.000000	6.522458
2168.000000	6.524488
2167.000000	6.527307
2166.000000	6.517384
2165.000000	6.543658
2164.000000	6.542643
2163.000000	6.552567
2162.000000	6.567452
2161.000000	6.575571
2160.000000	6.575458
2159.000000	6.574781
2158.000000	6.594628
2157.000000	6.616392
2156.000000	6.629247
2155.000000	6.646951
2154.000000	6.646726
2153.000000	6.645034
2152.000000	6.685179
2151.000000	6.719685
2150.000000	6.713708
2149.000000	6.733217
2148.000000	6.743591
2147.000000	6.758814
2146.000000	6.776293
2145.000000	6.774827
2144.000000	6.791404
2143.000000	6.806514
2142.000000	6.833240
2141.000000	6.838540
2140.000000	6.846997
2139.000000	6.853650
2138.000000	6.863010
2137.000000	6.878007
2136.000000	6.905635
2135.000000	6.912175
2134.000000	6.903943
2133.000000	6.915220
2132.000000	6.927737
2131.000000	6.946343
2130.000000	6.951643
2129.000000	6.946005
2128.000000	6.929879
2127.000000	6.948035
2126.000000	6.937209
2125.000000	6.933262
2124.000000	6.944877
2123.000000	6.932924
2122.000000	6.932811
2121.000000	6.922888
2120.000000	6.919167
2119.000000	6.914769
2118.000000	6.912288
2117.000000	6.912288
2116.000000	6.895486
2115.000000	6.888833
2114.000000	6.878458
2113.000000	6.867746
2112.000000	6.857935
2111.000000	6.841810
2110.000000	6.840569
2109.000000	6.827940
2108.000000	6.795238
2107.000000	6.779112
2106.000000	6.781706
2105.000000	6.778210
2104.000000	6.761521
2103.000000	6.751259
2102.000000	6.746072
2101.000000	6.736600
2100.000000	6.728706
2099.000000	6.700176
2098.000000	6.688562
2097.000000	6.687208
2096.000000	6.679766
2095.000000	6.667700
2094.000000	6.651913
2093.000000	6.643568
2092.000000	6.633081
2091.000000	6.631164
2090.000000	6.622030
2089.000000	6.597109
2088.000000	6.579179
2087.000000	6.582224
2086.000000	6.587637
2085.000000	6.572075
2084.000000	6.551214
2083.000000	6.536441
2082.000000	6.526856
2081.000000	6.524150
2080.000000	6.513324
2079.000000	6.497650
2078.000000	6.487388
2077.000000	6.481299
2076.000000	6.461903
2075.000000	6.439576
2074.000000	6.434163
2073.000000	6.414429
2072.000000	6.382968
2071.000000	6.364925
2070.000000	6.360753
2069.000000	6.351732
2068.000000	6.325006
2067.000000	6.312264
2066.000000	6.298958
2065.000000	6.271217
2064.000000	6.254866
2063.000000	6.247198
2062.000000	6.233215
2061.000000	6.218218
2060.000000	6.214045
2059.000000	6.208069
2058.000000	6.192394
2057.000000	6.177284
2056.000000	6.171984
2055.000000	6.174690
2054.000000	6.191718
2053.000000	6.194537
2052.000000	6.201528
2051.000000	6.210098
2050.000000	6.218218
2049.000000	6.250919
2048.000000	6.277532
2047.000000	6.285877
2046.000000	6.308204
2045.000000	6.334253
2044.000000	6.352859
2043.000000	6.398980
2042.000000	6.437997
2041.000000	6.458408
2040.000000	6.487727
2039.000000	6.514790
2038.000000	6.538922
2037.000000	6.544899
2036.000000	6.562941
2035.000000	6.597560
2034.000000	6.625977
2033.000000	6.629360
2032.000000	6.647853
2031.000000	6.678413
2030.000000	6.694313
2029.000000	6.684615
2028.000000	6.698711
2027.000000	6.729947
2026.000000	6.733442
2025.000000	6.757574
2024.000000	6.764904
2023.000000	6.770993
2022.000000	6.771782
2021.000000	6.777872
2020.000000	6.771557
2019.000000	6.786780
2018.000000	6.798959
2017.000000	6.786329
2016.000000	6.778323
2015.000000	6.796704
2014.000000	6.783848
2013.000000	6.773136
2012.000000	6.778323
2011.000000	6.753402
2010.000000	6.757349
2009.000000	6.743253
2008.000000	6.719798
2007.000000	6.731187
2006.000000	6.722842
2005.000000	6.708296
2004.000000	6.672436
2003.000000	6.669279
2002.000000	6.637479
2001.000000	6.636013
2000.000000	6.603198
1999.000000	6.588201
1998.000000	6.551101
1997.000000	6.536780
1996.000000	6.523473
1995.000000	6.500695
1994.000000	6.477578
1993.000000	6.450401
1992.000000	6.430216
1991.000000	6.402476
1990.000000	6.355227
1989.000000	6.338651
1988.000000	6.295800
1987.000000	6.295011
1986.000000	6.285426
1985.000000	6.258362
1984.000000	6.220247
1983.000000	6.185741
1982.000000	6.153603
1981.000000	6.141312
1980.000000	6.109625
1979.000000	6.081208
1978.000000	6.061361
1977.000000	6.030689
1976.000000	6.025614
1975.000000	5.988966
1974.000000	5.937770
1973.000000	5.942619
1972.000000	5.914090
1971.000000	5.889845
1970.000000	5.874283
1969.000000	5.849926
1968.000000	5.811811
1967.000000	5.798280
1966.000000	5.781478
1965.000000	5.763322
1964.000000	5.740995
1963.000000	5.738063
1962.000000	5.691152
1961.000000	5.664089
1960.000000	5.675929
1959.000000	5.659691
1958.000000	5.646836
1957.000000	5.613006
1956.000000	5.608383
1955.000000	5.566885
1954.000000	5.566434
1953.000000	5.561585
1952.000000	5.543204
1951.000000	5.510164
1950.000000	5.517607
1949.000000	5.492686
1948.000000	5.491896
1947.000000	5.472049
1946.000000	5.469794
1945.000000	5.465396
1944.000000	5.474981
1943.000000	5.459420
1942.000000	5.436528
1941.000000	5.409690
1940.000000	5.429762
1939.000000	5.437431
1938.000000	5.421305
1937.000000	5.402699
1936.000000	5.415441
1935.000000	5.435965
1934.000000	5.421418
1933.000000	5.427056
1932.000000	5.451526
1931.000000	5.445211
1930.000000	5.459081
1929.000000	5.480958
1928.000000	5.472726
1927.000000	5.490881
1926.000000	5.491671
1925.000000	5.517381
1924.000000	5.539258
1923.000000	5.542415
1922.000000	5.615600
1921.000000	5.635897
1920.000000	5.643678
1919.000000	5.672433
1918.000000	5.724418
1917.000000	5.767833
1916.000000	5.784748
1915.000000	5.844288
1914.000000	5.853535
1913.000000	5.906083
1912.000000	5.982538
1911.000000	6.007008
1910.000000	6.073765
1909.000000	6.129246
1908.000000	6.203896
1907.000000	6.275164
1906.000000	6.306287
1905.000000	6.418714
1904.000000	6.503739
1903.000000	6.562716
1902.000000	6.645147
1901.000000	6.758814
1900.000000	6.876203
1899.000000	6.976903
1898.000000	7.099253
1897.000000	7.224197
1896.000000	7.346998
1895.000000	7.461906
1894.000000	7.571063
1893.000000	7.737279
1892.000000	7.878800
1891.000000	8.061705
1890.000000	8.260623
1889.000000	8.446686
1888.000000	8.661278
1887.000000	8.875081
1886.000000	9.107039
1885.000000	9.385457
1884.000000	9.664777
1883.000000	9.983564
1882.000000	10.336971
1881.000000	10.662073
1880.000000	11.022584
1879.000000	11.355805
1878.000000	11.687899
1877.000000	12.059235
1876.000000	12.405086
1875.000000	12.752967
1874.000000	13.074010
1873.000000	13.406555
1872.000000	13.776425
1871.000000	14.084951
1870.000000	14.382201
1869.000000	14.670880
1868.000000	14.951778
1867.000000	15.182609
1866.000000	15.392578
1865.000000	15.542668
1864.000000	15.696706
1863.000000	15.821988
1862.000000	15.924604
1861.000000	16.072891
1860.000000	16.216441
1859.000000	16.336085
1858.000000	16.443663
1857.000000	16.533875
1856.000000	16.621607
1855.000000	16.651490
1854.000000	16.682387
1853.000000	16.722532
1852.000000	16.755234
1851.000000	16.768427
1850.000000	16.771021
1849.000000	16.764706
1848.000000	16.769442
1847.000000	16.776659
1846.000000	16.782636
1845.000000	16.757264
1844.000000	16.707421
1843.000000	16.668856
1842.000000	16.648671
1841.000000	16.664683
1840.000000	16.660173
1839.000000	16.651264
1838.000000	16.627020
1837.000000	16.593190
1836.000000	16.588567
1835.000000	16.548197
1834.000000	16.508278
1833.000000	16.473772
1832.000000	16.421448
1831.000000	16.361570
1830.000000	16.304962
1829.000000	16.259179
1828.000000	16.222756
1827.000000	16.148782
1826.000000	16.102097
1825.000000	16.062629
1824.000000	16.017185
1823.000000	15.953247
1822.000000	15.922687
1821.000000	15.903856
1820.000000	15.894947
1819.000000	15.893820
1818.000000	15.843188
1817.000000	15.793684
1816.000000	15.782295
1815.000000	15.774965
1814.000000	15.760982
1813.000000	15.747676
1812.000000	15.728731
1811.000000	15.703359
1810.000000	15.686670
1809.000000	15.652502
1808.000000	15.613823
1807.000000	15.590368
1806.000000	15.559696
1805.000000	15.529926
1804.000000	15.487639
1803.000000	15.446254
1802.000000	15.411071
1801.000000	15.364274
1800.000000	15.311725
1799.000000	15.264589
1798.000000	15.219032
1797.000000	15.183173
1796.000000	15.146637
1795.000000	15.107394
1794.000000	15.070407
1793.000000	15.015829
1792.000000	14.974782
1791.000000	14.941516
1790.000000	14.897538
1789.000000	14.852657
1788.000000	14.802702
1787.000000	14.751620
1786.000000	14.695575
1785.000000	14.643816
1784.000000	14.600176
1783.000000	14.545485
1782.000000	14.476472
1781.000000	14.410730
1780.000000	14.356828
1779.000000	14.309241
1778.000000	14.240906
1777.000000	14.167834
1776.000000	14.094649
1775.000000	14.024283
1774.000000	13.962488
1773.000000	13.867652
1772.000000	13.779132
1771.000000	13.699294
1770.000000	13.613254
1769.000000	13.519997
1768.000000	13.423921
1767.000000	13.335287
1766.000000	13.253420
1765.000000	13.196812
1764.000000	13.148210
1763.000000	13.113140
1762.000000	13.095548
1761.000000	13.089346
1760.000000	13.107389
1759.000000	13.136708
1758.000000	13.181701
1757.000000	13.228724
1756.000000	13.289617
1755.000000	13.339234
1754.000000	13.355360
1753.000000	13.393587
1752.000000	13.429672
1751.000000	13.437453
1750.000000	13.417719
1749.000000	13.400466
1748.000000	13.381183
1747.000000	13.340587
1746.000000	13.289279
1745.000000	13.226131
1744.000000	13.164448
1743.000000	13.082355
1742.000000	12.965981
1741.000000	12.843631
1740.000000	12.702223
1739.000000	12.562056
1738.000000	12.413093
1737.000000	12.266498
1736.000000	12.130503
1735.000000	12.024052
1734.000000	11.943200
1733.000000	11.891891
1732.000000	11.893019
1731.000000	11.904521
1730.000000	11.930457
1729.000000	11.977931
1728.000000	12.037133
1727.000000	12.104905
1726.000000	12.188802
1725.000000	12.252064
1724.000000	12.305176
1723.000000	12.343291
1722.000000	12.392682
1721.000000	12.427188
1720.000000	12.454590
1719.000000	12.486616
1718.000000	12.507364
1717.000000	12.543675
1716.000000	12.609530
1715.000000	12.655313
1714.000000	12.699178
1713.000000	12.785218
1712.000000	12.832016
1711.000000	12.850171
1710.000000	12.912530
1709.000000	12.928205
1708.000000	12.939594
1707.000000	12.930234
1706.000000	12.922679
1705.000000	12.898096
1704.000000	12.853554
1703.000000	12.823784
1702.000000	12.771912
1701.000000	12.701095
1700.000000	12.629602
1699.000000	12.514920
1698.000000	12.431022
1697.000000	12.346448
1696.000000	12.271121
1695.000000	12.208311
1694.000000	12.187111
1693.000000	12.240562
1692.000000	12.296381
1691.000000	12.363589
1690.000000	12.492592
1689.000000	12.625655
1688.000000	12.723310
1687.000000	12.812733
1686.000000	12.869679
1685.000000	12.911290
1684.000000	12.963613
1683.000000	13.051570
1682.000000	13.176176
1681.000000	13.393474
1680.000000	13.699294
1679.000000	14.054053
1678.000000	14.476923
1677.000000	14.899793
1676.000000	15.285000
1675.000000	15.679678
1674.000000	16.022823
1673.000000	16.333266
1672.000000	16.577628
1671.000000	16.835974
1670.000000	17.028915
1669.000000	17.251852
1668.000000	17.386607
1667.000000	17.547861
1666.000000	17.649237
1665.000000	17.758056
1664.000000	17.855485
1663.000000	17.949193
1662.000000	18.023844
1661.000000	18.071205
1660.000000	18.123190
1659.000000	18.168634
1658.000000	18.199081
1657.000000	18.244525
1656.000000	18.269559
1655.000000	18.284670
1654.000000	18.275874
1653.000000	18.288278
1652.000000	18.270687
1651.000000	18.259072
1650.000000	18.224453
1649.000000	18.183970
1648.000000	18.147998
1647.000000	18.124092
1646.000000	18.087781
1645.000000	18.040646
1644.000000	17.983586
1643.000000	17.943555
1642.000000	17.898561
1641.000000	17.847366
1640.000000	17.790419
1639.000000	17.724790
1638.000000	17.703477
1637.000000	17.620933
1636.000000	17.560942
1635.000000	17.498921
1634.000000	17.453364
1633.000000	17.399800
1632.000000	17.338230
1631.000000	17.229074
1630.000000	17.181599
1629.000000	17.103904
1628.000000	17.045041
1627.000000	16.972194
1626.000000	16.894273
1625.000000	16.809699
1624.000000	16.736966
1623.000000	16.662992
1622.000000	16.601873
1621.000000	16.542558
1620.000000	16.448625
1619.000000	16.382544
1618.000000	16.344655
1617.000000	16.263126
1616.000000	16.205616
1615.000000	16.138408
1614.000000	16.064546
1613.000000	16.027672
1612.000000	15.940730
1611.000000	15.880852
1610.000000	15.812629
1609.000000	15.762335
1608.000000	15.707418
1607.000000	15.634910
1606.000000	15.567477
1605.000000	15.497788
1604.000000	15.437797
1603.000000	15.373633
1602.000000	15.313980
1601.000000	15.268310
1600.000000	15.192870
1599.000000	15.137052
1598.000000	15.060709
1597.000000	15.005342
1596.000000	14.951102
1595.000000	14.905657
1594.000000	14.826383
1593.000000	14.777330
1592.000000	14.709220
1591.000000	14.667271
1590.000000	14.614046
1589.000000	14.578299
1588.000000	14.515715
1587.000000	14.461136
1586.000000	14.425728
1585.000000	14.385245
1584.000000	14.344875
1583.000000	14.313075
1582.000000	14.281501
1581.000000	14.240003
1580.000000	14.201438
