PE UV       SUBTECH     SPECTRUM    ASCII       PEDS        4.00        
   -1
CICIMAUCR0097-1.ASC
24/04/03
15:09:17.00
24/04/03
15:09:17.00
Vinicio Soto Monge
C. kalinini
250,000000
1
Lambda 1050
1050L1511233
PerkinElmer UV WinLab 6.3.2.0749 / 2.02.05 Lambda 900 UV/VIS/NIR, Aug  7 2015 09:38:08

0
0
3350/servo 860,8/2
0
0
UV/VIS
1
1
1
DoubleDePol,CommonBeamDepol,RBeamAtt,SBeamAtt,60mm sphere, WB InGaAs Detector
0
0
0
0
Program
Program
3350/servo 860,8/2
3350/0,2 860,8/0,2
3350/0,2 860,8/0,2
0
15.00
 
 
 
0
 
860,8
319,2
860,8
Front
100
on
S:100 R:100
0
0
0
0
 
0
 
 
 
0
 
 
0
0
0
0
0
 
 
 
 
0
0


0
0
#HDR
-1
-1
#GR
nm
%R
1.0
0.0
2500,000000
-1,000000
2251
8
71,118700
4,659200
#DATA
2482.000000	4.797844
2481.000000	4.797743
2480.000000	4.807262
2479.000000	4.810806
2478.000000	4.787415
2477.000000	4.785288
2476.000000	4.803211
2475.000000	4.783263
2474.000000	4.721291
2473.000000	4.778605
2472.000000	4.753492
2471.000000	4.758758
2470.000000	4.756732
2469.000000	4.717950
2468.000000	4.792478
2467.000000	4.766656
2466.000000	4.743265
2465.000000	4.789744
2464.000000	4.798047
2463.000000	4.793186
2462.000000	4.798148
2461.000000	4.805743
2460.000000	4.847766
2459.000000	4.829033
2458.000000	4.857690
2457.000000	4.899510
2456.000000	4.907206
2455.000000	4.940521
2454.000000	4.966039
2453.000000	4.983759
2452.000000	5.008265
2451.000000	5.039453
2450.000000	5.070844
2449.000000	5.106589
2448.000000	5.137474
2447.000000	5.157928
2446.000000	5.180813
2445.000000	5.210280
2444.000000	5.250987
2443.000000	5.279745
2442.000000	5.299997
2441.000000	5.323895
2440.000000	5.365614
2439.000000	5.370678
2438.000000	5.430827
2437.000000	5.435788
2436.000000	5.456344
2435.000000	5.471837
2434.000000	5.495937
2433.000000	5.531885
2432.000000	5.545656
2431.000000	5.553757
2430.000000	5.576237
2429.000000	5.597705
2428.000000	5.636487
2427.000000	5.649145
2426.000000	5.672840
2425.000000	5.682257
2424.000000	5.687523
2423.000000	5.707168
2422.000000	5.729445
2421.000000	5.746963
2420.000000	5.738964
2419.000000	5.763671
2418.000000	5.767114
2417.000000	5.775519
2416.000000	5.787974
2415.000000	5.800328
2414.000000	5.816934
2413.000000	5.808935
2412.000000	5.817340
2411.000000	5.847515
2410.000000	5.842756
2409.000000	5.855414
2408.000000	5.863818
2407.000000	5.865438
2406.000000	5.905943
2405.000000	5.920626
2404.000000	5.921031
2403.000000	5.912829
2402.000000	5.920524
2401.000000	5.931764
2400.000000	5.948877
2399.000000	5.972573
2398.000000	6.001634
2397.000000	6.002647
2396.000000	6.007811
2395.000000	6.018646
2394.000000	6.036266
2393.000000	6.044873
2392.000000	6.064416
2391.000000	6.071403
2390.000000	6.070593
2389.000000	6.077175
2388.000000	6.099047
2387.000000	6.094997
2386.000000	6.087807
2385.000000	6.090845
2384.000000	6.092567
2383.000000	6.102085
2382.000000	6.107553
2381.000000	6.098845
2380.000000	6.094288
2379.000000	6.088516
2378.000000	6.080112
2377.000000	6.086390
2376.000000	6.087200
2375.000000	6.078795
2374.000000	6.053379
2373.000000	6.037076
2372.000000	6.031000
2371.000000	6.019456
2370.000000	6.016216
2369.000000	5.997483
2368.000000	5.967509
2367.000000	5.946548
2366.000000	5.927613
2365.000000	5.893589
2364.000000	5.862704
2363.000000	5.851971
2362.000000	5.831617
2361.000000	5.783316
2360.000000	5.750001
2359.000000	5.735318
2358.000000	5.718610
2357.000000	5.708889
2356.000000	5.687320
2355.000000	5.671828
2354.000000	5.661803
2353.000000	5.634665
2352.000000	5.635171
2351.000000	5.656638
2350.000000	5.657448
2349.000000	5.662613
2348.000000	5.691776
2347.000000	5.712231
2346.000000	5.730053
2345.000000	5.730154
2344.000000	5.739672
2343.000000	5.778455
2342.000000	5.789594
2341.000000	5.794049
2340.000000	5.814909
2339.000000	5.814403
2338.000000	5.819365
2337.000000	5.831314
2336.000000	5.829795
2335.000000	5.827162
2334.000000	5.807720
2333.000000	5.791315
2332.000000	5.779772
2331.000000	5.769443
2330.000000	5.746963
2329.000000	5.723977
2328.000000	5.693599
2327.000000	5.654512
2326.000000	5.637601
2325.000000	5.607932
2324.000000	5.570263
2323.000000	5.530163
2322.000000	5.494317
2321.000000	5.445914
2320.000000	5.403486
2319.000000	5.368855
2318.000000	5.327642
2317.000000	5.307592
2316.000000	5.266176
2315.000000	5.226381
2314.000000	5.183952
2313.000000	5.130082
2312.000000	5.101425
2311.000000	5.074591
2310.000000	5.065072
2309.000000	5.044617
2308.000000	5.021834
2307.000000	5.004012
2306.000000	5.009277
2305.000000	5.009682
2304.000000	5.023758
2303.000000	5.034491
2302.000000	5.037630
2301.000000	5.059401
2300.000000	5.075704
2299.000000	5.101830
2298.000000	5.127145
2297.000000	5.143043
2296.000000	5.156713
2295.000000	5.182737
2294.000000	5.189825
2293.000000	5.196407
2292.000000	5.204812
2291.000000	5.202179
2290.000000	5.220609
2289.000000	5.203597
2288.000000	5.189825
2287.000000	5.179902
2286.000000	5.172915
2285.000000	5.148612
2284.000000	5.140309
2283.000000	5.100210
2282.000000	5.065882
2281.000000	5.040668
2280.000000	5.013834
2279.000000	4.975861
2278.000000	4.942951
2277.000000	4.921079
2276.000000	4.882802
2275.000000	4.871866
2274.000000	4.849791
2273.000000	4.826501
2272.000000	4.799465
2271.000000	4.802097
2270.000000	4.793693
2269.000000	4.780934
2268.000000	4.768479
2267.000000	4.777997
2266.000000	4.804730
2265.000000	4.817692
2264.000000	4.842095
2263.000000	4.896270
2262.000000	4.917332
2261.000000	4.970899
2260.000000	4.996518
2259.000000	5.059604
2258.000000	5.112867
2257.000000	5.166232
2256.000000	5.259189
2255.000000	5.301719
2254.000000	5.369867
2253.000000	5.434269
2252.000000	5.490165
2251.000000	5.571174
2250.000000	5.627171
2249.000000	5.694713
2248.000000	5.743318
2247.000000	5.801239
2246.000000	5.844680
2245.000000	5.878501
2244.000000	5.920929
2243.000000	5.964067
2242.000000	5.999710
2241.000000	6.043354
2240.000000	6.057125
2239.000000	6.092769
2238.000000	6.098744
2237.000000	6.121932
2236.000000	6.122135
2235.000000	6.171044
2234.000000	6.181373
2233.000000	6.164057
2232.000000	6.164665
2231.000000	6.185119
2230.000000	6.159703
2229.000000	6.135096
2228.000000	6.123856
2227.000000	6.126995
2226.000000	6.089326
2225.000000	6.054695
2224.000000	6.018849
2223.000000	5.977838
2222.000000	5.933587
2221.000000	5.896829
2220.000000	5.837592
2219.000000	5.825744
2218.000000	5.787265
2217.000000	5.737850
2216.000000	5.701294
2215.000000	5.663220
2214.000000	5.669499
2213.000000	5.639019
2212.000000	5.625855
2211.000000	5.596388
2210.000000	5.584541
2209.000000	5.620590
2208.000000	5.631526
2207.000000	5.693295
2206.000000	5.728736
2205.000000	5.749900
2204.000000	5.810859
2203.000000	5.885893
2202.000000	5.950700
2201.000000	6.060467
2200.000000	6.142083
2199.000000	6.217421
2198.000000	6.319087
2197.000000	6.403235
2196.000000	6.478067
2195.000000	6.557861
2194.000000	6.644844
2193.000000	6.700031
2192.000000	6.773749
2191.000000	6.830759
2190.000000	6.902755
2189.000000	6.956525
2188.000000	7.001586
2187.000000	7.037230
2186.000000	7.097176
2185.000000	7.133023
2184.000000	7.174135
2183.000000	7.209070
2182.000000	7.211399
2181.000000	7.228512
2180.000000	7.245726
2179.000000	7.274383
2178.000000	7.289471
2177.000000	7.317824
2176.000000	7.324203
2175.000000	7.336355
2174.000000	7.362885
2173.000000	7.382732
2172.000000	7.389112
2171.000000	7.408048
2170.000000	7.438628
2169.000000	7.455539
2168.000000	7.469310
2167.000000	7.485816
2166.000000	7.495031
2165.000000	7.511536
2164.000000	7.553661
2163.000000	7.595380
2162.000000	7.619278
2161.000000	7.655732
2160.000000	7.676794
2159.000000	7.708084
2158.000000	7.748588
2157.000000	7.768638
2156.000000	7.793447
2155.000000	7.838103
2154.000000	7.890455
2153.000000	7.920428
2152.000000	7.958299
2151.000000	7.999310
2150.000000	8.025132
2149.000000	8.053485
2148.000000	8.071610
2147.000000	8.100369
2146.000000	8.137430
2145.000000	8.193225
2144.000000	8.213781
2143.000000	8.237881
2142.000000	8.261475
2141.000000	8.287296
2140.000000	8.312308
2139.000000	8.341572
2138.000000	8.356964
2137.000000	8.398076
2136.000000	8.423796
2135.000000	8.441314
2134.000000	8.470376
2133.000000	8.479895
2132.000000	8.497919
2131.000000	8.526373
2130.000000	8.544297
2129.000000	8.553916
2128.000000	8.552701
2127.000000	8.565359
2126.000000	8.585003
2125.000000	8.587839
2124.000000	8.596547
2123.000000	8.589560
2122.000000	8.595737
2121.000000	8.596851
2120.000000	8.593307
2119.000000	8.599686
2118.000000	8.598269
2117.000000	8.594623
2116.000000	8.593408
2115.000000	8.589965
2114.000000	8.583991
2113.000000	8.582067
2112.000000	8.574877
2111.000000	8.569814
2110.000000	8.559688
2109.000000	8.542474
2108.000000	8.534170
2107.000000	8.534170
2106.000000	8.531436
2105.000000	8.522930
2104.000000	8.517867
2103.000000	8.502678
2102.000000	8.497008
2101.000000	8.493160
2100.000000	8.478679
2099.000000	8.453162
2098.000000	8.434833
2097.000000	8.431593
2096.000000	8.435340
2095.000000	8.429568
2094.000000	8.422277
2093.000000	8.404961
2092.000000	8.385823
2091.000000	8.378836
2090.000000	8.370533
2089.000000	8.364052
2088.000000	8.355749
2087.000000	8.339344
2086.000000	8.335193
2085.000000	8.322231
2084.000000	8.296916
2083.000000	8.284258
2082.000000	8.271095
2081.000000	8.259753
2080.000000	8.249020
2079.000000	8.224717
2078.000000	8.201427
2077.000000	8.206591
2076.000000	8.193022
2075.000000	8.158594
2074.000000	8.140367
2073.000000	8.118899
2072.000000	8.102596
2071.000000	8.092268
2070.000000	8.057940
2069.000000	8.030904
2068.000000	8.019866
2067.000000	8.005690
2066.000000	7.971666
2065.000000	7.959616
2064.000000	7.938756
2063.000000	7.919618
2062.000000	7.902403
2061.000000	7.885392
2060.000000	7.885695
2059.000000	7.901593
2058.000000	7.890252
2057.000000	7.873240
2056.000000	7.875367
2055.000000	7.893796
2054.000000	7.900479
2053.000000	7.911517
2052.000000	7.944224
2051.000000	7.969944
2050.000000	7.996677
2049.000000	8.031916
2048.000000	8.075560
2047.000000	8.122747
2046.000000	8.152720
2045.000000	8.200212
2044.000000	8.254589
2043.000000	8.314434
2042.000000	8.366381
2041.000000	8.411746
2040.000000	8.481008
2039.000000	8.513007
2038.000000	8.554321
2037.000000	8.603635
2036.000000	8.657709
2035.000000	8.696188
2034.000000	8.736794
2033.000000	8.790158
2032.000000	8.818511
2031.000000	8.840890
2030.000000	8.888077
2029.000000	8.915823
2028.000000	8.924329
2027.000000	8.939822
2026.000000	8.968377
2025.000000	8.985389
2024.000000	9.003414
2023.000000	9.008072
2022.000000	9.040273
2021.000000	9.054753
2020.000000	9.061132
2019.000000	9.100523
2018.000000	9.111965
2017.000000	9.116117
2016.000000	9.123307
2015.000000	9.116522
2014.000000	9.124927
2013.000000	9.156723
2012.000000	9.149027
2011.000000	9.157837
2010.000000	9.159052
2009.000000	9.160064
2008.000000	9.144673
2007.000000	9.127154
2006.000000	9.122902
2005.000000	9.121281
2004.000000	9.105788
2003.000000	9.081790
2002.000000	9.079461
2001.000000	9.066803
2000.000000	9.030754
1999.000000	9.029843
1998.000000	9.017185
1997.000000	8.992275
1996.000000	8.971820
1995.000000	8.942049
1994.000000	8.915620
1993.000000	8.900431
1992.000000	8.905393
1991.000000	8.864990
1990.000000	8.864686
1989.000000	8.826004
1988.000000	8.789551
1987.000000	8.779323
1986.000000	8.756134
1985.000000	8.718769
1984.000000	8.696087
1983.000000	8.644039
1982.000000	8.651633
1981.000000	8.615584
1980.000000	8.582573
1979.000000	8.555435
1978.000000	8.524044
1977.000000	8.501159
1976.000000	8.463085
1975.000000	8.442529
1974.000000	8.420758
1973.000000	8.385621
1972.000000	8.363141
1971.000000	8.319092
1970.000000	8.297422
1969.000000	8.283752
1968.000000	8.274132
1967.000000	8.246083
1966.000000	8.229274
1965.000000	8.208110
1964.000000	8.173479
1963.000000	8.140468
1962.000000	8.138746
1961.000000	8.146746
1960.000000	8.103609
1959.000000	8.076977
1958.000000	8.066041
1957.000000	8.045080
1956.000000	8.028170
1955.000000	8.004677
1954.000000	8.002551
1953.000000	7.970856
1952.000000	7.941996
1951.000000	7.931972
1950.000000	7.903214
1949.000000	7.908985
1948.000000	7.889240
1947.000000	7.885898
1946.000000	7.856937
1945.000000	7.846710
1944.000000	7.836179
1943.000000	7.839723
1942.000000	7.840837
1941.000000	7.840533
1940.000000	7.844077
1939.000000	7.866355
1938.000000	7.880835
1937.000000	7.891163
1936.000000	7.908479
1935.000000	7.932174
1934.000000	7.928529
1933.000000	7.953844
1932.000000	7.996677
1931.000000	8.026144
1930.000000	8.057940
1929.000000	8.135506
1928.000000	8.176517
1927.000000	8.216312
1926.000000	8.266234
1925.000000	8.342483
1924.000000	8.381368
1923.000000	8.429264
1922.000000	8.524854
1921.000000	8.615483
1920.000000	8.699327
1919.000000	8.786310
1918.000000	8.858914
1917.000000	8.941138
1916.000000	9.006046
1915.000000	9.100422
1914.000000	9.228314
1913.000000	9.362991
1912.000000	9.484302
1911.000000	9.582626
1910.000000	9.694013
1909.000000	9.769453
1908.000000	9.851980
1907.000000	10.007720
1906.000000	10.140675
1905.000000	10.318287
1904.000000	10.465520
1903.000000	10.603336
1902.000000	10.738520
1901.000000	10.860033
1900.000000	11.032784
1899.000000	11.217180
1898.000000	11.391146
1897.000000	11.574935
1896.000000	11.704752
1895.000000	11.833353
1894.000000	11.992231
1893.000000	12.175514
1892.000000	12.379757
1891.000000	12.602430
1890.000000	12.793914
1889.000000	13.003322
1888.000000	13.221742
1887.000000	13.436820
1886.000000	13.685719
1885.000000	13.993249
1884.000000	14.322246
1883.000000	14.668355
1882.000000	15.014870
1881.000000	15.368068
1880.000000	15.707293
1879.000000	16.037910
1878.000000	16.344528
1877.000000	16.678081
1876.000000	16.990572
1875.000000	17.265192
1874.000000	17.512168
1873.000000	17.770282
1872.000000	18.001967
1871.000000	18.230816
1870.000000	18.409542
1869.000000	18.574496
1868.000000	18.713021
1867.000000	18.813269
1866.000000	18.888810
1865.000000	18.945415
1864.000000	19.001817
1863.000000	19.062371
1862.000000	19.120191
1861.000000	19.175885
1860.000000	19.213351
1859.000000	19.239780
1858.000000	19.262058
1857.000000	19.263982
1856.000000	19.252539
1855.000000	19.238565
1854.000000	19.220136
1853.000000	19.180340
1852.000000	19.149962
1851.000000	19.119989
1850.000000	19.092952
1849.000000	19.073712
1848.000000	19.046878
1847.000000	18.999184
1846.000000	18.926378
1845.000000	18.875140
1844.000000	18.832408
1843.000000	18.810535
1842.000000	18.823800
1841.000000	18.802738
1840.000000	18.758285
1839.000000	18.729121
1838.000000	18.682136
1837.000000	18.656214
1836.000000	18.623203
1835.000000	18.568927
1834.000000	18.504120
1833.000000	18.443464
1832.000000	18.385948
1831.000000	18.338862
1830.000000	18.294003
1829.000000	18.243778
1828.000000	18.184641
1827.000000	18.124999
1826.000000	18.075786
1825.000000	18.030927
1824.000000	17.995790
1823.000000	17.981107
1822.000000	17.978373
1821.000000	17.970171
1820.000000	17.961766
1819.000000	17.926325
1818.000000	17.920755
1817.000000	17.928046
1816.000000	17.930679
1815.000000	17.939185
1814.000000	17.960045
1813.000000	17.973107
1812.000000	17.958931
1811.000000	17.953058
1810.000000	17.921464
1809.000000	17.900908
1808.000000	17.900908
1807.000000	17.877416
1806.000000	17.847139
1805.000000	17.822431
1804.000000	17.785471
1803.000000	17.761067
1802.000000	17.740005
1801.000000	17.726132
1800.000000	17.697273
1799.000000	17.646440
1798.000000	17.627504
1797.000000	17.604214
1796.000000	17.579304
1795.000000	17.561887
1794.000000	17.533331
1793.000000	17.504775
1792.000000	17.459816
1791.000000	17.420628
1790.000000	17.351466
1789.000000	17.315823
1788.000000	17.284837
1787.000000	17.236940
1786.000000	17.200790
1785.000000	17.139831
1784.000000	17.057101
1783.000000	17.005660
1782.000000	16.945815
1781.000000	16.863287
1780.000000	16.796860
1779.000000	16.729015
1778.000000	16.667145
1777.000000	16.583909
1776.000000	16.482850
1775.000000	16.369944
1774.000000	16.261899
1773.000000	16.153448
1772.000000	16.025961
1771.000000	15.922168
1770.000000	15.817363
1769.000000	15.686838
1768.000000	15.589425
1767.000000	15.490797
1766.000000	15.413130
1765.000000	15.350652
1764.000000	15.289794
1763.000000	15.252226
1762.000000	15.261542
1761.000000	15.258302
1760.000000	15.307413
1759.000000	15.326146
1758.000000	15.372828
1757.000000	15.406143
1756.000000	15.427407
1755.000000	15.423559
1754.000000	15.428926
1753.000000	15.443103
1752.000000	15.404117
1751.000000	15.349639
1750.000000	15.281693
1749.000000	15.215266
1748.000000	15.132130
1747.000000	15.041806
1746.000000	14.945912
1745.000000	14.806172
1744.000000	14.682532
1743.000000	14.507756
1742.000000	14.360623
1741.000000	14.161241
1740.000000	13.946466
1739.000000	13.779689
1738.000000	13.594281
1737.000000	13.451604
1736.000000	13.338698
1735.000000	13.260322
1734.000000	13.221640
1733.000000	13.228121
1732.000000	13.255360
1731.000000	13.324319
1730.000000	13.391050
1729.000000	13.504057
1728.000000	13.584357
1727.000000	13.678530
1726.000000	13.776247
1725.000000	13.814726
1724.000000	13.872242
1723.000000	13.895127
1722.000000	13.919632
1721.000000	13.942011
1720.000000	13.933302
1719.000000	13.954263
1718.000000	13.989603
1717.000000	14.023830
1716.000000	14.046816
1715.000000	14.129546
1714.000000	14.164076
1713.000000	14.210960
1712.000000	14.287716
1711.000000	14.292981
1710.000000	14.310499
1709.000000	14.317790
1708.000000	14.318701
1707.000000	14.314448
1706.000000	14.267160
1705.000000	14.253388
1704.000000	14.197998
1703.000000	14.150507
1702.000000	14.058967
1701.000000	13.965908
1700.000000	13.848952
1699.000000	13.738172
1698.000000	13.631342
1697.000000	13.564814
1696.000000	13.515905
1695.000000	13.537271
1694.000000	13.586484
1693.000000	13.702022
1692.000000	13.861913
1691.000000	14.024133
1690.000000	14.164278
1689.000000	14.295816
1688.000000	14.384825
1687.000000	14.464011
1686.000000	14.501579
1685.000000	14.519603
1684.000000	14.638585
1683.000000	14.830575
1682.000000	15.108739
1681.000000	15.500011
1680.000000	15.943737
1679.000000	16.447308
1678.000000	16.941360
1677.000000	17.390654
1676.000000	17.798128
1675.000000	18.189198
1674.000000	18.538548
1673.000000	18.805472
1672.000000	19.050422
1671.000000	19.285854
1670.000000	19.453947
1669.000000	19.647356
1668.000000	19.792969
1667.000000	19.936658
1666.000000	20.034982
1665.000000	20.159331
1664.000000	20.240137
1663.000000	20.327222
1662.000000	20.374207
1661.000000	20.438710
1660.000000	20.464025
1659.000000	20.520630
1658.000000	20.524782
1657.000000	20.548679
1656.000000	20.564476
1655.000000	20.580374
1654.000000	20.560020
1653.000000	20.529136
1652.000000	20.506150
1651.000000	20.488024
1650.000000	20.460785
1649.000000	20.432432
1648.000000	20.396180
1647.000000	20.330664
1646.000000	20.282971
1645.000000	20.231530
1644.000000	20.182115
1643.000000	20.110422
1642.000000	20.035590
1641.000000	19.975947
1640.000000	19.923899
1639.000000	19.852409
1638.000000	19.798437
1637.000000	19.724010
1636.000000	19.640267
1635.000000	19.574549
1634.000000	19.508021
1633.000000	19.427619
1632.000000	19.356028
1631.000000	19.264589
1630.000000	19.177606
1629.000000	19.090623
1628.000000	19.014171
1627.000000	18.922125
1626.000000	18.834332
1625.000000	18.750893
1624.000000	18.666542
1623.000000	18.600318
1622.000000	18.522650
1621.000000	18.452173
1620.000000	18.374202
1619.000000	18.295623
1618.000000	18.215121
1617.000000	18.143023
1616.000000	18.075786
1615.000000	18.003891
1614.000000	17.927439
1613.000000	17.863442
1612.000000	17.792762
1611.000000	17.729879
1610.000000	17.657376
1609.000000	17.621124
1608.000000	17.555608
1607.000000	17.476726
1606.000000	17.406046
1605.000000	17.370098
1604.000000	17.319670
1603.000000	17.253446
1602.000000	17.195322
1601.000000	17.136591
1600.000000	17.082112
1599.000000	17.037861
1598.000000	16.980345
1597.000000	16.936297
1596.000000	16.889514
1595.000000	16.845769
1594.000000	16.808910
1593.000000	16.776001
1592.000000	16.735395
1591.000000	16.719497
1590.000000	16.697118
1589.000000	16.668056
1588.000000	16.647703
1587.000000	16.629577
1586.000000	16.611857
1585.000000	16.606186
1584.000000	16.599199
1583.000000	16.587756
1582.000000	16.586339
1581.000000	16.572972
1580.000000	16.581985
