PE UV       SUBTECH     SPECTRUM    ASCII       PEDS        4.00        
   -1
CICIMAUCR0021-1.Sample.ASC
24/03/08
13:20:54.00
24/03/08
13:20:54.00
Vinicio Soto Monge
C. resplendens. 
250,000000
1
Lambda 1050
1050L1511233
PerkinElmer UV WinLab 6.3.2.0749 / 2.02.05 Lambda 900 UV/VIS/NIR, Aug  7 2015 09:38:08

0
0
3350/servo 860,8/2
0
0
UV/VIS
1
1
1
DoubleDePol,CommonBeamDepol,RBeamAtt,SBeamAtt,60mm sphere, WB InGaAs Detector
0
0
0
0
Program
Program
3350/servo 860,8/2
3350/0,2 860,8/0,2
3350/0,2 860,8/0,2
0
15.00
 
 
 
0
 
860,8
319,2
860,8
Front
100
on
S:100 R:100
0
0
0
0
 
0
 
 
 
0
 
 
0
0
0
0
0
 
 
 
 
0
0


0
0
#HDR
-1
-1
#GR
nm
%R
1.0
0.0
2500,000000
-1,000000
2251
8
31,927300
2,181000
#DATA
501.000000	1999.000000	7.711889
502.000000	1998.000000	7.719626
503.000000	1997.000000	7.710922
504.000000	1996.000000	7.692546
505.000000	1995.000000	7.659234
506.000000	1994.000000	7.658911
507.000000	1993.000000	7.643437
508.000000	1992.000000	7.613134
509.000000	1991.000000	7.587989
510.000000	1990.000000	7.593469
511.000000	1989.000000	7.548766
512.000000	1988.000000	7.525448
513.000000	1987.000000	7.505353
514.000000	1986.000000	7.473545
515.000000	1985.000000	7.443134
516.000000	1984.000000	7.413583
517.000000	1983.000000	7.368020
518.000000	1982.000000	7.368343
519.000000	1981.000000	7.345024
520.000000	1980.000000	7.312357
521.000000	1979.000000	7.303975
522.000000	1978.000000	7.241112
523.000000	1977.000000	7.193615
524.000000	1976.000000	7.172660
525.000000	1975.000000	7.142787
526.000000	1974.000000	7.134835
527.000000	1973.000000	7.098191
528.000000	1972.000000	7.072724
529.000000	1971.000000	7.051554
530.000000	1970.000000	7.016200
531.000000	1969.000000	7.000726
532.000000	1968.000000	6.939475
533.000000	1967.000000	6.946245
534.000000	1966.000000	6.915082
535.000000	1965.000000	6.869841
536.000000	1964.000000	6.856194
537.000000	1963.000000	6.835777
538.000000	1962.000000	6.795695
539.000000	1961.000000	6.768830
540.000000	1960.000000	6.748520
541.000000	1959.000000	6.706074
542.000000	1958.000000	6.660942
543.000000	1957.000000	6.679962
544.000000	1956.000000	6.618818
545.000000	1955.000000	6.613337
546.000000	1954.000000	6.584861
547.000000	1953.000000	6.543489
548.000000	1952.000000	6.537149
549.000000	1951.000000	6.524791
550.000000	1950.000000	6.467838
551.000000	1949.000000	6.448925
552.000000	1948.000000	6.452364
553.000000	1947.000000	6.428078
554.000000	1946.000000	6.422920
555.000000	1945.000000	6.401751
556.000000	1944.000000	6.376498
557.000000	1943.000000	6.377143
558.000000	1942.000000	6.364893
559.000000	1941.000000	6.392617
560.000000	1940.000000	6.372952
561.000000	1939.000000	6.345228
562.000000	1938.000000	6.356403
563.000000	1937.000000	6.366397
564.000000	1936.000000	6.379077
565.000000	1935.000000	6.373597
566.000000	1934.000000	6.393369
567.000000	1933.000000	6.435385
568.000000	1932.000000	6.477294
569.000000	1931.000000	6.492768
570.000000	1930.000000	6.536827
571.000000	1929.000000	6.551226
572.000000	1928.000000	6.598078
573.000000	1927.000000	6.634507
574.000000	1926.000000	6.672440
575.000000	1925.000000	6.718539
576.000000	1924.000000	6.779361
577.000000	1923.000000	6.862319
578.000000	1922.000000	6.931953
579.000000	1921.000000	7.005777
580.000000	1920.000000	7.060258
581.000000	1919.000000	7.112376
582.000000	1918.000000	7.187060
583.000000	1917.000000	7.280871
584.000000	1916.000000	7.395208
585.000000	1915.000000	7.489986
586.000000	1914.000000	7.599379
587.000000	1913.000000	7.655043
588.000000	1912.000000	7.762932
589.000000	1911.000000	7.830738
590.000000	1910.000000	7.969252
591.000000	1909.000000	8.073273
592.000000	1908.000000	8.193412
593.000000	1907.000000	8.319676
594.000000	1906.000000	8.423911
595.000000	1905.000000	8.507729
596.000000	1904.000000	8.624644
597.000000	1903.000000	8.767027
598.000000	1902.000000	8.904574
599.000000	1901.000000	9.009561
600.000000	1900.000000	9.144744
601.000000	1899.000000	9.282614
602.000000	1898.000000	9.405332
603.000000	1897.000000	9.547930
604.000000	1896.000000	9.694289
605.000000	1895.000000	9.835060
606.000000	1894.000000	9.963795
607.000000	1893.000000	10.110799
608.000000	1892.000000	10.238782
609.000000	1891.000000	10.351399
610.000000	1890.000000	10.464231
611.000000	1889.000000	10.597910
612.000000	1888.000000	10.750071
613.000000	1887.000000	10.922113
614.000000	1886.000000	11.094584
615.000000	1885.000000	11.251152
616.000000	1884.000000	11.445008
617.000000	1883.000000	11.645526
618.000000	1882.000000	11.839596
619.000000	1881.000000	12.061391
620.000000	1880.000000	12.271473
621.000000	1879.000000	12.482522
622.000000	1878.000000	12.692067
623.000000	1877.000000	12.856586
624.000000	1876.000000	13.010145
625.000000	1875.000000	13.160158
626.000000	1874.000000	13.296953
627.000000	1873.000000	13.391194
628.000000	1872.000000	13.488659
629.000000	1871.000000	13.558615
630.000000	1870.000000	13.580214
631.000000	1869.000000	13.618040
632.000000	1868.000000	13.701965
633.000000	1867.000000	13.744733
634.000000	1866.000000	13.793197
635.000000	1865.000000	13.856598
636.000000	1864.000000	13.923545
637.000000	1863.000000	13.976092
638.000000	1862.000000	13.997477
639.000000	1861.000000	14.002635
640.000000	1860.000000	13.993715
641.000000	1859.000000	13.965776
642.000000	1858.000000	13.916023
643.000000	1857.000000	13.914841
644.000000	1856.000000	13.919354
645.000000	1855.000000	13.892167
646.000000	1854.000000	13.855094
647.000000	1853.000000	13.807060
648.000000	1852.000000	13.786320
649.000000	1851.000000	13.790618
650.000000	1850.000000	13.793412
651.000000	1849.000000	13.787395
652.000000	1848.000000	13.698096
653.000000	1847.000000	13.586017
654.000000	1846.000000	13.515309
655.000000	1845.000000	13.518962
656.000000	1844.000000	13.560871
657.000000	1843.000000	13.573229
658.000000	1842.000000	13.562376
659.000000	1841.000000	13.511655
660.000000	1840.000000	13.455992
661.000000	1839.000000	13.427837
662.000000	1838.000000	13.408172
663.000000	1837.000000	13.360138
664.000000	1836.000000	13.301681
665.000000	1835.000000	13.253969
666.000000	1834.000000	13.222591
667.000000	1833.000000	13.215606
668.000000	1832.000000	13.211523
669.000000	1831.000000	13.170259
670.000000	1830.000000	13.112983
671.000000	1829.000000	13.080745
672.000000	1828.000000	13.025189
673.000000	1827.000000	12.970923
674.000000	1826.000000	12.932237
675.000000	1825.000000	12.892048
676.000000	1824.000000	12.893230
677.000000	1823.000000	12.912143
678.000000	1822.000000	12.914077
679.000000	1821.000000	12.885815
680.000000	1820.000000	12.831871
681.000000	1819.000000	12.787920
682.000000	1818.000000	12.797699
683.000000	1817.000000	12.824886
684.000000	1816.000000	12.843906
685.000000	1815.000000	12.825961
686.000000	1814.000000	12.808337
687.000000	1813.000000	12.826498
688.000000	1812.000000	12.821447
689.000000	1811.000000	12.793078
690.000000	1810.000000	12.749665
691.000000	1809.000000	12.739886
692.000000	1808.000000	12.743970
693.000000	1807.000000	12.730537
694.000000	1806.000000	12.685619
695.000000	1805.000000	12.640164
696.000000	1804.000000	12.622111
697.000000	1803.000000	12.617920
698.000000	1802.000000	12.604166
699.000000	1801.000000	12.565373
700.000000	1800.000000	12.519596
701.000000	1799.000000	12.510569
702.000000	1798.000000	12.492946
703.000000	1797.000000	12.467693
704.000000	1796.000000	12.444697
705.000000	1795.000000	12.432447
706.000000	1794.000000	12.414608
707.000000	1793.000000	12.387529
708.000000	1792.000000	12.345405
709.000000	1791.000000	12.312093
710.000000	1790.000000	12.291031
711.000000	1789.000000	12.269646
712.000000	1788.000000	12.230961
713.000000	1787.000000	12.203774
714.000000	1786.000000	12.173793
715.000000	1785.000000	12.133496
716.000000	1784.000000	12.081164
717.000000	1783.000000	12.029583
718.000000	1782.000000	11.988534
719.000000	1781.000000	11.930829
720.000000	1780.000000	11.884192
721.000000	1779.000000	11.865386
722.000000	1778.000000	11.807788
723.000000	1777.000000	11.738478
724.000000	1776.000000	11.695064
725.000000	1775.000000	11.624249
726.000000	1774.000000	11.546019
727.000000	1773.000000	11.497447
728.000000	1772.000000	11.409654
729.000000	1771.000000	11.343674
730.000000	1770.000000	11.268453
731.000000	1769.000000	11.186247
732.000000	1768.000000	11.129723
733.000000	1767.000000	11.078680
734.000000	1766.000000	11.013346
735.000000	1765.000000	10.967676
736.000000	1764.000000	10.963485
737.000000	1763.000000	10.952631
738.000000	1762.000000	10.940166
739.000000	1761.000000	10.966816
740.000000	1760.000000	11.000665
741.000000	1759.000000	11.066538
742.000000	1758.000000	11.091468
743.000000	1757.000000	11.111240
744.000000	1756.000000	11.136063
745.000000	1755.000000	11.131335
746.000000	1754.000000	11.138750
747.000000	1753.000000	11.135204
748.000000	1752.000000	11.141007
749.000000	1751.000000	11.131980
750.000000	1750.000000	11.081797
751.000000	1749.000000	11.047088
752.000000	1748.000000	10.989167
753.000000	1747.000000	10.931892
754.000000	1746.000000	10.880634
755.000000	1745.000000	10.797246
756.000000	1744.000000	10.705691
757.000000	1743.000000	10.599199
758.000000	1742.000000	10.514092
759.000000	1741.000000	10.364294
760.000000	1740.000000	10.245660
761.000000	1739.000000	10.115742
762.000000	1738.000000	9.998719
763.000000	1737.000000	9.887607
764.000000	1736.000000	9.828290
765.000000	1735.000000	9.751672
766.000000	1734.000000	9.741678
767.000000	1733.000000	9.748233
768.000000	1732.000000	9.781868
769.000000	1731.000000	9.820123
770.000000	1730.000000	9.859883
771.000000	1729.000000	9.948536
772.000000	1728.000000	10.000439
773.000000	1727.000000	10.043960
774.000000	1726.000000	10.093606
775.000000	1725.000000	10.136697
776.000000	1724.000000	10.156254
777.000000	1723.000000	10.162917
778.000000	1722.000000	10.153460
779.000000	1721.000000	10.174844
780.000000	1720.000000	10.189566
781.000000	1719.000000	10.217721
782.000000	1718.000000	10.212777
783.000000	1717.000000	10.224383
784.000000	1716.000000	10.259092
785.000000	1715.000000	10.288428
786.000000	1714.000000	10.310135
787.000000	1713.000000	10.340546
788.000000	1712.000000	10.359029
789.000000	1711.000000	10.375040
790.000000	1710.000000	10.367518
791.000000	1709.000000	10.386968
792.000000	1708.000000	10.371709
793.000000	1707.000000	10.346241
794.000000	1706.000000	10.322385
795.000000	1705.000000	10.322600
796.000000	1704.000000	10.307341
797.000000	1703.000000	10.238138
798.000000	1702.000000	10.211918
799.000000	1701.000000	10.130464
800.000000	1700.000000	10.043637
801.000000	1699.000000	9.965515
802.000000	1698.000000	9.895022
803.000000	1697.000000	9.836994
804.000000	1696.000000	9.788745
805.000000	1695.000000	9.788960
806.000000	1694.000000	9.825926
807.000000	1693.000000	9.893195
808.000000	1692.000000	9.958530
809.000000	1691.000000	10.030742
810.000000	1690.000000	10.120040
811.000000	1689.000000	10.164528
812.000000	1688.000000	10.204718
813.000000	1687.000000	10.211380
814.000000	1686.000000	10.199560
815.000000	1685.000000	10.209124
816.000000	1684.000000	10.253397
817.000000	1683.000000	10.374288
818.000000	1682.000000	10.532038
819.000000	1681.000000	10.747600
820.000000	1680.000000	11.047625
821.000000	1679.000000	11.333788
822.000000	1678.000000	11.628870
823.000000	1677.000000	11.883332
824.000000	1676.000000	12.138547
825.000000	1675.000000	12.355076
826.000000	1674.000000	12.504014
827.000000	1673.000000	12.643711
828.000000	1672.000000	12.766321
829.000000	1671.000000	12.903653
830.000000	1670.000000	13.000904
831.000000	1669.000000	13.098046
832.000000	1668.000000	13.180575
833.000000	1667.000000	13.257623
834.000000	1666.000000	13.305012
835.000000	1665.000000	13.384209
836.000000	1664.000000	13.413116
837.000000	1663.000000	13.427622
838.000000	1662.000000	13.475549
839.000000	1661.000000	13.490701
840.000000	1660.000000	13.498868
841.000000	1659.000000	13.524765
842.000000	1658.000000	13.541851
843.000000	1657.000000	13.546472
844.000000	1656.000000	13.557648
845.000000	1655.000000	13.545075
846.000000	1654.000000	13.545612
847.000000	1653.000000	13.528634
848.000000	1652.000000	13.523798
849.000000	1651.000000	13.542711
850.000000	1650.000000	13.498115
851.000000	1649.000000	13.493172
852.000000	1648.000000	13.465341
853.000000	1647.000000	13.444601
854.000000	1646.000000	13.405164
855.000000	1645.000000	13.382597
856.000000	1644.000000	13.365726
857.000000	1643.000000	13.334886
858.000000	1642.000000	13.298350
859.000000	1641.000000	13.279007
860.000000	1640.000000	13.229361
861.000000	1639.000000	13.204538
862.000000	1638.000000	13.187774
863.000000	1637.000000	13.155537
864.000000	1636.000000	13.109115
865.000000	1635.000000	13.066453
866.000000	1634.000000	13.014336
867.000000	1633.000000	12.984033
868.000000	1632.000000	12.955878
869.000000	1631.000000	12.919450
870.000000	1630.000000	12.874102
871.000000	1629.000000	12.834020
872.000000	1628.000000	12.791251
873.000000	1627.000000	12.733224
874.000000	1626.000000	12.694861
875.000000	1625.000000	12.641991
876.000000	1624.000000	12.598793
877.000000	1623.000000	12.568167
878.000000	1622.000000	12.519058
879.000000	1621.000000	12.485639
880.000000	1620.000000	12.434703
881.000000	1619.000000	12.411170
882.000000	1618.000000	12.373989
883.000000	1617.000000	12.344330
884.000000	1616.000000	12.286303
885.000000	1615.000000	12.244501
886.000000	1614.000000	12.212801
887.000000	1613.000000	12.162295
888.000000	1612.000000	12.132529
889.000000	1611.000000	12.088578
890.000000	1610.000000	12.073534
891.000000	1609.000000	12.040867
892.000000	1608.000000	11.987889
893.000000	1607.000000	11.938673
894.000000	1606.000000	11.915892
895.000000	1605.000000	11.887201
896.000000	1604.000000	11.846796
897.000000	1603.000000	11.811764
898.000000	1602.000000	11.782536
899.000000	1601.000000	11.745677
900.000000	1600.000000	11.710861
901.000000	1599.000000	11.673465
902.000000	1598.000000	11.647567
903.000000	1597.000000	11.621670
904.000000	1596.000000	11.593301
905.000000	1595.000000	11.559666
906.000000	1594.000000	11.529685
907.000000	1593.000000	11.507226
908.000000	1592.000000	11.471227
909.000000	1591.000000	11.455539
910.000000	1590.000000	11.451240
911.000000	1589.000000	11.414059
912.000000	1588.000000	11.386980
913.000000	1587.000000	11.358933
914.000000	1586.000000	11.348617
915.000000	1585.000000	11.357966
916.000000	1584.000000	11.348295
917.000000	1583.000000	11.326266
918.000000	1582.000000	11.317776
919.000000	1581.000000	11.305741
920.000000	1580.000000	11.288655
921.000000	1579.000000	11.283927
922.000000	1578.000000	11.291879
923.000000	1577.000000	11.290267
924.000000	1576.000000	11.288762
925.000000	1575.000000	11.296929
926.000000	1574.000000	11.300153
927.000000	1573.000000	11.296499
928.000000	1572.000000	11.314445
929.000000	1571.000000	11.325836
930.000000	1570.000000	11.348080
931.000000	1569.000000	11.368067
932.000000	1568.000000	11.369786
933.000000	1567.000000	11.374515
934.000000	1566.000000	11.393750
935.000000	1565.000000	11.410513
936.000000	1564.000000	11.434799
937.000000	1563.000000	11.453067
938.000000	1562.000000	11.449951
939.000000	1561.000000	11.459085
940.000000	1560.000000	11.476063
941.000000	1559.000000	11.500779
942.000000	1558.000000	11.508516
943.000000	1557.000000	11.518939
944.000000	1556.000000	11.544622
945.000000	1555.000000	11.540109
946.000000	1554.000000	11.537959
947.000000	1553.000000	11.544944
948.000000	1552.000000	11.548383
949.000000	1551.000000	11.543225
950.000000	1550.000000	11.529900
951.000000	1549.000000	11.526246
952.000000	1548.000000	11.532801
953.000000	1547.000000	11.541720
954.000000	1546.000000	11.544085
955.000000	1545.000000	11.545374
956.000000	1544.000000	11.535380
957.000000	1543.000000	11.544944
958.000000	1542.000000	11.558162
959.000000	1541.000000	11.550425
960.000000	1540.000000	11.555690
961.000000	1539.000000	11.559988
962.000000	1538.000000	11.553326
963.000000	1537.000000	11.553971
964.000000	1536.000000	11.553326
965.000000	1535.000000	11.547523
966.000000	1534.000000	11.554401
967.000000	1533.000000	11.556335
968.000000	1532.000000	11.552466
969.000000	1531.000000	11.540968
970.000000	1530.000000	11.544729
971.000000	1529.000000	11.538497
972.000000	1528.000000	11.525924
973.000000	1527.000000	11.530115
974.000000	1526.000000	11.518724
975.000000	1525.000000	11.490785
976.000000	1524.000000	11.479717
977.000000	1523.000000	11.477890
978.000000	1522.000000	11.481006
979.000000	1521.000000	11.461341
980.000000	1520.000000	11.436948
981.000000	1519.000000	11.428566
982.000000	1518.000000	11.422119
983.000000	1517.000000	11.416423
984.000000	1516.000000	11.417176
985.000000	1515.000000	11.400627
986.000000	1514.000000	11.362049
987.000000	1513.000000	11.367960
988.000000	1512.000000	11.354742
989.000000	1511.000000	11.338731
990.000000	1510.000000	11.307568
991.000000	1509.000000	11.322719
992.000000	1508.000000	11.307245
993.000000	1507.000000	11.300368
994.000000	1506.000000	11.271354
995.000000	1505.000000	11.252334
996.000000	1504.000000	11.237182
997.000000	1503.000000	11.252656
998.000000	1502.000000	11.246424
999.000000	1501.000000	11.219881
1000.000000	1500.000000	11.205589
1001.000000	1499.000000	11.195273
1002.000000	1498.000000	11.205482
1003.000000	1497.000000	11.231057
1004.000000	1496.000000	11.203225
1005.000000	1495.000000	11.223105
1006.000000	1494.000000	11.220096
1007.000000	1493.000000	11.210210
1008.000000	1492.000000	11.241051
1009.000000	1491.000000	11.249325
1010.000000	1490.000000	11.262757
1011.000000	1489.000000	11.263510
1012.000000	1488.000000	11.270817
1013.000000	1487.000000	11.272214
1014.000000	1486.000000	11.288010
1015.000000	1485.000000	11.282745
1016.000000	1484.000000	11.314875
1017.000000	1483.000000	11.305526
1018.000000	1482.000000	11.362587
1019.000000	1481.000000	11.365918
1020.000000	1480.000000	11.374085
1021.000000	1479.000000	11.415994
1022.000000	1478.000000	11.427492
1023.000000	1477.000000	11.451992
1024.000000	1476.000000	11.455861
1025.000000	1475.000000	11.508086
1026.000000	1474.000000	11.542473
1027.000000	1473.000000	11.555368
1028.000000	1472.000000	11.572346
1029.000000	1471.000000	11.589002
1030.000000	1470.000000	11.611461
1031.000000	1469.000000	11.606303
1032.000000	1468.000000	11.646708
1033.000000	1467.000000	11.680342
1034.000000	1466.000000	11.707207
1035.000000	1465.000000	11.730955
1036.000000	1464.000000	11.763945
1037.000000	1463.000000	11.809615
1038.000000	1462.000000	11.826271
1039.000000	1461.000000	11.864204
1040.000000	1460.000000	11.894293
1041.000000	1459.000000	11.963604
1042.000000	1458.000000	12.008951
1043.000000	1457.000000	12.047529
1044.000000	1456.000000	12.082238
1045.000000	1455.000000	12.136720
1046.000000	1454.000000	12.199691
1047.000000	1453.000000	12.245253
1048.000000	1452.000000	12.314564
1049.000000	1451.000000	12.346372
1050.000000	1450.000000	12.400209
1051.000000	1449.000000	12.469197
1052.000000	1448.000000	12.519166
1053.000000	1447.000000	12.597718
1054.000000	1446.000000	12.652415
1055.000000	1445.000000	12.711732
1056.000000	1444.000000	12.774166
1057.000000	1443.000000	12.834235
1058.000000	1442.000000	12.931055
1059.000000	1441.000000	12.955878
1060.000000	1440.000000	13.036580
1061.000000	1439.000000	13.118464
1062.000000	1438.000000	13.173590
1063.000000	1437.000000	13.220764
1064.000000	1436.000000	13.293084
1065.000000	1435.000000	13.368735
1066.000000	1434.000000	13.432566
1067.000000	1433.000000	13.501769
1068.000000	1432.000000	13.571295
1069.000000	1431.000000	13.618899
1070.000000	1430.000000	13.712066
1071.000000	1429.000000	13.808134
1072.000000	1428.000000	13.871212
1073.000000	1427.000000	13.968033
1074.000000	1426.000000	14.063349
1075.000000	1425.000000	14.173172
1076.000000	1424.000000	14.273108
1077.000000	1423.000000	14.368317
1078.000000	1422.000000	14.464600
1079.000000	1421.000000	14.561958
1080.000000	1420.000000	14.680700
1081.000000	1419.000000	14.791060
1082.000000	1418.000000	14.864884
1083.000000	1417.000000	14.952463
1084.000000	1416.000000	15.020162
1085.000000	1415.000000	15.152444
