PE UV       SUBTECH     SPECTRUM    ASCII       PEDS        4.00        
   -1
CICIMAUCR0006-1.Sample.ASC
24/03/08
11:34:28.00
24/03/08
11:34:28.00
Vinicio Soto Monge
C. kalinini
250,000000
1
Lambda 1050
1050L1511233
PerkinElmer UV WinLab 6.3.2.0749 / 2.02.05 Lambda 900 UV/VIS/NIR, Aug  7 2015 09:38:08

0
0
3350/servo 860,8/2
0
0
UV/VIS
1
1
1
DoubleDePol,CommonBeamDepol,RBeamAtt,SBeamAtt,60mm sphere, WB InGaAs Detector
0
0
0
0
Program
Program
3350/servo 860,8/2
3350/0,2 860,8/0,2
3350/0,2 860,8/0,2
0
15.00
 
 
 
0
 
860,8
319,2
860,8
Front
100
on
S:100 R:100
0
0
0
0
 
0
 
 
 
0
 
 
0
0
0
0
0
 
 
 
 
0
0


0
0
#HDR
-1
-1
#GR
nm
%R
1.0
0.0
2500,000000
-1,000000
2251
8
34,259900
1,836500
#DATA
501.000000	1999.000000	6.688553
502.000000	1998.000000	6.668865
503.000000	1997.000000	6.653759
504.000000	1996.000000	6.646330
505.000000	1995.000000	6.627262
506.000000	1994.000000	6.598164
507.000000	1993.000000	6.572904
508.000000	1992.000000	6.544302
509.000000	1991.000000	6.544673
510.000000	1990.000000	6.486477
511.000000	1989.000000	6.462208
512.000000	1988.000000	6.445988
513.000000	1987.000000	6.412928
514.000000	1986.000000	6.409832
515.000000	1985.000000	6.369343
516.000000	1984.000000	6.320805
517.000000	1983.000000	6.310033
518.000000	1982.000000	6.263600
519.000000	1981.000000	6.261495
520.000000	1980.000000	6.209242
521.000000	1979.000000	6.183735
522.000000	1978.000000	6.155504
523.000000	1977.000000	6.111300
524.000000	1976.000000	6.090746
525.000000	1975.000000	6.050133
526.000000	1974.000000	6.004195
527.000000	1973.000000	5.998623
528.000000	1972.000000	5.991813
529.000000	1971.000000	5.957886
530.000000	1970.000000	5.906996
531.000000	1969.000000	5.884213
532.000000	1968.000000	5.859077
533.000000	1967.000000	5.839637
534.000000	1966.000000	5.808311
535.000000	1965.000000	5.767326
536.000000	1964.000000	5.734018
537.000000	1963.000000	5.710492
538.000000	1962.000000	5.679413
539.000000	1961.000000	5.642019
540.000000	1960.000000	5.638057
541.000000	1959.000000	5.605368
542.000000	1958.000000	5.575280
543.000000	1957.000000	5.565498
544.000000	1956.000000	5.508664
545.000000	1955.000000	5.478700
546.000000	1954.000000	5.468299
547.000000	1953.000000	5.433010
548.000000	1952.000000	5.443658
549.000000	1951.000000	5.388310
550.000000	1950.000000	5.368128
551.000000	1949.000000	5.371223
552.000000	1948.000000	5.331724
553.000000	1947.000000	5.314018
554.000000	1946.000000	5.286901
555.000000	1945.000000	5.282444
556.000000	1944.000000	5.269442
557.000000	1943.000000	5.247031
558.000000	1942.000000	5.225115
559.000000	1941.000000	5.226353
560.000000	1940.000000	5.217314
561.000000	1939.000000	5.204932
562.000000	1938.000000	5.198245
563.000000	1937.000000	5.209637
564.000000	1936.000000	5.243440
565.000000	1935.000000	5.228334
566.000000	1934.000000	5.230315
567.000000	1933.000000	5.225362
568.000000	1932.000000	5.285168
569.000000	1931.000000	5.306217
570.000000	1930.000000	5.300521
571.000000	1929.000000	5.339896
572.000000	1928.000000	5.360203
573.000000	1927.000000	5.379767
574.000000	1926.000000	5.399578
575.000000	1925.000000	5.432267
576.000000	1924.000000	5.479938
577.000000	1923.000000	5.522285
578.000000	1922.000000	5.563765
579.000000	1921.000000	5.596206
580.000000	1920.000000	5.654525
581.000000	1919.000000	5.724484
582.000000	1918.000000	5.774879
583.000000	1917.000000	5.823417
584.000000	1916.000000	5.876164
585.000000	1915.000000	5.940675
586.000000	1914.000000	6.016825
587.000000	1913.000000	6.070935
588.000000	1912.000000	6.133093
589.000000	1911.000000	6.225834
590.000000	1910.000000	6.278458
591.000000	1909.000000	6.359932
592.000000	1908.000000	6.452550
593.000000	1907.000000	6.547892
594.000000	1906.000000	6.637910
595.000000	1905.000000	6.725080
596.000000	1904.000000	6.789838
597.000000	1903.000000	6.895334
598.000000	1902.000000	7.005039
599.000000	1901.000000	7.102733
600.000000	1900.000000	7.185074
601.000000	1899.000000	7.265682
602.000000	1898.000000	7.377120
603.000000	1897.000000	7.489054
604.000000	1896.000000	7.588359
605.000000	1895.000000	7.722333
606.000000	1894.000000	7.835505
607.000000	1893.000000	7.967869
608.000000	1892.000000	8.072746
609.000000	1891.000000	8.180594
610.000000	1890.000000	8.293642
611.000000	1889.000000	8.432321
612.000000	1888.000000	8.568648
613.000000	1887.000000	8.722062
614.000000	1886.000000	8.878076
615.000000	1885.000000	9.043625
616.000000	1884.000000	9.218584
617.000000	1883.000000	9.397257
618.000000	1882.000000	9.585217
619.000000	1881.000000	9.807723
620.000000	1880.000000	10.015990
621.000000	1879.000000	10.196768
622.000000	1878.000000	10.390548
623.000000	1877.000000	10.580860
624.000000	1876.000000	10.732293
625.000000	1875.000000	10.873077
626.000000	1874.000000	11.019433
627.000000	1873.000000	11.130501
628.000000	1872.000000	11.239835
629.000000	1871.000000	11.333938
630.000000	1870.000000	11.408850
631.000000	1869.000000	11.486857
632.000000	1868.000000	11.593219
633.000000	1867.000000	11.704534
634.000000	1866.000000	11.776969
635.000000	1865.000000	11.844080
636.000000	1864.000000	11.938432
637.000000	1863.000000	12.039717
638.000000	1862.000000	12.101132
639.000000	1861.000000	12.119705
640.000000	1860.000000	12.122801
641.000000	1859.000000	12.118343
642.000000	1858.000000	12.128744
643.000000	1857.000000	12.168862
644.000000	1856.000000	12.213685
645.000000	1855.000000	12.228915
646.000000	1854.000000	12.205018
647.000000	1853.000000	12.175053
648.000000	1852.000000	12.183721
649.000000	1851.000000	12.231763
650.000000	1850.000000	12.270148
651.000000	1849.000000	12.243650
652.000000	1848.000000	12.159576
653.000000	1847.000000	12.053585
654.000000	1846.000000	12.024859
655.000000	1845.000000	12.070920
656.000000	1844.000000	12.125896
657.000000	1843.000000	12.160690
658.000000	1842.000000	12.139517
659.000000	1841.000000	12.064481
660.000000	1840.000000	12.020401
661.000000	1839.000000	12.008267
662.000000	1838.000000	11.984245
663.000000	1837.000000	11.952176
664.000000	1836.000000	11.922954
665.000000	1835.000000	11.896952
666.000000	1834.000000	11.887789
667.000000	1833.000000	11.872187
668.000000	1832.000000	11.872807
669.000000	1831.000000	11.863520
670.000000	1830.000000	11.813249
671.000000	1829.000000	11.764959
672.000000	1828.000000	11.716916
673.000000	1827.000000	11.667883
674.000000	1826.000000	11.632099
675.000000	1825.000000	11.613773
676.000000	1824.000000	11.621450
677.000000	1823.000000	11.669369
678.000000	1822.000000	11.667883
679.000000	1821.000000	11.585171
680.000000	1820.000000	11.505802
681.000000	1819.000000	11.477570
682.000000	1818.000000	11.484752
683.000000	1817.000000	11.498868
684.000000	1816.000000	11.490324
685.000000	1815.000000	11.463703
686.000000	1814.000000	11.468655
687.000000	1813.000000	11.473732
688.000000	1812.000000	11.455902
689.000000	1811.000000	11.428785
690.000000	1810.000000	11.419870
691.000000	1809.000000	11.427918
692.000000	1808.000000	11.408355
693.000000	1807.000000	11.365513
694.000000	1806.000000	11.333815
695.000000	1805.000000	11.300383
696.000000	1804.000000	11.279457
697.000000	1803.000000	11.264103
698.000000	1802.000000	11.229186
699.000000	1801.000000	11.201202
700.000000	1800.000000	11.174333
701.000000	1799.000000	11.149693
702.000000	1798.000000	11.145235
703.000000	1797.000000	11.135825
704.000000	1796.000000	11.103384
705.000000	1795.000000	11.084935
706.000000	1794.000000	11.074534
707.000000	1793.000000	11.042712
708.000000	1792.000000	11.029463
709.000000	1791.000000	11.002099
710.000000	1790.000000	10.969534
711.000000	1789.000000	10.937340
712.000000	1788.000000	10.930530
713.000000	1787.000000	10.919634
714.000000	1786.000000	10.886450
715.000000	1785.000000	10.832836
716.000000	1784.000000	10.810672
717.000000	1783.000000	10.803490
718.000000	1782.000000	10.758048
719.000000	1781.000000	10.738360
720.000000	1780.000000	10.730560
721.000000	1779.000000	10.698985
722.000000	1778.000000	10.665554
723.000000	1777.000000	10.605500
724.000000	1776.000000	10.570088
725.000000	1775.000000	10.529722
726.000000	1774.000000	10.502234
727.000000	1773.000000	10.470783
728.000000	1772.000000	10.433018
729.000000	1771.000000	10.391167
730.000000	1770.000000	10.344239
731.000000	1769.000000	10.307092
732.000000	1768.000000	10.290005
733.000000	1767.000000	10.234905
734.000000	1766.000000	10.209893
735.000000	1765.000000	10.197263
736.000000	1764.000000	10.189834
737.000000	1763.000000	10.202340
738.000000	1762.000000	10.206426
739.000000	1761.000000	10.219551
740.000000	1760.000000	10.276509
741.000000	1759.000000	10.329380
742.000000	1758.000000	10.329628
743.000000	1757.000000	10.371232
744.000000	1756.000000	10.421007
745.000000	1755.000000	10.471650
746.000000	1754.000000	10.488242
747.000000	1753.000000	10.479203
748.000000	1752.000000	10.511397
749.000000	1751.000000	10.495795
750.000000	1750.000000	10.519816
751.000000	1749.000000	10.520064
752.000000	1748.000000	10.483042
753.000000	1747.000000	10.467812
754.000000	1746.000000	10.427570
755.000000	1745.000000	10.365288
756.000000	1744.000000	10.330247
757.000000	1743.000000	10.287405
758.000000	1742.000000	10.246172
759.000000	1741.000000	10.155288
760.000000	1740.000000	10.067623
761.000000	1739.000000	10.001998
762.000000	1738.000000	9.919533
763.000000	1737.000000	9.854775
764.000000	1736.000000	9.808218
765.000000	1735.000000	9.761785
766.000000	1734.000000	9.731821
767.000000	1733.000000	9.743831
768.000000	1732.000000	9.765995
769.000000	1731.000000	9.803018
770.000000	1730.000000	9.822086
771.000000	1729.000000	9.900712
772.000000	1728.000000	9.920028
773.000000	1727.000000	9.997664
774.000000	1726.000000	10.032210
775.000000	1725.000000	10.035553
776.000000	1724.000000	10.070099
777.000000	1723.000000	10.109598
778.000000	1722.000000	10.111084
779.000000	1721.000000	10.116656
780.000000	1720.000000	10.145506
781.000000	1719.000000	10.155536
782.000000	1718.000000	10.151821
783.000000	1717.000000	10.168289
784.000000	1716.000000	10.200111
785.000000	1715.000000	10.228590
786.000000	1714.000000	10.263755
787.000000	1713.000000	10.267470
788.000000	1712.000000	10.300777
789.000000	1711.000000	10.279109
790.000000	1710.000000	10.283690
791.000000	1709.000000	10.300282
792.000000	1708.000000	10.268336
793.000000	1707.000000	10.269946
794.000000	1706.000000	10.251992
795.000000	1705.000000	10.241096
796.000000	1704.000000	10.218808
797.000000	1703.000000	10.154917
798.000000	1702.000000	10.117523
799.000000	1701.000000	10.060565
800.000000	1700.000000	10.008437
801.000000	1699.000000	9.946526
802.000000	1698.000000	9.852670
803.000000	1697.000000	9.778377
804.000000	1696.000000	9.765005
805.000000	1695.000000	9.777263
806.000000	1694.000000	9.773920
807.000000	1693.000000	9.806237
808.000000	1692.000000	9.869881
809.000000	1691.000000	9.905046
810.000000	1690.000000	9.963118
811.000000	1689.000000	10.017723
812.000000	1688.000000	10.056108
813.000000	1687.000000	10.057841
814.000000	1686.000000	10.040382
815.000000	1685.000000	10.047316
816.000000	1684.000000	10.090158
817.000000	1683.000000	10.142782
818.000000	1682.000000	10.274651
819.000000	1681.000000	10.417045
820.000000	1680.000000	10.617016
821.000000	1679.000000	10.817853
822.000000	1678.000000	11.022158
823.000000	1677.000000	11.230177
824.000000	1676.000000	11.386686
825.000000	1675.000000	11.529204
826.000000	1674.000000	11.655872
827.000000	1673.000000	11.793809
828.000000	1672.000000	11.883950
829.000000	1671.000000	11.979045
830.000000	1670.000000	12.040955
831.000000	1669.000000	12.101751
832.000000	1668.000000	12.167376
833.000000	1667.000000	12.232877
834.000000	1666.000000	12.255784
835.000000	1665.000000	12.304446
836.000000	1664.000000	12.322276
837.000000	1663.000000	12.341840
838.000000	1662.000000	12.367471
839.000000	1661.000000	12.407712
840.000000	1660.000000	12.417742
841.000000	1659.000000	12.412541
842.000000	1658.000000	12.426657
843.000000	1657.000000	12.434582
844.000000	1656.000000	12.442258
845.000000	1655.000000	12.446097
846.000000	1654.000000	12.442506
847.000000	1653.000000	12.431238
848.000000	1652.000000	12.442382
849.000000	1651.000000	12.432724
850.000000	1650.000000	12.435077
851.000000	1649.000000	12.416751
852.000000	1648.000000	12.388396
853.000000	1647.000000	12.385549
854.000000	1646.000000	12.393845
855.000000	1645.000000	12.360661
856.000000	1644.000000	12.343078
857.000000	1643.000000	12.326610
858.000000	1642.000000	12.309770
859.000000	1641.000000	12.284015
860.000000	1640.000000	12.275719
861.000000	1639.000000	12.277701
862.000000	1638.000000	12.269033
863.000000	1637.000000	12.250708
864.000000	1636.000000	12.223591
865.000000	1635.000000	12.216781
866.000000	1634.000000	12.189664
867.000000	1633.000000	12.158956
868.000000	1632.000000	12.143355
869.000000	1631.000000	12.127630
870.000000	1630.000000	12.114629
871.000000	1629.000000	12.104723
872.000000	1628.000000	12.088502
873.000000	1627.000000	12.067453
874.000000	1626.000000	12.040831
875.000000	1625.000000	12.011238
876.000000	1624.000000	12.015077
877.000000	1623.000000	11.996132
878.000000	1622.000000	11.975702
879.000000	1621.000000	11.954157
880.000000	1620.000000	11.924440
881.000000	1619.000000	11.896209
882.000000	1618.000000	11.877512
883.000000	1617.000000	11.860177
884.000000	1616.000000	11.837394
885.000000	1615.000000	11.811639
886.000000	1614.000000	11.789970
887.000000	1613.000000	11.780931
888.000000	1612.000000	11.763101
889.000000	1611.000000	11.751214
890.000000	1610.000000	11.739575
891.000000	1609.000000	11.722364
892.000000	1608.000000	11.686456
893.000000	1607.000000	11.672464
894.000000	1606.000000	11.657854
895.000000	1605.000000	11.632718
896.000000	1604.000000	11.598048
897.000000	1603.000000	11.566598
898.000000	1602.000000	11.547158
899.000000	1601.000000	11.540595
900.000000	1600.000000	11.513850
901.000000	1599.000000	11.489953
902.000000	1598.000000	11.467789
903.000000	1597.000000	11.440796
904.000000	1596.000000	11.407736
905.000000	1595.000000	11.370094
906.000000	1594.000000	11.342730
907.000000	1593.000000	11.330348
908.000000	1592.000000	11.314127
909.000000	1591.000000	11.287382
910.000000	1590.000000	11.280200
911.000000	1589.000000	11.260636
912.000000	1588.000000	11.218909
913.000000	1587.000000	11.198974
914.000000	1586.000000	11.195383
915.000000	1585.000000	11.168761
916.000000	1584.000000	11.137930
917.000000	1583.000000	11.129758
918.000000	1582.000000	11.113661
919.000000	1581.000000	11.081344
920.000000	1580.000000	11.049398
921.000000	1579.000000	11.040978
922.000000	1578.000000	11.014976
923.000000	1577.000000	10.993926
924.000000	1576.000000	10.979316
925.000000	1575.000000	10.966686
926.000000	1574.000000	10.961981
927.000000	1573.000000	10.969410
928.000000	1572.000000	10.957895
929.000000	1571.000000	10.946874
930.000000	1570.000000	10.953808
931.000000	1569.000000	10.955542
932.000000	1568.000000	10.955418
933.000000	1567.000000	10.952446
934.000000	1566.000000	10.959752
935.000000	1565.000000	10.964952
936.000000	1564.000000	10.955542
937.000000	1563.000000	10.961857
938.000000	1562.000000	10.968419
939.000000	1561.000000	10.964952
940.000000	1560.000000	10.963962
941.000000	1559.000000	10.966191
942.000000	1558.000000	10.959504
943.000000	1557.000000	10.948979
944.000000	1556.000000	10.952570
945.000000	1555.000000	10.939074
946.000000	1554.000000	10.933626
947.000000	1553.000000	10.936474
948.000000	1552.000000	10.933130
949.000000	1551.000000	10.932883
950.000000	1550.000000	10.931768
951.000000	1549.000000	10.929168
952.000000	1548.000000	10.937712
953.000000	1547.000000	10.936474
954.000000	1546.000000	10.931645
955.000000	1545.000000	10.956037
956.000000	1544.000000	10.962228
957.000000	1543.000000	10.952075
958.000000	1542.000000	10.943655
959.000000	1541.000000	10.951084
960.000000	1540.000000	10.950837
961.000000	1539.000000	10.955294
962.000000	1538.000000	10.967800
963.000000	1537.000000	10.983402
964.000000	1536.000000	11.004327
965.000000	1535.000000	11.010147
966.000000	1534.000000	10.985383
967.000000	1533.000000	10.988850
968.000000	1532.000000	10.987859
969.000000	1531.000000	10.978820
970.000000	1530.000000	10.977830
971.000000	1529.000000	10.981297
972.000000	1528.000000	10.997889
973.000000	1527.000000	10.996898
974.000000	1526.000000	10.985630
975.000000	1525.000000	10.979935
976.000000	1524.000000	10.966191
977.000000	1523.000000	10.959628
978.000000	1522.000000	10.960619
979.000000	1521.000000	10.979439
980.000000	1520.000000	10.963343
981.000000	1519.000000	10.946627
982.000000	1518.000000	10.954799
983.000000	1517.000000	10.926939
984.000000	1516.000000	10.926568
985.000000	1515.000000	10.924587
986.000000	1514.000000	10.920624
987.000000	1513.000000	10.929292
988.000000	1512.000000	10.910100
989.000000	1511.000000	10.901061
990.000000	1510.000000	10.876297
991.000000	1509.000000	10.846332
992.000000	1508.000000	10.845218
993.000000	1507.000000	10.828378
994.000000	1506.000000	10.805471
995.000000	1505.000000	10.820949
996.000000	1504.000000	10.799280
997.000000	1503.000000	10.792965
998.000000	1502.000000	10.768201
999.000000	1501.000000	10.754457
1000.000000	1500.000000	10.735017
1001.000000	1499.000000	10.728207
1002.000000	1498.000000	10.738360
1003.000000	1497.000000	10.702824
1004.000000	1496.000000	10.671621
1005.000000	1495.000000	10.672611
1006.000000	1494.000000	10.658496
1007.000000	1493.000000	10.654657
1008.000000	1492.000000	10.642771
1009.000000	1491.000000	10.634475
1010.000000	1490.000000	10.610330
1011.000000	1489.000000	10.593738
1012.000000	1488.000000	10.585194
1013.000000	1487.000000	10.577641
1014.000000	1486.000000	10.569592
1015.000000	1485.000000	10.555972
1016.000000	1484.000000	10.543962
1017.000000	1483.000000	10.531827
1018.000000	1482.000000	10.536285
1019.000000	1481.000000	10.509787
1020.000000	1480.000000	10.501739
1021.000000	1479.000000	10.489480
1022.000000	1478.000000	10.489852
1023.000000	1477.000000	10.487623
1024.000000	1476.000000	10.488861
1025.000000	1475.000000	10.478584
1026.000000	1474.000000	10.459268
1027.000000	1473.000000	10.440200
1028.000000	1472.000000	10.440695
1029.000000	1471.000000	10.450477
1030.000000	1470.000000	10.453325
1031.000000	1469.000000	10.452334
1032.000000	1468.000000	10.479822
1033.000000	1467.000000	10.470783
1034.000000	1466.000000	10.460630
1035.000000	1465.000000	10.474870
1036.000000	1464.000000	10.501120
1037.000000	1463.000000	10.514616
1038.000000	1462.000000	10.504463
1039.000000	1461.000000	10.488614
1040.000000	1460.000000	10.528608
1041.000000	1459.000000	10.543342
1042.000000	1458.000000	10.553867
1043.000000	1457.000000	10.598319
1044.000000	1456.000000	10.626921
1045.000000	1455.000000	10.643018
1046.000000	1454.000000	10.677193
1047.000000	1453.000000	10.743065
1048.000000	1452.000000	10.748885
1049.000000	1451.000000	10.794946
1050.000000	1450.000000	10.834074
1051.000000	1449.000000	10.867629
1052.000000	1448.000000	10.919015
1053.000000	1447.000000	10.967676
1054.000000	1446.000000	11.025625
1055.000000	1445.000000	11.049150
1056.000000	1444.000000	11.104251
1057.000000	1443.000000	11.153779
1058.000000	1442.000000	11.201698
1059.000000	1441.000000	11.253207
1060.000000	1440.000000	11.301250
1061.000000	1439.000000	11.395353
1062.000000	1438.000000	11.436957
1063.000000	1437.000000	11.469027
1064.000000	1436.000000	11.529080
1065.000000	1435.000000	11.596934
1066.000000	1434.000000	11.650920
1067.000000	1433.000000	11.684599
1068.000000	1432.000000	11.754062
1069.000000	1431.000000	11.793561
1070.000000	1430.000000	11.890637
1071.000000	1429.000000	11.966044
1072.000000	1428.000000	12.018667
1073.000000	1427.000000	12.106333
1074.000000	1426.000000	12.180873
1075.000000	1425.000000	12.295778
1076.000000	1424.000000	12.365366
1077.000000	1423.000000	12.430619
1078.000000	1422.000000	12.509741
1079.000000	1421.000000	12.634552
1080.000000	1420.000000	12.690272
1081.000000	1419.000000	12.779299
1082.000000	1418.000000	12.885166
1083.000000	1417.000000	12.931227
1084.000000	1416.000000	13.062477
1085.000000	1415.000000	13.136026
1086.000000	1414.000000	13.228025
