PE UV       SUBTECH     SPECTRUM    ASCII       PEDS        4.00        
   -1
CICIMAUCR0044-1.ASC
24/04/03
11:33:37.00
24/04/03
11:33:37.00
Vinicio Soto Monge
C optima #8 17
250,000000
1
Lambda 1050
1050L1511233
PerkinElmer UV WinLab 6.3.2.0749 / 2.02.05 Lambda 900 UV/VIS/NIR, Aug  7 2015 09:38:08

0
0
3350/servo 860,8/2
0
0
UV/VIS
1
1
1
DoubleDePol,CommonBeamDepol,RBeamAtt,SBeamAtt,60mm sphere, WB InGaAs Detector
0
0
0
0
Program
Program
3350/servo 860,8/2
3350/0,2 860,8/0,2
3350/0,2 860,8/0,2
0
15.00
 
 
 
0
 
860,8
319,2
860,8
Front
100
on
S:100 R:100
0
0
0
0
 
0
 
 
 
0
 
 
0
0
0
0
0
 
 
 
 
0
0


0
0
#HDR
-1
-1
#GR
nm
%R
1.0
0.0
2000,000000
-1,000000
1751
8
60,646000
5,166000
#DATA
1.000000	1999.000000	26.590147
2.000000	1998.000000	26.507095
3.000000	1997.000000	26.441387
4.000000	1996.000000	26.359967
5.000000	1995.000000	26.270180
6.000000	1994.000000	26.167945
7.000000	1993.000000	26.077751
8.000000	1992.000000	25.974088
9.000000	1991.000000	25.861956
10.000000	1990.000000	25.765640
11.000000	1989.000000	25.640652
12.000000	1988.000000	25.539540
13.000000	1987.000000	25.430674
14.000000	1986.000000	25.317828
15.000000	1985.000000	25.183148
16.000000	1984.000000	25.070200
17.000000	1983.000000	24.966027
18.000000	1982.000000	24.850019
19.000000	1981.000000	24.731051
20.000000	1980.000000	24.603105
21.000000	1979.000000	24.468833
22.000000	1978.000000	24.370680
23.000000	1977.000000	24.232939
24.000000	1976.000000	24.120297
25.000000	1975.000000	23.992759
26.000000	1974.000000	23.868486
27.000000	1973.000000	23.759517
28.000000	1972.000000	23.639428
29.000000	1971.000000	23.515767
30.000000	1970.000000	23.431082
31.000000	1969.000000	23.318848
32.000000	1968.000000	23.202023
33.000000	1967.000000	23.082852
34.000000	1966.000000	22.980107
35.000000	1965.000000	22.867874
36.000000	1964.000000	22.744417
37.000000	1963.000000	22.632387
38.000000	1962.000000	22.503523
39.000000	1961.000000	22.405166
40.000000	1960.000000	22.277220
41.000000	1959.000000	22.156211
42.000000	1958.000000	22.059487
43.000000	1957.000000	21.953987
44.000000	1956.000000	21.842366
45.000000	1955.000000	21.743804
46.000000	1954.000000	21.648916
47.000000	1953.000000	21.523113
48.000000	1952.000000	21.419246
49.000000	1951.000000	21.315889
50.000000	1950.000000	21.238040
51.000000	1949.000000	21.154885
52.000000	1948.000000	21.063160
53.000000	1947.000000	20.959089
54.000000	1946.000000	20.862568
55.000000	1945.000000	20.797064
56.000000	1944.000000	20.728398
57.000000	1943.000000	20.661772
58.000000	1942.000000	20.595758
59.000000	1941.000000	20.554946
60.000000	1940.000000	20.510359
61.000000	1939.000000	20.448018
62.000000	1938.000000	20.417715
63.000000	1937.000000	20.389963
64.000000	1936.000000	20.378740
65.000000	1935.000000	20.358946
66.000000	1934.000000	20.379250
67.000000	1933.000000	20.399656
68.000000	1932.000000	20.443937
69.000000	1931.000000	20.486382
70.000000	1930.000000	20.526888
71.000000	1929.000000	20.590861
72.000000	1928.000000	20.664731
73.000000	1927.000000	20.729418
74.000000	1926.000000	20.840835
75.000000	1925.000000	20.972659
76.000000	1924.000000	21.075403
77.000000	1923.000000	21.202635
78.000000	1922.000000	21.359966
79.000000	1921.000000	21.511175
80.000000	1920.000000	21.674322
81.000000	1919.000000	21.850834
82.000000	1918.000000	22.064588
83.000000	1917.000000	22.275485
84.000000	1916.000000	22.495361
85.000000	1915.000000	22.748294
86.000000	1914.000000	23.037346
87.000000	1913.000000	23.331296
88.000000	1912.000000	23.607798
89.000000	1911.000000	23.905523
90.000000	1910.000000	24.231918
91.000000	1909.000000	24.574536
92.000000	1908.000000	24.944805
93.000000	1907.000000	25.348335
94.000000	1906.000000	25.823899
95.000000	1905.000000	26.286403
96.000000	1904.000000	26.724011
97.000000	1903.000000	27.199269
98.000000	1902.000000	27.688301
99.000000	1901.000000	28.210084
100.000000	1900.000000	28.749723
101.000000	1899.000000	29.275792
102.000000	1898.000000	29.833082
103.000000	1897.000000	30.381190
104.000000	1896.000000	30.881955
105.000000	1895.000000	31.418227
106.000000	1894.000000	31.963171
107.000000	1893.000000	32.515462
108.000000	1892.000000	33.076323
109.000000	1891.000000	33.586475
110.000000	1890.000000	34.078670
111.000000	1889.000000	34.576680
112.000000	1888.000000	35.031328
113.000000	1887.000000	35.462610
114.000000	1886.000000	35.875324
115.000000	1885.000000	36.289261
116.000000	1884.000000	36.663815
117.000000	1883.000000	37.012350
118.000000	1882.000000	37.370273
119.000000	1881.000000	37.700138
120.000000	1880.000000	38.015309
121.000000	1879.000000	38.347419
122.000000	1878.000000	38.642184
123.000000	1877.000000	38.906545
124.000000	1876.000000	39.156010
125.000000	1875.000000	39.399250
126.000000	1874.000000	39.611779
127.000000	1873.000000	39.787374
128.000000	1872.000000	39.935828
129.000000	1871.000000	40.026125
130.000000	1870.000000	40.101423
131.000000	1869.000000	40.192945
132.000000	1868.000000	40.249061
133.000000	1867.000000	40.313239
134.000000	1866.000000	40.383333
135.000000	1865.000000	40.459550
136.000000	1864.000000	40.564131
137.000000	1863.000000	40.674426
138.000000	1862.000000	40.766050
139.000000	1861.000000	40.832573
140.000000	1860.000000	40.851755
141.000000	1859.000000	40.852061
142.000000	1858.000000	40.883180
143.000000	1857.000000	40.913279
144.000000	1856.000000	40.942868
145.000000	1855.000000	40.953275
146.000000	1854.000000	40.910321
147.000000	1853.000000	40.871957
148.000000	1852.000000	40.901036
149.000000	1851.000000	40.979803
150.000000	1850.000000	41.065101
151.000000	1849.000000	41.010821
152.000000	1848.000000	40.848898
153.000000	1847.000000	40.703913
154.000000	1846.000000	40.641368
155.000000	1845.000000	40.662999
156.000000	1844.000000	40.728196
157.000000	1843.000000	40.756867
158.000000	1842.000000	40.680854
159.000000	1841.000000	40.611882
160.000000	1840.000000	40.561377
161.000000	1839.000000	40.524544
162.000000	1838.000000	40.476895
163.000000	1837.000000	40.391700
164.000000	1836.000000	40.306096
165.000000	1835.000000	40.244878
166.000000	1834.000000	40.209066
167.000000	1833.000000	40.202434
168.000000	1832.000000	40.202229
169.000000	1831.000000	40.155500
170.000000	1830.000000	40.112137
171.000000	1829.000000	40.066835
172.000000	1828.000000	40.023370
173.000000	1827.000000	39.978885
174.000000	1826.000000	39.917667
175.000000	1825.000000	39.899811
176.000000	1824.000000	39.948378
177.000000	1823.000000	40.040919
178.000000	1822.000000	40.026227
179.000000	1821.000000	39.965009
180.000000	1820.000000	39.898791
181.000000	1819.000000	39.860019
182.000000	1818.000000	39.884201
183.000000	1817.000000	39.919809
184.000000	1816.000000	39.899097
185.000000	1815.000000	39.875324
186.000000	1814.000000	39.876038
187.000000	1813.000000	39.868896
188.000000	1812.000000	39.850123
189.000000	1811.000000	39.801148
190.000000	1810.000000	39.757377
191.000000	1809.000000	39.742378
192.000000	1808.000000	39.731563
193.000000	1807.000000	39.702791
194.000000	1806.000000	39.653816
195.000000	1805.000000	39.606372
196.000000	1804.000000	39.572090
197.000000	1803.000000	39.563927
198.000000	1802.000000	39.549031
199.000000	1801.000000	39.483527
200.000000	1800.000000	39.420472
201.000000	1799.000000	39.389353
202.000000	1798.000000	39.370682
203.000000	1797.000000	39.372212
204.000000	1796.000000	39.358336
205.000000	1795.000000	39.322523
206.000000	1794.000000	39.291812
207.000000	1793.000000	39.270998
208.000000	1792.000000	39.239675
209.000000	1791.000000	39.206004
210.000000	1790.000000	39.171008
211.000000	1789.000000	39.134481
212.000000	1788.000000	39.109076
213.000000	1787.000000	39.070304
214.000000	1786.000000	38.996638
215.000000	1785.000000	38.912361
216.000000	1784.000000	38.834512
217.000000	1783.000000	38.747378
218.000000	1782.000000	38.655142
219.000000	1781.000000	38.601984
220.000000	1780.000000	38.513830
221.000000	1779.000000	38.447102
222.000000	1778.000000	38.361397
223.000000	1777.000000	38.269671
224.000000	1776.000000	38.168355
225.000000	1775.000000	38.079079
226.000000	1774.000000	37.974191
227.000000	1773.000000	37.858897
228.000000	1772.000000	37.715544
229.000000	1771.000000	37.532400
230.000000	1770.000000	37.333338
231.000000	1769.000000	37.110300
232.000000	1768.000000	36.873589
233.000000	1767.000000	36.663406
234.000000	1766.000000	36.528930
235.000000	1765.000000	36.468732
236.000000	1764.000000	36.500260
237.000000	1763.000000	36.556785
238.000000	1762.000000	36.636572
239.000000	1761.000000	36.710851
240.000000	1760.000000	36.791965
241.000000	1759.000000	36.869814
242.000000	1758.000000	36.922360
243.000000	1757.000000	36.966845
244.000000	1756.000000	37.054081
245.000000	1755.000000	37.117442
246.000000	1754.000000	37.179476
247.000000	1753.000000	37.234165
248.000000	1752.000000	37.269059
249.000000	1751.000000	37.271202
250.000000	1750.000000	37.277630
251.000000	1749.000000	37.234471
252.000000	1748.000000	37.136624
253.000000	1747.000000	37.020003
254.000000	1746.000000	36.895424
255.000000	1745.000000	36.765641
256.000000	1744.000000	36.639225
257.000000	1743.000000	36.496587
258.000000	1742.000000	36.331808
259.000000	1741.000000	36.173558
260.000000	1740.000000	35.975415
261.000000	1739.000000	35.739929
262.000000	1738.000000	35.507198
263.000000	1737.000000	35.221513
264.000000	1736.000000	34.908075
265.000000	1735.000000	34.579843
266.000000	1734.000000	34.270487
267.000000	1733.000000	33.971028
268.000000	1732.000000	33.787271
269.000000	1731.000000	33.712585
270.000000	1730.000000	33.728910
271.000000	1729.000000	33.794107
272.000000	1728.000000	33.862161
273.000000	1727.000000	33.912768
274.000000	1726.000000	33.935521
275.000000	1725.000000	33.964906
276.000000	1724.000000	34.019492
277.000000	1723.000000	34.113666
278.000000	1722.000000	34.232430
279.000000	1721.000000	34.446081
280.000000	1720.000000	34.633103
281.000000	1719.000000	34.884710
282.000000	1718.000000	35.139582
283.000000	1717.000000	35.405269
284.000000	1716.000000	35.672283
285.000000	1715.000000	35.935011
286.000000	1714.000000	36.176313
287.000000	1713.000000	36.430981
288.000000	1712.000000	36.689526
289.000000	1711.000000	36.913585
290.000000	1710.000000	37.175905
291.000000	1709.000000	37.410371
292.000000	1708.000000	37.657897
293.000000	1707.000000	37.890220
294.000000	1706.000000	38.114381
295.000000	1705.000000	38.325686
296.000000	1704.000000	38.518932
297.000000	1703.000000	38.687180
298.000000	1702.000000	38.833185
299.000000	1701.000000	38.946745
300.000000	1700.000000	39.064692
301.000000	1699.000000	39.175089
302.000000	1698.000000	39.263142
303.000000	1697.000000	39.380579
304.000000	1696.000000	39.478528
305.000000	1695.000000	39.559642
306.000000	1694.000000	39.620860
307.000000	1693.000000	39.685037
308.000000	1692.000000	39.767784
309.000000	1691.000000	39.823697
310.000000	1690.000000	39.921238
311.000000	1689.000000	40.045715
312.000000	1688.000000	40.191312
313.000000	1687.000000	40.365886
314.000000	1686.000000	40.598312
315.000000	1685.000000	40.801352
316.000000	1684.000000	41.056122
317.000000	1683.000000	41.344154
318.000000	1682.000000	41.593312
319.000000	1681.000000	41.832472
320.000000	1680.000000	42.091527
321.000000	1679.000000	42.295792
322.000000	1678.000000	42.513423
323.000000	1677.000000	42.695853
324.000000	1676.000000	42.850837
325.000000	1675.000000	43.008576
326.000000	1674.000000	43.185395
327.000000	1673.000000	43.372417
328.000000	1672.000000	43.568315
329.000000	1671.000000	43.773600
330.000000	1670.000000	43.973070
331.000000	1669.000000	44.191517
332.000000	1668.000000	44.411596
333.000000	1667.000000	44.563520
334.000000	1666.000000	44.741665
335.000000	1665.000000	44.933176
336.000000	1664.000000	45.128972
337.000000	1663.000000	45.323646
338.000000	1662.000000	45.472509
339.000000	1661.000000	45.624942
340.000000	1660.000000	45.753398
341.000000	1659.000000	45.879304
342.000000	1658.000000	45.997149
343.000000	1657.000000	46.097037
344.000000	1656.000000	46.191313
345.000000	1655.000000	46.250287
346.000000	1654.000000	46.302322
347.000000	1653.000000	46.352929
348.000000	1652.000000	46.382518
349.000000	1651.000000	46.404148
350.000000	1650.000000	46.410066
351.000000	1649.000000	46.418433
352.000000	1648.000000	46.414352
353.000000	1647.000000	46.406801
354.000000	1646.000000	46.393333
355.000000	1645.000000	46.390170
356.000000	1644.000000	46.386701
357.000000	1643.000000	46.340992
358.000000	1642.000000	46.302118
359.000000	1641.000000	46.268754
360.000000	1640.000000	46.249572
361.000000	1639.000000	46.224881
362.000000	1638.000000	46.210699
363.000000	1637.000000	46.212637
364.000000	1636.000000	46.212739
365.000000	1635.000000	46.227432
366.000000	1634.000000	46.258041
367.000000	1633.000000	46.271917
368.000000	1632.000000	46.280284
369.000000	1631.000000	46.295180
370.000000	1630.000000	46.297629
371.000000	1629.000000	46.301914
372.000000	1628.000000	46.307628
373.000000	1627.000000	46.301710
374.000000	1626.000000	46.280998
375.000000	1625.000000	46.262836
376.000000	1624.000000	46.252123
377.000000	1623.000000	46.247532
378.000000	1622.000000	46.222840
379.000000	1621.000000	46.200190
380.000000	1620.000000	46.174478
381.000000	1619.000000	46.152133
382.000000	1618.000000	46.114892
383.000000	1617.000000	46.083467
384.000000	1616.000000	46.050307
385.000000	1615.000000	46.012964
386.000000	1614.000000	45.975723
387.000000	1613.000000	45.938482
388.000000	1612.000000	45.903893
389.000000	1611.000000	45.847573
390.000000	1610.000000	45.799108
391.000000	1609.000000	45.753398
392.000000	1608.000000	45.699016
393.000000	1607.000000	45.642389
394.000000	1606.000000	45.575457
395.000000	1605.000000	45.500771
396.000000	1604.000000	45.435880
397.000000	1603.000000	45.378029
398.000000	1602.000000	45.310893
399.000000	1601.000000	45.258653
400.000000	1600.000000	45.200087
401.000000	1599.000000	45.139277
402.000000	1598.000000	45.080100
403.000000	1597.000000	45.014188
404.000000	1596.000000	44.967968
405.000000	1595.000000	44.921749
406.000000	1594.000000	44.870325
407.000000	1593.000000	44.829207
408.000000	1592.000000	44.791354
409.000000	1591.000000	44.743603
410.000000	1590.000000	44.692894
411.000000	1589.000000	44.641471
412.000000	1588.000000	44.609229
413.000000	1587.000000	44.565050
414.000000	1586.000000	44.516892
415.000000	1585.000000	44.489038
416.000000	1584.000000	44.447307
417.000000	1583.000000	44.410678
418.000000	1582.000000	44.377722
419.000000	1581.000000	44.341195
420.000000	1580.000000	44.309362
421.000000	1579.000000	44.293241
422.000000	1578.000000	44.274876
423.000000	1577.000000	44.250694
424.000000	1576.000000	44.231717
425.000000	1575.000000	44.215902
426.000000	1574.000000	44.210086
427.000000	1573.000000	44.221004
428.000000	1572.000000	44.221310
429.000000	1571.000000	44.208862
430.000000	1570.000000	44.208148
431.000000	1569.000000	44.218045
432.000000	1568.000000	44.237635
433.000000	1567.000000	44.254470
434.000000	1566.000000	44.260489
435.000000	1565.000000	44.259265
436.000000	1564.000000	44.265183
437.000000	1563.000000	44.265489
438.000000	1562.000000	44.262020
439.000000	1561.000000	44.252837
440.000000	1560.000000	44.224473
441.000000	1559.000000	44.180702
442.000000	1558.000000	44.153051
443.000000	1557.000000	44.120606
444.000000	1556.000000	44.085813
445.000000	1555.000000	44.030411
446.000000	1554.000000	43.972968
447.000000	1553.000000	43.912260
448.000000	1552.000000	43.862673
449.000000	1551.000000	43.793088
450.000000	1550.000000	43.708199
451.000000	1549.000000	43.630554
452.000000	1548.000000	43.541583
453.000000	1547.000000	43.469550
454.000000	1546.000000	43.388741
455.000000	1545.000000	43.320993
456.000000	1544.000000	43.267019
457.000000	1543.000000	43.220493
458.000000	1542.000000	43.183150
459.000000	1541.000000	43.117137
460.000000	1540.000000	43.100914
461.000000	1539.000000	43.075406
462.000000	1538.000000	43.032757
463.000000	1537.000000	42.989088
464.000000	1536.000000	42.957255
465.000000	1535.000000	42.909811
466.000000	1534.000000	42.847164
467.000000	1533.000000	42.802985
468.000000	1532.000000	42.745746
469.000000	1531.000000	42.677998
470.000000	1530.000000	42.623717
471.000000	1529.000000	42.558622
472.000000	1528.000000	42.508321
473.000000	1527.000000	42.441389
474.000000	1526.000000	42.376906
475.000000	1525.000000	42.317524
476.000000	1524.000000	42.236002
477.000000	1523.000000	42.164172
478.000000	1522.000000	42.086221
479.000000	1521.000000	42.034288
480.000000	1520.000000	41.947358
481.000000	1519.000000	41.864713
482.000000	1518.000000	41.799414
483.000000	1517.000000	41.728400
484.000000	1516.000000	41.642491
485.000000	1515.000000	41.553010
486.000000	1514.000000	41.472916
487.000000	1513.000000	41.383436
488.000000	1512.000000	41.291710
489.000000	1511.000000	41.182130
490.000000	1510.000000	41.100709
491.000000	1509.000000	41.001434
492.000000	1508.000000	40.921646
493.000000	1507.000000	40.819616
494.000000	1506.000000	40.720442
495.000000	1505.000000	40.629125
496.000000	1504.000000	40.556173
497.000000	1503.000000	40.462611
498.000000	1502.000000	40.393128
499.000000	1501.000000	40.320279
500.000000	1500.000000	40.247021
501.000000	1499.000000	40.186721
502.000000	1498.000000	40.136522
503.000000	1497.000000	40.080507
504.000000	1496.000000	40.040817
505.000000	1495.000000	39.995414
506.000000	1494.000000	39.952663
507.000000	1493.000000	39.918279
508.000000	1492.000000	39.903280
509.000000	1491.000000	39.866651
510.000000	1490.000000	39.835838
511.000000	1489.000000	39.824207
512.000000	1488.000000	39.799719
513.000000	1487.000000	39.761152
514.000000	1486.000000	39.738909
515.000000	1485.000000	39.695444
516.000000	1484.000000	39.675753
517.000000	1483.000000	39.693302
518.000000	1482.000000	39.670651
519.000000	1481.000000	39.643511
520.000000	1480.000000	39.650449
521.000000	1479.000000	39.653204
522.000000	1478.000000	39.654938
523.000000	1477.000000	39.648000
524.000000	1476.000000	39.673202
525.000000	1475.000000	39.713912
526.000000	1474.000000	39.762376
527.000000	1473.000000	39.816657
528.000000	1472.000000	39.852877
529.000000	1471.000000	39.884609
530.000000	1470.000000	39.893281
531.000000	1469.000000	39.930931
532.000000	1468.000000	40.007249
533.000000	1467.000000	40.083160
534.000000	1466.000000	40.099179
535.000000	1465.000000	40.169376
536.000000	1464.000000	40.221003
537.000000	1463.000000	40.249776
538.000000	1462.000000	40.331808
539.000000	1461.000000	40.390986
540.000000	1460.000000	40.436185
541.000000	1459.000000	40.495465
542.000000	1458.000000	40.571376
543.000000	1457.000000	40.651980
544.000000	1456.000000	40.692894
545.000000	1455.000000	40.731665
546.000000	1454.000000	40.801148
547.000000	1453.000000	40.874508
548.000000	1452.000000	40.939399
549.000000	1451.000000	40.966131
550.000000	1450.000000	40.965315
551.000000	1449.000000	40.993781
552.000000	1448.000000	41.091935
553.000000	1447.000000	41.174375
554.000000	1446.000000	41.221717
555.000000	1445.000000	41.223248
556.000000	1444.000000	41.267631
557.000000	1443.000000	41.321605
558.000000	1442.000000	41.363132
559.000000	1441.000000	41.395781
560.000000	1440.000000	41.457816
561.000000	1439.000000	41.526686
562.000000	1438.000000	41.575763
563.000000	1437.000000	41.632696
564.000000	1436.000000	41.710035
565.000000	1435.000000	41.825533
566.000000	1434.000000	41.912157
567.000000	1433.000000	42.001842
568.000000	1432.000000	42.078773
569.000000	1431.000000	42.143970
570.000000	1430.000000	42.233553
571.000000	1429.000000	42.334869
572.000000	1428.000000	42.423432
573.000000	1427.000000	42.519748
574.000000	1426.000000	42.653102
575.000000	1425.000000	42.777783
576.000000	1424.000000	42.898281
577.000000	1423.000000	42.995924
578.000000	1422.000000	43.107546
579.000000	1421.000000	43.322524
580.000000	1420.000000	43.470060
581.000000	1419.000000	43.542705
582.000000	1418.000000	43.611270
583.000000	1417.000000	43.751766
584.000000	1416.000000	43.990721
585.000000	1415.000000	44.205903
586.000000	1414.000000	44.317626
587.000000	1413.000000	44.524442
588.000000	1412.000000	44.764724
