PE UV       SUBTECH     SPECTRUM    ASCII       PEDS        4.00        
   -1
CICIMAUCR0113-1.ASC
24/04/03
16:15:49.00
24/04/03
16:15:49.00
Vinicio Soto Monge
C. kalinini
250,000000
1
Lambda 1050
1050L1511233
PerkinElmer UV WinLab 6.3.2.0749 / 2.02.05 Lambda 900 UV/VIS/NIR, Aug  7 2015 09:38:08

0
0
3350/servo 860,8/2
0
0
UV/VIS
1
1
1
DoubleDePol,CommonBeamDepol,RBeamAtt,SBeamAtt,60mm sphere, WB InGaAs Detector
0
0
0
0
Program
Program
3350/servo 860,8/2
3350/0,2 860,8/0,2
3350/0,2 860,8/0,2
0
15.00
 
 
 
0
 
860,8
319,2
860,8
Front
100
on
S:100 R:100
0
0
0
0
 
0
 
 
 
0
 
 
0
0
0
0
0
 
 
 
 
0
0


0
0
#HDR
-1
-1
#GR
nm
%R
1.0
0.0
2500,000000
-1,000000
2251
8
83,958100
4,718900
#DATA
501.000000	1999.000000	9.911824
502.000000	1998.000000	9.879629
503.000000	1997.000000	9.853288
504.000000	1996.000000	9.834717
505.000000	1995.000000	9.803834
506.000000	1994.000000	9.770630
507.000000	1993.000000	9.770226
508.000000	1992.000000	9.704827
509.000000	1991.000000	9.638620
510.000000	1990.000000	9.627620
511.000000	1989.000000	9.587149
512.000000	1988.000000	9.562220
513.000000	1987.000000	9.491775
514.000000	1986.000000	9.464828
515.000000	1985.000000	9.432431
516.000000	1984.000000	9.394685
517.000000	1983.000000	9.330295
518.000000	1982.000000	9.303651
519.000000	1981.000000	9.269438
520.000000	1980.000000	9.220792
521.000000	1979.000000	9.187991
522.000000	1978.000000	9.171843
523.000000	1977.000000	9.120473
524.000000	1976.000000	9.087874
525.000000	1975.000000	9.044375
526.000000	1974.000000	9.006125
527.000000	1973.000000	8.941937
528.000000	1972.000000	8.915797
529.000000	1971.000000	8.891474
530.000000	1970.000000	8.836167
531.000000	1969.000000	8.823552
532.000000	1968.000000	8.759566
533.000000	1967.000000	8.732417
534.000000	1966.000000	8.721416
535.000000	1965.000000	8.694267
536.000000	1964.000000	8.652888
537.000000	1963.000000	8.608077
538.000000	1962.000000	8.584865
539.000000	1961.000000	8.532989
540.000000	1960.000000	8.513612
541.000000	1959.000000	8.486968
542.000000	1958.000000	8.455075
543.000000	1957.000000	8.438927
544.000000	1956.000000	8.385135
545.000000	1955.000000	8.361518
546.000000	1954.000000	8.335480
547.000000	1953.000000	8.299147
548.000000	1952.000000	8.284311
549.000000	1951.000000	8.280980
550.000000	1950.000000	8.241619
551.000000	1949.000000	8.186515
552.000000	1948.000000	8.180459
553.000000	1947.000000	8.166834
554.000000	1946.000000	8.136456
555.000000	1945.000000	8.116675
556.000000	1944.000000	8.097398
557.000000	1943.000000	8.089324
558.000000	1942.000000	8.107390
559.000000	1941.000000	8.087205
560.000000	1940.000000	8.078626
561.000000	1939.000000	8.097095
562.000000	1938.000000	8.077314
563.000000	1937.000000	8.072268
564.000000	1936.000000	8.062074
565.000000	1935.000000	8.072470
566.000000	1934.000000	8.088618
567.000000	1933.000000	8.103756
568.000000	1932.000000	8.118996
569.000000	1931.000000	8.166128
570.000000	1930.000000	8.207507
571.000000	1929.000000	8.218003
572.000000	1928.000000	8.223251
573.000000	1927.000000	8.263217
574.000000	1926.000000	8.314083
575.000000	1925.000000	8.367069
576.000000	1924.000000	8.419146
577.000000	1923.000000	8.476068
578.000000	1922.000000	8.531778
579.000000	1921.000000	8.566698
580.000000	1920.000000	8.630079
581.000000	1919.000000	8.693157
582.000000	1918.000000	8.759364
583.000000	1917.000000	8.858270
584.000000	1916.000000	8.927908
585.000000	1915.000000	9.039834
586.000000	1914.000000	9.143786
587.000000	1913.000000	9.209589
588.000000	1912.000000	9.289925
589.000000	1911.000000	9.372986
590.000000	1910.000000	9.491573
591.000000	1909.000000	9.594314
592.000000	1908.000000	9.713709
593.000000	1907.000000	9.836130
594.000000	1906.000000	9.963598
595.000000	1905.000000	10.081075
596.000000	1904.000000	10.201579
597.000000	1903.000000	10.324808
598.000000	1902.000000	10.454900
599.000000	1901.000000	10.602755
600.000000	1900.000000	10.750206
601.000000	1899.000000	10.880096
602.000000	1898.000000	11.027648
603.000000	1897.000000	11.178632
604.000000	1896.000000	11.324872
605.000000	1895.000000	11.499169
606.000000	1894.000000	11.686586
607.000000	1893.000000	11.864416
608.000000	1892.000000	12.068284
609.000000	1891.000000	12.243691
610.000000	1890.000000	12.422732
611.000000	1889.000000	12.616608
612.000000	1888.000000	12.838037
613.000000	1887.000000	13.046245
614.000000	1886.000000	13.304209
615.000000	1885.000000	13.564797
616.000000	1884.000000	13.849203
617.000000	1883.000000	14.142894
618.000000	1882.000000	14.429117
619.000000	1881.000000	14.754902
620.000000	1880.000000	15.064640
621.000000	1879.000000	15.357827
622.000000	1878.000000	15.674932
623.000000	1877.000000	15.989919
624.000000	1876.000000	16.304703
625.000000	1875.000000	16.583457
626.000000	1874.000000	16.854037
627.000000	1873.000000	17.109275
628.000000	1872.000000	17.347559
629.000000	1871.000000	17.555969
630.000000	1870.000000	17.750854
631.000000	1869.000000	17.945236
632.000000	1868.000000	18.114184
633.000000	1867.000000	18.253763
634.000000	1866.000000	18.361550
635.000000	1865.000000	18.484981
636.000000	1864.000000	18.594283
637.000000	1863.000000	18.698336
638.000000	1862.000000	18.804711
639.000000	1861.000000	18.898066
640.000000	1860.000000	18.998184
641.000000	1859.000000	19.052380
642.000000	1858.000000	19.088411
643.000000	1857.000000	19.137056
644.000000	1856.000000	19.172885
645.000000	1855.000000	19.201043
646.000000	1854.000000	19.202859
647.000000	1853.000000	19.195492
648.000000	1852.000000	19.187317
649.000000	1851.000000	19.191152
650.000000	1850.000000	19.230412
651.000000	1849.000000	19.251606
652.000000	1848.000000	19.211943
653.000000	1847.000000	19.169655
654.000000	1846.000000	19.116670
655.000000	1845.000000	19.086897
656.000000	1844.000000	19.082759
657.000000	1843.000000	19.108596
658.000000	1842.000000	19.137561
659.000000	1841.000000	19.122624
660.000000	1840.000000	19.084172
661.000000	1839.000000	19.057730
662.000000	1838.000000	19.049958
663.000000	1837.000000	19.039260
664.000000	1836.000000	18.991119
665.000000	1835.000000	18.933794
666.000000	1834.000000	18.885855
667.000000	1833.000000	18.854972
668.000000	1832.000000	18.834383
669.000000	1831.000000	18.813189
670.000000	1830.000000	18.766965
671.000000	1829.000000	18.715594
672.000000	1828.000000	18.655241
673.000000	1827.000000	18.602962
674.000000	1826.000000	18.560271
675.000000	1825.000000	18.528783
676.000000	1824.000000	18.500827
677.000000	1823.000000	18.484981
678.000000	1822.000000	18.502038
679.000000	1821.000000	18.498001
680.000000	1820.000000	18.449254
681.000000	1819.000000	18.403737
682.000000	1818.000000	18.393443
683.000000	1817.000000	18.409893
684.000000	1816.000000	18.412517
685.000000	1815.000000	18.407471
686.000000	1814.000000	18.412416
687.000000	1813.000000	18.406159
688.000000	1812.000000	18.399195
689.000000	1811.000000	18.381836
690.000000	1810.000000	18.343384
691.000000	1809.000000	18.330163
692.000000	1808.000000	18.305032
693.000000	1807.000000	18.276471
694.000000	1806.000000	18.255377
695.000000	1805.000000	18.224393
696.000000	1804.000000	18.183216
697.000000	1803.000000	18.164848
698.000000	1802.000000	18.142039
699.000000	1801.000000	18.109642
700.000000	1800.000000	18.052418
701.000000	1799.000000	18.000139
702.000000	1798.000000	17.981468
703.000000	1797.000000	17.969155
704.000000	1796.000000	17.928179
705.000000	1795.000000	17.880745
706.000000	1794.000000	17.848852
707.000000	1793.000000	17.814841
708.000000	1792.000000	17.774269
709.000000	1791.000000	17.745505
710.000000	1790.000000	17.709374
711.000000	1789.000000	17.653967
712.000000	1788.000000	17.609358
713.000000	1787.000000	17.587154
714.000000	1786.000000	17.543252
715.000000	1785.000000	17.488551
716.000000	1784.000000	17.432033
717.000000	1783.000000	17.366836
718.000000	1782.000000	17.307996
719.000000	1781.000000	17.273682
720.000000	1780.000000	17.229780
721.000000	1779.000000	17.164683
722.000000	1778.000000	17.096155
723.000000	1777.000000	17.048317
724.000000	1776.000000	16.987762
725.000000	1775.000000	16.917821
726.000000	1774.000000	16.843944
727.000000	1773.000000	16.758360
728.000000	1772.000000	16.689630
729.000000	1771.000000	16.593247
730.000000	1770.000000	16.535821
731.000000	1769.000000	16.453163
732.000000	1768.000000	16.401591
733.000000	1767.000000	16.336292
734.000000	1766.000000	16.268168
735.000000	1765.000000	16.224468
736.000000	1764.000000	16.181575
737.000000	1763.000000	16.164922
738.000000	1762.000000	16.162904
739.000000	1761.000000	16.190456
740.000000	1760.000000	16.198429
741.000000	1759.000000	16.240414
742.000000	1758.000000	16.291986
743.000000	1757.000000	16.338311
744.000000	1756.000000	16.368286
745.000000	1755.000000	16.405729
746.000000	1754.000000	16.434694
747.000000	1753.000000	16.433079
748.000000	1752.000000	16.432171
749.000000	1751.000000	16.409160
750.000000	1750.000000	16.395939
751.000000	1749.000000	16.389177
752.000000	1748.000000	16.345578
753.000000	1747.000000	16.310052
754.000000	1746.000000	16.243845
755.000000	1745.000000	16.180465
756.000000	1744.000000	16.114359
757.000000	1743.000000	16.004553
758.000000	1742.000000	15.915537
759.000000	1741.000000	15.779692
760.000000	1740.000000	15.647884
761.000000	1739.000000	15.513654
762.000000	1738.000000	15.378516
763.000000	1737.000000	15.277490
764.000000	1736.000000	15.197962
765.000000	1735.000000	15.112378
766.000000	1734.000000	15.065447
767.000000	1733.000000	15.041226
768.000000	1732.000000	15.053841
769.000000	1731.000000	15.112680
770.000000	1730.000000	15.134379
771.000000	1729.000000	15.210375
772.000000	1728.000000	15.263159
773.000000	1727.000000	15.353487
774.000000	1726.000000	15.405665
775.000000	1725.000000	15.458852
776.000000	1724.000000	15.507094
777.000000	1723.000000	15.542216
778.000000	1722.000000	15.558768
779.000000	1721.000000	15.601358
780.000000	1720.000000	15.601156
781.000000	1719.000000	15.629920
782.000000	1718.000000	15.673015
783.000000	1717.000000	15.724285
784.000000	1716.000000	15.761122
785.000000	1715.000000	15.825613
786.000000	1714.000000	15.884351
787.000000	1713.000000	15.927143
788.000000	1712.000000	15.971449
789.000000	1711.000000	16.002130
790.000000	1710.000000	16.038262
791.000000	1709.000000	16.030793
792.000000	1708.000000	16.052492
793.000000	1707.000000	16.045124
794.000000	1706.000000	16.010104
795.000000	1705.000000	16.003947
796.000000	1704.000000	15.977909
797.000000	1703.000000	15.940365
798.000000	1702.000000	15.886874
799.000000	1701.000000	15.834696
800.000000	1700.000000	15.737607
801.000000	1699.000000	15.648086
802.000000	1698.000000	15.571484
803.000000	1697.000000	15.506287
804.000000	1696.000000	15.434025
805.000000	1695.000000	15.448053
806.000000	1694.000000	15.459357
807.000000	1693.000000	15.516480
808.000000	1692.000000	15.592174
809.000000	1691.000000	15.672510
810.000000	1690.000000	15.758397
811.000000	1689.000000	15.879305
812.000000	1688.000000	15.916243
813.000000	1687.000000	15.947026
814.000000	1686.000000	15.996882
815.000000	1685.000000	16.025040
816.000000	1684.000000	16.059254
817.000000	1683.000000	16.186722
818.000000	1682.000000	16.334779
819.000000	1681.000000	16.577604
820.000000	1680.000000	16.876139
821.000000	1679.000000	17.209797
822.000000	1678.000000	17.556372
823.000000	1677.000000	17.876203
824.000000	1676.000000	18.172417
825.000000	1675.000000	18.447841
826.000000	1674.000000	18.674316
827.000000	1673.000000	18.898369
828.000000	1672.000000	19.081245
829.000000	1671.000000	19.249588
830.000000	1670.000000	19.400066
831.000000	1669.000000	19.507148
832.000000	1668.000000	19.642791
833.000000	1667.000000	19.718989
834.000000	1666.000000	19.773791
835.000000	1665.000000	19.844337
836.000000	1664.000000	19.906709
837.000000	1663.000000	19.958786
838.000000	1662.000000	20.008138
839.000000	1661.000000	20.039324
840.000000	1660.000000	20.055775
841.000000	1659.000000	20.093723
842.000000	1658.000000	20.096447
843.000000	1657.000000	20.106641
844.000000	1656.000000	20.115926
845.000000	1655.000000	20.121578
846.000000	1654.000000	20.119055
847.000000	1653.000000	20.095035
848.000000	1652.000000	20.080501
849.000000	1651.000000	20.063041
850.000000	1650.000000	20.030039
851.000000	1649.000000	20.023983
852.000000	1648.000000	19.986641
853.000000	1647.000000	19.956768
854.000000	1646.000000	19.917205
855.000000	1645.000000	19.875523
856.000000	1644.000000	19.815776
857.000000	1643.000000	19.776415
858.000000	1642.000000	19.737559
859.000000	1641.000000	19.681949
860.000000	1640.000000	19.655305
861.000000	1639.000000	19.620486
862.000000	1638.000000	19.564877
863.000000	1637.000000	19.521883
864.000000	1636.000000	19.474549
865.000000	1635.000000	19.418435
866.000000	1634.000000	19.364137
867.000000	1633.000000	19.327905
868.000000	1632.000000	19.273910
869.000000	1631.000000	19.212144
870.000000	1630.000000	19.155828
871.000000	1629.000000	19.101026
872.000000	1628.000000	19.051674
873.000000	1627.000000	19.002423
874.000000	1626.000000	18.945905
875.000000	1625.000000	18.892314
876.000000	1624.000000	18.832667
877.000000	1623.000000	18.781397
878.000000	1622.000000	18.724173
879.000000	1621.000000	18.683299
880.000000	1620.000000	18.642727
881.000000	1619.000000	18.579447
882.000000	1618.000000	18.545637
883.000000	1617.000000	18.507084
884.000000	1616.000000	18.467521
885.000000	1615.000000	18.440373
886.000000	1614.000000	18.381130
887.000000	1613.000000	18.346412
888.000000	1612.000000	18.295949
889.000000	1611.000000	18.256387
890.000000	1610.000000	18.207337
891.000000	1609.000000	18.167775
892.000000	1608.000000	18.127506
893.000000	1607.000000	18.096320
894.000000	1606.000000	18.060492
895.000000	1605.000000	18.007607
896.000000	1604.000000	17.984293
897.000000	1603.000000	17.954722
898.000000	1602.000000	17.908398
899.000000	1601.000000	17.876607
900.000000	1600.000000	17.846026
901.000000	1599.000000	17.805051
902.000000	1598.000000	17.762864
903.000000	1597.000000	17.735312
904.000000	1596.000000	17.702410
905.000000	1595.000000	17.666481
906.000000	1594.000000	17.649627
907.000000	1593.000000	17.629946
908.000000	1592.000000	17.599467
909.000000	1591.000000	17.578979
910.000000	1590.000000	17.559703
911.000000	1589.000000	17.527508
912.000000	1588.000000	17.506717
913.000000	1587.000000	17.500965
914.000000	1586.000000	17.483908
915.000000	1585.000000	17.467962
916.000000	1584.000000	17.443135
917.000000	1583.000000	17.426078
918.000000	1582.000000	17.405793
919.000000	1581.000000	17.400443
920.000000	1580.000000	17.397315
921.000000	1579.000000	17.384800
922.000000	1578.000000	17.384296
923.000000	1577.000000	17.383185
924.000000	1576.000000	17.372285
925.000000	1575.000000	17.371781
926.000000	1574.000000	17.371175
927.000000	1573.000000	17.361487
928.000000	1572.000000	17.372487
929.000000	1571.000000	17.389947
930.000000	1570.000000	17.379956
931.000000	1569.000000	17.381369
932.000000	1568.000000	17.404682
933.000000	1567.000000	17.410435
934.000000	1566.000000	17.418711
935.000000	1565.000000	17.434152
936.000000	1564.000000	17.435666
937.000000	1563.000000	17.433749
938.000000	1562.000000	17.441217
939.000000	1561.000000	17.440511
940.000000	1560.000000	17.447273
941.000000	1559.000000	17.442327
942.000000	1558.000000	17.428904
943.000000	1557.000000	17.428702
944.000000	1556.000000	17.419720
945.000000	1555.000000	17.411747
946.000000	1554.000000	17.396205
947.000000	1553.000000	17.372992
948.000000	1552.000000	17.357550
949.000000	1551.000000	17.346550
950.000000	1550.000000	17.335246
951.000000	1549.000000	17.303354
952.000000	1548.000000	17.277113
953.000000	1547.000000	17.266012
954.000000	1546.000000	17.246029
955.000000	1545.000000	17.225339
956.000000	1544.000000	17.210907
957.000000	1543.000000	17.193245
958.000000	1542.000000	17.175583
959.000000	1541.000000	17.161353
960.000000	1540.000000	17.146113
961.000000	1539.000000	17.142379
962.000000	1538.000000	17.120983
963.000000	1537.000000	17.100495
964.000000	1536.000000	17.088889
965.000000	1535.000000	17.059822
966.000000	1534.000000	17.045491
967.000000	1533.000000	17.034490
968.000000	1532.000000	17.013599
969.000000	1531.000000	16.989377
970.000000	1530.000000	16.959907
971.000000	1529.000000	16.934575
972.000000	1528.000000	16.907022
973.000000	1527.000000	16.876341
974.000000	1526.000000	16.864028
975.000000	1525.000000	16.830622
976.000000	1524.000000	16.803675
977.000000	1523.000000	16.798629
978.000000	1522.000000	16.763003
979.000000	1521.000000	16.746249
980.000000	1520.000000	16.708301
981.000000	1519.000000	16.678730
982.000000	1518.000000	16.658041
983.000000	1517.000000	16.622717
984.000000	1516.000000	16.595366
985.000000	1515.000000	16.573869
986.000000	1514.000000	16.542482
987.000000	1513.000000	16.526838
988.000000	1512.000000	16.506452
989.000000	1511.000000	16.463660
990.000000	1510.000000	16.443777
991.000000	1509.000000	16.409665
992.000000	1508.000000	16.390186
993.000000	1507.000000	16.359404
994.000000	1506.000000	16.319337
995.000000	1505.000000	16.302987
996.000000	1504.000000	16.286537
997.000000	1503.000000	16.256057
998.000000	1502.000000	16.235670
999.000000	1501.000000	16.227193
1000.000000	1500.000000	16.198732
1001.000000	1499.000000	16.174712
1002.000000	1498.000000	16.148774
1003.000000	1497.000000	16.134140
1004.000000	1496.000000	16.133535
1005.000000	1495.000000	16.129296
1006.000000	1494.000000	16.104771
1007.000000	1493.000000	16.075503
1008.000000	1492.000000	16.066319
1009.000000	1491.000000	16.054813
1010.000000	1490.000000	16.055923
1011.000000	1489.000000	16.064502
1012.000000	1488.000000	16.063190
1013.000000	1487.000000	16.044115
1014.000000	1486.000000	16.030591
1015.000000	1485.000000	16.014645
1016.000000	1484.000000	16.003745
1017.000000	1483.000000	15.992341
1018.000000	1482.000000	16.006975
1019.000000	1481.000000	16.007883
1020.000000	1480.000000	15.985478
1021.000000	1479.000000	16.002736
1022.000000	1478.000000	16.001727
1023.000000	1477.000000	16.003543
1024.000000	1476.000000	16.003342
1025.000000	1475.000000	16.000919
1026.000000	1474.000000	16.017572
1027.000000	1473.000000	16.018077
1028.000000	1472.000000	16.027059
1029.000000	1471.000000	16.012627
1030.000000	1470.000000	16.006773
1031.000000	1469.000000	16.022013
1032.000000	1468.000000	16.031500
1033.000000	1467.000000	16.041390
1034.000000	1466.000000	16.034931
1035.000000	1465.000000	16.047042
1036.000000	1464.000000	16.036849
1037.000000	1463.000000	16.038564
1038.000000	1462.000000	16.078430
1039.000000	1461.000000	16.104670
1040.000000	1460.000000	16.107092
1041.000000	1459.000000	16.108001
1042.000000	1458.000000	16.127479
1043.000000	1457.000000	16.144334
1044.000000	1456.000000	16.172794
1045.000000	1455.000000	16.205898
1046.000000	1454.000000	16.247983
1047.000000	1453.000000	16.287243
1048.000000	1452.000000	16.342146
1049.000000	1451.000000	16.354257
1050.000000	1450.000000	16.411683
1051.000000	1449.000000	16.402600
1052.000000	1448.000000	16.464871
1053.000000	1447.000000	16.503929
1054.000000	1446.000000	16.581338
1055.000000	1445.000000	16.622414
1056.000000	1444.000000	16.648756
1057.000000	1443.000000	16.702649
1058.000000	1442.000000	16.768049
1059.000000	1441.000000	16.826585
1060.000000	1440.000000	16.861000
1061.000000	1439.000000	16.948502
1062.000000	1438.000000	17.000075
1063.000000	1437.000000	17.068502
1064.000000	1436.000000	17.148535
1065.000000	1435.000000	17.188703
1066.000000	1434.000000	17.285692
1067.000000	1433.000000	17.365221
1068.000000	1432.000000	17.410132
1069.000000	1431.000000	17.492487
1070.000000	1430.000000	17.568483
1071.000000	1429.000000	17.668298
1072.000000	1428.000000	17.764984
1073.000000	1427.000000	17.866110
1074.000000	1426.000000	18.005992
1075.000000	1425.000000	18.122964
1076.000000	1424.000000	18.256589
1077.000000	1423.000000	18.408278
1078.000000	1422.000000	18.495074
1079.000000	1421.000000	18.631726
1080.000000	1420.000000	18.824896
1081.000000	1419.000000	18.972347
1082.000000	1418.000000	19.114247
1083.000000	1417.000000	19.252514
1084.000000	1416.000000	19.422371
1085.000000	1415.000000	19.612008
