PE UV       SUBTECH     SPECTRUM    ASCII       PEDS        4.00        
   -1
CICIMAUCR0001-3.Sample.ASC
24/04/04
15:45:00.00
24/04/04
15:45:00.00
Vinicio Soto Monge
C. kalinini
250,000000
1
Lambda 1050
1050L1511233
PerkinElmer UV WinLab 6.3.2.0749 / 2.02.05 Lambda 900 UV/VIS/NIR, Aug  7 2015 09:38:08

0
0
3350/servo 860,8/2
0
0
UV/VIS
1
1
1
DoubleDePol,CommonBeamDepol,RBeamAtt,SBeamAtt,60mm sphere, WB InGaAs Detector
0
0
0
0
Program
Program
3350/servo 860,8/2
3350/0,2 860,8/0,2
3350/0,2 860,8/0,2
0
15.00
 
 
 
0
 
860,8
319,2
860,8
Front
100
on
S:100 R:100
0
0
0
0
 
0
 
 
 
0
 
 
0
0
0
0
0
 
 
 
 
0
0


0
0
#HDR
-1
-1
#GR
nm
%R
1.0
0.0
2500,000000
-1,000000
2251
8
73,921900
4,917300
#DATA
250.000000	2250.000000	4.749433
251.000000	2249.000000	4.757000
252.000000	2248.000000	4.745167
253.000000	2247.000000	4.716467
254.000000	2246.000000	4.745367
255.000000	2245.000000	4.728367
256.000000	2244.000000	4.715733
257.000000	2243.000000	4.704733
258.000000	2242.000000	4.679467
259.000000	2241.000000	4.688900
260.000000	2240.000000	4.675833
261.000000	2239.000000	4.657533
262.000000	2238.000000	4.624933
263.000000	2237.000000	4.631867
264.000000	2236.000000	4.577233
265.000000	2235.000000	4.596900
266.000000	2234.000000	4.560500
267.000000	2233.000000	4.520867
268.000000	2232.000000	4.524200
269.000000	2231.000000	4.515100
270.000000	2230.000000	4.502033
271.000000	2229.000000	4.481000
272.000000	2228.000000	4.457500
273.000000	2227.000000	4.461300
274.000000	2226.000000	4.458167
275.000000	2225.000000	4.423300
276.000000	2224.000000	4.446500
277.000000	2223.000000	4.400433
278.000000	2222.000000	4.401967
279.000000	2221.000000	4.412267
280.000000	2220.000000	4.406200
281.000000	2219.000000	4.390633
282.000000	2218.000000	4.366300
283.000000	2217.000000	4.394600
284.000000	2216.000000	4.401667
285.000000	2215.000000	4.374800
286.000000	2214.000000	4.395267
287.000000	2213.000000	4.370200
288.000000	2212.000000	4.388300
289.000000	2211.000000	4.386500
290.000000	2210.000000	4.376967
291.000000	2209.000000	4.377567
292.000000	2208.000000	4.413800
293.000000	2207.000000	4.403867
294.000000	2206.000000	4.410067
295.000000	2205.000000	4.368467
296.000000	2204.000000	4.387067
297.000000	2203.000000	4.370167
298.000000	2202.000000	4.385167
299.000000	2201.000000	4.361300
300.000000	2200.000000	4.377300
301.000000	2199.000000	4.384500
302.000000	2198.000000	4.378100
303.000000	2197.000000	4.380733
304.000000	2196.000000	4.382933
305.000000	2195.000000	4.321667
306.000000	2194.000000	4.354500
307.000000	2193.000000	4.356800
308.000000	2192.000000	4.394267
309.000000	2191.000000	4.371600
310.000000	2190.000000	4.340200
311.000000	2189.000000	4.358867
312.000000	2188.000000	4.386733
313.000000	2187.000000	4.370067
314.000000	2186.000000	4.353033
315.000000	2185.000000	4.361133
316.000000	2184.000000	4.388967
317.000000	2183.000000	4.743700
318.000000	2182.000000	4.736767
319.000000	2181.000000	4.799800
320.000000	2180.000000	4.783167
321.000000	2179.000000	4.712333
322.000000	2178.000000	4.742867
323.000000	2177.000000	4.691400
324.000000	2176.000000	4.641167
325.000000	2175.000000	4.602767
326.000000	2174.000000	4.688500
327.000000	2173.000000	4.620967
328.000000	2172.000000	4.645700
329.000000	2171.000000	4.571800
330.000000	2170.000000	4.599767
331.000000	2169.000000	4.495100
332.000000	2168.000000	4.557700
333.000000	2167.000000	4.615133
334.000000	2166.000000	4.588633
335.000000	2165.000000	4.552200
336.000000	2164.000000	4.542667
337.000000	2163.000000	4.627633
338.000000	2162.000000	4.538767
339.000000	2161.000000	4.582900
340.000000	2160.000000	4.584367
341.000000	2159.000000	4.574067
342.000000	2158.000000	4.552133
343.000000	2157.000000	4.538300
344.000000	2156.000000	4.565967
345.000000	2155.000000	4.638400
346.000000	2154.000000	4.583300
347.000000	2153.000000	4.556633
348.000000	2152.000000	4.558933
349.000000	2151.000000	4.602933
350.000000	2150.000000	4.612267
351.000000	2149.000000	4.634967
352.000000	2148.000000	4.635233
353.000000	2147.000000	4.645733
354.000000	2146.000000	4.653067
355.000000	2145.000000	4.655433
356.000000	2144.000000	4.646300
357.000000	2143.000000	4.668167
358.000000	2142.000000	4.704433
359.000000	2141.000000	4.713167
360.000000	2140.000000	4.694067
361.000000	2139.000000	4.704533
362.000000	2138.000000	4.723867
363.000000	2137.000000	4.732700
364.000000	2136.000000	4.708800
365.000000	2135.000000	4.701900
366.000000	2134.000000	4.690567
367.000000	2133.000000	4.764400
368.000000	2132.000000	4.726367
369.000000	2131.000000	4.715467
370.000000	2130.000000	4.772967
371.000000	2129.000000	4.770933
372.000000	2128.000000	4.732567
373.000000	2127.000000	4.673333
374.000000	2126.000000	4.654367
375.000000	2125.000000	4.727967
376.000000	2124.000000	4.843567
377.000000	2123.000000	4.765000
378.000000	2122.000000	4.791133
379.000000	2121.000000	4.796733
380.000000	2120.000000	4.821233
381.000000	2119.000000	4.831467
382.000000	2118.000000	4.846733
383.000000	2117.000000	4.872633
384.000000	2116.000000	4.894300
385.000000	2115.000000	4.912633
386.000000	2114.000000	4.928600
387.000000	2113.000000	4.953333
388.000000	2112.000000	4.971500
389.000000	2111.000000	4.987933
390.000000	2110.000000	5.002267
391.000000	2109.000000	5.022733
392.000000	2108.000000	5.043467
393.000000	2107.000000	5.059967
394.000000	2106.000000	5.076133
395.000000	2105.000000	5.092700
396.000000	2104.000000	5.107700
397.000000	2103.000000	5.119700
398.000000	2102.000000	5.135067
399.000000	2101.000000	5.151500
400.000000	2100.000000	5.163833
401.000000	2099.000000	5.187633
402.000000	2098.000000	5.210133
403.000000	2097.000000	5.225733
404.000000	2096.000000	5.249667
405.000000	2095.000000	5.272933
406.000000	2094.000000	5.302733
407.000000	2093.000000	5.332133
408.000000	2092.000000	5.362300
409.000000	2091.000000	5.398267
410.000000	2090.000000	5.437167
411.000000	2089.000000	5.475233
412.000000	2088.000000	5.522800
413.000000	2087.000000	5.572433
414.000000	2086.000000	5.623400
415.000000	2085.000000	5.688600
416.000000	2084.000000	5.757200
417.000000	2083.000000	5.823867
418.000000	2082.000000	5.896200
419.000000	2081.000000	5.977267
420.000000	2080.000000	6.066867
421.000000	2079.000000	6.165933
422.000000	2078.000000	6.272833
423.000000	2077.000000	6.388467
424.000000	2076.000000	6.514100
425.000000	2075.000000	6.645033
426.000000	2074.000000	6.790100
427.000000	2073.000000	6.945333
428.000000	2072.000000	7.115700
429.000000	2071.000000	7.301500
430.000000	2070.000000	7.498467
431.000000	2069.000000	7.709033
432.000000	2068.000000	7.930000
433.000000	2067.000000	8.159300
434.000000	2066.000000	8.407800
435.000000	2065.000000	8.668767
436.000000	2064.000000	8.935433
437.000000	2063.000000	9.204267
438.000000	2062.000000	9.484700
439.000000	2061.000000	9.784533
440.000000	2060.000000	10.091967
441.000000	2059.000000	10.399133
442.000000	2058.000000	10.715200
443.000000	2057.000000	11.040567
444.000000	2056.000000	11.369100
445.000000	2055.000000	11.690767
446.000000	2054.000000	12.009667
447.000000	2053.000000	12.333667
448.000000	2052.000000	12.654733
449.000000	2051.000000	12.965400
450.000000	2050.000000	13.281500
451.000000	2049.000000	13.598000
452.000000	2048.000000	13.898733
453.000000	2047.000000	14.191800
454.000000	2046.000000	14.482933
455.000000	2045.000000	14.764633
456.000000	2044.000000	15.043600
457.000000	2043.000000	15.314333
458.000000	2042.000000	15.566867
459.000000	2041.000000	15.818633
460.000000	2040.000000	16.067367
461.000000	2039.000000	16.305800
462.000000	2038.000000	16.536900
463.000000	2037.000000	16.761967
464.000000	2036.000000	16.976800
465.000000	2035.000000	17.181300
466.000000	2034.000000	17.381267
467.000000	2033.000000	17.580100
468.000000	2032.000000	17.769333
469.000000	2031.000000	17.951300
470.000000	2030.000000	18.122467
471.000000	2029.000000	18.295667
472.000000	2028.000000	18.464900
473.000000	2027.000000	18.627733
474.000000	2026.000000	18.787267
475.000000	2025.000000	18.941367
476.000000	2024.000000	19.092000
477.000000	2023.000000	19.237100
478.000000	2022.000000	19.380233
479.000000	2021.000000	19.517800
480.000000	2020.000000	19.662333
481.000000	2019.000000	19.786233
482.000000	2018.000000	19.908033
483.000000	2017.000000	20.026833
484.000000	2016.000000	20.134767
485.000000	2015.000000	20.231267
486.000000	2014.000000	20.322400
487.000000	2013.000000	20.427500
488.000000	2012.000000	20.532000
489.000000	2011.000000	20.636400
490.000000	2010.000000	20.734967
491.000000	2009.000000	20.839733
492.000000	2008.000000	20.950500
493.000000	2007.000000	21.047400
494.000000	2006.000000	21.147767
495.000000	2005.000000	21.262600
496.000000	2004.000000	21.373033
497.000000	2003.000000	21.491500
498.000000	2002.000000	21.600700
499.000000	2001.000000	21.724800
500.000000	2000.000000	21.873033
501.000000	1999.000000	22.013600
502.000000	1998.000000	22.173967
503.000000	1997.000000	22.340667
504.000000	1996.000000	22.524500
505.000000	1995.000000	22.713100
506.000000	1994.000000	22.918733
507.000000	1993.000000	23.128933
508.000000	1992.000000	23.374300
509.000000	1991.000000	23.635333
510.000000	1990.000000	23.914000
511.000000	1989.000000	24.206633
512.000000	1988.000000	24.533600
513.000000	1987.000000	24.875467
514.000000	1986.000000	25.234067
515.000000	1985.000000	25.617033
516.000000	1984.000000	26.040600
517.000000	1983.000000	26.465867
518.000000	1982.000000	26.920100
519.000000	1981.000000	27.403400
520.000000	1980.000000	27.917533
521.000000	1979.000000	28.460300
522.000000	1978.000000	29.026367
523.000000	1977.000000	29.642567
524.000000	1976.000000	30.288000
525.000000	1975.000000	30.947933
526.000000	1974.000000	31.617433
527.000000	1973.000000	32.320333
528.000000	1972.000000	33.028400
529.000000	1971.000000	33.755067
530.000000	1970.000000	34.488600
531.000000	1969.000000	35.231333
532.000000	1968.000000	35.941833
533.000000	1967.000000	36.652467
534.000000	1966.000000	37.332500
535.000000	1965.000000	38.012733
536.000000	1964.000000	38.640233
537.000000	1963.000000	39.256433
538.000000	1962.000000	39.833933
539.000000	1961.000000	40.387300
540.000000	1960.000000	40.923800
541.000000	1959.000000	41.433233
542.000000	1958.000000	41.903733
543.000000	1957.000000	42.353133
544.000000	1956.000000	42.784933
545.000000	1955.000000	43.188867
546.000000	1954.000000	43.584767
547.000000	1953.000000	43.957233
548.000000	1952.000000	44.308233
549.000000	1951.000000	44.644933
550.000000	1950.000000	44.969300
551.000000	1949.000000	45.265667
552.000000	1948.000000	45.551833
553.000000	1947.000000	45.834433
554.000000	1946.000000	46.072433
555.000000	1945.000000	46.330767
556.000000	1944.000000	46.570533
557.000000	1943.000000	46.779200
558.000000	1942.000000	46.981333
559.000000	1941.000000	47.137933
560.000000	1940.000000	47.163000
561.000000	1939.000000	47.299533
562.000000	1938.000000	47.449067
563.000000	1937.000000	47.600533
564.000000	1936.000000	47.707433
565.000000	1935.000000	47.838200
566.000000	1934.000000	47.951933
567.000000	1933.000000	48.059100
568.000000	1932.000000	48.152533
569.000000	1931.000000	48.242500
570.000000	1930.000000	48.318667
571.000000	1929.000000	48.373300
572.000000	1928.000000	48.422933
573.000000	1927.000000	48.486167
574.000000	1926.000000	48.509133
575.000000	1925.000000	48.567833
576.000000	1924.000000	48.585200
577.000000	1923.000000	48.594267
578.000000	1922.000000	48.617033
579.000000	1921.000000	48.595100
580.000000	1920.000000	48.562533
581.000000	1919.000000	48.522067
582.000000	1918.000000	48.457833
583.000000	1917.000000	48.341400
584.000000	1916.000000	48.266867
585.000000	1915.000000	48.122533
586.000000	1914.000000	47.987000
587.000000	1913.000000	47.833733
588.000000	1912.000000	47.653233
589.000000	1911.000000	47.475100
590.000000	1910.000000	47.251167
591.000000	1909.000000	47.014867
592.000000	1908.000000	46.745233
593.000000	1907.000000	46.445767
594.000000	1906.000000	46.121433
595.000000	1905.000000	45.783800
596.000000	1904.000000	45.408000
597.000000	1903.000000	45.044400
598.000000	1902.000000	44.661000
599.000000	1901.000000	44.229633
600.000000	1900.000000	43.770400
601.000000	1899.000000	43.304300
602.000000	1898.000000	42.816633
603.000000	1897.000000	42.318400
604.000000	1896.000000	41.840567
605.000000	1895.000000	41.311067
606.000000	1894.000000	40.791400
607.000000	1893.000000	40.302700
608.000000	1892.000000	39.792200
609.000000	1891.000000	39.299200
610.000000	1890.000000	38.796000
611.000000	1889.000000	38.298700
612.000000	1888.000000	37.855567
613.000000	1887.000000	37.413033
614.000000	1886.000000	36.985467
615.000000	1885.000000	36.584633
616.000000	1884.000000	36.219200
617.000000	1883.000000	35.867567
618.000000	1882.000000	35.532600
619.000000	1881.000000	35.267967
620.000000	1880.000000	35.029400
621.000000	1879.000000	34.812667
622.000000	1878.000000	34.641500
623.000000	1877.000000	34.517233
624.000000	1876.000000	34.460933
625.000000	1875.000000	34.463767
626.000000	1874.000000	34.501333
627.000000	1873.000000	34.615267
628.000000	1872.000000	34.754967
629.000000	1871.000000	34.947100
630.000000	1870.000000	35.159700
631.000000	1869.000000	35.426533
632.000000	1868.000000	35.705933
633.000000	1867.000000	36.021133
634.000000	1866.000000	36.308600
635.000000	1865.000000	36.613567
636.000000	1864.000000	36.898767
637.000000	1863.000000	37.192033
638.000000	1862.000000	37.429733
639.000000	1861.000000	37.641367
640.000000	1860.000000	37.841667
641.000000	1859.000000	37.985667
642.000000	1858.000000	38.094633
643.000000	1857.000000	38.161367
644.000000	1856.000000	38.217633
645.000000	1855.000000	38.217833
646.000000	1854.000000	38.205500
647.000000	1853.000000	38.168233
648.000000	1852.000000	38.106167
649.000000	1851.000000	38.071467
650.000000	1850.000000	38.019600
651.000000	1849.000000	37.967500
652.000000	1848.000000	37.933467
653.000000	1847.000000	37.941000
654.000000	1846.000000	37.945433
655.000000	1845.000000	37.962867
656.000000	1844.000000	38.033967
657.000000	1843.000000	38.117400
658.000000	1842.000000	38.233100
659.000000	1841.000000	38.377867
660.000000	1840.000000	38.568767
661.000000	1839.000000	38.761700
662.000000	1838.000000	38.972833
663.000000	1837.000000	39.219733
664.000000	1836.000000	39.470467
665.000000	1835.000000	39.751267
666.000000	1834.000000	40.025467
667.000000	1833.000000	40.328133
668.000000	1832.000000	40.638400
669.000000	1831.000000	40.944100
670.000000	1830.000000	41.251200
671.000000	1829.000000	41.580367
672.000000	1828.000000	41.917433
673.000000	1827.000000	42.251667
674.000000	1826.000000	42.597100
675.000000	1825.000000	42.926600
676.000000	1824.000000	43.250500
677.000000	1823.000000	43.590300
678.000000	1822.000000	43.922333
679.000000	1821.000000	44.273200
680.000000	1820.000000	44.612033
681.000000	1819.000000	44.926300
682.000000	1818.000000	45.253533
683.000000	1817.000000	45.594400
684.000000	1816.000000	45.892267
685.000000	1815.000000	46.187900
686.000000	1814.000000	46.480067
687.000000	1813.000000	46.804100
688.000000	1812.000000	47.105800
689.000000	1811.000000	47.394067
690.000000	1810.000000	47.685133
691.000000	1809.000000	47.948967
692.000000	1808.000000	48.242233
693.000000	1807.000000	48.541967
694.000000	1806.000000	48.778800
695.000000	1805.000000	49.014367
696.000000	1804.000000	49.259900
697.000000	1803.000000	49.515967
698.000000	1802.000000	49.764567
699.000000	1801.000000	49.989867
700.000000	1800.000000	50.238867
701.000000	1799.000000	50.496067
702.000000	1798.000000	50.762967
703.000000	1797.000000	51.059400
704.000000	1796.000000	51.316600
705.000000	1795.000000	51.575167
706.000000	1794.000000	51.879933
707.000000	1793.000000	52.174733
708.000000	1792.000000	52.467667
709.000000	1791.000000	52.732833
710.000000	1790.000000	53.024267
711.000000	1789.000000	53.319367
712.000000	1788.000000	53.593800
713.000000	1787.000000	53.898700
714.000000	1786.000000	54.203167
715.000000	1785.000000	54.493667
716.000000	1784.000000	54.800000
717.000000	1783.000000	55.088733
718.000000	1782.000000	55.342400
719.000000	1781.000000	55.624133
720.000000	1780.000000	55.926500
721.000000	1779.000000	56.224300
722.000000	1778.000000	56.517833
723.000000	1777.000000	56.771333
724.000000	1776.000000	57.011800
725.000000	1775.000000	57.264300
726.000000	1774.000000	57.536567
727.000000	1773.000000	57.766700
728.000000	1772.000000	58.007600
729.000000	1771.000000	58.241100
730.000000	1770.000000	58.434600
731.000000	1769.000000	58.599833
732.000000	1768.000000	58.791067
733.000000	1767.000000	59.003567
734.000000	1766.000000	59.213100
735.000000	1765.000000	59.400833
736.000000	1764.000000	59.571200
737.000000	1763.000000	59.740300
738.000000	1762.000000	59.857967
739.000000	1761.000000	60.010167
740.000000	1760.000000	60.191500
741.000000	1759.000000	60.357367
742.000000	1758.000000	60.475800
743.000000	1757.000000	60.572933
744.000000	1756.000000	60.759567
745.000000	1755.000000	60.924567
746.000000	1754.000000	61.018867
747.000000	1753.000000	61.107233
748.000000	1752.000000	61.221533
749.000000	1751.000000	61.373400
750.000000	1750.000000	61.537167
751.000000	1749.000000	61.651867
752.000000	1748.000000	61.754100
753.000000	1747.000000	61.867200
754.000000	1746.000000	62.007300
755.000000	1745.000000	62.112567
756.000000	1744.000000	62.173633
757.000000	1743.000000	62.279400
758.000000	1742.000000	62.402900
759.000000	1741.000000	62.497600
760.000000	1740.000000	62.573367
761.000000	1739.000000	62.626533
762.000000	1738.000000	62.693867
763.000000	1737.000000	62.809200
764.000000	1736.000000	62.853200
765.000000	1735.000000	62.819233
766.000000	1734.000000	62.871967
767.000000	1733.000000	62.912733
768.000000	1732.000000	62.897700
769.000000	1731.000000	62.903800
770.000000	1730.000000	62.933333
771.000000	1729.000000	62.962833
772.000000	1728.000000	62.974567
773.000000	1727.000000	62.959333
774.000000	1726.000000	63.001367
775.000000	1725.000000	62.996033
776.000000	1724.000000	62.940433
777.000000	1723.000000	63.006667
778.000000	1722.000000	63.008633
779.000000	1721.000000	62.988733
780.000000	1720.000000	62.985800
781.000000	1719.000000	62.943033
782.000000	1718.000000	62.944767
783.000000	1717.000000	62.964467
784.000000	1716.000000	62.948033
785.000000	1715.000000	62.958233
786.000000	1714.000000	62.945533
787.000000	1713.000000	62.855433
788.000000	1712.000000	62.848833
789.000000	1711.000000	62.822833
790.000000	1710.000000	62.803500
791.000000	1709.000000	62.778633
792.000000	1708.000000	62.675367
793.000000	1707.000000	62.598800
794.000000	1706.000000	62.506667
795.000000	1705.000000	62.407367
796.000000	1704.000000	62.297600
797.000000	1703.000000	62.166600
798.000000	1702.000000	62.091433
799.000000	1701.000000	61.972067
800.000000	1700.000000	61.849967
801.000000	1699.000000	61.690467
802.000000	1698.000000	61.506633
803.000000	1697.000000	61.322500
804.000000	1696.000000	61.216300
805.000000	1695.000000	61.094200
806.000000	1694.000000	60.918967
807.000000	1693.000000	60.690100
808.000000	1692.000000	60.460067
809.000000	1691.000000	60.282233
810.000000	1690.000000	60.081033
811.000000	1689.000000	59.878700
812.000000	1688.000000	59.571733
813.000000	1687.000000	59.390133
814.000000	1686.000000	59.213767
815.000000	1685.000000	58.921967
816.000000	1684.000000	58.681367
817.000000	1683.000000	58.387700
818.000000	1682.000000	58.147500
819.000000	1681.000000	57.879900
820.000000	1680.000000	57.621833
821.000000	1679.000000	57.253367
822.000000	1678.000000	56.982967
823.000000	1677.000000	56.645933
824.000000	1676.000000	56.366733
825.000000	1675.000000	56.115167
826.000000	1674.000000	55.819933
827.000000	1673.000000	55.545300
828.000000	1672.000000	55.237633
829.000000	1671.000000	54.901133
830.000000	1670.000000	54.600200
831.000000	1669.000000	54.401933
832.000000	1668.000000	54.030600
833.000000	1667.000000	53.759567
834.000000	1666.000000	53.500200
835.000000	1665.000000	53.213167
836.000000	1664.000000	52.879167
837.000000	1663.000000	52.753700
838.000000	1662.000000	52.507200
839.000000	1661.000000	52.189133
