PE UV       SUBTECH     SPECTRUM    ASCII       PEDS        4.00        
   -1
CICIMAUCR0116-1.ASC
24/04/03
16:59:00.00
24/04/03
16:59:00.00
Vinicio Soto Monge
C. kalinini
250,000000
1
Lambda 1050
1050L1511233
PerkinElmer UV WinLab 6.3.2.0749 / 2.02.05 Lambda 900 UV/VIS/NIR, Aug  7 2015 09:38:08

0
0
3350/servo 860,8/2
0
0
UV/VIS
1
1
1
DoubleDePol,CommonBeamDepol,RBeamAtt,SBeamAtt,60mm sphere, WB InGaAs Detector
0
0
0
0
Program
Program
3350/servo 860,8/2
3350/0,2 860,8/0,2
3350/0,2 860,8/0,2
0
15.00
 
 
 
0
 
860,8
319,2
860,8
Front
100
on
S:100 R:100
0
0
0
0
 
0
 
 
 
0
 
 
0
0
0
0
0
 
 
 
 
0
0


0
0
#HDR
-1
-1
#GR
nm
%R
1.0
0.0
2500,000000
-1,000000
2251
8
74,972100
3,970100
#DATA
501.000000	1999.000000	6.209978
502.000000	1998.000000	6.200431
503.000000	1997.000000	6.199314
504.000000	1996.000000	6.185908
505.000000	1995.000000	6.196978
506.000000	1994.000000	6.179510
507.000000	1993.000000	6.172706
508.000000	1992.000000	6.175651
509.000000	1991.000000	6.156253
510.000000	1990.000000	6.137973
511.000000	1989.000000	6.137770
512.000000	1988.000000	6.129950
513.000000	1987.000000	6.114208
514.000000	1986.000000	6.119997
515.000000	1985.000000	6.112482
516.000000	1984.000000	6.116443
517.000000	1983.000000	6.068101
518.000000	1982.000000	6.055406
519.000000	1981.000000	6.037227
520.000000	1980.000000	6.026462
521.000000	1979.000000	6.019962
522.000000	1978.000000	6.031134
523.000000	1977.000000	5.996096
524.000000	1976.000000	5.982691
525.000000	1975.000000	5.977511
526.000000	1974.000000	5.939224
527.000000	1973.000000	5.930997
528.000000	1972.000000	5.909061
529.000000	1971.000000	5.907639
530.000000	1970.000000	5.873515
531.000000	1969.000000	5.869859
532.000000	1968.000000	5.842439
533.000000	1967.000000	5.833705
534.000000	1966.000000	5.812479
535.000000	1965.000000	5.797347
536.000000	1964.000000	5.792269
537.000000	1963.000000	5.760481
538.000000	1962.000000	5.748599
539.000000	1961.000000	5.719960
540.000000	1960.000000	5.710413
541.000000	1959.000000	5.664712
542.000000	1958.000000	5.654150
543.000000	1957.000000	5.639018
544.000000	1956.000000	5.628963
545.000000	1955.000000	5.619417
546.000000	1954.000000	5.589051
547.000000	1953.000000	5.565083
548.000000	1952.000000	5.539084
549.000000	1951.000000	5.530858
550.000000	1950.000000	5.513187
551.000000	1949.000000	5.482720
552.000000	1948.000000	5.477946
553.000000	1947.000000	5.430620
554.000000	1946.000000	5.419957
555.000000	1945.000000	5.396090
556.000000	1944.000000	5.389388
557.000000	1943.000000	5.385528
558.000000	1942.000000	5.361764
559.000000	1941.000000	5.353030
560.000000	1940.000000	5.334648
561.000000	1939.000000	5.320430
562.000000	1938.000000	5.310883
563.000000	1937.000000	5.293618
564.000000	1936.000000	5.298798
565.000000	1935.000000	5.279705
566.000000	1934.000000	5.280416
567.000000	1933.000000	5.253604
568.000000	1932.000000	5.268838
569.000000	1931.000000	5.256956
570.000000	1930.000000	5.245277
571.000000	1929.000000	5.248526
572.000000	1928.000000	5.277471
573.000000	1927.000000	5.281431
574.000000	1926.000000	5.291790
575.000000	1925.000000	5.291790
576.000000	1924.000000	5.282752
577.000000	1923.000000	5.301438
578.000000	1922.000000	5.323883
579.000000	1921.000000	5.351811
580.000000	1920.000000	5.380857
581.000000	1919.000000	5.395278
582.000000	1918.000000	5.425847
583.000000	1917.000000	5.450932
584.000000	1916.000000	5.440471
585.000000	1915.000000	5.488407
586.000000	1914.000000	5.504047
587.000000	1913.000000	5.541319
588.000000	1912.000000	5.612511
589.000000	1911.000000	5.644806
590.000000	1910.000000	5.667555
591.000000	1909.000000	5.685430
592.000000	1908.000000	5.714577
593.000000	1907.000000	5.765965
594.000000	1906.000000	5.837665
595.000000	1905.000000	5.910787
596.000000	1904.000000	5.988073
597.000000	1903.000000	6.023314
598.000000	1902.000000	6.075718
599.000000	1901.000000	6.131473
600.000000	1900.000000	6.203376
601.000000	1899.000000	6.274772
602.000000	1898.000000	6.348808
603.000000	1897.000000	6.421828
604.000000	1896.000000	6.483474
605.000000	1895.000000	6.518613
606.000000	1894.000000	6.585337
607.000000	1893.000000	6.668208
608.000000	1892.000000	6.754939
609.000000	1891.000000	6.863606
610.000000	1890.000000	6.966688
611.000000	1889.000000	7.063879
612.000000	1888.000000	7.173054
613.000000	1887.000000	7.262527
614.000000	1886.000000	7.387646
615.000000	1885.000000	7.557655
616.000000	1884.000000	7.705117
617.000000	1883.000000	7.865985
618.000000	1882.000000	8.056204
619.000000	1881.000000	8.244797
620.000000	1880.000000	8.426688
621.000000	1879.000000	8.600352
622.000000	1878.000000	8.809258
623.000000	1877.000000	9.020702
624.000000	1876.000000	9.221584
625.000000	1875.000000	9.431911
626.000000	1874.000000	9.622434
627.000000	1873.000000	9.821285
628.000000	1872.000000	10.027245
629.000000	1871.000000	10.185879
630.000000	1870.000000	10.331818
631.000000	1869.000000	10.486999
632.000000	1868.000000	10.614556
633.000000	1867.000000	10.692451
634.000000	1866.000000	10.761815
635.000000	1865.000000	10.832093
636.000000	1864.000000	10.889271
637.000000	1863.000000	10.942081
638.000000	1862.000000	11.012461
639.000000	1861.000000	11.097566
640.000000	1860.000000	11.174446
641.000000	1859.000000	11.222178
642.000000	1858.000000	11.285449
643.000000	1857.000000	11.319674
644.000000	1856.000000	11.346282
645.000000	1855.000000	11.371977
646.000000	1854.000000	11.380609
647.000000	1853.000000	11.388734
648.000000	1852.000000	11.394319
649.000000	1851.000000	11.395538
650.000000	1850.000000	11.382437
651.000000	1849.000000	11.385890
652.000000	1848.000000	11.402749
653.000000	1847.000000	11.421842
654.000000	1846.000000	11.400413
655.000000	1845.000000	11.365172
656.000000	1844.000000	11.336228
657.000000	1843.000000	11.326072
658.000000	1842.000000	11.352579
659.000000	1841.000000	11.384265
660.000000	1840.000000	11.392288
661.000000	1839.000000	11.382031
662.000000	1838.000000	11.372078
663.000000	1837.000000	11.356540
664.000000	1836.000000	11.348314
665.000000	1835.000000	11.332674
666.000000	1834.000000	11.291543
667.000000	1833.000000	11.244521
668.000000	1832.000000	11.211108
669.000000	1831.000000	11.203187
670.000000	1830.000000	11.188156
671.000000	1829.000000	11.164899
672.000000	1828.000000	11.127323
673.000000	1827.000000	11.094113
674.000000	1826.000000	11.055217
675.000000	1825.000000	11.014796
676.000000	1824.000000	10.979962
677.000000	1823.000000	10.952338
678.000000	1822.000000	10.948987
679.000000	1821.000000	10.954776
680.000000	1820.000000	10.953760
681.000000	1819.000000	10.939542
682.000000	1818.000000	10.914051
683.000000	1817.000000	10.892622
684.000000	1816.000000	10.887544
685.000000	1815.000000	10.883177
686.000000	1814.000000	10.874240
687.000000	1813.000000	10.878201
688.000000	1812.000000	10.861037
689.000000	1811.000000	10.823055
690.000000	1810.000000	10.811274
691.000000	1809.000000	10.776846
692.000000	1808.000000	10.746480
693.000000	1807.000000	10.717536
694.000000	1806.000000	10.689709
695.000000	1805.000000	10.673967
696.000000	1804.000000	10.629180
697.000000	1803.000000	10.585104
698.000000	1802.000000	10.564589
699.000000	1801.000000	10.534426
700.000000	1800.000000	10.502943
701.000000	1799.000000	10.454703
702.000000	1798.000000	10.409916
703.000000	1797.000000	10.385644
704.000000	1796.000000	10.353247
705.000000	1795.000000	10.293023
706.000000	1794.000000	10.260219
707.000000	1793.000000	10.228025
708.000000	1792.000000	10.208425
709.000000	1791.000000	10.174504
710.000000	1790.000000	10.127280
711.000000	1789.000000	10.087875
712.000000	1788.000000	10.051111
713.000000	1787.000000	10.002566
714.000000	1786.000000	9.963060
715.000000	1785.000000	9.920304
716.000000	1784.000000	9.869119
717.000000	1783.000000	9.823621
718.000000	1782.000000	9.785130
719.000000	1781.000000	9.743085
720.000000	1780.000000	9.707946
721.000000	1779.000000	9.664682
722.000000	1778.000000	9.598771
723.000000	1777.000000	9.557944
724.000000	1776.000000	9.524227
725.000000	1775.000000	9.483705
726.000000	1774.000000	9.411599
727.000000	1773.000000	9.363664
728.000000	1772.000000	9.301612
729.000000	1771.000000	9.241388
730.000000	1770.000000	9.176898
731.000000	1769.000000	9.123682
732.000000	1768.000000	9.074020
733.000000	1767.000000	9.053607
734.000000	1766.000000	9.001101
735.000000	1765.000000	8.974797
736.000000	1764.000000	8.957228
737.000000	1763.000000	8.950931
738.000000	1762.000000	8.952759
739.000000	1761.000000	8.976422
740.000000	1760.000000	8.988609
741.000000	1759.000000	9.027201
742.000000	1758.000000	9.047919
743.000000	1757.000000	9.079605
744.000000	1756.000000	9.127236
745.000000	1755.000000	9.137087
746.000000	1754.000000	9.176187
747.000000	1753.000000	9.199850
748.000000	1752.000000	9.212342
749.000000	1751.000000	9.206350
750.000000	1750.000000	9.211326
751.000000	1749.000000	9.214576
752.000000	1748.000000	9.191218
753.000000	1747.000000	9.179437
754.000000	1746.000000	9.151915
755.000000	1745.000000	9.117385
756.000000	1744.000000	9.083058
757.000000	1743.000000	9.038271
758.000000	1742.000000	8.992367
759.000000	1741.000000	8.905535
760.000000	1740.000000	8.863388
761.000000	1739.000000	8.775033
762.000000	1738.000000	8.710949
763.000000	1737.000000	8.660780
764.000000	1736.000000	8.641382
765.000000	1735.000000	8.633765
766.000000	1734.000000	8.603095
767.000000	1733.000000	8.610407
768.000000	1732.000000	8.642093
769.000000	1731.000000	8.684950
770.000000	1730.000000	8.737964
771.000000	1729.000000	8.814843
772.000000	1728.000000	8.855670
773.000000	1727.000000	8.935291
774.000000	1726.000000	9.005468
775.000000	1725.000000	9.050865
776.000000	1724.000000	9.084988
777.000000	1723.000000	9.103675
778.000000	1722.000000	9.140744
779.000000	1721.000000	9.179336
780.000000	1720.000000	9.206553
781.000000	1719.000000	9.231638
782.000000	1718.000000	9.268605
783.000000	1717.000000	9.308010
784.000000	1716.000000	9.354930
785.000000	1715.000000	9.366609
786.000000	1714.000000	9.423278
787.000000	1713.000000	9.449785
788.000000	1712.000000	9.484112
789.000000	1711.000000	9.490510
790.000000	1710.000000	9.528696
791.000000	1709.000000	9.530524
792.000000	1708.000000	9.563429
793.000000	1707.000000	9.543015
794.000000	1706.000000	9.542609
795.000000	1705.000000	9.538344
796.000000	1704.000000	9.525040
797.000000	1703.000000	9.489494
798.000000	1702.000000	9.479542
799.000000	1701.000000	9.401443
800.000000	1700.000000	9.364781
801.000000	1699.000000	9.311666
802.000000	1698.000000	9.244231
803.000000	1697.000000	9.205436
804.000000	1696.000000	9.177304
805.000000	1695.000000	9.150290
806.000000	1694.000000	9.163493
807.000000	1693.000000	9.182687
808.000000	1692.000000	9.238646
809.000000	1691.000000	9.264848
810.000000	1690.000000	9.352391
811.000000	1689.000000	9.385600
812.000000	1688.000000	9.401443
813.000000	1687.000000	9.416576
814.000000	1686.000000	9.392608
815.000000	1685.000000	9.381538
816.000000	1684.000000	9.403474
817.000000	1683.000000	9.440239
818.000000	1682.000000	9.564850
819.000000	1681.000000	9.705712
820.000000	1680.000000	9.866681
821.000000	1679.000000	10.077110
822.000000	1678.000000	10.284593
823.000000	1677.000000	10.472171
824.000000	1676.000000	10.697123
825.000000	1675.000000	10.863983
826.000000	1674.000000	11.032975
827.000000	1673.000000	11.146010
828.000000	1672.000000	11.271637
829.000000	1671.000000	11.391882
830.000000	1670.000000	11.476175
831.000000	1669.000000	11.510400
832.000000	1668.000000	11.574077
833.000000	1667.000000	11.622724
834.000000	1666.000000	11.667409
835.000000	1665.000000	11.686908
836.000000	1664.000000	11.721540
837.000000	1663.000000	11.731696
838.000000	1662.000000	11.774045
839.000000	1661.000000	11.776686
840.000000	1660.000000	11.767952
841.000000	1659.000000	11.788771
842.000000	1658.000000	11.792021
843.000000	1657.000000	11.796794
844.000000	1656.000000	11.772319
845.000000	1655.000000	11.778108
846.000000	1654.000000	11.758812
847.000000	1653.000000	11.731696
848.000000	1652.000000	11.735758
849.000000	1651.000000	11.721134
850.000000	1650.000000	11.703869
851.000000	1649.000000	11.673909
852.000000	1648.000000	11.656441
853.000000	1647.000000	11.648215
854.000000	1646.000000	11.614498
855.000000	1645.000000	11.591342
856.000000	1644.000000	11.562500
857.000000	1643.000000	11.535891
858.000000	1642.000000	11.514260
859.000000	1641.000000	11.491307
860.000000	1640.000000	11.455965
861.000000	1639.000000	11.443169
862.000000	1638.000000	11.423060
863.000000	1637.000000	11.404374
864.000000	1636.000000	11.373297
865.000000	1635.000000	11.338462
866.000000	1634.000000	11.313479
867.000000	1633.000000	11.292761
868.000000	1632.000000	11.279457
869.000000	1631.000000	11.266864
870.000000	1630.000000	11.241068
871.000000	1629.000000	11.210194
872.000000	1628.000000	11.185922
873.000000	1627.000000	11.156165
874.000000	1626.000000	11.131487
875.000000	1625.000000	11.116862
876.000000	1624.000000	11.111988
877.000000	1623.000000	11.105488
878.000000	1622.000000	11.072482
879.000000	1621.000000	11.062427
880.000000	1620.000000	11.039678
881.000000	1619.000000	11.012461
882.000000	1618.000000	11.005859
883.000000	1617.000000	10.986563
884.000000	1616.000000	10.980165
885.000000	1615.000000	10.968791
886.000000	1614.000000	10.965642
887.000000	1613.000000	10.949190
888.000000	1612.000000	10.928878
889.000000	1611.000000	10.915168
890.000000	1610.000000	10.895161
891.000000	1609.000000	10.880841
892.000000	1608.000000	10.854030
893.000000	1607.000000	10.842249
894.000000	1606.000000	10.820109
895.000000	1605.000000	10.811375
896.000000	1604.000000	10.793501
897.000000	1603.000000	10.784564
898.000000	1602.000000	10.768518
899.000000	1601.000000	10.749222
900.000000	1600.000000	10.716215
901.000000	1599.000000	10.699154
902.000000	1598.000000	10.676709
903.000000	1597.000000	10.650406
904.000000	1596.000000	10.622173
905.000000	1595.000000	10.604603
906.000000	1594.000000	10.584291
907.000000	1593.000000	10.544988
908.000000	1592.000000	10.527622
909.000000	1591.000000	10.516755
910.000000	1590.000000	10.482124
911.000000	1589.000000	10.457445
912.000000	1588.000000	10.431853
913.000000	1587.000000	10.407580
914.000000	1586.000000	10.394581
915.000000	1585.000000	10.345427
916.000000	1584.000000	10.322474
917.000000	1583.000000	10.322271
918.000000	1582.000000	10.297390
919.000000	1581.000000	10.250267
920.000000	1580.000000	10.234119
921.000000	1579.000000	10.221424
922.000000	1578.000000	10.186285
923.000000	1577.000000	10.157138
924.000000	1576.000000	10.151247
925.000000	1575.000000	10.122709
926.000000	1574.000000	10.087977
927.000000	1573.000000	10.059236
928.000000	1572.000000	10.035166
929.000000	1571.000000	10.028971
930.000000	1570.000000	10.012722
931.000000	1569.000000	9.996168
932.000000	1568.000000	9.978294
933.000000	1567.000000	9.970778
934.000000	1566.000000	9.976567
935.000000	1565.000000	9.947217
936.000000	1564.000000	9.927210
937.000000	1563.000000	9.906492
938.000000	1562.000000	9.893086
939.000000	1561.000000	9.875720
940.000000	1560.000000	9.855611
941.000000	1559.000000	9.859268
942.000000	1558.000000	9.834691
943.000000	1557.000000	9.800059
944.000000	1556.000000	9.797012
945.000000	1555.000000	9.789700
946.000000	1554.000000	9.752428
947.000000	1553.000000	9.726633
948.000000	1552.000000	9.719320
949.000000	1551.000000	9.716578
950.000000	1550.000000	9.692001
951.000000	1549.000000	9.677885
952.000000	1548.000000	9.679002
953.000000	1547.000000	9.664479
954.000000	1546.000000	9.649144
955.000000	1545.000000	9.648128
956.000000	1544.000000	9.640105
957.000000	1543.000000	9.634519
958.000000	1542.000000	9.624465
959.000000	1541.000000	9.607911
960.000000	1540.000000	9.619083
961.000000	1539.000000	9.647011
962.000000	1538.000000	9.645386
963.000000	1537.000000	9.637668
964.000000	1536.000000	9.638582
965.000000	1535.000000	9.644675
966.000000	1534.000000	9.641222
967.000000	1533.000000	9.653308
968.000000	1532.000000	9.664276
969.000000	1531.000000	9.669049
970.000000	1530.000000	9.675346
971.000000	1529.000000	9.672401
972.000000	1528.000000	9.685908
973.000000	1527.000000	9.703985
974.000000	1526.000000	9.702868
975.000000	1525.000000	9.712313
976.000000	1524.000000	9.709165
977.000000	1523.000000	9.719117
978.000000	1522.000000	9.726125
979.000000	1521.000000	9.718305
980.000000	1520.000000	9.718813
981.000000	1519.000000	9.732523
982.000000	1518.000000	9.747655
983.000000	1517.000000	9.744304
984.000000	1516.000000	9.747960
985.000000	1515.000000	9.752632
986.000000	1514.000000	9.747554
987.000000	1513.000000	9.747655
988.000000	1512.000000	9.741562
989.000000	1511.000000	9.739937
990.000000	1510.000000	9.752124
991.000000	1509.000000	9.723383
992.000000	1508.000000	9.728765
993.000000	1507.000000	9.734351
994.000000	1506.000000	9.722977
995.000000	1505.000000	9.704696
996.000000	1504.000000	9.675143
997.000000	1503.000000	9.676564
998.000000	1502.000000	9.677072
999.000000	1501.000000	9.640918
1000.000000	1500.000000	9.624668
1001.000000	1499.000000	9.625074
1002.000000	1498.000000	9.601005
1003.000000	1497.000000	9.564343
1004.000000	1496.000000	9.564749
1005.000000	1495.000000	9.558960
1006.000000	1494.000000	9.544539
1007.000000	1493.000000	9.511532
1008.000000	1492.000000	9.500970
1009.000000	1491.000000	9.491525
1010.000000	1490.000000	9.465628
1011.000000	1489.000000	9.456793
1012.000000	1488.000000	9.426934
1013.000000	1487.000000	9.387428
1014.000000	1486.000000	9.385803
1015.000000	1485.000000	9.357164
1016.000000	1484.000000	9.322837
1017.000000	1483.000000	9.291253
1018.000000	1482.000000	9.291761
1019.000000	1481.000000	9.259465
1020.000000	1480.000000	9.241286
1021.000000	1479.000000	9.205944
1022.000000	1478.000000	9.201374
1023.000000	1477.000000	9.153641
1024.000000	1476.000000	9.146837
1025.000000	1475.000000	9.125814
1026.000000	1474.000000	9.107432
1027.000000	1473.000000	9.084887
1028.000000	1472.000000	9.046802
1029.000000	1471.000000	9.049443
1030.000000	1470.000000	9.030959
1031.000000	1469.000000	9.018569
1032.000000	1468.000000	9.018061
1033.000000	1467.000000	9.014710
1034.000000	1466.000000	8.995414
1035.000000	1465.000000	8.971243
1036.000000	1464.000000	8.959462
1037.000000	1463.000000	8.957431
1038.000000	1462.000000	8.959462
1039.000000	1461.000000	8.964235
1040.000000	1460.000000	8.987188
1041.000000	1459.000000	8.998460
1042.000000	1458.000000	9.009733
1043.000000	1457.000000	9.037459
1044.000000	1456.000000	9.069653
1045.000000	1455.000000	9.087324
1046.000000	1454.000000	9.110276
1047.000000	1453.000000	9.117690
1048.000000	1452.000000	9.191421
1049.000000	1451.000000	9.224326
1050.000000	1450.000000	9.250325
1051.000000	1449.000000	9.293081
1052.000000	1448.000000	9.347313
1053.000000	1447.000000	9.387530
1054.000000	1446.000000	9.457707
1055.000000	1445.000000	9.481167
1056.000000	1444.000000	9.572772
1057.000000	1443.000000	9.599380
1058.000000	1442.000000	9.673010
1059.000000	1441.000000	9.738515
1060.000000	1440.000000	9.812043
1061.000000	1439.000000	9.832355
1062.000000	1438.000000	9.937874
1063.000000	1437.000000	9.993832
1064.000000	1436.000000	10.052736
1065.000000	1435.000000	10.129412
1066.000000	1434.000000	10.203651
1067.000000	1433.000000	10.294952
1068.000000	1432.000000	10.336997
1069.000000	1431.000000	10.420681
1070.000000	1430.000000	10.506498
1071.000000	1429.000000	10.594752
1072.000000	1428.000000	10.687678
1073.000000	1427.000000	10.763135
1074.000000	1426.000000	10.860022
1075.000000	1425.000000	10.941776
1076.000000	1424.000000	11.065271
1077.000000	1423.000000	11.151595
1078.000000	1422.000000	11.258739
1079.000000	1421.000000	11.353087
1080.000000	1420.000000	11.467137
1081.000000	1419.000000	11.574890
1082.000000	1418.000000	11.681627
1083.000000	1417.000000	11.779428
1084.000000	1416.000000	11.866159
1085.000000	1415.000000	11.996153
1086.000000	1414.000000	12.107766
1087.000000	1413.000000	12.220597
1088.000000	1412.000000	12.301437
1089.000000	1411.000000	12.406143
1090.000000	1410.000000	12.527099
1091.000000	1409.000000	12.699748
1092.000000	1408.000000	12.836750
1093.000000	1407.000000	12.991017
