PE UV       SUBTECH     SPECTRUM    ASCII       PEDS        4.00        
   -1
CICIMAUCR0018-1.Sample.ASC
24/03/08
12:50:34.00
24/03/08
12:50:34.00
Vinicio Soto Monge
c. cupreomarginata
250,000000
1
Lambda 1050
1050L1511233
PerkinElmer UV WinLab 6.3.2.0749 / 2.02.05 Lambda 900 UV/VIS/NIR, Aug  7 2015 09:38:08

0
0
3350/servo 860,8/2
0
0
UV/VIS
1
1
1
DoubleDePol,CommonBeamDepol,RBeamAtt,SBeamAtt,60mm sphere, WB InGaAs Detector
0
0
0
0
Program
Program
3350/servo 860,8/2
3350/0,2 860,8/0,2
3350/0,2 860,8/0,2
0
15.00
 
 
 
0
 
860,8
319,2
860,8
Front
100
on
S:100 R:100
0
0
0
0
 
0
 
 
 
0
 
 
0
0
0
0
0
 
 
 
 
0
0


0
0
#HDR
-1
-1
#GR
nm
%R
1.0
0.0
2500,000000
-1,000000
2251
8
27,295000
2,488900
#DATA
501.000000	1999.000000	8.189416
502.000000	1998.000000	8.173321
503.000000	1997.000000	8.176184
504.000000	1996.000000	8.175987
505.000000	1995.000000	8.151795
506.000000	1994.000000	8.126320
507.000000	1993.000000	8.119112
508.000000	1992.000000	8.111607
509.000000	1991.000000	8.084453
510.000000	1990.000000	8.084552
511.000000	1989.000000	8.051967
512.000000	1988.000000	8.036663
513.000000	1987.000000	8.010002
514.000000	1986.000000	8.010694
515.000000	1985.000000	7.978208
516.000000	1984.000000	7.943056
517.000000	1983.000000	7.904349
518.000000	1982.000000	7.885983
519.000000	1981.000000	7.852016
520.000000	1980.000000	7.825356
521.000000	1979.000000	7.822295
522.000000	1978.000000	7.795734
523.000000	1977.000000	7.779046
524.000000	1976.000000	7.739747
525.000000	1975.000000	7.722566
526.000000	1974.000000	7.708545
527.000000	1973.000000	7.672998
528.000000	1972.000000	7.648806
529.000000	1971.000000	7.613358
530.000000	1970.000000	7.585809
531.000000	1969.000000	7.562408
532.000000	1968.000000	7.554015
533.000000	1967.000000	7.514222
534.000000	1966.000000	7.500299
535.000000	1965.000000	7.487167
536.000000	1964.000000	7.442634
537.000000	1963.000000	7.429897
538.000000	1962.000000	7.401657
539.000000	1961.000000	7.388326
540.000000	1960.000000	7.362259
541.000000	1959.000000	7.349027
542.000000	1958.000000	7.333327
543.000000	1957.000000	7.290671
544.000000	1956.000000	7.287610
545.000000	1955.000000	7.244855
546.000000	1954.000000	7.245941
547.000000	1953.000000	7.218491
548.000000	1952.000000	7.188276
549.000000	1951.000000	7.144435
550.000000	1950.000000	7.134067
551.000000	1949.000000	7.118269
552.000000	1948.000000	7.095163
553.000000	1947.000000	7.098520
554.000000	1946.000000	7.095064
555.000000	1945.000000	7.052211
556.000000	1944.000000	7.044706
557.000000	1943.000000	7.026834
558.000000	1942.000000	7.036313
559.000000	1941.000000	7.033055
560.000000	1940.000000	7.020811
561.000000	1939.000000	7.012813
562.000000	1938.000000	7.019626
563.000000	1937.000000	7.015578
564.000000	1936.000000	7.032166
565.000000	1935.000000	7.027920
566.000000	1934.000000	7.060505
567.000000	1933.000000	7.064060
568.000000	1932.000000	7.103655
569.000000	1931.000000	7.116491
570.000000	1930.000000	7.147496
571.000000	1929.000000	7.184425
572.000000	1928.000000	7.227575
573.000000	1927.000000	7.241399
574.000000	1926.000000	7.278822
575.000000	1925.000000	7.321182
576.000000	1924.000000	7.396522
577.000000	1923.000000	7.452212
578.000000	1922.000000	7.492499
579.000000	1921.000000	7.550954
580.000000	1920.000000	7.594597
581.000000	1919.000000	7.653842
582.000000	1918.000000	7.737575
583.000000	1917.000000	7.845598
584.000000	1916.000000	7.909582
585.000000	1915.000000	7.989958
586.000000	1914.000000	8.059669
587.000000	1913.000000	8.130368
588.000000	1912.000000	8.210151
589.000000	1911.000000	8.279270
590.000000	1910.000000	8.381961
591.000000	1909.000000	8.480900
592.000000	1908.000000	8.578457
593.000000	1907.000000	8.668410
594.000000	1906.000000	8.776038
595.000000	1905.000000	8.859080
596.000000	1904.000000	8.956735
597.000000	1903.000000	9.046985
598.000000	1902.000000	9.145924
599.000000	1901.000000	9.257699
600.000000	1900.000000	9.359403
601.000000	1899.000000	9.453404
602.000000	1898.000000	9.580880
603.000000	1897.000000	9.683274
604.000000	1896.000000	9.781818
605.000000	1895.000000	9.893989
606.000000	1894.000000	10.012182
607.000000	1893.000000	10.124846
608.000000	1892.000000	10.208875
609.000000	1891.000000	10.294286
610.000000	1890.000000	10.390362
611.000000	1889.000000	10.484561
612.000000	1888.000000	10.609173
613.000000	1887.000000	10.753039
614.000000	1886.000000	10.863333
615.000000	1885.000000	10.981329
616.000000	1884.000000	11.139612
617.000000	1883.000000	11.270444
618.000000	1882.000000	11.428726
619.000000	1881.000000	11.588984
620.000000	1880.000000	11.749932
621.000000	1879.000000	11.906931
622.000000	1878.000000	12.061264
623.000000	1877.000000	12.177581
624.000000	1876.000000	12.302489
625.000000	1875.000000	12.414956
626.000000	1874.000000	12.491579
627.000000	1873.000000	12.576003
628.000000	1872.000000	12.656971
629.000000	1871.000000	12.711871
630.000000	1870.000000	12.730237
631.000000	1869.000000	12.755515
632.000000	1868.000000	12.806564
633.000000	1867.000000	12.846258
634.000000	1866.000000	12.876967
635.000000	1865.000000	12.913797
636.000000	1864.000000	12.954676
637.000000	1863.000000	12.977683
638.000000	1862.000000	13.011058
639.000000	1861.000000	13.003948
640.000000	1860.000000	12.975214
641.000000	1859.000000	12.947863
642.000000	1858.000000	12.940754
643.000000	1857.000000	12.932459
644.000000	1856.000000	12.915476
645.000000	1855.000000	12.903726
646.000000	1854.000000	12.867191
647.000000	1853.000000	12.835693
648.000000	1852.000000	12.811008
649.000000	1851.000000	12.808638
650.000000	1850.000000	12.823153
651.000000	1849.000000	12.792938
652.000000	1848.000000	12.715228
653.000000	1847.000000	12.620733
654.000000	1846.000000	12.563759
655.000000	1845.000000	12.566228
656.000000	1844.000000	12.583211
657.000000	1843.000000	12.606712
658.000000	1842.000000	12.598812
659.000000	1841.000000	12.546479
660.000000	1840.000000	12.500959
661.000000	1839.000000	12.475484
662.000000	1838.000000	12.461759
663.000000	1837.000000	12.426508
664.000000	1836.000000	12.380791
665.000000	1835.000000	12.345442
666.000000	1834.000000	12.329446
667.000000	1833.000000	12.322435
668.000000	1832.000000	12.309697
669.000000	1831.000000	12.276619
670.000000	1830.000000	12.226557
671.000000	1829.000000	12.175409
672.000000	1828.000000	12.142627
673.000000	1827.000000	12.110338
674.000000	1826.000000	12.072718
675.000000	1825.000000	12.054846
676.000000	1824.000000	12.053068
677.000000	1823.000000	12.060869
678.000000	1822.000000	12.047835
679.000000	1821.000000	12.015349
680.000000	1820.000000	11.978716
681.000000	1819.000000	11.964300
682.000000	1818.000000	11.975359
683.000000	1817.000000	11.980296
684.000000	1816.000000	11.985233
685.000000	1815.000000	11.985233
686.000000	1814.000000	11.979309
687.000000	1813.000000	11.984048
688.000000	1812.000000	11.965880
689.000000	1811.000000	11.942379
690.000000	1810.000000	11.940503
691.000000	1809.000000	11.933591
692.000000	1808.000000	11.929938
693.000000	1807.000000	11.918879
694.000000	1806.000000	11.887183
695.000000	1805.000000	11.859042
696.000000	1804.000000	11.849562
697.000000	1803.000000	11.832283
698.000000	1802.000000	11.802068
699.000000	1801.000000	11.781332
700.000000	1800.000000	11.763954
701.000000	1799.000000	11.751611
702.000000	1798.000000	11.731270
703.000000	1797.000000	11.714188
704.000000	1796.000000	11.691774
705.000000	1795.000000	11.682097
706.000000	1794.000000	11.665607
707.000000	1793.000000	11.648722
708.000000	1792.000000	11.638354
709.000000	1791.000000	11.605770
710.000000	1790.000000	11.573975
711.000000	1789.000000	11.554326
712.000000	1788.000000	11.544451
713.000000	1787.000000	11.516211
714.000000	1786.000000	11.484318
715.000000	1785.000000	11.455880
716.000000	1784.000000	11.440477
717.000000	1783.000000	11.397722
718.000000	1782.000000	11.381133
719.000000	1781.000000	11.338576
720.000000	1780.000000	11.305003
721.000000	1779.000000	11.266099
722.000000	1778.000000	11.246252
723.000000	1777.000000	11.197079
724.000000	1776.000000	11.166864
725.000000	1775.000000	11.096857
726.000000	1774.000000	11.031983
727.000000	1773.000000	10.998411
728.000000	1772.000000	10.960198
729.000000	1771.000000	10.915469
730.000000	1770.000000	10.872121
731.000000	1769.000000	10.824133
732.000000	1768.000000	10.766468
733.000000	1767.000000	10.729736
734.000000	1766.000000	10.699916
735.000000	1765.000000	10.679872
736.000000	1764.000000	10.675132
737.000000	1763.000000	10.669405
738.000000	1762.000000	10.665357
739.000000	1761.000000	10.695868
740.000000	1760.000000	10.725194
741.000000	1759.000000	10.742770
742.000000	1758.000000	10.773873
743.000000	1757.000000	10.786611
744.000000	1756.000000	10.804384
745.000000	1755.000000	10.814357
746.000000	1754.000000	10.812185
747.000000	1753.000000	10.834994
748.000000	1752.000000	10.824231
749.000000	1751.000000	10.797769
750.000000	1750.000000	10.793325
751.000000	1749.000000	10.770319
752.000000	1748.000000	10.732303
753.000000	1747.000000	10.691128
754.000000	1746.000000	10.662197
755.000000	1745.000000	10.629020
756.000000	1744.000000	10.564542
757.000000	1743.000000	10.490880
758.000000	1742.000000	10.418602
759.000000	1741.000000	10.346323
760.000000	1740.000000	10.261405
761.000000	1739.000000	10.193669
762.000000	1738.000000	10.117638
763.000000	1737.000000	10.057801
764.000000	1736.000000	10.008529
765.000000	1735.000000	9.990360
766.000000	1734.000000	9.986608
767.000000	1733.000000	9.987398
768.000000	1732.000000	10.008825
769.000000	1731.000000	10.013367
770.000000	1730.000000	10.078141
771.000000	1729.000000	10.119020
772.000000	1728.000000	10.154863
773.000000	1727.000000	10.206999
774.000000	1726.000000	10.226352
775.000000	1725.000000	10.252519
776.000000	1724.000000	10.274736
777.000000	1723.000000	10.292706
778.000000	1722.000000	10.310085
779.000000	1721.000000	10.308505
780.000000	1720.000000	10.293990
781.000000	1719.000000	10.336350
782.000000	1718.000000	10.350470
783.000000	1717.000000	10.369034
784.000000	1716.000000	10.402606
785.000000	1715.000000	10.399150
786.000000	1714.000000	10.462838
787.000000	1713.000000	10.467281
788.000000	1712.000000	10.475872
789.000000	1711.000000	10.497200
790.000000	1710.000000	10.527415
791.000000	1709.000000	10.534722
792.000000	1708.000000	10.497694
793.000000	1707.000000	10.537289
794.000000	1706.000000	10.514776
795.000000	1705.000000	10.497792
796.000000	1704.000000	10.494336
797.000000	1703.000000	10.472613
798.000000	1702.000000	10.425612
799.000000	1701.000000	10.374267
800.000000	1700.000000	10.330524
801.000000	1699.000000	10.275130
802.000000	1698.000000	10.224081
803.000000	1697.000000	10.186263
804.000000	1696.000000	10.183597
805.000000	1695.000000	10.162763
806.000000	1694.000000	10.195545
807.000000	1693.000000	10.241361
808.000000	1692.000000	10.291620
809.000000	1691.000000	10.342176
810.000000	1690.000000	10.395891
811.000000	1689.000000	10.426304
812.000000	1688.000000	10.450002
813.000000	1687.000000	10.452964
814.000000	1686.000000	10.475378
815.000000	1685.000000	10.468367
816.000000	1684.000000	10.520305
817.000000	1683.000000	10.596238
818.000000	1682.000000	10.706532
819.000000	1681.000000	10.863432
820.000000	1680.000000	11.044721
821.000000	1679.000000	11.237859
822.000000	1678.000000	11.417174
823.000000	1677.000000	11.604091
824.000000	1676.000000	11.764151
825.000000	1675.000000	11.924310
826.000000	1674.000000	12.052180
827.000000	1673.000000	12.178964
828.000000	1672.000000	12.222311
829.000000	1671.000000	12.308117
830.000000	1670.000000	12.379508
831.000000	1669.000000	12.443591
832.000000	1668.000000	12.511624
833.000000	1667.000000	12.594073
834.000000	1666.000000	12.627447
835.000000	1665.000000	12.667141
836.000000	1664.000000	12.678200
837.000000	1663.000000	12.698936
838.000000	1662.000000	12.732113
839.000000	1661.000000	12.759070
840.000000	1660.000000	12.765192
841.000000	1659.000000	12.765389
842.000000	1658.000000	12.778127
843.000000	1657.000000	12.772498
844.000000	1656.000000	12.773486
845.000000	1655.000000	12.792938
846.000000	1654.000000	12.760057
847.000000	1653.000000	12.749985
848.000000	1652.000000	12.748702
849.000000	1651.000000	12.717499
850.000000	1650.000000	12.715623
851.000000	1649.000000	12.697554
852.000000	1648.000000	12.677410
853.000000	1647.000000	12.664278
854.000000	1646.000000	12.651935
855.000000	1645.000000	12.608983
856.000000	1644.000000	12.585482
857.000000	1643.000000	12.563759
858.000000	1642.000000	12.536309
859.000000	1641.000000	12.535618
860.000000	1640.000000	12.506884
861.000000	1639.000000	12.475583
862.000000	1638.000000	12.450009
863.000000	1637.000000	12.422954
864.000000	1636.000000	12.389875
865.000000	1635.000000	12.367659
866.000000	1634.000000	12.335963
867.000000	1633.000000	12.300514
868.000000	1632.000000	12.247984
869.000000	1631.000000	12.234358
870.000000	1630.000000	12.214511
871.000000	1629.000000	12.177088
872.000000	1628.000000	12.130185
873.000000	1627.000000	12.103920
874.000000	1626.000000	12.079630
875.000000	1625.000000	12.040726
876.000000	1624.000000	12.001822
877.000000	1623.000000	11.969039
878.000000	1622.000000	11.935072
879.000000	1621.000000	11.907129
880.000000	1620.000000	11.895477
881.000000	1619.000000	11.843737
882.000000	1618.000000	11.813917
883.000000	1617.000000	11.791009
884.000000	1616.000000	11.763954
885.000000	1615.000000	11.721692
886.000000	1614.000000	11.699278
887.000000	1613.000000	11.678641
888.000000	1612.000000	11.659386
889.000000	1611.000000	11.638848
890.000000	1610.000000	11.599352
891.000000	1609.000000	11.578221
892.000000	1608.000000	11.561237
893.000000	1607.000000	11.529146
894.000000	1606.000000	11.512459
895.000000	1605.000000	11.484120
896.000000	1604.000000	11.445315
897.000000	1603.000000	11.422407
898.000000	1602.000000	11.393476
899.000000	1601.000000	11.368988
900.000000	1600.000000	11.345389
901.000000	1599.000000	11.314878
902.000000	1598.000000	11.285255
903.000000	1597.000000	11.277553
904.000000	1596.000000	11.263433
905.000000	1595.000000	11.235193
906.000000	1594.000000	11.217321
907.000000	1593.000000	11.194216
908.000000	1592.000000	11.176442
909.000000	1591.000000	11.155213
910.000000	1590.000000	11.142376
911.000000	1589.000000	11.127368
912.000000	1588.000000	11.124307
913.000000	1587.000000	11.118382
914.000000	1586.000000	11.110285
915.000000	1585.000000	11.103966
916.000000	1584.000000	11.082045
917.000000	1583.000000	11.079182
918.000000	1582.000000	11.080959
919.000000	1581.000000	11.078589
920.000000	1580.000000	11.070888
921.000000	1579.000000	11.070196
922.000000	1578.000000	11.066444
923.000000	1577.000000	11.050942
924.000000	1576.000000	11.057064
925.000000	1575.000000	11.067432
926.000000	1574.000000	11.081947
927.000000	1573.000000	11.079281
928.000000	1572.000000	11.074047
929.000000	1571.000000	11.088167
930.000000	1570.000000	11.108311
931.000000	1569.000000	11.127368
932.000000	1568.000000	11.137637
933.000000	1567.000000	11.148795
934.000000	1566.000000	11.163606
935.000000	1565.000000	11.167950
936.000000	1564.000000	11.185526
937.000000	1563.000000	11.209323
938.000000	1562.000000	11.222159
939.000000	1561.000000	11.237464
940.000000	1560.000000	11.253164
941.000000	1559.000000	11.254942
942.000000	1558.000000	11.255040
943.000000	1557.000000	11.269457
944.000000	1556.000000	11.277455
945.000000	1555.000000	11.281108
946.000000	1554.000000	11.288119
947.000000	1553.000000	11.297302
948.000000	1552.000000	11.294932
949.000000	1551.000000	11.289896
950.000000	1550.000000	11.286934
951.000000	1549.000000	11.305892
952.000000	1548.000000	11.318926
953.000000	1547.000000	11.308361
954.000000	1546.000000	11.334132
955.000000	1545.000000	11.345586
956.000000	1544.000000	11.334330
957.000000	1543.000000	11.335317
958.000000	1542.000000	11.347956
959.000000	1541.000000	11.347561
960.000000	1540.000000	11.350819
961.000000	1539.000000	11.363458
962.000000	1538.000000	11.370272
963.000000	1537.000000	11.374320
964.000000	1536.000000	11.368198
965.000000	1535.000000	11.376097
966.000000	1534.000000	11.396043
967.000000	1533.000000	11.399993
968.000000	1532.000000	11.381331
969.000000	1531.000000	11.382614
970.000000	1530.000000	11.391205
971.000000	1529.000000	11.383207
972.000000	1528.000000	11.388144
973.000000	1527.000000	11.384885
974.000000	1526.000000	11.357435
975.000000	1525.000000	11.361879
976.000000	1524.000000	11.364643
977.000000	1523.000000	11.364742
978.000000	1522.000000	11.360694
979.000000	1521.000000	11.348153
980.000000	1520.000000	11.340649
981.000000	1519.000000	11.328800
982.000000	1518.000000	11.318827
983.000000	1517.000000	11.313791
984.000000	1516.000000	11.307669
985.000000	1515.000000	11.303127
986.000000	1514.000000	11.290587
987.000000	1513.000000	11.278047
988.000000	1512.000000	11.272518
989.000000	1511.000000	11.255139
990.000000	1510.000000	11.239044
991.000000	1509.000000	11.242105
992.000000	1508.000000	11.234008
993.000000	1507.000000	11.223641
994.000000	1506.000000	11.202115
995.000000	1505.000000	11.194314
996.000000	1504.000000	11.202115
997.000000	1503.000000	11.183354
998.000000	1502.000000	11.184736
999.000000	1501.000000	11.175850
1000.000000	1500.000000	11.174369
1001.000000	1499.000000	11.162618
1002.000000	1498.000000	11.150868
1003.000000	1497.000000	11.158965
1004.000000	1496.000000	11.161828
1005.000000	1495.000000	11.155213
1006.000000	1494.000000	11.154522
1007.000000	1493.000000	11.166074
1008.000000	1492.000000	11.157977
1009.000000	1491.000000	11.171999
1010.000000	1490.000000	11.159557
1011.000000	1489.000000	11.182070
1012.000000	1488.000000	11.203102
1013.000000	1487.000000	11.194907
1014.000000	1486.000000	11.210705
1015.000000	1485.000000	11.194314
1016.000000	1484.000000	11.184539
1017.000000	1483.000000	11.216136
1018.000000	1482.000000	11.231540
1019.000000	1481.000000	11.253559
1020.000000	1480.000000	11.244475
1021.000000	1479.000000	11.247832
1022.000000	1478.000000	11.257805
1023.000000	1477.000000	11.253065
1024.000000	1476.000000	11.266692
1025.000000	1475.000000	11.292760
1026.000000	1474.000000	11.294241
1027.000000	1473.000000	11.318531
1028.000000	1472.000000	11.329689
1029.000000	1471.000000	11.354769
1030.000000	1470.000000	11.363162
1031.000000	1469.000000	11.352202
1032.000000	1468.000000	11.374912
1033.000000	1467.000000	11.383898
1034.000000	1466.000000	11.393673
1035.000000	1465.000000	11.413816
1036.000000	1464.000000	11.420926
1037.000000	1463.000000	11.451634
1038.000000	1462.000000	11.455782
1039.000000	1461.000000	11.495673
1040.000000	1460.000000	11.532207
1041.000000	1459.000000	11.529344
1042.000000	1458.000000	11.555609
1043.000000	1457.000000	11.594612
1044.000000	1456.000000	11.627592
1045.000000	1455.000000	11.674000
1046.000000	1454.000000	11.692465
1047.000000	1453.000000	11.727715
1048.000000	1452.000000	11.766817
1049.000000	1451.000000	11.802660
1050.000000	1450.000000	11.821322
1051.000000	1449.000000	11.859634
1052.000000	1448.000000	11.899032
1053.000000	1447.000000	11.943564
1054.000000	1446.000000	12.007746
1055.000000	1445.000000	12.034999
1056.000000	1444.000000	12.067287
1057.000000	1443.000000	12.098786
1058.000000	1442.000000	12.143022
1059.000000	1441.000000	12.211943
1060.000000	1440.000000	12.250551
1061.000000	1439.000000	12.287283
1062.000000	1438.000000	12.308117
1063.000000	1437.000000	12.371213
1064.000000	1436.000000	12.385827
1065.000000	1435.000000	12.437765
1066.000000	1434.000000	12.504020
1067.000000	1433.000000	12.539271
1068.000000	1432.000000	12.577978
1069.000000	1431.000000	12.619647
1070.000000	1430.000000	12.671486
1071.000000	1429.000000	12.719474
1072.000000	1428.000000	12.804194
1073.000000	1427.000000	12.871635
1074.000000	1426.000000	12.925251
1075.000000	1425.000000	13.010959
1076.000000	1424.000000	13.091532
1077.000000	1423.000000	13.144359
1078.000000	1422.000000	13.189582
1079.000000	1421.000000	13.286546
1080.000000	1420.000000	13.353394
1081.000000	1419.000000	13.439398
1082.000000	1418.000000	13.502395
1083.000000	1417.000000	13.542484
1084.000000	1416.000000	13.642213
1085.000000	1415.000000	13.684079
