PE UV       SUBTECH     SPECTRUM    ASCII       PEDS        4.00        
   -1
CICIMAUCR0013-3.Sample.ASC
24/04/04
14:19:19.00
24/04/04
14:19:19.00
Vinicio Soto Monge
C. resplendens
250,000000
1
Lambda 1050
1050L1511233
PerkinElmer UV WinLab 6.3.2.0749 / 2.02.05 Lambda 900 UV/VIS/NIR, Aug  7 2015 09:38:08

0
0
3350/servo 860,8/2
0
0
UV/VIS
1
1
1
DoubleDePol,CommonBeamDepol,RBeamAtt,SBeamAtt,60mm sphere, WB InGaAs Detector
0
0
0
0
Program
Program
3350/servo 860,8/2
3350/0,2 860,8/0,2
3350/0,2 860,8/0,2
0
15.00
 
 
 
0
 
860,8
319,2
860,8
Front
100
on
S:100 R:100
0
0
0
0
 
0
 
 
 
0
 
 
0
0
0
0
0
 
 
 
 
0
0


0
0
#HDR
-1
-1
#GR
nm
%R
1.0
0.0
2500,000000
-1,000000
2251
8
70,616200
5,151800
#DATA
250.000000	2250.000000	5.547500
251.000000	2249.000000	5.552933
252.000000	2248.000000	5.534967
253.000000	2247.000000	5.520033
254.000000	2246.000000	5.534833
255.000000	2245.000000	5.516867
256.000000	2244.000000	5.496633
257.000000	2243.000000	5.522133
258.000000	2242.000000	5.493767
259.000000	2241.000000	5.482800
260.000000	2240.000000	5.466567
261.000000	2239.000000	5.430233
262.000000	2238.000000	5.466000
263.000000	2237.000000	5.410167
264.000000	2236.000000	5.406333
265.000000	2235.000000	5.377333
266.000000	2234.000000	5.351933
267.000000	2233.000000	5.319700
268.000000	2232.000000	5.335000
269.000000	2231.000000	5.331633
270.000000	2230.000000	5.300000
271.000000	2229.000000	5.305133
272.000000	2228.000000	5.299933
273.000000	2227.000000	5.263733
274.000000	2226.000000	5.253167
275.000000	2225.000000	5.267200
276.000000	2224.000000	5.269933
277.000000	2223.000000	5.269767
278.000000	2222.000000	5.279500
279.000000	2221.000000	5.229533
280.000000	2220.000000	5.244667
281.000000	2219.000000	5.225100
282.000000	2218.000000	5.220967
283.000000	2217.000000	5.223167
284.000000	2216.000000	5.207300
285.000000	2215.000000	5.195200
286.000000	2214.000000	5.199567
287.000000	2213.000000	5.179533
288.000000	2212.000000	5.197267
289.000000	2211.000000	5.167967
290.000000	2210.000000	5.179533
291.000000	2209.000000	5.167367
292.000000	2208.000000	5.177000
293.000000	2207.000000	5.156000
294.000000	2206.000000	5.176533
295.000000	2205.000000	5.189233
296.000000	2204.000000	5.123333
297.000000	2203.000000	5.182367
298.000000	2202.000000	5.169767
299.000000	2201.000000	5.143433
300.000000	2200.000000	5.162967
301.000000	2199.000000	5.175533
302.000000	2198.000000	5.113733
303.000000	2197.000000	5.166033
304.000000	2196.000000	5.128200
305.000000	2195.000000	5.149833
306.000000	2194.000000	5.159000
307.000000	2193.000000	5.162000
308.000000	2192.000000	5.106333
309.000000	2191.000000	5.118733
310.000000	2190.000000	5.117033
311.000000	2189.000000	5.111533
312.000000	2188.000000	5.122367
313.000000	2187.000000	5.130567
314.000000	2186.000000	5.098867
315.000000	2185.000000	5.111133
316.000000	2184.000000	5.168067
317.000000	2183.000000	5.578367
318.000000	2182.000000	5.522967
319.000000	2181.000000	5.330267
320.000000	2180.000000	5.223900
321.000000	2179.000000	5.337733
322.000000	2178.000000	5.229833
323.000000	2177.000000	5.322200
324.000000	2176.000000	5.304800
325.000000	2175.000000	5.261500
326.000000	2174.000000	5.309833
327.000000	2173.000000	5.317533
328.000000	2172.000000	5.327767
329.000000	2171.000000	5.403000
330.000000	2170.000000	5.275867
331.000000	2169.000000	5.266567
332.000000	2168.000000	5.354700
333.000000	2167.000000	5.311233
334.000000	2166.000000	5.155033
335.000000	2165.000000	5.195167
336.000000	2164.000000	5.267600
337.000000	2163.000000	5.205667
338.000000	2162.000000	5.294100
339.000000	2161.000000	5.272967
340.000000	2160.000000	5.270967
341.000000	2159.000000	5.216500
342.000000	2158.000000	5.257900
343.000000	2157.000000	5.296667
344.000000	2156.000000	5.264033
345.000000	2155.000000	5.305300
346.000000	2154.000000	5.288133
347.000000	2153.000000	5.296500
348.000000	2152.000000	5.286567
349.000000	2151.000000	5.256533
350.000000	2150.000000	5.366200
351.000000	2149.000000	5.301133
352.000000	2148.000000	5.380633
353.000000	2147.000000	5.443200
354.000000	2146.000000	5.456367
355.000000	2145.000000	5.465267
356.000000	2144.000000	5.541833
357.000000	2143.000000	5.569333
358.000000	2142.000000	5.596400
359.000000	2141.000000	5.663267
360.000000	2140.000000	5.690000
361.000000	2139.000000	5.692700
362.000000	2138.000000	5.759600
363.000000	2137.000000	5.773567
364.000000	2136.000000	5.767667
365.000000	2135.000000	5.825567
366.000000	2134.000000	5.887867
367.000000	2133.000000	5.931233
368.000000	2132.000000	5.977733
369.000000	2131.000000	6.025900
370.000000	2130.000000	6.103500
371.000000	2129.000000	6.170700
372.000000	2128.000000	6.246167
373.000000	2127.000000	6.275333
374.000000	2126.000000	6.356933
375.000000	2125.000000	6.527867
376.000000	2124.000000	6.785233
377.000000	2123.000000	6.857067
378.000000	2122.000000	6.997333
379.000000	2121.000000	7.144800
380.000000	2120.000000	7.307700
381.000000	2119.000000	7.504467
382.000000	2118.000000	7.697400
383.000000	2117.000000	7.892700
384.000000	2116.000000	8.099733
385.000000	2115.000000	8.332067
386.000000	2114.000000	8.579067
387.000000	2113.000000	8.837633
388.000000	2112.000000	9.098867
389.000000	2111.000000	9.365233
390.000000	2110.000000	9.641300
391.000000	2109.000000	9.923700
392.000000	2108.000000	10.219567
393.000000	2107.000000	10.530100
394.000000	2106.000000	10.835033
395.000000	2105.000000	11.151633
396.000000	2104.000000	11.452800
397.000000	2103.000000	11.756767
398.000000	2102.000000	12.074567
399.000000	2101.000000	12.393100
400.000000	2100.000000	12.690033
401.000000	2099.000000	12.987633
402.000000	2098.000000	13.292500
403.000000	2097.000000	13.594100
404.000000	2096.000000	13.888833
405.000000	2095.000000	14.161667
406.000000	2094.000000	14.421333
407.000000	2093.000000	14.679667
408.000000	2092.000000	14.931500
409.000000	2091.000000	15.178867
410.000000	2090.000000	15.416633
411.000000	2089.000000	15.638000
412.000000	2088.000000	15.858600
413.000000	2087.000000	16.074933
414.000000	2086.000000	16.275467
415.000000	2085.000000	16.472500
416.000000	2084.000000	16.655233
417.000000	2083.000000	16.820667
418.000000	2082.000000	16.972833
419.000000	2081.000000	17.126033
420.000000	2080.000000	17.273400
421.000000	2079.000000	17.404267
422.000000	2078.000000	17.526200
423.000000	2077.000000	17.627333
424.000000	2076.000000	17.714133
425.000000	2075.000000	17.807200
426.000000	2074.000000	17.872433
427.000000	2073.000000	17.929967
428.000000	2072.000000	17.974633
429.000000	2071.000000	17.994367
430.000000	2070.000000	18.004933
431.000000	2069.000000	18.009433
432.000000	2068.000000	17.995800
433.000000	2067.000000	17.955667
434.000000	2066.000000	17.913767
435.000000	2065.000000	17.847700
436.000000	2064.000000	17.756700
437.000000	2063.000000	17.674100
438.000000	2062.000000	17.574033
439.000000	2061.000000	17.456367
440.000000	2060.000000	17.335867
441.000000	2059.000000	17.208533
442.000000	2058.000000	17.080300
443.000000	2057.000000	16.964267
444.000000	2056.000000	16.845000
445.000000	2055.000000	16.725333
446.000000	2054.000000	16.620667
447.000000	2053.000000	16.544767
448.000000	2052.000000	16.503133
449.000000	2051.000000	16.485567
450.000000	2050.000000	16.497167
451.000000	2049.000000	16.543867
452.000000	2048.000000	16.632633
453.000000	2047.000000	16.759000
454.000000	2046.000000	16.932800
455.000000	2045.000000	17.148100
456.000000	2044.000000	17.387233
457.000000	2043.000000	17.666033
458.000000	2042.000000	17.974233
459.000000	2041.000000	18.302267
460.000000	2040.000000	18.646333
461.000000	2039.000000	19.015467
462.000000	2038.000000	19.401067
463.000000	2037.000000	19.782867
464.000000	2036.000000	20.165500
465.000000	2035.000000	20.537900
466.000000	2034.000000	20.905200
467.000000	2033.000000	21.256300
468.000000	2032.000000	21.584500
469.000000	2031.000000	21.899700
470.000000	2030.000000	22.199333
471.000000	2029.000000	22.461933
472.000000	2028.000000	22.708433
473.000000	2027.000000	22.931167
474.000000	2026.000000	23.130667
475.000000	2025.000000	23.306700
476.000000	2024.000000	23.457900
477.000000	2023.000000	23.587567
478.000000	2022.000000	23.690033
479.000000	2021.000000	23.788000
480.000000	2020.000000	23.867033
481.000000	2019.000000	23.941833
482.000000	2018.000000	24.008100
483.000000	2017.000000	24.066200
484.000000	2016.000000	24.128600
485.000000	2015.000000	24.212900
486.000000	2014.000000	24.306800
487.000000	2013.000000	24.424033
488.000000	2012.000000	24.578800
489.000000	2011.000000	24.767400
490.000000	2010.000000	24.979933
491.000000	2009.000000	25.239200
492.000000	2008.000000	25.535333
493.000000	2007.000000	25.878400
494.000000	2006.000000	26.227067
495.000000	2005.000000	26.616400
496.000000	2004.000000	27.028933
497.000000	2003.000000	27.470733
498.000000	2002.000000	27.941067
499.000000	2001.000000	28.444767
500.000000	2000.000000	28.969367
501.000000	1999.000000	29.519400
502.000000	1998.000000	30.099300
503.000000	1997.000000	30.714067
504.000000	1996.000000	31.350167
505.000000	1995.000000	32.000600
506.000000	1994.000000	32.694233
507.000000	1993.000000	33.405533
508.000000	1992.000000	34.142067
509.000000	1991.000000	34.925600
510.000000	1990.000000	35.729233
511.000000	1989.000000	36.579333
512.000000	1988.000000	37.459667
513.000000	1987.000000	38.377533
514.000000	1986.000000	39.321433
515.000000	1985.000000	40.291033
516.000000	1984.000000	41.259833
517.000000	1983.000000	42.261067
518.000000	1982.000000	43.272600
519.000000	1981.000000	44.296867
520.000000	1980.000000	45.335533
521.000000	1979.000000	46.382733
522.000000	1978.000000	47.448833
523.000000	1977.000000	48.502900
524.000000	1976.000000	49.568033
525.000000	1975.000000	50.599033
526.000000	1974.000000	51.625300
527.000000	1973.000000	52.617767
528.000000	1972.000000	53.589000
529.000000	1971.000000	54.542933
530.000000	1970.000000	55.451900
531.000000	1969.000000	56.309133
532.000000	1968.000000	57.144000
533.000000	1967.000000	57.948067
534.000000	1966.000000	58.710300
535.000000	1965.000000	59.427567
536.000000	1964.000000	60.081733
537.000000	1963.000000	60.706300
538.000000	1962.000000	61.302467
539.000000	1961.000000	61.868067
540.000000	1960.000000	62.402133
541.000000	1959.000000	62.896700
542.000000	1958.000000	63.383467
543.000000	1957.000000	63.845233
544.000000	1956.000000	64.269767
545.000000	1955.000000	64.680867
546.000000	1954.000000	65.077733
547.000000	1953.000000	65.426767
548.000000	1952.000000	65.763267
549.000000	1951.000000	66.112900
550.000000	1950.000000	66.417633
551.000000	1949.000000	66.695500
552.000000	1948.000000	67.002667
553.000000	1947.000000	67.231667
554.000000	1946.000000	67.473133
555.000000	1945.000000	67.697700
556.000000	1944.000000	67.875833
557.000000	1943.000000	68.056767
558.000000	1942.000000	68.223967
559.000000	1941.000000	68.338600
560.000000	1940.000000	68.459033
561.000000	1939.000000	68.595000
562.000000	1938.000000	68.697200
563.000000	1937.000000	68.809200
564.000000	1936.000000	68.892400
565.000000	1935.000000	68.940867
566.000000	1934.000000	69.023633
567.000000	1933.000000	69.089000
568.000000	1932.000000	69.122267
569.000000	1931.000000	69.165733
570.000000	1930.000000	69.182133
571.000000	1929.000000	69.213267
572.000000	1928.000000	69.208267
573.000000	1927.000000	69.211433
574.000000	1926.000000	69.181400
575.000000	1925.000000	69.146133
576.000000	1924.000000	69.073500
577.000000	1923.000000	69.006200
578.000000	1922.000000	68.931400
579.000000	1921.000000	68.844400
580.000000	1920.000000	68.713167
581.000000	1919.000000	68.593633
582.000000	1918.000000	68.459367
583.000000	1917.000000	68.273767
584.000000	1916.000000	68.088800
585.000000	1915.000000	67.878567
586.000000	1914.000000	67.654500
587.000000	1913.000000	67.419133
588.000000	1912.000000	67.144400
589.000000	1911.000000	66.888667
590.000000	1910.000000	66.599467
591.000000	1909.000000	66.293000
592.000000	1908.000000	65.955133
593.000000	1907.000000	65.650100
594.000000	1906.000000	65.316367
595.000000	1905.000000	65.003667
596.000000	1904.000000	64.675133
597.000000	1903.000000	64.332767
598.000000	1902.000000	64.021600
599.000000	1901.000000	63.691433
600.000000	1900.000000	63.382833
601.000000	1899.000000	63.052967
602.000000	1898.000000	62.716433
603.000000	1897.000000	62.366667
604.000000	1896.000000	62.018367
605.000000	1895.000000	61.611833
606.000000	1894.000000	61.215833
607.000000	1893.000000	60.764267
608.000000	1892.000000	60.304600
609.000000	1891.000000	59.863300
610.000000	1890.000000	59.362700
611.000000	1889.000000	58.814933
612.000000	1888.000000	58.282600
613.000000	1887.000000	57.731200
614.000000	1886.000000	57.179233
615.000000	1885.000000	56.605867
616.000000	1884.000000	56.014400
617.000000	1883.000000	55.437033
618.000000	1882.000000	54.862900
619.000000	1881.000000	54.247433
620.000000	1880.000000	53.635067
621.000000	1879.000000	53.008267
622.000000	1878.000000	52.333133
623.000000	1877.000000	51.674067
624.000000	1876.000000	51.024633
625.000000	1875.000000	50.342300
626.000000	1874.000000	49.683200
627.000000	1873.000000	49.035067
628.000000	1872.000000	48.395067
629.000000	1871.000000	47.788167
630.000000	1870.000000	47.184367
631.000000	1869.000000	46.603300
632.000000	1868.000000	46.040667
633.000000	1867.000000	45.580433
634.000000	1866.000000	45.146500
635.000000	1865.000000	44.769967
636.000000	1864.000000	44.474433
637.000000	1863.000000	44.232900
638.000000	1862.000000	44.043867
639.000000	1861.000000	43.935300
640.000000	1860.000000	43.849567
641.000000	1859.000000	43.842967
642.000000	1858.000000	43.914433
643.000000	1857.000000	44.034333
644.000000	1856.000000	44.231567
645.000000	1855.000000	44.454500
646.000000	1854.000000	44.695433
647.000000	1853.000000	45.025600
648.000000	1852.000000	45.404833
649.000000	1851.000000	45.803300
650.000000	1850.000000	46.229700
651.000000	1849.000000	46.698133
652.000000	1848.000000	47.202600
653.000000	1847.000000	47.728100
654.000000	1846.000000	48.244733
655.000000	1845.000000	48.751000
656.000000	1844.000000	49.266267
657.000000	1843.000000	49.776433
658.000000	1842.000000	50.253800
659.000000	1841.000000	50.746833
660.000000	1840.000000	51.227900
661.000000	1839.000000	51.686100
662.000000	1838.000000	52.083767
663.000000	1837.000000	52.481867
664.000000	1836.000000	52.888767
665.000000	1835.000000	53.225333
666.000000	1834.000000	53.557267
667.000000	1833.000000	53.872200
668.000000	1832.000000	54.201567
669.000000	1831.000000	54.502100
670.000000	1830.000000	54.797967
671.000000	1829.000000	55.094333
672.000000	1828.000000	55.396033
673.000000	1827.000000	55.674367
674.000000	1826.000000	55.948133
675.000000	1825.000000	56.224867
676.000000	1824.000000	56.448733
677.000000	1823.000000	56.709233
678.000000	1822.000000	56.958933
679.000000	1821.000000	57.188700
680.000000	1820.000000	57.377233
681.000000	1819.000000	57.561100
682.000000	1818.000000	57.735167
683.000000	1817.000000	57.857833
684.000000	1816.000000	57.976700
685.000000	1815.000000	58.073600
686.000000	1814.000000	58.135233
687.000000	1813.000000	58.160367
688.000000	1812.000000	58.179667
689.000000	1811.000000	58.204667
690.000000	1810.000000	58.191233
691.000000	1809.000000	58.134433
692.000000	1808.000000	58.032000
693.000000	1807.000000	57.963800
694.000000	1806.000000	57.868133
695.000000	1805.000000	57.753133
696.000000	1804.000000	57.639200
697.000000	1803.000000	57.508667
698.000000	1802.000000	57.363667
699.000000	1801.000000	57.193533
700.000000	1800.000000	57.052833
701.000000	1799.000000	56.901833
702.000000	1798.000000	56.699500
703.000000	1797.000000	56.555600
704.000000	1796.000000	56.411200
705.000000	1795.000000	56.241733
706.000000	1794.000000	56.120967
707.000000	1793.000000	56.016333
708.000000	1792.000000	55.924600
709.000000	1791.000000	55.878333
710.000000	1790.000000	55.830900
711.000000	1789.000000	55.808467
712.000000	1788.000000	55.837367
713.000000	1787.000000	55.936633
714.000000	1786.000000	56.035667
715.000000	1785.000000	56.163600
716.000000	1784.000000	56.307567
717.000000	1783.000000	56.474033
718.000000	1782.000000	56.665700
719.000000	1781.000000	56.884867
720.000000	1780.000000	57.125467
721.000000	1779.000000	57.365467
722.000000	1778.000000	57.630067
723.000000	1777.000000	57.915200
724.000000	1776.000000	58.206000
725.000000	1775.000000	58.504733
726.000000	1774.000000	58.799433
727.000000	1773.000000	59.100500
728.000000	1772.000000	59.415533
729.000000	1771.000000	59.744133
730.000000	1770.000000	60.066400
731.000000	1769.000000	60.393200
732.000000	1768.000000	60.772900
733.000000	1767.000000	61.145500
734.000000	1766.000000	61.457867
735.000000	1765.000000	61.813767
736.000000	1764.000000	62.170300
737.000000	1763.000000	62.485433
738.000000	1762.000000	62.821433
739.000000	1761.000000	63.140733
740.000000	1760.000000	63.412233
741.000000	1759.000000	63.691967
742.000000	1758.000000	64.006633
743.000000	1757.000000	64.277500
744.000000	1756.000000	64.502733
745.000000	1755.000000	64.770567
746.000000	1754.000000	65.023333
747.000000	1753.000000	65.252833
748.000000	1752.000000	65.453400
749.000000	1751.000000	65.637167
750.000000	1750.000000	65.803933
751.000000	1749.000000	65.994067
752.000000	1748.000000	66.177333
753.000000	1747.000000	66.290100
754.000000	1746.000000	66.404600
755.000000	1745.000000	66.547033
756.000000	1744.000000	66.652467
757.000000	1743.000000	66.765133
758.000000	1742.000000	66.861500
759.000000	1741.000000	66.990200
760.000000	1740.000000	67.132200
761.000000	1739.000000	67.267033
762.000000	1738.000000	67.406067
763.000000	1737.000000	67.518867
764.000000	1736.000000	67.637433
765.000000	1735.000000	67.783033
766.000000	1734.000000	67.941933
767.000000	1733.000000	68.093133
768.000000	1732.000000	68.222967
769.000000	1731.000000	68.365100
770.000000	1730.000000	68.493133
771.000000	1729.000000	68.657500
772.000000	1728.000000	68.810067
773.000000	1727.000000	68.923667
774.000000	1726.000000	69.028467
775.000000	1725.000000	69.145033
776.000000	1724.000000	69.215667
777.000000	1723.000000	69.317200
778.000000	1722.000000	69.417367
779.000000	1721.000000	69.430867
780.000000	1720.000000	69.440167
781.000000	1719.000000	69.491967
782.000000	1718.000000	69.451700
783.000000	1717.000000	69.397967
784.000000	1716.000000	69.371633
785.000000	1715.000000	69.389400
786.000000	1714.000000	69.364967
787.000000	1713.000000	69.369800
788.000000	1712.000000	69.310133
789.000000	1711.000000	69.284000
790.000000	1710.000000	69.269433
791.000000	1709.000000	69.280233
792.000000	1708.000000	69.230733
793.000000	1707.000000	69.178967
794.000000	1706.000000	69.182500
795.000000	1705.000000	69.116267
796.000000	1704.000000	69.102733
797.000000	1703.000000	69.145967
798.000000	1702.000000	69.199633
799.000000	1701.000000	69.272633
800.000000	1700.000000	69.268933
801.000000	1699.000000	69.328100
802.000000	1698.000000	69.486500
803.000000	1697.000000	69.504633
804.000000	1696.000000	69.474233
805.000000	1695.000000	69.564867
806.000000	1694.000000	69.644567
807.000000	1693.000000	69.694167
808.000000	1692.000000	69.635800
809.000000	1691.000000	69.754967
810.000000	1690.000000	69.739367
811.000000	1689.000000	69.740967
812.000000	1688.000000	69.729800
813.000000	1687.000000	69.635600
814.000000	1686.000000	69.621400
815.000000	1685.000000	69.565500
816.000000	1684.000000	69.512033
817.000000	1683.000000	69.437167
818.000000	1682.000000	69.361700
819.000000	1681.000000	69.225833
820.000000	1680.000000	69.111833
821.000000	1679.000000	69.002000
822.000000	1678.000000	68.921200
823.000000	1677.000000	68.764967
824.000000	1676.000000	68.638200
825.000000	1675.000000	68.531667
826.000000	1674.000000	68.286833
827.000000	1673.000000	68.091167
828.000000	1672.000000	68.085533
829.000000	1671.000000	67.804467
830.000000	1670.000000	67.633800
831.000000	1669.000000	67.331567
832.000000	1668.000000	67.186867
833.000000	1667.000000	67.044067
834.000000	1666.000000	66.805233
835.000000	1665.000000	66.644033
836.000000	1664.000000	66.449700
837.000000	1663.000000	66.172733
838.000000	1662.000000	66.019933
