PE UV       SUBTECH     SPECTRUM    ASCII       PEDS        4.00        
   -1
CICIMAUCR0098-1.ASC
24/04/03
14:55:53.00
24/04/03
14:55:53.00
Vinicio Soto Monge
C. cupreomarginata
250,000000
1
Lambda 1050
1050L1511233
PerkinElmer UV WinLab 6.3.2.0749 / 2.02.05 Lambda 900 UV/VIS/NIR, Aug  7 2015 09:38:08

0
0
3350/servo 860,8/2
0
0
UV/VIS
1
1
1
DoubleDePol,CommonBeamDepol,RBeamAtt,SBeamAtt,60mm sphere, WB InGaAs Detector
0
0
0
0
Program
Program
3350/servo 860,8/2
3350/0,2 860,8/0,2
3350/0,2 860,8/0,2
0
15.00
 
 
 
0
 
860,8
319,2
860,8
Front
100
on
S:100 R:100
0
0
0
0
 
0
 
 
 
0
 
 
0
0
0
0
0
 
 
 
 
0
0


0
0
#HDR
-1
-1
#GR
nm
%R
1.0
0.0
2500,000000
-1,000000
2251
8
55,162100
5,208800
#DATA
501.000000	1999.000000	11.733014
502.000000	1998.000000	11.739415
503.000000	1997.000000	11.724342
504.000000	1996.000000	11.729504
505.000000	1995.000000	11.706688
506.000000	1994.000000	11.697913
507.000000	1993.000000	11.675716
508.000000	1992.000000	11.688931
509.000000	1991.000000	11.672826
510.000000	1990.000000	11.644641
511.000000	1989.000000	11.629259
512.000000	1988.000000	11.601797
513.000000	1987.000000	11.574026
514.000000	1986.000000	11.547493
515.000000	1985.000000	11.521580
516.000000	1984.000000	11.485653
517.000000	1983.000000	11.472955
518.000000	1982.000000	11.463767
519.000000	1981.000000	11.431969
520.000000	1980.000000	11.412973
521.000000	1979.000000	11.386028
522.000000	1978.000000	11.350100
523.000000	1977.000000	11.321193
524.000000	1976.000000	11.306947
525.000000	1975.000000	11.285266
526.000000	1974.000000	11.242319
527.000000	1973.000000	11.228382
528.000000	1972.000000	11.220019
529.000000	1971.000000	11.189151
530.000000	1970.000000	11.153224
531.000000	1969.000000	11.143932
532.000000	1968.000000	11.101501
533.000000	1967.000000	11.121116
534.000000	1966.000000	11.076827
535.000000	1965.000000	11.043274
536.000000	1964.000000	11.004559
537.000000	1963.000000	11.013335
538.000000	1962.000000	11.003527
539.000000	1961.000000	10.986802
540.000000	1960.000000	10.955211
541.000000	1959.000000	10.912160
542.000000	1958.000000	10.894403
543.000000	1957.000000	10.872310
544.000000	1956.000000	10.861677
545.000000	1955.000000	10.863122
546.000000	1954.000000	10.826369
547.000000	1953.000000	10.809128
548.000000	1952.000000	10.779705
549.000000	1951.000000	10.782595
550.000000	1950.000000	10.760193
551.000000	1949.000000	10.766387
552.000000	1948.000000	10.748630
553.000000	1947.000000	10.733660
554.000000	1946.000000	10.716213
555.000000	1945.000000	10.740577
556.000000	1944.000000	10.705373
557.000000	1943.000000	10.709296
558.000000	1942.000000	10.728085
559.000000	1941.000000	10.713838
560.000000	1940.000000	10.726950
561.000000	1939.000000	10.730769
562.000000	1938.000000	10.752140
563.000000	1937.000000	10.742435
564.000000	1936.000000	10.768039
565.000000	1935.000000	10.780427
566.000000	1934.000000	10.802211
567.000000	1933.000000	10.858270
568.000000	1932.000000	10.887177
569.000000	1931.000000	10.930021
570.000000	1930.000000	10.981021
571.000000	1929.000000	11.022213
572.000000	1928.000000	11.059276
573.000000	1927.000000	11.087047
574.000000	1926.000000	11.131234
575.000000	1925.000000	11.188841
576.000000	1924.000000	11.279072
577.000000	1923.000000	11.339054
578.000000	1922.000000	11.385718
579.000000	1921.000000	11.461392
580.000000	1920.000000	11.526226
581.000000	1919.000000	11.585898
582.000000	1918.000000	11.663018
583.000000	1917.000000	11.762024
584.000000	1916.000000	11.853700
585.000000	1915.000000	11.947442
586.000000	1914.000000	12.035711
587.000000	1913.000000	12.130897
588.000000	1912.000000	12.208946
589.000000	1911.000000	12.293705
590.000000	1910.000000	12.389924
591.000000	1909.000000	12.483046
592.000000	1908.000000	12.602080
593.000000	1907.000000	12.706352
594.000000	1906.000000	12.803706
595.000000	1905.000000	12.927283
596.000000	1904.000000	13.029903
597.000000	1903.000000	13.153274
598.000000	1902.000000	13.256409
599.000000	1901.000000	13.376373
600.000000	1900.000000	13.501809
601.000000	1899.000000	13.626108
602.000000	1898.000000	13.707977
603.000000	1897.000000	13.844356
604.000000	1896.000000	13.957712
605.000000	1895.000000	14.055376
606.000000	1894.000000	14.178334
607.000000	1893.000000	14.307693
608.000000	1892.000000	14.448820
609.000000	1891.000000	14.579521
610.000000	1890.000000	14.700724
611.000000	1889.000000	14.826365
612.000000	1888.000000	14.978540
613.000000	1887.000000	15.136083
614.000000	1886.000000	15.313447
615.000000	1885.000000	15.526326
616.000000	1884.000000	15.763879
617.000000	1883.000000	16.008865
618.000000	1882.000000	16.250961
619.000000	1881.000000	16.498115
620.000000	1880.000000	16.750638
621.000000	1879.000000	17.003264
622.000000	1878.000000	17.261362
623.000000	1877.000000	17.494682
624.000000	1876.000000	17.711071
625.000000	1875.000000	17.921162
626.000000	1874.000000	18.114839
627.000000	1873.000000	18.287454
628.000000	1872.000000	18.454598
629.000000	1871.000000	18.589119
630.000000	1870.000000	18.703714
631.000000	1869.000000	18.809328
632.000000	1868.000000	18.878704
633.000000	1867.000000	18.915458
634.000000	1866.000000	18.941474
635.000000	1865.000000	18.982047
636.000000	1864.000000	19.000114
637.000000	1863.000000	19.021071
638.000000	1862.000000	19.040893
639.000000	1861.000000	19.048636
640.000000	1860.000000	19.047810
641.000000	1859.000000	19.026027
642.000000	1858.000000	18.990925
643.000000	1857.000000	18.965941
644.000000	1856.000000	18.921342
645.000000	1855.000000	18.880047
646.000000	1854.000000	18.835241
647.000000	1853.000000	18.767000
648.000000	1852.000000	18.696488
649.000000	1851.000000	18.631240
650.000000	1850.000000	18.591597
651.000000	1849.000000	18.566716
652.000000	1848.000000	18.489803
653.000000	1847.000000	18.414335
654.000000	1846.000000	18.334944
655.000000	1845.000000	18.252353
656.000000	1844.000000	18.213019
657.000000	1843.000000	18.197843
658.000000	1842.000000	18.181531
659.000000	1841.000000	18.142507
660.000000	1840.000000	18.096359
661.000000	1839.000000	18.050211
662.000000	1838.000000	18.005199
663.000000	1837.000000	17.958741
664.000000	1836.000000	17.912284
665.000000	1835.000000	17.844559
666.000000	1834.000000	17.766717
667.000000	1833.000000	17.708077
668.000000	1832.000000	17.647166
669.000000	1831.000000	17.589662
670.000000	1830.000000	17.533809
671.000000	1829.000000	17.469182
672.000000	1828.000000	17.386797
673.000000	1827.000000	17.310400
674.000000	1826.000000	17.240817
675.000000	1825.000000	17.192811
676.000000	1824.000000	17.160497
677.000000	1823.000000	17.139333
678.000000	1822.000000	17.119821
679.000000	1821.000000	17.103819
680.000000	1820.000000	17.069337
681.000000	1819.000000	17.014723
682.000000	1818.000000	16.987262
683.000000	1817.000000	16.977144
684.000000	1816.000000	16.970847
685.000000	1815.000000	16.956393
686.000000	1814.000000	16.940804
687.000000	1813.000000	16.935952
688.000000	1812.000000	16.931410
689.000000	1811.000000	16.910968
690.000000	1810.000000	16.870912
691.000000	1809.000000	16.840456
692.000000	1808.000000	16.809691
693.000000	1807.000000	16.767363
694.000000	1806.000000	16.724415
695.000000	1805.000000	16.698915
696.000000	1804.000000	16.667737
697.000000	1803.000000	16.638107
698.000000	1802.000000	16.602387
699.000000	1801.000000	16.560162
700.000000	1800.000000	16.509368
701.000000	1799.000000	16.479739
702.000000	1798.000000	16.431423
703.000000	1797.000000	16.386514
704.000000	1796.000000	16.357504
705.000000	1795.000000	16.328700
706.000000	1794.000000	16.293599
707.000000	1793.000000	16.259943
708.000000	1792.000000	16.213072
709.000000	1791.000000	16.167234
710.000000	1790.000000	16.124390
711.000000	1789.000000	16.091766
712.000000	1788.000000	16.043554
713.000000	1787.000000	15.996993
714.000000	1786.000000	15.934533
715.000000	1785.000000	15.889521
716.000000	1784.000000	15.802491
717.000000	1783.000000	15.744883
718.000000	1782.000000	15.692128
719.000000	1781.000000	15.637102
720.000000	1780.000000	15.581146
721.000000	1779.000000	15.503614
722.000000	1778.000000	15.427939
723.000000	1777.000000	15.357117
724.000000	1776.000000	15.274526
725.000000	1775.000000	15.188115
726.000000	1774.000000	15.100155
727.000000	1773.000000	15.015912
728.000000	1772.000000	14.908028
729.000000	1771.000000	14.813667
730.000000	1770.000000	14.702582
731.000000	1769.000000	14.601717
732.000000	1768.000000	14.509628
733.000000	1767.000000	14.432922
734.000000	1766.000000	14.357557
735.000000	1765.000000	14.286322
736.000000	1764.000000	14.247091
737.000000	1763.000000	14.229954
738.000000	1762.000000	14.258551
739.000000	1761.000000	14.280850
740.000000	1760.000000	14.324211
741.000000	1759.000000	14.348678
742.000000	1758.000000	14.402156
743.000000	1757.000000	14.445104
744.000000	1756.000000	14.482889
745.000000	1755.000000	14.520468
746.000000	1754.000000	14.531825
747.000000	1753.000000	14.521707
748.000000	1752.000000	14.534509
749.000000	1751.000000	14.518507
750.000000	1750.000000	14.496104
751.000000	1749.000000	14.469984
752.000000	1748.000000	14.431270
753.000000	1747.000000	14.378515
754.000000	1746.000000	14.316261
755.000000	1745.000000	14.241826
756.000000	1744.000000	14.138484
757.000000	1743.000000	14.032457
758.000000	1742.000000	13.924779
759.000000	1741.000000	13.802234
760.000000	1740.000000	13.650060
761.000000	1739.000000	13.508313
762.000000	1738.000000	13.367804
763.000000	1737.000000	13.259197
764.000000	1736.000000	13.152448
765.000000	1735.000000	13.067275
766.000000	1734.000000	13.005126
767.000000	1733.000000	12.999241
768.000000	1732.000000	12.996350
769.000000	1731.000000	13.003680
770.000000	1730.000000	13.082348
771.000000	1729.000000	13.144292
772.000000	1728.000000	13.232045
773.000000	1727.000000	13.306584
774.000000	1726.000000	13.382567
775.000000	1725.000000	13.435632
776.000000	1724.000000	13.478477
777.000000	1723.000000	13.508106
778.000000	1722.000000	13.552602
779.000000	1721.000000	13.564991
780.000000	1720.000000	13.590904
781.000000	1719.000000	13.622082
782.000000	1718.000000	13.658629
783.000000	1717.000000	13.693730
784.000000	1716.000000	13.718714
785.000000	1715.000000	13.768062
786.000000	1714.000000	13.809564
787.000000	1713.000000	13.854886
788.000000	1712.000000	13.908054
789.000000	1711.000000	13.938200
790.000000	1710.000000	13.972372
791.000000	1709.000000	14.001279
792.000000	1708.000000	14.011706
793.000000	1707.000000	14.029773
794.000000	1706.000000	14.035967
795.000000	1705.000000	14.040200
796.000000	1704.000000	14.051969
797.000000	1703.000000	14.045569
798.000000	1702.000000	14.011087
799.000000	1701.000000	14.017797
800.000000	1700.000000	13.939336
801.000000	1699.000000	13.907332
802.000000	1698.000000	13.836613
803.000000	1697.000000	13.831864
804.000000	1696.000000	13.839813
805.000000	1695.000000	13.855093
806.000000	1694.000000	13.888336
807.000000	1693.000000	13.989303
808.000000	1692.000000	14.102040
809.000000	1691.000000	14.186387
810.000000	1690.000000	14.297988
811.000000	1689.000000	14.370255
812.000000	1688.000000	14.415371
813.000000	1687.000000	14.460796
814.000000	1686.000000	14.450782
815.000000	1685.000000	14.455737
816.000000	1684.000000	14.538948
817.000000	1683.000000	14.646626
818.000000	1682.000000	14.805305
819.000000	1681.000000	15.062783
820.000000	1680.000000	15.338225
821.000000	1679.000000	15.654136
822.000000	1678.000000	15.976242
823.000000	1677.000000	16.261698
824.000000	1676.000000	16.542302
825.000000	1675.000000	16.800606
826.000000	1674.000000	17.016788
827.000000	1673.000000	17.223576
828.000000	1672.000000	17.368524
829.000000	1671.000000	17.529370
830.000000	1670.000000	17.634984
831.000000	1669.000000	17.746998
832.000000	1668.000000	17.841978
833.000000	1667.000000	17.934893
834.000000	1666.000000	17.991158
835.000000	1665.000000	18.053205
836.000000	1664.000000	18.091094
837.000000	1663.000000	18.136622
838.000000	1662.000000	18.178228
839.000000	1661.000000	18.206102
840.000000	1660.000000	18.239448
841.000000	1659.000000	18.243062
842.000000	1658.000000	18.260922
843.000000	1657.000000	18.254418
844.000000	1656.000000	18.278266
845.000000	1655.000000	18.260199
846.000000	1654.000000	18.264845
847.000000	1653.000000	18.259064
848.000000	1652.000000	18.223756
849.000000	1651.000000	18.215703
850.000000	1650.000000	18.197223
851.000000	1649.000000	18.166045
852.000000	1648.000000	18.127124
853.000000	1647.000000	18.111122
854.000000	1646.000000	18.061361
855.000000	1645.000000	18.029254
856.000000	1644.000000	17.986409
857.000000	1643.000000	17.952960
858.000000	1642.000000	17.924569
859.000000	1641.000000	17.890913
860.000000	1640.000000	17.840636
861.000000	1639.000000	17.777350
862.000000	1638.000000	17.726866
863.000000	1637.000000	17.697237
864.000000	1636.000000	17.648818
865.000000	1635.000000	17.578305
866.000000	1634.000000	17.526583
867.000000	1633.000000	17.478267
868.000000	1632.000000	17.411884
869.000000	1631.000000	17.350870
870.000000	1630.000000	17.308335
871.000000	1629.000000	17.271892
872.000000	1628.000000	17.209639
873.000000	1627.000000	17.145837
874.000000	1626.000000	17.078938
875.000000	1625.000000	17.023396
876.000000	1624.000000	16.979829
877.000000	1623.000000	16.919640
878.000000	1622.000000	16.883610
879.000000	1621.000000	16.822079
880.000000	1620.000000	16.770047
881.000000	1619.000000	16.705419
882.000000	1618.000000	16.671867
883.000000	1617.000000	16.623551
884.000000	1616.000000	16.556032
885.000000	1615.000000	16.509059
886.000000	1614.000000	16.446186
887.000000	1613.000000	16.383520
888.000000	1612.000000	16.347903
889.000000	1611.000000	16.306297
890.000000	1610.000000	16.265208
891.000000	1609.000000	16.219576
892.000000	1608.000000	16.180139
893.000000	1607.000000	16.132959
894.000000	1606.000000	16.075042
895.000000	1605.000000	16.036843
896.000000	1604.000000	15.988321
897.000000	1603.000000	15.937114
898.000000	1602.000000	15.880539
899.000000	1601.000000	15.850600
900.000000	1600.000000	15.829849
901.000000	1599.000000	15.796193
902.000000	1598.000000	15.754484
903.000000	1597.000000	15.715254
904.000000	1596.000000	15.678088
905.000000	1595.000000	15.639373
906.000000	1594.000000	15.622751
907.000000	1593.000000	15.605407
908.000000	1592.000000	15.571132
909.000000	1591.000000	15.545632
910.000000	1590.000000	15.535927
911.000000	1589.000000	15.510014
912.000000	1588.000000	15.491948
913.000000	1587.000000	15.462318
914.000000	1586.000000	15.440122
915.000000	1585.000000	15.453543
916.000000	1584.000000	15.459118
917.000000	1583.000000	15.450858
918.000000	1582.000000	15.444561
919.000000	1581.000000	15.433101
920.000000	1580.000000	15.412557
921.000000	1579.000000	15.414622
922.000000	1578.000000	15.410079
923.000000	1577.000000	15.411731
924.000000	1576.000000	15.414312
925.000000	1575.000000	15.410492
926.000000	1574.000000	15.408427
927.000000	1573.000000	15.423294
928.000000	1572.000000	15.437437
929.000000	1571.000000	15.433411
930.000000	1570.000000	15.449620
931.000000	1569.000000	15.484824
932.000000	1568.000000	15.489573
933.000000	1567.000000	15.501342
934.000000	1566.000000	15.526326
935.000000	1565.000000	15.539128
936.000000	1564.000000	15.559879
937.000000	1563.000000	15.583004
938.000000	1562.000000	15.598387
939.000000	1561.000000	15.607266
940.000000	1560.000000	15.630494
941.000000	1559.000000	15.650832
942.000000	1558.000000	15.667557
943.000000	1557.000000	15.695948
944.000000	1556.000000	15.707407
945.000000	1555.000000	15.717318
946.000000	1554.000000	15.725371
947.000000	1553.000000	15.738173
948.000000	1552.000000	15.751800
949.000000	1551.000000	15.734353
950.000000	1550.000000	15.724339
951.000000	1549.000000	15.712156
952.000000	1548.000000	15.715150
953.000000	1547.000000	15.718248
954.000000	1546.000000	15.724235
955.000000	1545.000000	15.722584
956.000000	1544.000000	15.725784
957.000000	1543.000000	15.717731
958.000000	1542.000000	15.714841
959.000000	1541.000000	15.718454
960.000000	1540.000000	15.718557
961.000000	1539.000000	15.721964
962.000000	1538.000000	15.733114
963.000000	1537.000000	15.743335
964.000000	1536.000000	15.747155
965.000000	1535.000000	15.756033
966.000000	1534.000000	15.762950
967.000000	1533.000000	15.760782
968.000000	1532.000000	15.773997
969.000000	1531.000000	15.791134
970.000000	1530.000000	15.789070
971.000000	1529.000000	15.793509
972.000000	1528.000000	15.800013
973.000000	1527.000000	15.807859
974.000000	1526.000000	15.802284
975.000000	1525.000000	15.813537
976.000000	1524.000000	15.818596
977.000000	1523.000000	15.824894
978.000000	1522.000000	15.834598
979.000000	1521.000000	15.829333
980.000000	1520.000000	15.836250
981.000000	1519.000000	15.844302
982.000000	1518.000000	15.853387
983.000000	1517.000000	15.833979
984.000000	1516.000000	15.822003
985.000000	1515.000000	15.835940
986.000000	1514.000000	15.833875
987.000000	1513.000000	15.824894
988.000000	1512.000000	15.845128
989.000000	1511.000000	15.869493
990.000000	1510.000000	15.872487
991.000000	1509.000000	15.849464
992.000000	1508.000000	15.847916
993.000000	1507.000000	15.851736
994.000000	1506.000000	15.845851
995.000000	1505.000000	15.838005
996.000000	1504.000000	15.852252
997.000000	1503.000000	15.855452
998.000000	1502.000000	15.865466
999.000000	1501.000000	15.862576
1000.000000	1500.000000	15.862060
1001.000000	1499.000000	15.885288
1002.000000	1498.000000	15.888592
1003.000000	1497.000000	15.895199
1004.000000	1496.000000	15.893031
1005.000000	1495.000000	15.916983
1006.000000	1494.000000	15.915744
1007.000000	1493.000000	15.929371
1008.000000	1492.000000	15.940521
1009.000000	1491.000000	15.959311
1010.000000	1490.000000	15.958072
1011.000000	1489.000000	15.971390
1012.000000	1488.000000	16.008143
1013.000000	1487.000000	16.026623
1014.000000	1486.000000	16.036740
1015.000000	1485.000000	16.039940
1016.000000	1484.000000	16.058420
1017.000000	1483.000000	16.084849
1018.000000	1482.000000	16.100232
1019.000000	1481.000000	16.102503
1020.000000	1480.000000	16.125526
1021.000000	1479.000000	16.155362
1022.000000	1478.000000	16.188914
1023.000000	1477.000000	16.201819
1024.000000	1476.000000	16.216892
1025.000000	1475.000000	16.246006
1026.000000	1474.000000	16.275119
1027.000000	1473.000000	16.304749
1028.000000	1472.000000	16.330558
1029.000000	1471.000000	16.369067
1030.000000	1470.000000	16.374745
1031.000000	1469.000000	16.386824
1032.000000	1468.000000	16.406026
1033.000000	1467.000000	16.424093
1034.000000	1466.000000	16.453826
1035.000000	1465.000000	16.465079
1036.000000	1464.000000	16.495638
1037.000000	1463.000000	16.514014
1038.000000	1462.000000	16.558613
1039.000000	1461.000000	16.611369
1040.000000	1460.000000	16.630984
1041.000000	1459.000000	16.681778
1042.000000	1458.000000	16.702735
1043.000000	1457.000000	16.760549
1044.000000	1456.000000	16.810413
1045.000000	1455.000000	16.859762
1046.000000	1454.000000	16.897237
1047.000000	1453.000000	16.972808
1048.000000	1452.000000	17.041875
1049.000000	1451.000000	17.070886
1050.000000	1450.000000	17.135307
1051.000000	1449.000000	17.165246
1052.000000	1448.000000	17.238236
1053.000000	1447.000000	17.321240
1054.000000	1446.000000	17.411471
1055.000000	1445.000000	17.457413
1056.000000	1444.000000	17.496953
1057.000000	1443.000000	17.562716
1058.000000	1442.000000	17.649540
1059.000000	1441.000000	17.720775
1060.000000	1440.000000	17.809354
1061.000000	1439.000000	17.847863
1062.000000	1438.000000	17.912903
1063.000000	1437.000000	17.974640
1064.000000	1436.000000	18.033693
1065.000000	1435.000000	18.088926
1066.000000	1434.000000	18.160367
1067.000000	1433.000000	18.235525
1068.000000	1432.000000	18.318839
1069.000000	1431.000000	18.371491
1070.000000	1430.000000	18.440248
1071.000000	1429.000000	18.527279
1072.000000	1428.000000	18.646107
1073.000000	1427.000000	18.731176
1074.000000	1426.000000	18.845874
1075.000000	1425.000000	18.999184
1076.000000	1424.000000	19.112231
1077.000000	1423.000000	19.224246
1078.000000	1422.000000	19.323252
1079.000000	1421.000000	19.462831
1080.000000	1420.000000	19.587647
1081.000000	1419.000000	19.725058
1082.000000	1418.000000	19.800423
