PE UV       SUBTECH     SPECTRUM    ASCII       PEDS        4.00        
   -1
CICIMAUCR0012-3.Sample.ASC
24/04/04
15:58:33.00
24/04/04
15:58:33.00
Vinicio Soto Monge
C. cupreomarginata
250,000000
1
Lambda 1050
1050L1511233
PerkinElmer UV WinLab 6.3.2.0749 / 2.02.05 Lambda 900 UV/VIS/NIR, Aug  7 2015 09:38:08

0
0
3350/servo 860,8/2
0
0
UV/VIS
1
1
1
DoubleDePol,CommonBeamDepol,RBeamAtt,SBeamAtt,60mm sphere, WB InGaAs Detector
0
0
0
0
Program
Program
3350/servo 860,8/2
3350/0,2 860,8/0,2
3350/0,2 860,8/0,2
0
15.00
 
 
 
0
 
860,8
319,2
860,8
Front
100
on
S:100 R:100
0
0
0
0
 
0
 
 
 
0
 
 
0
0
0
0
0
 
 
 
 
0
0


0
0
#HDR
-1
-1
#GR
nm
%R
1.0
0.0
2500,000000
-1,000000
2251
8
59,015000
5,370900
#DATA
250.000000	2250.000000	5.030700
251.000000	2249.000000	5.026267
252.000000	2248.000000	5.024300
253.000000	2247.000000	5.016333
254.000000	2246.000000	5.004300
255.000000	2245.000000	4.986233
256.000000	2244.000000	4.972700
257.000000	2243.000000	4.940667
258.000000	2242.000000	4.941867
259.000000	2241.000000	4.914333
260.000000	2240.000000	4.896967
261.000000	2239.000000	4.867667
262.000000	2238.000000	4.877067
263.000000	2237.000000	4.833233
264.000000	2236.000000	4.808767
265.000000	2235.000000	4.797000
266.000000	2234.000000	4.808300
267.000000	2233.000000	4.786233
268.000000	2232.000000	4.746967
269.000000	2231.000000	4.718800
270.000000	2230.000000	4.692800
271.000000	2229.000000	4.690533
272.000000	2228.000000	4.696700
273.000000	2227.000000	4.684667
274.000000	2226.000000	4.668133
275.000000	2225.000000	4.680600
276.000000	2224.000000	4.627067
277.000000	2223.000000	4.600000
278.000000	2222.000000	4.640900
279.000000	2221.000000	4.621700
280.000000	2220.000000	4.604033
281.000000	2219.000000	4.580333
282.000000	2218.000000	4.606667
283.000000	2217.000000	4.565467
284.000000	2216.000000	4.600900
285.000000	2215.000000	4.568367
286.000000	2214.000000	4.585400
287.000000	2213.000000	4.582700
288.000000	2212.000000	4.581000
289.000000	2211.000000	4.537600
290.000000	2210.000000	4.549200
291.000000	2209.000000	4.546233
292.000000	2208.000000	4.565467
293.000000	2207.000000	4.529633
294.000000	2206.000000	4.533667
295.000000	2205.000000	4.517433
296.000000	2204.000000	4.510400
297.000000	2203.000000	4.526433
298.000000	2202.000000	4.501667
299.000000	2201.000000	4.517900
300.000000	2200.000000	4.494067
301.000000	2199.000000	4.482367
302.000000	2198.000000	4.480667
303.000000	2197.000000	4.454367
304.000000	2196.000000	4.464533
305.000000	2195.000000	4.473467
306.000000	2194.000000	4.479167
307.000000	2193.000000	4.471333
308.000000	2192.000000	4.467733
309.000000	2191.000000	4.488800
310.000000	2190.000000	4.459200
311.000000	2189.000000	4.429067
312.000000	2188.000000	4.416233
313.000000	2187.000000	4.426867
314.000000	2186.000000	4.435000
315.000000	2185.000000	4.431167
316.000000	2184.000000	4.463867
317.000000	2183.000000	4.745467
318.000000	2182.000000	4.745367
319.000000	2181.000000	4.543633
320.000000	2180.000000	4.559367
321.000000	2179.000000	4.403500
322.000000	2178.000000	4.609733
323.000000	2177.000000	4.550300
324.000000	2176.000000	4.602700
325.000000	2175.000000	4.651700
326.000000	2174.000000	4.558500
327.000000	2173.000000	4.530633
328.000000	2172.000000	4.470667
329.000000	2171.000000	4.479300
330.000000	2170.000000	4.468633
331.000000	2169.000000	4.489233
332.000000	2168.000000	4.502000
333.000000	2167.000000	4.499867
334.000000	2166.000000	4.531700
335.000000	2165.000000	4.466733
336.000000	2164.000000	4.466800
337.000000	2163.000000	4.464767
338.000000	2162.000000	4.509900
339.000000	2161.000000	4.453800
340.000000	2160.000000	4.499800
341.000000	2159.000000	4.519933
342.000000	2158.000000	4.517933
343.000000	2157.000000	4.535367
344.000000	2156.000000	4.506067
345.000000	2155.000000	4.499267
346.000000	2154.000000	4.491533
347.000000	2153.000000	4.506700
348.000000	2152.000000	4.499700
349.000000	2151.000000	4.484033
350.000000	2150.000000	4.500500
351.000000	2149.000000	4.452767
352.000000	2148.000000	4.485933
353.000000	2147.000000	4.475700
354.000000	2146.000000	4.515433
355.000000	2145.000000	4.524033
356.000000	2144.000000	4.536767
357.000000	2143.000000	4.517700
358.000000	2142.000000	4.540733
359.000000	2141.000000	4.562033
360.000000	2140.000000	4.533200
361.000000	2139.000000	4.512167
362.000000	2138.000000	4.558900
363.000000	2137.000000	4.540033
364.000000	2136.000000	4.522267
365.000000	2135.000000	4.539300
366.000000	2134.000000	4.579333
367.000000	2133.000000	4.575233
368.000000	2132.000000	4.643667
369.000000	2131.000000	4.603667
370.000000	2130.000000	4.596933
371.000000	2129.000000	4.578133
372.000000	2128.000000	4.592500
373.000000	2127.000000	4.591567
374.000000	2126.000000	4.581400
375.000000	2125.000000	4.608900
376.000000	2124.000000	4.654200
377.000000	2123.000000	4.573700
378.000000	2122.000000	4.587633
379.000000	2121.000000	4.607200
380.000000	2120.000000	4.638133
381.000000	2119.000000	4.671200
382.000000	2118.000000	4.697467
383.000000	2117.000000	4.723767
384.000000	2116.000000	4.757567
385.000000	2115.000000	4.797033
386.000000	2114.000000	4.845667
387.000000	2113.000000	4.892867
388.000000	2112.000000	4.935600
389.000000	2111.000000	4.989333
390.000000	2110.000000	5.052267
391.000000	2109.000000	5.112300
392.000000	2108.000000	5.181933
393.000000	2107.000000	5.264600
394.000000	2106.000000	5.354033
395.000000	2105.000000	5.454567
396.000000	2104.000000	5.553333
397.000000	2103.000000	5.661800
398.000000	2102.000000	5.779233
399.000000	2101.000000	5.903233
400.000000	2100.000000	6.036033
401.000000	2099.000000	6.182467
402.000000	2098.000000	6.332700
403.000000	2097.000000	6.493767
404.000000	2096.000000	6.664000
405.000000	2095.000000	6.828933
406.000000	2094.000000	7.008833
407.000000	2093.000000	7.194833
408.000000	2092.000000	7.383033
409.000000	2091.000000	7.584500
410.000000	2090.000000	7.785867
411.000000	2089.000000	7.986800
412.000000	2088.000000	8.196533
413.000000	2087.000000	8.404700
414.000000	2086.000000	8.609500
415.000000	2085.000000	8.811933
416.000000	2084.000000	9.009767
417.000000	2083.000000	9.205233
418.000000	2082.000000	9.403900
419.000000	2081.000000	9.591833
420.000000	2080.000000	9.776900
421.000000	2079.000000	9.963067
422.000000	2078.000000	10.143833
423.000000	2077.000000	10.315500
424.000000	2076.000000	10.484100
425.000000	2075.000000	10.653633
426.000000	2074.000000	10.818367
427.000000	2073.000000	10.976700
428.000000	2072.000000	11.129467
429.000000	2071.000000	11.272867
430.000000	2070.000000	11.412700
431.000000	2069.000000	11.554100
432.000000	2068.000000	11.695267
433.000000	2067.000000	11.826500
434.000000	2066.000000	11.939367
435.000000	2065.000000	12.053200
436.000000	2064.000000	12.165400
437.000000	2063.000000	12.270000
438.000000	2062.000000	12.373900
439.000000	2061.000000	12.457767
440.000000	2060.000000	12.540067
441.000000	2059.000000	12.618100
442.000000	2058.000000	12.682800
443.000000	2057.000000	12.745167
444.000000	2056.000000	12.796933
445.000000	2055.000000	12.835800
446.000000	2054.000000	12.859967
447.000000	2053.000000	12.867100
448.000000	2052.000000	12.856533
449.000000	2051.000000	12.839433
450.000000	2050.000000	12.814100
451.000000	2049.000000	12.768067
452.000000	2048.000000	12.718900
453.000000	2047.000000	12.655400
454.000000	2046.000000	12.589600
455.000000	2045.000000	12.524300
456.000000	2044.000000	12.452667
457.000000	2043.000000	12.379967
458.000000	2042.000000	12.313567
459.000000	2041.000000	12.255700
460.000000	2040.000000	12.210433
461.000000	2039.000000	12.176933
462.000000	2038.000000	12.158633
463.000000	2037.000000	12.160000
464.000000	2036.000000	12.185633
465.000000	2035.000000	12.233900
466.000000	2034.000000	12.303800
467.000000	2033.000000	12.397800
468.000000	2032.000000	12.505567
469.000000	2031.000000	12.638900
470.000000	2030.000000	12.799967
471.000000	2029.000000	12.976767
472.000000	2028.000000	13.173000
473.000000	2027.000000	13.383833
474.000000	2026.000000	13.608400
475.000000	2025.000000	13.846767
476.000000	2024.000000	14.095633
477.000000	2023.000000	14.359400
478.000000	2022.000000	14.630367
479.000000	2021.000000	14.895267
480.000000	2020.000000	15.158667
481.000000	2019.000000	15.430767
482.000000	2018.000000	15.700800
483.000000	2017.000000	15.962533
484.000000	2016.000000	16.212867
485.000000	2015.000000	16.450000
486.000000	2014.000000	16.672033
487.000000	2013.000000	16.870533
488.000000	2012.000000	17.069767
489.000000	2011.000000	17.266233
490.000000	2010.000000	17.450967
491.000000	2009.000000	17.631867
492.000000	2008.000000	17.807600
493.000000	2007.000000	17.970400
494.000000	2006.000000	18.116100
495.000000	2005.000000	18.271433
496.000000	2004.000000	18.451033
497.000000	2003.000000	18.640433
498.000000	2002.000000	18.830800
499.000000	2001.000000	19.032400
500.000000	2000.000000	19.243967
501.000000	1999.000000	19.469500
502.000000	1998.000000	19.715667
503.000000	1997.000000	19.982700
504.000000	1996.000000	20.270900
505.000000	1995.000000	20.589567
506.000000	1994.000000	20.925433
507.000000	1993.000000	21.269800
508.000000	1992.000000	21.622100
509.000000	1991.000000	21.977033
510.000000	1990.000000	22.354633
511.000000	1989.000000	22.722700
512.000000	1988.000000	23.110067
513.000000	1987.000000	23.510467
514.000000	1986.000000	23.916700
515.000000	1985.000000	24.322367
516.000000	1984.000000	24.728467
517.000000	1983.000000	25.132733
518.000000	1982.000000	25.544233
519.000000	1981.000000	25.976700
520.000000	1980.000000	26.428767
521.000000	1979.000000	26.898033
522.000000	1978.000000	27.394433
523.000000	1977.000000	27.929133
524.000000	1976.000000	28.484167
525.000000	1975.000000	29.077433
526.000000	1974.000000	29.685100
527.000000	1973.000000	30.318333
528.000000	1972.000000	30.969033
529.000000	1971.000000	31.657367
530.000000	1970.000000	32.354433
531.000000	1969.000000	33.067567
532.000000	1968.000000	33.779700
533.000000	1967.000000	34.486300
534.000000	1966.000000	35.185567
535.000000	1965.000000	35.854500
536.000000	1964.000000	36.473633
537.000000	1963.000000	37.074000
538.000000	1962.000000	37.646200
539.000000	1961.000000	38.200500
540.000000	1960.000000	38.727000
541.000000	1959.000000	39.220300
542.000000	1958.000000	39.686100
543.000000	1957.000000	40.132200
544.000000	1956.000000	40.561800
545.000000	1955.000000	40.964433
546.000000	1954.000000	41.314400
547.000000	1953.000000	41.627800
548.000000	1952.000000	41.900267
549.000000	1951.000000	42.140467
550.000000	1950.000000	42.337700
551.000000	1949.000000	42.494167
552.000000	1948.000000	42.654367
553.000000	1947.000000	42.780033
554.000000	1946.000000	42.884833
555.000000	1945.000000	42.988733
556.000000	1944.000000	43.085200
557.000000	1943.000000	43.174467
558.000000	1942.000000	43.293533
559.000000	1941.000000	43.414733
560.000000	1940.000000	43.372267
561.000000	1939.000000	43.492500
562.000000	1938.000000	43.623300
563.000000	1937.000000	43.768900
564.000000	1936.000000	43.914767
565.000000	1935.000000	44.045900
566.000000	1934.000000	44.142933
567.000000	1933.000000	44.245767
568.000000	1932.000000	44.296400
569.000000	1931.000000	44.323467
570.000000	1930.000000	44.330267
571.000000	1929.000000	44.311867
572.000000	1928.000000	44.249000
573.000000	1927.000000	44.183000
574.000000	1926.000000	44.111700
575.000000	1925.000000	44.017167
576.000000	1924.000000	43.913467
577.000000	1923.000000	43.818000
578.000000	1922.000000	43.737567
579.000000	1921.000000	43.626733
580.000000	1920.000000	43.531600
581.000000	1919.000000	43.448800
582.000000	1918.000000	43.381467
583.000000	1917.000000	43.327967
584.000000	1916.000000	43.265267
585.000000	1915.000000	43.200633
586.000000	1914.000000	43.152700
587.000000	1913.000000	43.101767
588.000000	1912.000000	43.018433
589.000000	1911.000000	42.908600
590.000000	1910.000000	42.792900
591.000000	1909.000000	42.659800
592.000000	1908.000000	42.474400
593.000000	1907.000000	42.270867
594.000000	1906.000000	42.044900
595.000000	1905.000000	41.776600
596.000000	1904.000000	41.508567
597.000000	1903.000000	41.231333
598.000000	1902.000000	40.936000
599.000000	1901.000000	40.642100
600.000000	1900.000000	40.321767
601.000000	1899.000000	40.029333
602.000000	1898.000000	39.715700
603.000000	1897.000000	39.428100
604.000000	1896.000000	39.123433
605.000000	1895.000000	38.812267
606.000000	1894.000000	38.532733
607.000000	1893.000000	38.235867
608.000000	1892.000000	37.919333
609.000000	1891.000000	37.604567
610.000000	1890.000000	37.268333
611.000000	1889.000000	36.935767
612.000000	1888.000000	36.563833
613.000000	1887.000000	36.193800
614.000000	1886.000000	35.806800
615.000000	1885.000000	35.370667
616.000000	1884.000000	34.936867
617.000000	1883.000000	34.479900
618.000000	1882.000000	34.033500
619.000000	1881.000000	33.562233
620.000000	1880.000000	33.105767
621.000000	1879.000000	32.679567
622.000000	1878.000000	32.268167
623.000000	1877.000000	31.888267
624.000000	1876.000000	31.542100
625.000000	1875.000000	31.181633
626.000000	1874.000000	30.907500
627.000000	1873.000000	30.610700
628.000000	1872.000000	30.344500
629.000000	1871.000000	30.107367
630.000000	1870.000000	29.903433
631.000000	1869.000000	29.696500
632.000000	1868.000000	29.550567
633.000000	1867.000000	29.427033
634.000000	1866.000000	29.322400
635.000000	1865.000000	29.283633
636.000000	1864.000000	29.241633
637.000000	1863.000000	29.264633
638.000000	1862.000000	29.310400
639.000000	1861.000000	29.389367
640.000000	1860.000000	29.492000
641.000000	1859.000000	29.626133
642.000000	1858.000000	29.805233
643.000000	1857.000000	29.989400
644.000000	1856.000000	30.183833
645.000000	1855.000000	30.429567
646.000000	1854.000000	30.649400
647.000000	1853.000000	30.869000
648.000000	1852.000000	31.125700
649.000000	1851.000000	31.348500
650.000000	1850.000000	31.594400
651.000000	1849.000000	31.842467
652.000000	1848.000000	32.093800
653.000000	1847.000000	32.341600
654.000000	1846.000000	32.566967
655.000000	1845.000000	32.785033
656.000000	1844.000000	33.007167
657.000000	1843.000000	33.226467
658.000000	1842.000000	33.419767
659.000000	1841.000000	33.605533
660.000000	1840.000000	33.789067
661.000000	1839.000000	33.970233
662.000000	1838.000000	34.099633
663.000000	1837.000000	34.277733
664.000000	1836.000000	34.425067
665.000000	1835.000000	34.542100
666.000000	1834.000000	34.668200
667.000000	1833.000000	34.787533
668.000000	1832.000000	34.909433
669.000000	1831.000000	34.998400
670.000000	1830.000000	35.108300
671.000000	1829.000000	35.205333
672.000000	1828.000000	35.282267
673.000000	1827.000000	35.381933
674.000000	1826.000000	35.467333
675.000000	1825.000000	35.528033
676.000000	1824.000000	35.592800
677.000000	1823.000000	35.668600
678.000000	1822.000000	35.746233
679.000000	1821.000000	35.815200
680.000000	1820.000000	35.877667
681.000000	1819.000000	35.921433
682.000000	1818.000000	35.960167
683.000000	1817.000000	36.018100
684.000000	1816.000000	36.066933
685.000000	1815.000000	36.102567
686.000000	1814.000000	36.157000
687.000000	1813.000000	36.187567
688.000000	1812.000000	36.237133
689.000000	1811.000000	36.310567
690.000000	1810.000000	36.360000
691.000000	1809.000000	36.425367
692.000000	1808.000000	36.483033
693.000000	1807.000000	36.561767
694.000000	1806.000000	36.642500
695.000000	1805.000000	36.730167
696.000000	1804.000000	36.823400
697.000000	1803.000000	36.919967
698.000000	1802.000000	37.019533
699.000000	1801.000000	37.123633
700.000000	1800.000000	37.213533
701.000000	1799.000000	37.320500
702.000000	1798.000000	37.409533
703.000000	1797.000000	37.521700
704.000000	1796.000000	37.621033
705.000000	1795.000000	37.728700
706.000000	1794.000000	37.855033
707.000000	1793.000000	37.947167
708.000000	1792.000000	38.048000
709.000000	1791.000000	38.143500
710.000000	1790.000000	38.232967
711.000000	1789.000000	38.351933
712.000000	1788.000000	38.461367
713.000000	1787.000000	38.551733
714.000000	1786.000000	38.679567
715.000000	1785.000000	38.773467
716.000000	1784.000000	38.849567
717.000000	1783.000000	38.928333
718.000000	1782.000000	38.999500
719.000000	1781.000000	39.073367
720.000000	1780.000000	39.153933
721.000000	1779.000000	39.202667
722.000000	1778.000000	39.259400
723.000000	1777.000000	39.300700
724.000000	1776.000000	39.341900
725.000000	1775.000000	39.375667
726.000000	1774.000000	39.405333
727.000000	1773.000000	39.430267
728.000000	1772.000000	39.484167
729.000000	1771.000000	39.530433
730.000000	1770.000000	39.568233
731.000000	1769.000000	39.596533
732.000000	1768.000000	39.634367
733.000000	1767.000000	39.680800
734.000000	1766.000000	39.709567
735.000000	1765.000000	39.776200
736.000000	1764.000000	39.831333
737.000000	1763.000000	39.892067
738.000000	1762.000000	39.983533
739.000000	1761.000000	40.007933
740.000000	1760.000000	40.034767
741.000000	1759.000000	40.098300
742.000000	1758.000000	40.170267
743.000000	1757.000000	40.224733
744.000000	1756.000000	40.257767
745.000000	1755.000000	40.327600
746.000000	1754.000000	40.378600
747.000000	1753.000000	40.408167
748.000000	1752.000000	40.456133
749.000000	1751.000000	40.518167
750.000000	1750.000000	40.586667
751.000000	1749.000000	40.638333
752.000000	1748.000000	40.668300
753.000000	1747.000000	40.730100
754.000000	1746.000000	40.761133
755.000000	1745.000000	40.792500
756.000000	1744.000000	40.890667
757.000000	1743.000000	40.940067
758.000000	1742.000000	40.950433
759.000000	1741.000000	40.982133
760.000000	1740.000000	41.035067
761.000000	1739.000000	41.063333
762.000000	1738.000000	41.090967
763.000000	1737.000000	41.173800
764.000000	1736.000000	41.221700
765.000000	1735.000000	41.219800
766.000000	1734.000000	41.263233
767.000000	1733.000000	41.295100
768.000000	1732.000000	41.302633
769.000000	1731.000000	41.362567
770.000000	1730.000000	41.461500
771.000000	1729.000000	41.554600
772.000000	1728.000000	41.598067
773.000000	1727.000000	41.646000
774.000000	1726.000000	41.694667
775.000000	1725.000000	41.779100
776.000000	1724.000000	41.883967
777.000000	1723.000000	41.957700
778.000000	1722.000000	42.057233
779.000000	1721.000000	42.188300
780.000000	1720.000000	42.311933
781.000000	1719.000000	42.411233
782.000000	1718.000000	42.522033
783.000000	1717.000000	42.636233
784.000000	1716.000000	42.783000
785.000000	1715.000000	42.920433
786.000000	1714.000000	43.000767
787.000000	1713.000000	43.133200
788.000000	1712.000000	43.275267
789.000000	1711.000000	43.380800
790.000000	1710.000000	43.464967
791.000000	1709.000000	43.566500
792.000000	1708.000000	43.761167
793.000000	1707.000000	43.906133
794.000000	1706.000000	44.013600
795.000000	1705.000000	44.122400
796.000000	1704.000000	44.234467
797.000000	1703.000000	44.337333
798.000000	1702.000000	44.486033
799.000000	1701.000000	44.548200
800.000000	1700.000000	44.652733
801.000000	1699.000000	44.805967
802.000000	1698.000000	44.896900
803.000000	1697.000000	45.027267
804.000000	1696.000000	45.131267
805.000000	1695.000000	45.217033
806.000000	1694.000000	45.357600
807.000000	1693.000000	45.425333
808.000000	1692.000000	45.526633
809.000000	1691.000000	45.662733
810.000000	1690.000000	45.722800
811.000000	1689.000000	45.820067
812.000000	1688.000000	45.870500
813.000000	1687.000000	45.952967
814.000000	1686.000000	46.032267
815.000000	1685.000000	46.086967
816.000000	1684.000000	46.187300
817.000000	1683.000000	46.249567
818.000000	1682.000000	46.338967
819.000000	1681.000000	46.370800
820.000000	1680.000000	46.473467
821.000000	1679.000000	46.566333
822.000000	1678.000000	46.639067
823.000000	1677.000000	46.694600
824.000000	1676.000000	46.711100
825.000000	1675.000000	46.811567
826.000000	1674.000000	46.882133
827.000000	1673.000000	46.961500
828.000000	1672.000000	46.997333
829.000000	1671.000000	47.025433
830.000000	1670.000000	47.024767
831.000000	1669.000000	47.006433
832.000000	1668.000000	47.083233
833.000000	1667.000000	47.143467
834.000000	1666.000000	47.231867
835.000000	1665.000000	47.283433
836.000000	1664.000000	47.206133
837.000000	1663.000000	47.176433
838.000000	1662.000000	47.128667
