PE UV       SUBTECH     SPECTRUM    ASCII       PEDS        4.00        
   -1
CICIMAUCR0014-3.Sample.ASC
24/04/04
11:17:51.00
24/04/04
11:17:51.00
Vinicio Soto Monge
C. cupreomarginata
250,000000
1
Lambda 1050
1050L1511233
PerkinElmer UV WinLab 6.3.2.0749 / 2.02.05 Lambda 900 UV/VIS/NIR, Aug  7 2015 09:38:08

0
0
3350/servo 860,8/2
0
0
UV/VIS
1
1
1
DoubleDePol,CommonBeamDepol,RBeamAtt,SBeamAtt,60mm sphere, WB InGaAs Detector
0
0
0
0
Program
Program
3350/servo 860,8/2
3350/0,2 860,8/0,2
3350/0,2 860,8/0,2
0
15.00
 
 
 
0
 
860,8
319,2
860,8
Front
100
on
S:100 R:100
0
0
0
0
 
0
 
 
 
0
 
 
0
0
0
0
0
 
 
 
 
0
0


0
0
#HDR
-1
-1
#GR
nm
%R
1.0
0.0
2500,000000
-1,000000
2251
8
67,923300
5,031600
#DATA
250.000000	2250.000000	5.578233
251.000000	2249.000000	5.579867
252.000000	2248.000000	5.576033
253.000000	2247.000000	5.564767
254.000000	2246.000000	5.566800
255.000000	2245.000000	5.556100
256.000000	2244.000000	5.530100
257.000000	2243.000000	5.519167
258.000000	2242.000000	5.534633
259.000000	2241.000000	5.516567
260.000000	2240.000000	5.494400
261.000000	2239.000000	5.479533
262.000000	2238.000000	5.432767
263.000000	2237.000000	5.410700
264.000000	2236.000000	5.399033
265.000000	2235.000000	5.387233
266.000000	2234.000000	5.366000
267.000000	2233.000000	5.351300
268.000000	2232.000000	5.361533
269.000000	2231.000000	5.318100
270.000000	2230.000000	5.301667
271.000000	2229.000000	5.315567
272.000000	2228.000000	5.303100
273.000000	2227.000000	5.296233
274.000000	2226.000000	5.276800
275.000000	2225.000000	5.272967
276.000000	2224.000000	5.233733
277.000000	2223.000000	5.230800
278.000000	2222.000000	5.242800
279.000000	2221.000000	5.221367
280.000000	2220.000000	5.201833
281.000000	2219.000000	5.182800
282.000000	2218.000000	5.167533
283.000000	2217.000000	5.163933
284.000000	2216.000000	5.155867
285.000000	2215.000000	5.156867
286.000000	2214.000000	5.180567
287.000000	2213.000000	5.155500
288.000000	2212.000000	5.124067
289.000000	2211.000000	5.139033
290.000000	2210.000000	5.112033
291.000000	2209.000000	5.077100
292.000000	2208.000000	5.078733
293.000000	2207.000000	5.120833
294.000000	2206.000000	5.072833
295.000000	2205.000000	5.072567
296.000000	2204.000000	5.074900
297.000000	2203.000000	5.059033
298.000000	2202.000000	5.079500
299.000000	2201.000000	5.041267
300.000000	2200.000000	5.046300
301.000000	2199.000000	5.059167
302.000000	2198.000000	5.057200
303.000000	2197.000000	5.025767
304.000000	2196.000000	5.035500
305.000000	2195.000000	5.024233
306.000000	2194.000000	5.002733
307.000000	2193.000000	5.011367
308.000000	2192.000000	5.012500
309.000000	2191.000000	5.000200
310.000000	2190.000000	5.007033
311.000000	2189.000000	4.988100
312.000000	2188.000000	5.027867
313.000000	2187.000000	5.017300
314.000000	2186.000000	5.007733
315.000000	2185.000000	5.000400
316.000000	2184.000000	4.998333
317.000000	2183.000000	5.116067
318.000000	2182.000000	5.181833
319.000000	2181.000000	5.272733
320.000000	2180.000000	5.210967
321.000000	2179.000000	5.015367
322.000000	2178.000000	5.017400
323.000000	2177.000000	4.996600
324.000000	2176.000000	5.190100
325.000000	2175.000000	5.063467
326.000000	2174.000000	5.083767
327.000000	2173.000000	5.186433
328.000000	2172.000000	5.054333
329.000000	2171.000000	5.024267
330.000000	2170.000000	5.039133
331.000000	2169.000000	5.034733
332.000000	2168.000000	5.087333
333.000000	2167.000000	5.059633
334.000000	2166.000000	5.071700
335.000000	2165.000000	5.043700
336.000000	2164.000000	5.054100
337.000000	2163.000000	5.083700
338.000000	2162.000000	5.035433
339.000000	2161.000000	5.092367
340.000000	2160.000000	5.053200
341.000000	2159.000000	5.022533
342.000000	2158.000000	5.015433
343.000000	2157.000000	5.010233
344.000000	2156.000000	5.022200
345.000000	2155.000000	5.028667
346.000000	2154.000000	5.036400
347.000000	2153.000000	5.030500
348.000000	2152.000000	5.070867
349.000000	2151.000000	5.028067
350.000000	2150.000000	5.022100
351.000000	2149.000000	5.048567
352.000000	2148.000000	5.065800
353.000000	2147.000000	5.046267
354.000000	2146.000000	4.991900
355.000000	2145.000000	5.003367
356.000000	2144.000000	5.027933
357.000000	2143.000000	5.022533
358.000000	2142.000000	5.057867
359.000000	2141.000000	5.016167
360.000000	2140.000000	5.007100
361.000000	2139.000000	5.027667
362.000000	2138.000000	5.064567
363.000000	2137.000000	5.027633
364.000000	2136.000000	5.056633
365.000000	2135.000000	5.039300
366.000000	2134.000000	5.059467
367.000000	2133.000000	5.071200
368.000000	2132.000000	5.029567
369.000000	2131.000000	5.028067
370.000000	2130.000000	5.033133
371.000000	2129.000000	5.045967
372.000000	2128.000000	5.033933
373.000000	2127.000000	4.951767
374.000000	2126.000000	4.958633
375.000000	2125.000000	5.006200
376.000000	2124.000000	5.088800
377.000000	2123.000000	4.996067
378.000000	2122.000000	5.010567
379.000000	2121.000000	5.022400
380.000000	2120.000000	5.025033
381.000000	2119.000000	5.039467
382.000000	2118.000000	5.047667
383.000000	2117.000000	5.062333
384.000000	2116.000000	5.069500
385.000000	2115.000000	5.084500
386.000000	2114.000000	5.092667
387.000000	2113.000000	5.116333
388.000000	2112.000000	5.133000
389.000000	2111.000000	5.150200
390.000000	2110.000000	5.175167
391.000000	2109.000000	5.199700
392.000000	2108.000000	5.219600
393.000000	2107.000000	5.237767
394.000000	2106.000000	5.260867
395.000000	2105.000000	5.297067
396.000000	2104.000000	5.333433
397.000000	2103.000000	5.361033
398.000000	2102.000000	5.403467
399.000000	2101.000000	5.451300
400.000000	2100.000000	5.482933
401.000000	2099.000000	5.534300
402.000000	2098.000000	5.590867
403.000000	2097.000000	5.659100
404.000000	2096.000000	5.718400
405.000000	2095.000000	5.781500
406.000000	2094.000000	5.853667
407.000000	2093.000000	5.935767
408.000000	2092.000000	6.024733
409.000000	2091.000000	6.108967
410.000000	2090.000000	6.206833
411.000000	2089.000000	6.315400
412.000000	2088.000000	6.430267
413.000000	2087.000000	6.542900
414.000000	2086.000000	6.663400
415.000000	2085.000000	6.796767
416.000000	2084.000000	6.931267
417.000000	2083.000000	7.074633
418.000000	2082.000000	7.219867
419.000000	2081.000000	7.361800
420.000000	2080.000000	7.513333
421.000000	2079.000000	7.675333
422.000000	2078.000000	7.847767
423.000000	2077.000000	8.012667
424.000000	2076.000000	8.182867
425.000000	2075.000000	8.358967
426.000000	2074.000000	8.533767
427.000000	2073.000000	8.721733
428.000000	2072.000000	8.909200
429.000000	2071.000000	9.094900
430.000000	2070.000000	9.289333
431.000000	2069.000000	9.488100
432.000000	2068.000000	9.679867
433.000000	2067.000000	9.870800
434.000000	2066.000000	10.071167
435.000000	2065.000000	10.265967
436.000000	2064.000000	10.456133
437.000000	2063.000000	10.653500
438.000000	2062.000000	10.841133
439.000000	2061.000000	11.036500
440.000000	2060.000000	11.239800
441.000000	2059.000000	11.435967
442.000000	2058.000000	11.626667
443.000000	2057.000000	11.817833
444.000000	2056.000000	12.008900
445.000000	2055.000000	12.193400
446.000000	2054.000000	12.377667
447.000000	2053.000000	12.557867
448.000000	2052.000000	12.733933
449.000000	2051.000000	12.891333
450.000000	2050.000000	13.043067
451.000000	2049.000000	13.202800
452.000000	2048.000000	13.356967
453.000000	2047.000000	13.497633
454.000000	2046.000000	13.638800
455.000000	2045.000000	13.780600
456.000000	2044.000000	13.905900
457.000000	2043.000000	14.024233
458.000000	2042.000000	14.146300
459.000000	2041.000000	14.265633
460.000000	2040.000000	14.377033
461.000000	2039.000000	14.485300
462.000000	2038.000000	14.591267
463.000000	2037.000000	14.694433
464.000000	2036.000000	14.798233
465.000000	2035.000000	14.896067
466.000000	2034.000000	14.989100
467.000000	2033.000000	15.069033
468.000000	2032.000000	15.141233
469.000000	2031.000000	15.214033
470.000000	2030.000000	15.281333
471.000000	2029.000000	15.346567
472.000000	2028.000000	15.409000
473.000000	2027.000000	15.457600
474.000000	2026.000000	15.497700
475.000000	2025.000000	15.538833
476.000000	2024.000000	15.572867
477.000000	2023.000000	15.616200
478.000000	2022.000000	15.654733
479.000000	2021.000000	15.687133
480.000000	2020.000000	15.725067
481.000000	2019.000000	15.761600
482.000000	2018.000000	15.798000
483.000000	2017.000000	15.841900
484.000000	2016.000000	15.904367
485.000000	2015.000000	15.971067
486.000000	2014.000000	16.052667
487.000000	2013.000000	16.149100
488.000000	2012.000000	16.260133
489.000000	2011.000000	16.383867
490.000000	2010.000000	16.533300
491.000000	2009.000000	16.705033
492.000000	2008.000000	16.894433
493.000000	2007.000000	17.111633
494.000000	2006.000000	17.351400
495.000000	2005.000000	17.604600
496.000000	2004.000000	17.859767
497.000000	2003.000000	18.149933
498.000000	2002.000000	18.441667
499.000000	2001.000000	18.752567
500.000000	2000.000000	19.076167
501.000000	1999.000000	19.410167
502.000000	1998.000000	19.769000
503.000000	1997.000000	20.121000
504.000000	1996.000000	20.483100
505.000000	1995.000000	20.842867
506.000000	1994.000000	21.200700
507.000000	1993.000000	21.565533
508.000000	1992.000000	21.924967
509.000000	1991.000000	22.293967
510.000000	1990.000000	22.673833
511.000000	1989.000000	23.052600
512.000000	1988.000000	23.433333
513.000000	1987.000000	23.820567
514.000000	1986.000000	24.214100
515.000000	1985.000000	24.612267
516.000000	1984.000000	25.005200
517.000000	1983.000000	25.407333
518.000000	1982.000000	25.821333
519.000000	1981.000000	26.249767
520.000000	1980.000000	26.704300
521.000000	1979.000000	27.173867
522.000000	1978.000000	27.642800
523.000000	1977.000000	28.138500
524.000000	1976.000000	28.659800
525.000000	1975.000000	29.192333
526.000000	1974.000000	29.755000
527.000000	1973.000000	30.340000
528.000000	1972.000000	30.937567
529.000000	1971.000000	31.585933
530.000000	1970.000000	32.259100
531.000000	1969.000000	32.974667
532.000000	1968.000000	33.707033
533.000000	1967.000000	34.448867
534.000000	1966.000000	35.206367
535.000000	1965.000000	35.980900
536.000000	1964.000000	36.753000
537.000000	1963.000000	37.538733
538.000000	1962.000000	38.326333
539.000000	1961.000000	39.113300
540.000000	1960.000000	39.904033
541.000000	1959.000000	40.696900
542.000000	1958.000000	41.470433
543.000000	1957.000000	42.213633
544.000000	1956.000000	42.940233
545.000000	1955.000000	43.634333
546.000000	1954.000000	44.302067
547.000000	1953.000000	44.917133
548.000000	1952.000000	45.507667
549.000000	1951.000000	46.044600
550.000000	1950.000000	46.579733
551.000000	1949.000000	47.072300
552.000000	1948.000000	47.542633
553.000000	1947.000000	47.964967
554.000000	1946.000000	48.379467
555.000000	1945.000000	48.774967
556.000000	1944.000000	49.108267
557.000000	1943.000000	49.478833
558.000000	1942.000000	49.804533
559.000000	1941.000000	50.113367
560.000000	1940.000000	50.528333
561.000000	1939.000000	50.822500
562.000000	1938.000000	51.090433
563.000000	1937.000000	51.324367
564.000000	1936.000000	51.545033
565.000000	1935.000000	51.736667
566.000000	1934.000000	51.925033
567.000000	1933.000000	52.086867
568.000000	1932.000000	52.208500
569.000000	1931.000000	52.323167
570.000000	1930.000000	52.416933
571.000000	1929.000000	52.501433
572.000000	1928.000000	52.579667
573.000000	1927.000000	52.629067
574.000000	1926.000000	52.680033
575.000000	1925.000000	52.746833
576.000000	1924.000000	52.789900
577.000000	1923.000000	52.832967
578.000000	1922.000000	52.887367
579.000000	1921.000000	52.921733
580.000000	1920.000000	52.954400
581.000000	1919.000000	52.995100
582.000000	1918.000000	53.039133
583.000000	1917.000000	53.071700
584.000000	1916.000000	53.127567
585.000000	1915.000000	53.109167
586.000000	1914.000000	53.078500
587.000000	1913.000000	53.028267
588.000000	1912.000000	52.989400
589.000000	1911.000000	52.895500
590.000000	1910.000000	52.789767
591.000000	1909.000000	52.675167
592.000000	1908.000000	52.505433
593.000000	1907.000000	52.355900
594.000000	1906.000000	52.172433
595.000000	1905.000000	51.972900
596.000000	1904.000000	51.790767
597.000000	1903.000000	51.603367
598.000000	1902.000000	51.398600
599.000000	1901.000000	51.189000
600.000000	1900.000000	50.985067
601.000000	1899.000000	50.800667
602.000000	1898.000000	50.601700
603.000000	1897.000000	50.404967
604.000000	1896.000000	50.210867
605.000000	1895.000000	50.022700
606.000000	1894.000000	49.844733
607.000000	1893.000000	49.628900
608.000000	1892.000000	49.455767
609.000000	1891.000000	49.240600
610.000000	1890.000000	49.019300
611.000000	1889.000000	48.781667
612.000000	1888.000000	48.518700
613.000000	1887.000000	48.253600
614.000000	1886.000000	47.957767
615.000000	1885.000000	47.618633
616.000000	1884.000000	47.303700
617.000000	1883.000000	46.938667
618.000000	1882.000000	46.584967
619.000000	1881.000000	46.151633
620.000000	1880.000000	45.727533
621.000000	1879.000000	45.294533
622.000000	1878.000000	44.826733
623.000000	1877.000000	44.362033
624.000000	1876.000000	43.894567
625.000000	1875.000000	43.420967
626.000000	1874.000000	42.960733
627.000000	1873.000000	42.504300
628.000000	1872.000000	42.021833
629.000000	1871.000000	41.567733
630.000000	1870.000000	41.100567
631.000000	1869.000000	40.649967
632.000000	1868.000000	40.214500
633.000000	1867.000000	39.790933
634.000000	1866.000000	39.360967
635.000000	1865.000000	38.945400
636.000000	1864.000000	38.576333
637.000000	1863.000000	38.211967
638.000000	1862.000000	37.871300
639.000000	1861.000000	37.546267
640.000000	1860.000000	37.254433
641.000000	1859.000000	36.974267
642.000000	1858.000000	36.754300
643.000000	1857.000000	36.539167
644.000000	1856.000000	36.347400
645.000000	1855.000000	36.207100
646.000000	1854.000000	36.109933
647.000000	1853.000000	36.035167
648.000000	1852.000000	35.983633
649.000000	1851.000000	35.983933
650.000000	1850.000000	35.997800
651.000000	1849.000000	36.029200
652.000000	1848.000000	36.112167
653.000000	1847.000000	36.221033
654.000000	1846.000000	36.332567
655.000000	1845.000000	36.470133
656.000000	1844.000000	36.620367
657.000000	1843.000000	36.793300
658.000000	1842.000000	36.985533
659.000000	1841.000000	37.190200
660.000000	1840.000000	37.394600
661.000000	1839.000000	37.606267
662.000000	1838.000000	37.819767
663.000000	1837.000000	38.035367
664.000000	1836.000000	38.265433
665.000000	1835.000000	38.463300
666.000000	1834.000000	38.668800
667.000000	1833.000000	38.871000
668.000000	1832.000000	39.050067
669.000000	1831.000000	39.227467
670.000000	1830.000000	39.408100
671.000000	1829.000000	39.588000
672.000000	1828.000000	39.734133
673.000000	1827.000000	39.844733
674.000000	1826.000000	39.965333
675.000000	1825.000000	40.077033
676.000000	1824.000000	40.178767
677.000000	1823.000000	40.238367
678.000000	1822.000000	40.319100
679.000000	1821.000000	40.375900
680.000000	1820.000000	40.432967
681.000000	1819.000000	40.502367
682.000000	1818.000000	40.561300
683.000000	1817.000000	40.606267
684.000000	1816.000000	40.662033
685.000000	1815.000000	40.715400
686.000000	1814.000000	40.780100
687.000000	1813.000000	40.816667
688.000000	1812.000000	40.889567
689.000000	1811.000000	40.967500
690.000000	1810.000000	41.037667
691.000000	1809.000000	41.121367
692.000000	1808.000000	41.200367
693.000000	1807.000000	41.276467
694.000000	1806.000000	41.392567
695.000000	1805.000000	41.514733
696.000000	1804.000000	41.629867
697.000000	1803.000000	41.746700
698.000000	1802.000000	41.859200
699.000000	1801.000000	41.982767
700.000000	1800.000000	42.117533
701.000000	1799.000000	42.243200
702.000000	1798.000000	42.366967
703.000000	1797.000000	42.507367
704.000000	1796.000000	42.669000
705.000000	1795.000000	42.788633
706.000000	1794.000000	42.934133
707.000000	1793.000000	43.099767
708.000000	1792.000000	43.274433
709.000000	1791.000000	43.441667
710.000000	1790.000000	43.617067
711.000000	1789.000000	43.789100
712.000000	1788.000000	43.985500
713.000000	1787.000000	44.166667
714.000000	1786.000000	44.346267
715.000000	1785.000000	44.544133
716.000000	1784.000000	44.734033
717.000000	1783.000000	44.926367
718.000000	1782.000000	45.094633
719.000000	1781.000000	45.282500
720.000000	1780.000000	45.463933
721.000000	1779.000000	45.607467
722.000000	1778.000000	45.803800
723.000000	1777.000000	46.010767
724.000000	1776.000000	46.199800
725.000000	1775.000000	46.364700
726.000000	1774.000000	46.544800
727.000000	1773.000000	46.696600
728.000000	1772.000000	46.847567
729.000000	1771.000000	47.021867
730.000000	1770.000000	47.195600
731.000000	1769.000000	47.372900
732.000000	1768.000000	47.540267
733.000000	1767.000000	47.710333
734.000000	1766.000000	47.885000
735.000000	1765.000000	48.045767
736.000000	1764.000000	48.225900
737.000000	1763.000000	48.399600
738.000000	1762.000000	48.568867
739.000000	1761.000000	48.766500
740.000000	1760.000000	48.935000
741.000000	1759.000000	49.107533
742.000000	1758.000000	49.314433
743.000000	1757.000000	49.495267
744.000000	1756.000000	49.654533
745.000000	1755.000000	49.832267
746.000000	1754.000000	50.009367
747.000000	1753.000000	50.185200
748.000000	1752.000000	50.362300
749.000000	1751.000000	50.529833
750.000000	1750.000000	50.688367
751.000000	1749.000000	50.849133
752.000000	1748.000000	51.016967
753.000000	1747.000000	51.174400
754.000000	1746.000000	51.329000
755.000000	1745.000000	51.489433
756.000000	1744.000000	51.640300
757.000000	1743.000000	51.784433
758.000000	1742.000000	51.930333
759.000000	1741.000000	52.101933
760.000000	1740.000000	52.262333
761.000000	1739.000000	52.417800
762.000000	1738.000000	52.582733
763.000000	1737.000000	52.757000
764.000000	1736.000000	52.881700
765.000000	1735.000000	53.008767
766.000000	1734.000000	53.168600
767.000000	1733.000000	53.311400
768.000000	1732.000000	53.470933
769.000000	1731.000000	53.648633
770.000000	1730.000000	53.785500
771.000000	1729.000000	53.937167
772.000000	1728.000000	54.120833
773.000000	1727.000000	54.305500
774.000000	1726.000000	54.430100
775.000000	1725.000000	54.549400
776.000000	1724.000000	54.719000
777.000000	1723.000000	54.902933
778.000000	1722.000000	55.018533
779.000000	1721.000000	55.137633
780.000000	1720.000000	55.325833
781.000000	1719.000000	55.490467
782.000000	1718.000000	55.606000
783.000000	1717.000000	55.719300
784.000000	1716.000000	55.878100
785.000000	1715.000000	56.034567
786.000000	1714.000000	56.190467
787.000000	1713.000000	56.321367
788.000000	1712.000000	56.401800
789.000000	1711.000000	56.544333
790.000000	1710.000000	56.687100
791.000000	1709.000000	56.807267
792.000000	1708.000000	56.935100
793.000000	1707.000000	57.036700
794.000000	1706.000000	57.157700
795.000000	1705.000000	57.251367
796.000000	1704.000000	57.362167
797.000000	1703.000000	57.534000
798.000000	1702.000000	57.641500
799.000000	1701.000000	57.735400
800.000000	1700.000000	57.910867
801.000000	1699.000000	58.018667
802.000000	1698.000000	58.154233
803.000000	1697.000000	58.284367
804.000000	1696.000000	58.429500
805.000000	1695.000000	58.480800
806.000000	1694.000000	58.679167
807.000000	1693.000000	58.780100
808.000000	1692.000000	58.917900
809.000000	1691.000000	59.066267
810.000000	1690.000000	59.111433
811.000000	1689.000000	59.231367
812.000000	1688.000000	59.423167
813.000000	1687.000000	59.547567
814.000000	1686.000000	59.636100
815.000000	1685.000000	59.768767
816.000000	1684.000000	59.865467
817.000000	1683.000000	60.065967
818.000000	1682.000000	60.204100
819.000000	1681.000000	60.380767
820.000000	1680.000000	60.434900
821.000000	1679.000000	60.553167
822.000000	1678.000000	60.729533
823.000000	1677.000000	60.942333
824.000000	1676.000000	61.041433
825.000000	1675.000000	61.219467
826.000000	1674.000000	61.287733
827.000000	1673.000000	61.421433
828.000000	1672.000000	61.648000
829.000000	1671.000000	61.780667
830.000000	1670.000000	61.901500
831.000000	1669.000000	62.022667
832.000000	1668.000000	62.240267
833.000000	1667.000000	62.289867
834.000000	1666.000000	62.427867
835.000000	1665.000000	62.578733
836.000000	1664.000000	62.720267
837.000000	1663.000000	62.931367
838.000000	1662.000000	62.947200
839.000000	1661.000000	63.017567
