PE UV       SUBTECH     SPECTRUM    ASCII       PEDS        4.00        
   -1
CICIMAUCR0008-1.Sample.ASC
24/03/08
13:07:07.00
24/03/08
13:07:07.00
Vinicio Soto Monge
C. kalinini
250,000000
1
Lambda 1050
1050L1511233
PerkinElmer UV WinLab 6.3.2.0749 / 2.02.05 Lambda 900 UV/VIS/NIR, Aug  7 2015 09:38:08

0
0
3350/servo 860,8/2
0
0
UV/VIS
1
1
1
DoubleDePol,CommonBeamDepol,RBeamAtt,SBeamAtt,60mm sphere, WB InGaAs Detector
0
0
0
0
Program
Program
3350/servo 860,8/2
3350/0,2 860,8/0,2
3350/0,2 860,8/0,2
0
15.00
 
 
 
0
 
860,8
319,2
860,8
Front
100
on
S:100 R:100
0
0
0
0
 
0
 
 
 
0
 
 
0
0
0
0
0
 
 
 
 
0
0


0
0
#HDR
-1
-1
#GR
nm
%R
1.0
0.0
2500,000000
-1,000000
2251
8
36,165400
2,347300
#DATA
501.000000	1999.000000	6.775877
502.000000	1998.000000	6.779567
503.000000	1997.000000	6.763166
504.000000	1996.000000	6.717960
505.000000	1995.000000	6.711194
506.000000	1994.000000	6.694793
507.000000	1993.000000	6.673369
508.000000	1992.000000	6.641079
509.000000	1991.000000	6.612479
510.000000	1990.000000	6.591260
511.000000	1989.000000	6.553947
512.000000	1988.000000	6.528730
513.000000	1987.000000	6.516122
514.000000	1986.000000	6.478809
515.000000	1985.000000	6.465380
516.000000	1984.000000	6.421302
517.000000	1983.000000	6.386654
518.000000	1982.000000	6.347086
519.000000	1981.000000	6.337963
520.000000	1980.000000	6.314591
521.000000	1979.000000	6.272665
522.000000	1978.000000	6.246628
523.000000	1977.000000	6.210443
524.000000	1976.000000	6.177743
525.000000	1975.000000	6.145863
526.000000	1974.000000	6.108140
527.000000	1973.000000	6.050428
528.000000	1972.000000	6.067650
529.000000	1971.000000	6.040997
530.000000	1970.000000	6.006760
531.000000	1969.000000	5.981850
532.000000	1968.000000	5.936132
533.000000	1967.000000	5.919218
534.000000	1966.000000	5.896256
535.000000	1965.000000	5.884980
536.000000	1964.000000	5.822041
537.000000	1963.000000	5.802359
538.000000	1962.000000	5.781960
539.000000	1961.000000	5.744955
540.000000	1960.000000	5.718097
541.000000	1959.000000	5.700774
542.000000	1958.000000	5.652390
543.000000	1957.000000	5.632606
544.000000	1956.000000	5.626865
545.000000	1955.000000	5.579199
546.000000	1954.000000	5.571101
547.000000	1953.000000	5.539119
548.000000	1952.000000	5.503138
549.000000	1951.000000	5.491247
550.000000	1950.000000	5.463160
551.000000	1949.000000	5.438661
552.000000	1948.000000	5.416007
553.000000	1947.000000	5.396018
554.000000	1946.000000	5.370698
555.000000	1945.000000	5.368340
556.000000	1944.000000	5.335025
557.000000	1943.000000	5.329695
558.000000	1942.000000	5.322007
559.000000	1941.000000	5.295560
560.000000	1940.000000	5.312884
561.000000	1939.000000	5.288794
562.000000	1938.000000	5.296892
563.000000	1937.000000	5.285719
564.000000	1936.000000	5.284181
565.000000	1935.000000	5.286949
566.000000	1934.000000	5.297610
567.000000	1933.000000	5.313396
568.000000	1932.000000	5.336768
569.000000	1931.000000	5.364343
570.000000	1930.000000	5.382589
571.000000	1929.000000	5.405038
572.000000	1928.000000	5.412521
573.000000	1927.000000	5.449219
574.000000	1926.000000	5.463775
575.000000	1925.000000	5.503446
576.000000	1924.000000	5.544654
577.000000	1923.000000	5.588015
578.000000	1922.000000	5.636399
579.000000	1921.000000	5.702824
580.000000	1920.000000	5.752950
581.000000	1919.000000	5.793646
582.000000	1918.000000	5.842952
583.000000	1917.000000	5.900459
584.000000	1916.000000	5.978160
585.000000	1915.000000	6.054221
586.000000	1914.000000	6.104552
587.000000	1913.000000	6.162264
588.000000	1912.000000	6.254932
589.000000	1911.000000	6.309671
590.000000	1910.000000	6.386962
591.000000	1909.000000	6.457385
592.000000	1908.000000	6.535803
593.000000	1907.000000	6.615247
594.000000	1906.000000	6.742869
595.000000	1905.000000	6.821595
596.000000	1904.000000	6.897964
597.000000	1903.000000	6.989401
598.000000	1902.000000	7.076943
599.000000	1901.000000	7.189291
600.000000	1900.000000	7.281036
601.000000	1899.000000	7.375958
602.000000	1898.000000	7.465755
603.000000	1897.000000	7.567853
604.000000	1896.000000	7.673129
605.000000	1895.000000	7.780762
606.000000	1894.000000	7.895879
607.000000	1893.000000	8.014480
608.000000	1892.000000	8.119448
609.000000	1891.000000	8.215498
610.000000	1890.000000	8.321081
611.000000	1889.000000	8.420514
612.000000	1888.000000	8.562693
613.000000	1887.000000	8.676989
614.000000	1886.000000	8.815375
615.000000	1885.000000	8.973442
616.000000	1884.000000	9.131304
617.000000	1883.000000	9.275635
618.000000	1882.000000	9.439648
619.000000	1881.000000	9.632465
620.000000	1880.000000	9.808472
621.000000	1879.000000	9.993601
622.000000	1878.000000	10.157921
623.000000	1877.000000	10.328802
624.000000	1876.000000	10.486767
625.000000	1875.000000	10.624742
626.000000	1874.000000	10.753902
627.000000	1873.000000	10.877527
628.000000	1872.000000	11.000844
629.000000	1871.000000	11.081313
630.000000	1870.000000	11.138512
631.000000	1869.000000	11.210883
632.000000	1868.000000	11.274745
633.000000	1867.000000	11.322514
634.000000	1866.000000	11.400830
635.000000	1865.000000	11.439168
636.000000	1864.000000	11.489089
637.000000	1863.000000	11.561870
638.000000	1862.000000	11.605743
639.000000	1861.000000	11.636906
640.000000	1860.000000	11.672066
641.000000	1859.000000	11.697180
642.000000	1858.000000	11.689390
643.000000	1857.000000	11.689082
644.000000	1856.000000	11.698615
645.000000	1855.000000	11.714914
646.000000	1854.000000	11.711326
647.000000	1853.000000	11.690415
648.000000	1852.000000	11.677089
649.000000	1851.000000	11.693182
650.000000	1850.000000	11.720347
651.000000	1849.000000	11.740644
652.000000	1848.000000	11.697795
653.000000	1847.000000	11.618762
654.000000	1846.000000	11.564022
655.000000	1845.000000	11.556744
656.000000	1844.000000	11.579809
657.000000	1843.000000	11.605333
658.000000	1842.000000	11.611176
659.000000	1841.000000	11.591084
660.000000	1840.000000	11.551004
661.000000	1839.000000	11.523839
662.000000	1838.000000	11.524249
663.000000	1837.000000	11.508156
664.000000	1836.000000	11.464180
665.000000	1835.000000	11.414361
666.000000	1834.000000	11.391297
667.000000	1833.000000	11.372230
668.000000	1832.000000	11.357469
669.000000	1831.000000	11.348038
670.000000	1830.000000	11.314518
671.000000	1829.000000	11.286431
672.000000	1828.000000	11.242147
673.000000	1827.000000	11.207910
674.000000	1826.000000	11.181053
675.000000	1825.000000	11.152146
676.000000	1824.000000	11.135949
677.000000	1823.000000	11.153991
678.000000	1822.000000	11.163011
679.000000	1821.000000	11.136359
680.000000	1820.000000	11.097714
681.000000	1819.000000	11.053328
682.000000	1818.000000	11.058351
683.000000	1817.000000	11.078750
684.000000	1816.000000	11.080287
685.000000	1815.000000	11.070344
686.000000	1814.000000	11.060503
687.000000	1813.000000	11.048715
688.000000	1812.000000	11.057223
689.000000	1811.000000	11.048100
690.000000	1810.000000	11.022165
691.000000	1809.000000	11.008737
692.000000	1808.000000	10.999614
693.000000	1807.000000	10.987415
694.000000	1806.000000	10.966401
695.000000	1805.000000	10.939442
696.000000	1804.000000	10.924988
697.000000	1803.000000	10.907152
698.000000	1802.000000	10.891160
699.000000	1801.000000	10.874657
700.000000	1800.000000	10.844929
701.000000	1799.000000	10.829553
702.000000	1798.000000	10.806489
703.000000	1797.000000	10.786705
704.000000	1796.000000	10.765486
705.000000	1795.000000	10.755952
706.000000	1794.000000	10.756362
707.000000	1793.000000	10.729300
708.000000	1792.000000	10.720997
709.000000	1791.000000	10.700188
710.000000	1790.000000	10.677124
711.000000	1789.000000	10.640836
712.000000	1788.000000	10.640631
713.000000	1787.000000	10.609674
714.000000	1786.000000	10.595527
715.000000	1785.000000	10.565595
716.000000	1784.000000	10.558112
717.000000	1783.000000	10.533100
718.000000	1782.000000	10.499067
719.000000	1781.000000	10.457859
720.000000	1780.000000	10.447916
721.000000	1779.000000	10.424134
722.000000	1778.000000	10.399840
723.000000	1777.000000	10.355044
724.000000	1776.000000	10.305430
725.000000	1775.000000	10.272320
726.000000	1774.000000	10.229472
727.000000	1773.000000	10.199949
728.000000	1772.000000	10.155871
729.000000	1771.000000	10.116918
730.000000	1770.000000	10.062589
731.000000	1769.000000	10.032144
732.000000	1768.000000	10.012770
733.000000	1767.000000	9.977302
734.000000	1766.000000	9.939067
735.000000	1765.000000	9.912415
736.000000	1764.000000	9.898166
737.000000	1763.000000	9.902676
738.000000	1762.000000	9.904316
739.000000	1761.000000	9.917130
740.000000	1760.000000	9.941322
741.000000	1759.000000	9.977917
742.000000	1758.000000	10.003032
743.000000	1757.000000	10.017485
744.000000	1756.000000	10.050083
745.000000	1755.000000	10.061359
746.000000	1754.000000	10.079913
747.000000	1753.000000	10.072019
748.000000	1752.000000	10.077350
749.000000	1751.000000	10.076017
750.000000	1750.000000	10.076427
751.000000	1749.000000	10.067304
752.000000	1748.000000	10.043317
753.000000	1747.000000	10.004877
754.000000	1746.000000	9.987450
755.000000	1745.000000	9.941527
756.000000	1744.000000	9.919078
757.000000	1743.000000	9.864236
758.000000	1742.000000	9.785510
759.000000	1741.000000	9.704221
760.000000	1740.000000	9.639743
761.000000	1739.000000	9.565630
762.000000	1738.000000	9.491825
763.000000	1737.000000	9.434010
764.000000	1736.000000	9.385011
765.000000	1735.000000	9.340625
766.000000	1734.000000	9.338883
767.000000	1733.000000	9.336320
768.000000	1732.000000	9.360204
769.000000	1731.000000	9.362255
770.000000	1730.000000	9.387061
771.000000	1729.000000	9.425297
772.000000	1728.000000	9.466198
773.000000	1727.000000	9.495925
774.000000	1726.000000	9.540823
775.000000	1725.000000	9.555584
776.000000	1724.000000	9.559787
777.000000	1723.000000	9.603558
778.000000	1722.000000	9.610221
779.000000	1721.000000	9.631338
780.000000	1720.000000	9.606941
781.000000	1719.000000	9.642101
782.000000	1718.000000	9.640461
783.000000	1717.000000	9.661373
784.000000	1716.000000	9.678799
785.000000	1715.000000	9.737126
786.000000	1714.000000	9.737639
787.000000	1713.000000	9.770031
788.000000	1712.000000	9.807959
789.000000	1711.000000	9.808984
790.000000	1710.000000	9.817390
791.000000	1709.000000	9.818517
792.000000	1708.000000	9.828973
793.000000	1707.000000	9.810829
794.000000	1706.000000	9.812674
795.000000	1705.000000	9.801091
796.000000	1704.000000	9.789098
797.000000	1703.000000	9.743482
798.000000	1702.000000	9.708014
799.000000	1701.000000	9.649994
800.000000	1700.000000	9.602738
801.000000	1699.000000	9.584697
802.000000	1698.000000	9.510788
803.000000	1697.000000	9.469068
804.000000	1696.000000	9.432267
805.000000	1695.000000	9.450001
806.000000	1694.000000	9.461892
807.000000	1693.000000	9.484546
808.000000	1692.000000	9.503510
809.000000	1691.000000	9.573728
810.000000	1690.000000	9.602841
811.000000	1689.000000	9.667933
812.000000	1688.000000	9.703196
813.000000	1687.000000	9.713242
814.000000	1686.000000	9.706681
815.000000	1685.000000	9.725030
816.000000	1684.000000	9.763471
817.000000	1683.000000	9.815340
818.000000	1682.000000	9.912927
819.000000	1681.000000	10.052645
820.000000	1680.000000	10.233469
821.000000	1679.000000	10.414703
822.000000	1678.000000	10.609058
823.000000	1677.000000	10.787422
824.000000	1676.000000	10.942414
825.000000	1675.000000	11.075982
826.000000	1674.000000	11.199812
827.000000	1673.000000	11.309495
828.000000	1672.000000	11.415693
829.000000	1671.000000	11.478326
830.000000	1670.000000	11.554797
831.000000	1669.000000	11.599900
832.000000	1668.000000	11.703741
833.000000	1667.000000	11.760428
834.000000	1666.000000	11.813937
835.000000	1665.000000	11.851045
836.000000	1664.000000	11.875441
837.000000	1663.000000	11.913574
838.000000	1662.000000	11.927105
839.000000	1661.000000	11.942277
840.000000	1660.000000	11.959395
841.000000	1659.000000	11.971081
842.000000	1658.000000	11.980615
843.000000	1657.000000	11.994453
844.000000	1656.000000	11.987893
845.000000	1655.000000	11.994146
846.000000	1654.000000	12.009009
847.000000	1653.000000	11.994351
848.000000	1652.000000	12.005012
849.000000	1651.000000	11.975079
850.000000	1650.000000	11.985535
851.000000	1649.000000	11.987175
852.000000	1648.000000	11.954988
853.000000	1647.000000	11.953758
854.000000	1646.000000	11.944019
855.000000	1645.000000	11.920955
856.000000	1644.000000	11.907424
857.000000	1643.000000	11.899223
858.000000	1642.000000	11.871239
859.000000	1641.000000	11.858528
860.000000	1640.000000	11.831158
861.000000	1639.000000	11.808401
862.000000	1638.000000	11.797023
863.000000	1637.000000	11.782467
864.000000	1636.000000	11.760735
865.000000	1635.000000	11.735518
866.000000	1634.000000	11.736543
867.000000	1633.000000	11.700563
868.000000	1632.000000	11.675551
869.000000	1631.000000	11.654332
870.000000	1630.000000	11.624297
871.000000	1629.000000	11.594672
872.000000	1628.000000	11.590674
873.000000	1627.000000	11.542496
874.000000	1626.000000	11.524967
875.000000	1625.000000	11.503850
876.000000	1624.000000	11.482324
877.000000	1623.000000	11.448598
878.000000	1622.000000	11.416821
879.000000	1621.000000	11.398575
880.000000	1620.000000	11.360852
881.000000	1619.000000	11.351421
882.000000	1618.000000	11.340453
883.000000	1617.000000	11.323641
884.000000	1616.000000	11.285508
885.000000	1615.000000	11.260394
886.000000	1614.000000	11.253936
887.000000	1613.000000	11.230872
888.000000	1612.000000	11.215085
889.000000	1611.000000	11.186281
890.000000	1610.000000	11.165164
891.000000	1609.000000	11.130516
892.000000	1608.000000	11.103557
893.000000	1607.000000	11.070857
894.000000	1606.000000	11.055481
895.000000	1605.000000	11.050868
896.000000	1604.000000	11.021140
897.000000	1603.000000	10.972552
898.000000	1602.000000	10.961993
899.000000	1601.000000	10.952255
900.000000	1600.000000	10.932471
901.000000	1599.000000	10.908484
902.000000	1598.000000	10.875067
903.000000	1597.000000	10.858460
904.000000	1596.000000	10.837651
905.000000	1595.000000	10.816022
906.000000	1594.000000	10.791318
907.000000	1593.000000	10.765486
908.000000	1592.000000	10.747444
909.000000	1591.000000	10.740166
910.000000	1590.000000	10.715564
911.000000	1589.000000	10.694653
912.000000	1588.000000	10.676099
913.000000	1587.000000	10.673638
914.000000	1586.000000	10.668718
915.000000	1585.000000	10.645449
916.000000	1584.000000	10.638273
917.000000	1583.000000	10.617259
918.000000	1582.000000	10.597270
919.000000	1581.000000	10.582304
920.000000	1580.000000	10.567440
921.000000	1579.000000	10.583021
922.000000	1578.000000	10.578716
923.000000	1577.000000	10.557189
924.000000	1576.000000	10.563647
925.000000	1575.000000	10.563442
926.000000	1574.000000	10.557394
927.000000	1573.000000	10.555139
928.000000	1572.000000	10.540173
929.000000	1571.000000	10.540993
930.000000	1570.000000	10.549501
931.000000	1569.000000	10.547554
932.000000	1568.000000	10.548681
933.000000	1567.000000	10.574718
934.000000	1566.000000	10.589274
935.000000	1565.000000	10.584764
936.000000	1564.000000	10.589787
937.000000	1563.000000	10.597475
938.000000	1562.000000	10.605778
939.000000	1561.000000	10.607008
940.000000	1560.000000	10.611519
941.000000	1559.000000	10.617669
942.000000	1558.000000	10.633455
943.000000	1557.000000	10.637863
944.000000	1556.000000	10.626792
945.000000	1555.000000	10.637556
946.000000	1554.000000	10.639401
947.000000	1553.000000	10.610904
948.000000	1552.000000	10.607931
949.000000	1551.000000	10.618182
950.000000	1550.000000	10.609776
951.000000	1549.000000	10.615927
952.000000	1548.000000	10.608956
953.000000	1547.000000	10.601575
954.000000	1546.000000	10.610494
955.000000	1545.000000	10.607931
956.000000	1544.000000	10.592247
957.000000	1543.000000	10.591735
958.000000	1542.000000	10.590402
959.000000	1541.000000	10.590915
960.000000	1540.000000	10.584149
961.000000	1539.000000	10.572258
962.000000	1538.000000	10.579024
963.000000	1537.000000	10.595937
964.000000	1536.000000	10.593785
965.000000	1535.000000	10.582919
966.000000	1534.000000	10.588454
967.000000	1533.000000	10.587942
968.000000	1532.000000	10.577589
969.000000	1531.000000	10.581074
970.000000	1530.000000	10.575026
971.000000	1529.000000	10.570926
972.000000	1528.000000	10.549296
973.000000	1527.000000	10.533920
974.000000	1526.000000	10.541608
975.000000	1525.000000	10.537303
976.000000	1524.000000	10.517519
977.000000	1523.000000	10.512701
978.000000	1522.000000	10.497837
979.000000	1521.000000	10.491687
980.000000	1520.000000	10.471288
981.000000	1519.000000	10.449966
982.000000	1518.000000	10.434898
983.000000	1517.000000	10.429157
984.000000	1516.000000	10.414088
985.000000	1515.000000	10.394509
986.000000	1514.000000	10.386821
987.000000	1513.000000	10.371650
988.000000	1512.000000	10.355659
989.000000	1511.000000	10.343870
990.000000	1510.000000	10.331775
991.000000	1509.000000	10.303687
992.000000	1508.000000	10.298869
993.000000	1507.000000	10.280111
994.000000	1506.000000	10.260942
995.000000	1505.000000	10.256739
996.000000	1504.000000	10.221681
997.000000	1503.000000	10.203435
998.000000	1502.000000	10.198924
999.000000	1501.000000	10.179140
1000.000000	1500.000000	10.169504
1001.000000	1499.000000	10.156486
1002.000000	1498.000000	10.149515
1003.000000	1497.000000	10.121941
1004.000000	1496.000000	10.109537
1005.000000	1495.000000	10.115175
1006.000000	1494.000000	10.114970
1007.000000	1493.000000	10.090573
1008.000000	1492.000000	10.091086
1009.000000	1491.000000	10.074377
1010.000000	1490.000000	10.071302
1011.000000	1489.000000	10.065151
1012.000000	1488.000000	10.067817
1013.000000	1487.000000	10.069354
1014.000000	1486.000000	10.050185
1015.000000	1485.000000	10.033169
1016.000000	1484.000000	10.052133
1017.000000	1483.000000	10.054081
1018.000000	1482.000000	10.061666
1019.000000	1481.000000	10.037782
1020.000000	1480.000000	10.041677
1021.000000	1479.000000	10.042395
1022.000000	1478.000000	10.056233
1023.000000	1477.000000	10.050493
1024.000000	1476.000000	10.064536
1025.000000	1475.000000	10.048955
1026.000000	1474.000000	10.084525
1027.000000	1473.000000	10.061974
1028.000000	1472.000000	10.074582
1029.000000	1471.000000	10.093854
1030.000000	1470.000000	10.111485
1031.000000	1469.000000	10.094264
1032.000000	1468.000000	10.099799
1033.000000	1467.000000	10.121223
1034.000000	1466.000000	10.118045
1035.000000	1465.000000	10.102259
1036.000000	1464.000000	10.129219
1037.000000	1463.000000	10.134754
1038.000000	1462.000000	10.140495
1039.000000	1461.000000	10.190314
1040.000000	1460.000000	10.194926
1041.000000	1459.000000	10.192774
1042.000000	1458.000000	10.227319
1043.000000	1457.000000	10.257251
1044.000000	1456.000000	10.271500
1045.000000	1455.000000	10.300100
1046.000000	1454.000000	10.331570
1047.000000	1453.000000	10.340590
1048.000000	1452.000000	10.380773
1049.000000	1451.000000	10.400045
1050.000000	1450.000000	10.441868
1051.000000	1449.000000	10.463395
1052.000000	1448.000000	10.508293
1053.000000	1447.000000	10.539148
1054.000000	1446.000000	10.593580
1055.000000	1445.000000	10.609469
1056.000000	1444.000000	10.646166
1057.000000	1443.000000	10.658775
1058.000000	1442.000000	10.726533
1059.000000	1441.000000	10.767433
1060.000000	1440.000000	10.785372
1061.000000	1439.000000	10.865328
1062.000000	1438.000000	10.896901
1063.000000	1437.000000	10.897618
1064.000000	1436.000000	10.960866
1065.000000	1435.000000	11.004534
1066.000000	1434.000000	11.024626
1067.000000	1433.000000	11.074239
1068.000000	1432.000000	11.136462
1069.000000	1431.000000	11.150608
1070.000000	1430.000000	11.205347
1071.000000	1429.000000	11.266032
1072.000000	1428.000000	11.310520
1073.000000	1427.000000	11.380738
1074.000000	1426.000000	11.428199
1075.000000	1425.000000	11.492164
1076.000000	1424.000000	11.566175
1077.000000	1423.000000	11.629012
1078.000000	1422.000000	11.692465
1079.000000	1421.000000	11.751407
1080.000000	1420.000000	11.840896
1081.000000	1419.000000	11.926798
1082.000000	1418.000000	11.993838
1083.000000	1417.000000	12.024283
1084.000000	1416.000000	12.124126
1085.000000	1415.000000	12.214640
1086.000000	1414.000000	12.286088
1087.000000	1413.000000	12.339085
1088.000000	1412.000000	12.393927
