PE UV       SUBTECH     SPECTRUM    ASCII       PEDS        4.00        
   -1
CICIMAUCR0020-1.Sample.ASC
24/03/08
12:01:00.00
24/03/08
12:01:00.00
Vinicio Soto Monge
C. resplendens
250,000000
1
Lambda 1050
1050L1511233
PerkinElmer UV WinLab 6.3.2.0749 / 2.02.05 Lambda 900 UV/VIS/NIR, Aug  7 2015 09:38:08

0
0
3350/servo 860,8/2
0
0
UV/VIS
1
1
1
DoubleDePol,CommonBeamDepol,RBeamAtt,SBeamAtt,60mm sphere, WB InGaAs Detector
0
0
0
0
Program
Program
3350/servo 860,8/2
3350/0,2 860,8/0,2
3350/0,2 860,8/0,2
0
15.00
 
 
 
0
 
860,8
319,2
860,8
Front
100
on
S:100 R:100
0
0
0
0
 
0
 
 
 
0
 
 
0
0
0
0
0
 
 
 
 
0
0


0
0
#HDR
-1
-1
#GR
nm
%R
1.0
0.0
2500,000000
-1,000000
2251
8
26,391500
2,064300
#DATA
501.000000	1999.000000	5.372161
502.000000	1998.000000	5.359681
503.000000	1997.000000	5.353210
504.000000	1996.000000	5.352933
505.000000	1995.000000	5.337587
506.000000	1994.000000	5.345445
507.000000	1993.000000	5.325015
508.000000	1992.000000	5.304123
509.000000	1991.000000	5.305971
510.000000	1990.000000	5.283508
511.000000	1989.000000	5.275742
512.000000	1988.000000	5.246900
513.000000	1987.000000	5.248564
514.000000	1986.000000	5.222403
515.000000	1985.000000	5.199939
516.000000	1984.000000	5.186812
517.000000	1983.000000	5.171466
518.000000	1982.000000	5.159356
519.000000	1981.000000	5.125892
520.000000	1980.000000	5.092058
521.000000	1979.000000	5.079855
522.000000	1978.000000	5.055727
523.000000	1977.000000	5.031877
524.000000	1976.000000	5.014867
525.000000	1975.000000	4.999244
526.000000	1974.000000	4.980756
527.000000	1973.000000	4.965133
528.000000	1972.000000	4.928987
529.000000	1971.000000	4.915121
530.000000	1970.000000	4.901624
531.000000	1969.000000	4.881841
532.000000	1968.000000	4.868345
533.000000	1967.000000	4.837931
534.000000	1966.000000	4.858083
535.000000	1965.000000	4.820829
536.000000	1964.000000	4.818425
537.000000	1963.000000	4.781725
538.000000	1962.000000	4.764716
539.000000	1961.000000	4.743269
540.000000	1960.000000	4.723578
541.000000	1959.000000	4.705552
542.000000	1958.000000	4.669037
543.000000	1957.000000	4.661364
544.000000	1956.000000	4.665616
545.000000	1955.000000	4.621151
546.000000	1954.000000	4.618378
547.000000	1953.000000	4.603772
548.000000	1952.000000	4.590552
549.000000	1951.000000	4.574744
550.000000	1950.000000	4.560786
551.000000	1949.000000	4.564483
552.000000	1948.000000	4.540263
553.000000	1947.000000	4.530464
554.000000	1946.000000	4.531481
555.000000	1945.000000	4.491545
556.000000	1944.000000	4.486646
557.000000	1943.000000	4.502454
558.000000	1942.000000	4.509387
559.000000	1941.000000	4.497832
560.000000	1940.000000	4.488125
561.000000	1939.000000	4.506706
562.000000	1938.000000	4.483041
563.000000	1937.000000	4.482948
564.000000	1936.000000	4.502546
565.000000	1935.000000	4.515119
566.000000	1934.000000	4.548121
567.000000	1933.000000	4.568458
568.000000	1932.000000	4.592586
569.000000	1931.000000	4.599519
570.000000	1930.000000	4.628824
571.000000	1929.000000	4.636127
572.000000	1928.000000	4.665154
573.000000	1927.000000	4.683088
574.000000	1926.000000	4.712023
575.000000	1925.000000	4.739663
576.000000	1924.000000	4.801600
577.000000	1923.000000	4.862151
578.000000	1922.000000	4.892472
579.000000	1921.000000	4.930189
580.000000	1920.000000	4.941652
581.000000	1919.000000	4.992219
582.000000	1918.000000	5.058038
583.000000	1917.000000	5.129959
584.000000	1916.000000	5.190695
585.000000	1915.000000	5.259472
586.000000	1914.000000	5.336108
587.000000	1913.000000	5.370404
588.000000	1912.000000	5.413945
589.000000	1911.000000	5.472185
590.000000	1910.000000	5.566200
591.000000	1909.000000	5.662063
592.000000	1908.000000	5.750069
593.000000	1907.000000	5.848059
594.000000	1906.000000	5.904542
595.000000	1905.000000	5.946511
596.000000	1904.000000	6.010482
597.000000	1903.000000	6.108934
598.000000	1902.000000	6.211639
599.000000	1901.000000	6.280787
600.000000	1900.000000	6.354464
601.000000	1899.000000	6.428326
602.000000	1898.000000	6.518366
603.000000	1897.000000	6.606834
604.000000	1896.000000	6.714069
605.000000	1895.000000	6.821211
606.000000	1894.000000	6.922806
607.000000	1893.000000	7.008223
608.000000	1892.000000	7.079590
609.000000	1891.000000	7.155578
610.000000	1890.000000	7.234987
611.000000	1889.000000	7.313934
612.000000	1888.000000	7.425698
613.000000	1887.000000	7.536167
614.000000	1886.000000	7.643864
615.000000	1885.000000	7.763301
616.000000	1884.000000	7.886343
617.000000	1883.000000	8.006150
618.000000	1882.000000	8.151286
619.000000	1881.000000	8.307515
620.000000	1880.000000	8.473358
621.000000	1879.000000	8.624041
622.000000	1878.000000	8.761966
623.000000	1877.000000	8.880479
624.000000	1876.000000	8.982721
625.000000	1875.000000	9.087182
626.000000	1874.000000	9.160675
627.000000	1873.000000	9.219376
628.000000	1872.000000	9.268648
629.000000	1871.000000	9.304886
630.000000	1870.000000	9.304239
631.000000	1869.000000	9.321249
632.000000	1868.000000	9.362663
633.000000	1867.000000	9.393909
634.000000	1866.000000	9.442719
635.000000	1865.000000	9.487554
636.000000	1864.000000	9.517229
637.000000	1863.000000	9.559475
638.000000	1862.000000	9.594419
639.000000	1861.000000	9.585822
640.000000	1860.000000	9.571216
641.000000	1859.000000	9.532204
642.000000	1858.000000	9.503177
643.000000	1857.000000	9.505858
644.000000	1856.000000	9.517229
645.000000	1855.000000	9.487000
646.000000	1854.000000	9.443366
647.000000	1853.000000	9.398531
648.000000	1852.000000	9.366546
649.000000	1851.000000	9.400473
650.000000	1850.000000	9.419701
651.000000	1849.000000	9.373202
652.000000	1848.000000	9.280943
653.000000	1847.000000	9.173432
654.000000	1846.000000	9.110848
655.000000	1845.000000	9.135715
656.000000	1844.000000	9.204863
657.000000	1843.000000	9.231764
658.000000	1842.000000	9.192013
659.000000	1841.000000	9.114545
660.000000	1840.000000	9.068416
661.000000	1839.000000	9.059911
662.000000	1838.000000	9.037355
663.000000	1837.000000	8.992982
664.000000	1836.000000	8.937054
665.000000	1835.000000	8.894530
666.000000	1834.000000	8.883160
667.000000	1833.000000	8.888521
668.000000	1832.000000	8.886210
669.000000	1831.000000	8.848216
670.000000	1830.000000	8.787111
671.000000	1829.000000	8.743755
672.000000	1828.000000	8.722216
673.000000	1827.000000	8.690046
674.000000	1826.000000	8.639109
675.000000	1825.000000	8.611469
676.000000	1824.000000	8.625058
677.000000	1823.000000	8.654732
678.000000	1822.000000	8.646042
679.000000	1821.000000	8.608510
680.000000	1820.000000	8.548330
681.000000	1819.000000	8.512462
682.000000	1818.000000	8.530396
683.000000	1817.000000	8.546019
684.000000	1816.000000	8.540380
685.000000	1815.000000	8.526883
686.000000	1814.000000	8.524479
687.000000	1813.000000	8.531598
688.000000	1812.000000	8.518933
689.000000	1811.000000	8.495822
690.000000	1810.000000	8.478720
691.000000	1809.000000	8.482048
692.000000	1808.000000	8.478443
693.000000	1807.000000	8.450063
694.000000	1806.000000	8.410404
695.000000	1805.000000	8.382949
696.000000	1804.000000	8.373150
697.000000	1803.000000	8.370191
698.000000	1802.000000	8.357619
699.000000	1801.000000	8.322213
700.000000	1800.000000	8.285513
701.000000	1799.000000	8.255377
702.000000	1798.000000	8.244191
703.000000	1797.000000	8.235779
704.000000	1796.000000	8.229030
705.000000	1795.000000	8.204163
706.000000	1794.000000	8.181792
707.000000	1793.000000	8.153782
708.000000	1792.000000	8.135478
709.000000	1791.000000	8.124015
710.000000	1790.000000	8.103585
711.000000	1789.000000	8.074003
712.000000	1788.000000	8.060691
713.000000	1787.000000	8.033328
714.000000	1786.000000	7.994964
715.000000	1785.000000	7.953827
716.000000	1784.000000	7.927480
717.000000	1783.000000	7.896697
718.000000	1782.000000	7.857501
719.000000	1781.000000	7.841046
720.000000	1780.000000	7.807027
721.000000	1779.000000	7.765242
722.000000	1778.000000	7.742224
723.000000	1777.000000	7.700254
724.000000	1776.000000	7.647747
725.000000	1775.000000	7.600693
726.000000	1774.000000	7.546336
727.000000	1773.000000	7.486803
728.000000	1772.000000	7.453708
729.000000	1771.000000	7.403973
730.000000	1770.000000	7.351558
731.000000	1769.000000	7.300252
732.000000	1768.000000	7.248206
733.000000	1767.000000	7.226760
734.000000	1766.000000	7.200043
735.000000	1765.000000	7.172403
736.000000	1764.000000	7.156410
737.000000	1763.000000	7.148830
738.000000	1762.000000	7.160940
739.000000	1761.000000	7.173327
740.000000	1760.000000	7.194312
741.000000	1759.000000	7.221953
742.000000	1758.000000	7.261149
743.000000	1757.000000	7.282410
744.000000	1756.000000	7.300992
745.000000	1755.000000	7.314766
746.000000	1754.000000	7.316430
747.000000	1753.000000	7.312547
748.000000	1752.000000	7.305059
749.000000	1751.000000	7.293411
750.000000	1750.000000	7.253291
751.000000	1749.000000	7.251350
752.000000	1748.000000	7.222507
753.000000	1747.000000	7.171478
754.000000	1746.000000	7.130711
755.000000	1745.000000	7.081716
756.000000	1744.000000	7.035494
757.000000	1743.000000	6.940462
758.000000	1742.000000	6.866878
759.000000	1741.000000	6.782477
760.000000	1740.000000	6.693454
761.000000	1739.000000	6.632071
762.000000	1738.000000	6.566622
763.000000	1737.000000	6.526594
764.000000	1736.000000	6.458555
765.000000	1735.000000	6.445613
766.000000	1734.000000	6.421670
767.000000	1733.000000	6.424813
768.000000	1732.000000	6.461791
769.000000	1731.000000	6.487767
770.000000	1730.000000	6.520030
771.000000	1729.000000	6.551738
772.000000	1728.000000	6.600733
773.000000	1727.000000	6.626617
774.000000	1726.000000	6.652132
775.000000	1725.000000	6.679957
776.000000	1724.000000	6.676999
777.000000	1723.000000	6.705379
778.000000	1722.000000	6.711295
779.000000	1721.000000	6.726271
780.000000	1720.000000	6.737642
781.000000	1719.000000	6.741617
782.000000	1718.000000	6.742911
783.000000	1717.000000	6.780720
784.000000	1716.000000	6.806512
785.000000	1715.000000	6.811874
786.000000	1714.000000	6.869004
787.000000	1713.000000	6.907645
788.000000	1712.000000	6.901174
789.000000	1711.000000	6.929277
790.000000	1710.000000	6.924285
791.000000	1709.000000	6.927613
792.000000	1708.000000	6.928815
793.000000	1707.000000	6.903485
794.000000	1706.000000	6.905334
795.000000	1705.000000	6.889156
796.000000	1704.000000	6.897014
797.000000	1703.000000	6.851070
798.000000	1702.000000	6.804663
799.000000	1701.000000	6.741247
800.000000	1700.000000	6.685226
801.000000	1699.000000	6.632534
802.000000	1698.000000	6.598052
803.000000	1697.000000	6.530199
804.000000	1696.000000	6.534544
805.000000	1695.000000	6.527241
806.000000	1694.000000	6.545452
807.000000	1693.000000	6.565235
808.000000	1692.000000	6.610994
809.000000	1691.000000	6.658510
810.000000	1690.000000	6.700110
811.000000	1689.000000	6.727843
812.000000	1688.000000	6.732650
813.000000	1687.000000	6.743003
814.000000	1686.000000	6.735238
815.000000	1685.000000	6.722111
816.000000	1684.000000	6.770736
817.000000	1683.000000	6.838220
818.000000	1682.000000	6.948228
819.000000	1681.000000	7.107323
820.000000	1680.000000	7.304504
821.000000	1679.000000	7.511393
822.000000	1678.000000	7.697389
823.000000	1677.000000	7.860181
824.000000	1676.000000	8.014469
825.000000	1675.000000	8.151470
826.000000	1674.000000	8.270260
827.000000	1673.000000	8.356048
828.000000	1672.000000	8.442575
829.000000	1671.000000	8.511537
830.000000	1670.000000	8.584105
831.000000	1669.000000	8.647706
832.000000	1668.000000	8.689491
833.000000	1667.000000	8.749856
834.000000	1666.000000	8.779900
835.000000	1665.000000	8.828156
836.000000	1664.000000	8.846829
837.000000	1663.000000	8.882605
838.000000	1662.000000	8.904976
839.000000	1661.000000	8.907472
840.000000	1660.000000	8.933449
841.000000	1659.000000	8.945282
842.000000	1658.000000	8.958224
843.000000	1657.000000	8.960073
844.000000	1656.000000	8.956282
845.000000	1655.000000	8.965712
846.000000	1654.000000	8.947962
847.000000	1653.000000	8.947685
848.000000	1652.000000	8.944912
849.000000	1651.000000	8.916532
850.000000	1650.000000	8.902850
851.000000	1649.000000	8.908582
852.000000	1648.000000	8.891295
853.000000	1647.000000	8.864948
854.000000	1646.000000	8.848586
855.000000	1645.000000	8.819374
856.000000	1644.000000	8.806339
857.000000	1643.000000	8.774261
858.000000	1642.000000	8.750966
859.000000	1641.000000	8.732939
860.000000	1640.000000	8.712787
861.000000	1639.000000	8.686440
862.000000	1638.000000	8.680431
863.000000	1637.000000	8.641883
864.000000	1636.000000	8.602224
865.000000	1635.000000	8.582904
866.000000	1634.000000	8.562936
867.000000	1633.000000	8.534001
868.000000	1632.000000	8.514033
869.000000	1631.000000	8.475762
870.000000	1630.000000	8.462358
871.000000	1629.000000	8.428061
872.000000	1628.000000	8.387294
873.000000	1627.000000	8.366309
874.000000	1626.000000	8.334231
875.000000	1625.000000	8.305666
876.000000	1624.000000	8.292447
877.000000	1623.000000	8.261940
878.000000	1622.000000	8.250108
879.000000	1621.000000	8.211374
880.000000	1620.000000	8.169867
881.000000	1619.000000	8.138991
882.000000	1618.000000	8.122258
883.000000	1617.000000	8.106451
884.000000	1616.000000	8.095450
885.000000	1615.000000	8.073818
886.000000	1614.000000	8.049598
887.000000	1613.000000	8.027042
888.000000	1612.000000	7.993392
889.000000	1611.000000	7.973702
890.000000	1610.000000	7.955860
891.000000	1609.000000	7.936632
892.000000	1608.000000	7.915093
893.000000	1607.000000	7.889301
894.000000	1606.000000	7.864804
895.000000	1605.000000	7.850013
896.000000	1604.000000	7.833743
897.000000	1603.000000	7.815162
898.000000	1602.000000	7.794639
899.000000	1601.000000	7.772268
900.000000	1600.000000	7.760897
901.000000	1599.000000	7.741299
902.000000	1598.000000	7.731870
903.000000	1597.000000	7.704137
904.000000	1596.000000	7.685371
905.000000	1595.000000	7.680102
906.000000	1594.000000	7.667437
907.000000	1593.000000	7.643494
908.000000	1592.000000	7.634065
909.000000	1591.000000	7.630829
910.000000	1590.000000	7.615946
911.000000	1589.000000	7.603928
912.000000	1588.000000	7.587289
913.000000	1587.000000	7.578876
914.000000	1586.000000	7.577490
915.000000	1585.000000	7.574716
916.000000	1584.000000	7.571758
917.000000	1583.000000	7.564548
918.000000	1582.000000	7.551513
919.000000	1581.000000	7.560203
920.000000	1580.000000	7.558631
921.000000	1579.000000	7.559001
922.000000	1578.000000	7.562052
923.000000	1577.000000	7.563346
924.000000	1576.000000	7.576380
925.000000	1575.000000	7.577859
926.000000	1574.000000	7.568985
927.000000	1573.000000	7.574994
928.000000	1572.000000	7.587843
929.000000	1571.000000	7.594222
930.000000	1570.000000	7.612433
931.000000	1569.000000	7.622047
932.000000	1568.000000	7.614559
933.000000	1567.000000	7.633141
934.000000	1566.000000	7.643587
935.000000	1565.000000	7.642570
936.000000	1564.000000	7.660596
937.000000	1563.000000	7.670673
938.000000	1562.000000	7.675757
939.000000	1561.000000	7.678623
940.000000	1560.000000	7.681488
941.000000	1559.000000	7.694153
942.000000	1558.000000	7.701086
943.000000	1557.000000	7.707650
944.000000	1556.000000	7.698221
945.000000	1555.000000	7.680749
946.000000	1554.000000	7.681581
947.000000	1553.000000	7.689254
948.000000	1552.000000	7.696464
949.000000	1551.000000	7.688976
950.000000	1550.000000	7.686111
951.000000	1549.000000	7.674740
952.000000	1548.000000	7.671967
953.000000	1547.000000	7.672799
954.000000	1546.000000	7.659117
955.000000	1545.000000	7.648301
956.000000	1544.000000	7.643309
957.000000	1543.000000	7.633048
958.000000	1542.000000	7.640906
959.000000	1541.000000	7.642477
960.000000	1540.000000	7.630737
961.000000	1539.000000	7.636006
962.000000	1538.000000	7.640444
963.000000	1537.000000	7.639242
964.000000	1536.000000	7.625283
965.000000	1535.000000	7.629905
966.000000	1534.000000	7.629998
967.000000	1533.000000	7.622232
968.000000	1532.000000	7.606240
969.000000	1531.000000	7.615022
970.000000	1530.000000	7.611509
971.000000	1529.000000	7.596625
972.000000	1528.000000	7.571111
973.000000	1527.000000	7.568615
974.000000	1526.000000	7.569817
975.000000	1525.000000	7.561405
976.000000	1524.000000	7.556135
977.000000	1523.000000	7.540050
978.000000	1522.000000	7.535151
979.000000	1521.000000	7.533394
980.000000	1520.000000	7.543748
981.000000	1519.000000	7.515183
982.000000	1518.000000	7.519343
983.000000	1517.000000	7.519897
984.000000	1516.000000	7.509451
985.000000	1515.000000	7.506216
986.000000	1514.000000	7.493736
987.000000	1513.000000	7.489299
988.000000	1512.000000	7.473583
989.000000	1511.000000	7.464062
990.000000	1510.000000	7.457128
991.000000	1509.000000	7.460919
992.000000	1508.000000	7.457221
993.000000	1507.000000	7.455834
994.000000	1506.000000	7.445573
995.000000	1505.000000	7.445296
996.000000	1504.000000	7.454355
997.000000	1503.000000	7.447699
998.000000	1502.000000	7.440119
999.000000	1501.000000	7.440581
1000.000000	1500.000000	7.451027
1001.000000	1499.000000	7.451120
1002.000000	1498.000000	7.474508
1003.000000	1497.000000	7.484399
1004.000000	1496.000000	7.477374
1005.000000	1495.000000	7.471457
1006.000000	1494.000000	7.478298
1007.000000	1493.000000	7.500947
1008.000000	1492.000000	7.522948
1009.000000	1491.000000	7.509544
1010.000000	1490.000000	7.548647
1011.000000	1489.000000	7.552807
1012.000000	1488.000000	7.579801
1013.000000	1487.000000	7.588213
1014.000000	1486.000000	7.607441
1015.000000	1485.000000	7.626762
1016.000000	1484.000000	7.608828
1017.000000	1483.000000	7.641091
1018.000000	1482.000000	7.677791
1019.000000	1481.000000	7.686850
1020.000000	1480.000000	7.704045
1021.000000	1479.000000	7.733904
1022.000000	1478.000000	7.749527
1023.000000	1477.000000	7.760805
1024.000000	1476.000000	7.770789
1025.000000	1475.000000	7.814237
1026.000000	1474.000000	7.845945
1027.000000	1473.000000	7.867762
1028.000000	1472.000000	7.883662
1029.000000	1471.000000	7.898361
1030.000000	1470.000000	7.919345
1031.000000	1469.000000	7.923875
1032.000000	1468.000000	7.956507
1033.000000	1467.000000	7.967786
1034.000000	1466.000000	7.991359
1035.000000	1465.000000	8.020201
1036.000000	1464.000000	8.049968
1037.000000	1463.000000	8.084172
1038.000000	1462.000000	8.086021
1039.000000	1461.000000	8.126973
1040.000000	1460.000000	8.151933
1041.000000	1459.000000	8.157387
1042.000000	1458.000000	8.213685
1043.000000	1457.000000	8.254915
1044.000000	1456.000000	8.287270
1045.000000	1455.000000	8.307422
1046.000000	1454.000000	8.340147
1047.000000	1453.000000	8.385075
1048.000000	1452.000000	8.408001
1049.000000	1451.000000	8.459584
1050.000000	1450.000000	8.472988
1051.000000	1449.000000	8.501646
1052.000000	1448.000000	8.549901
1053.000000	1447.000000	8.612301
1054.000000	1446.000000	8.639664
1055.000000	1445.000000	8.678860
1056.000000	1444.000000	8.730628
1057.000000	1443.000000	8.755495
1058.000000	1442.000000	8.815861
1059.000000	1441.000000	8.844241
1060.000000	1440.000000	8.884177
1061.000000	1439.000000	8.937054
1062.000000	1438.000000	8.967376
1063.000000	1437.000000	8.998159
1064.000000	1436.000000	9.029313
1065.000000	1435.000000	9.084686
1066.000000	1434.000000	9.123235
1067.000000	1433.000000	9.161599
1068.000000	1432.000000	9.204863
1069.000000	1431.000000	9.245538
1070.000000	1430.000000	9.307844
1071.000000	1429.000000	9.344729
1072.000000	1428.000000	9.420256
1073.000000	1427.000000	9.458897
1074.000000	1426.000000	9.536364
1075.000000	1425.000000	9.652011
1076.000000	1424.000000	9.713024
1077.000000	1423.000000	9.768212
1078.000000	1422.000000	9.831998
1079.000000	1421.000000	9.929249
1080.000000	1420.000000	10.009952
1081.000000	1419.000000	10.055249
1082.000000	1418.000000	10.110992
1083.000000	1417.000000	10.178291
1084.000000	1416.000000	10.276189
1085.000000	1415.000000	10.365489
1086.000000	1414.000000	10.395256
1087.000000	1413.000000	10.442124
1088.000000	1412.000000	10.502675
1089.000000	1411.000000	10.593547
1090.000000	1410.000000	10.668703
1091.000000	1409.000000	10.761701
1092.000000	1408.000000	10.855993
1093.000000	1407.000000	10.962581
1094.000000	1406.000000	11.078135
1095.000000	1405.000000	11.204043
1096.000000	1404.000000	11.279107
1097.000000	1403.000000	11.408435
1098.000000	1402.000000	11.540352
1099.000000	1401.000000	11.633350
