PE UV       SUBTECH     SPECTRUM    ASCII       PEDS        4.00        
   -1
CICIMAUCR0104-3.Sample.ASC
24/04/04
11:30:21.00
24/04/04
11:30:21.00
Vinicio Soto Monge
C. resplendens
250,000000
1
Lambda 1050
1050L1511233
PerkinElmer UV WinLab 6.3.2.0749 / 2.02.05 Lambda 900 UV/VIS/NIR, Aug  7 2015 09:38:08

0
0
3350/servo 860,8/2
0
0
UV/VIS
1
1
1
DoubleDePol,CommonBeamDepol,RBeamAtt,SBeamAtt,60mm sphere, WB InGaAs Detector
0
0
0
0
Program
Program
3350/servo 860,8/2
3350/0,2 860,8/0,2
3350/0,2 860,8/0,2
0
15.00
 
 
 
0
 
860,8
319,2
860,8
Front
100
on
S:100 R:100
0
0
0
0
 
0
 
 
 
0
 
 
0
0
0
0
0
 
 
 
 
0
0


0
0
#HDR
-1
-1
#GR
nm
%R
1.0
0.0
2500,000000
-1,000000
2251
8
72,628200
5,074300
#DATA
250.000000	2250.000000	5.885367
251.000000	2249.000000	5.881967
252.000000	2248.000000	5.864600
253.000000	2247.000000	5.849800
254.000000	2246.000000	5.826500
255.000000	2245.000000	5.858767
256.000000	2244.000000	5.834400
257.000000	2243.000000	5.794367
258.000000	2242.000000	5.811567
259.000000	2241.000000	5.804133
260.000000	2240.000000	5.788433
261.000000	2239.000000	5.766100
262.000000	2238.000000	5.744267
263.000000	2237.000000	5.710200
264.000000	2236.000000	5.709267
265.000000	2235.000000	5.663900
266.000000	2234.000000	5.673733
267.000000	2233.000000	5.651967
268.000000	2232.000000	5.651567
269.000000	2231.000000	5.612633
270.000000	2230.000000	5.642833
271.000000	2229.000000	5.643500
272.000000	2228.000000	5.622300
273.000000	2227.000000	5.614967
274.000000	2226.000000	5.605900
275.000000	2225.000000	5.592400
276.000000	2224.000000	5.603267
277.000000	2223.000000	5.606567
278.000000	2222.000000	5.574533
279.000000	2221.000000	5.588367
280.000000	2220.000000	5.578900
281.000000	2219.000000	5.588900
282.000000	2218.000000	5.566600
283.000000	2217.000000	5.562333
284.000000	2216.000000	5.551600
285.000000	2215.000000	5.534733
286.000000	2214.000000	5.536533
287.000000	2213.000000	5.524333
288.000000	2212.000000	5.547167
289.000000	2211.000000	5.511800
290.000000	2210.000000	5.507267
291.000000	2209.000000	5.505267
292.000000	2208.000000	5.481733
293.000000	2207.000000	5.463200
294.000000	2206.000000	5.486767
295.000000	2205.000000	5.483633
296.000000	2204.000000	5.450467
297.000000	2203.000000	5.441600
298.000000	2202.000000	5.453967
299.000000	2201.000000	5.435300
300.000000	2200.000000	5.437467
301.000000	2199.000000	5.427367
302.000000	2198.000000	5.428700
303.000000	2197.000000	5.446633
304.000000	2196.000000	5.442467
305.000000	2195.000000	5.432000
306.000000	2194.000000	5.437500
307.000000	2193.000000	5.403633
308.000000	2192.000000	5.385333
309.000000	2191.000000	5.393800
310.000000	2190.000000	5.395900
311.000000	2189.000000	5.409533
312.000000	2188.000000	5.374767
313.000000	2187.000000	5.362900
314.000000	2186.000000	5.366400
315.000000	2185.000000	5.359167
316.000000	2184.000000	5.373933
317.000000	2183.000000	5.498467
318.000000	2182.000000	5.369633
319.000000	2181.000000	5.437300
320.000000	2180.000000	5.422300
321.000000	2179.000000	5.460000
322.000000	2178.000000	5.472100
323.000000	2177.000000	5.396200
324.000000	2176.000000	5.495500
325.000000	2175.000000	5.455033
326.000000	2174.000000	5.390433
327.000000	2173.000000	5.339967
328.000000	2172.000000	5.411533
329.000000	2171.000000	5.374300
330.000000	2170.000000	5.341233
331.000000	2169.000000	5.411700
332.000000	2168.000000	5.354700
333.000000	2167.000000	5.355033
334.000000	2166.000000	5.405133
335.000000	2165.000000	5.421700
336.000000	2164.000000	5.397733
337.000000	2163.000000	5.427833
338.000000	2162.000000	5.469533
339.000000	2161.000000	5.387533
340.000000	2160.000000	5.426833
341.000000	2159.000000	5.418067
342.000000	2158.000000	5.424667
343.000000	2157.000000	5.448633
344.000000	2156.000000	5.475100
345.000000	2155.000000	5.481233
346.000000	2154.000000	5.477533
347.000000	2153.000000	5.463700
348.000000	2152.000000	5.504600
349.000000	2151.000000	5.538500
350.000000	2150.000000	5.496300
351.000000	2149.000000	5.504833
352.000000	2148.000000	5.589033
353.000000	2147.000000	5.566667
354.000000	2146.000000	5.614467
355.000000	2145.000000	5.621133
356.000000	2144.000000	5.645200
357.000000	2143.000000	5.675767
358.000000	2142.000000	5.732167
359.000000	2141.000000	5.715233
360.000000	2140.000000	5.793267
361.000000	2139.000000	5.789500
362.000000	2138.000000	5.773633
363.000000	2137.000000	5.822267
364.000000	2136.000000	5.896100
365.000000	2135.000000	5.887633
366.000000	2134.000000	5.876000
367.000000	2133.000000	5.900467
368.000000	2132.000000	5.918167
369.000000	2131.000000	5.968467
370.000000	2130.000000	5.970000
371.000000	2129.000000	5.984700
372.000000	2128.000000	6.040400
373.000000	2127.000000	6.102500
374.000000	2126.000000	6.190700
375.000000	2125.000000	6.170400
376.000000	2124.000000	6.214200
377.000000	2123.000000	6.310500
378.000000	2122.000000	6.371067
379.000000	2121.000000	6.440500
380.000000	2120.000000	6.522933
381.000000	2119.000000	6.615233
382.000000	2118.000000	6.704967
383.000000	2117.000000	6.805100
384.000000	2116.000000	6.923100
385.000000	2115.000000	7.048600
386.000000	2114.000000	7.181533
387.000000	2113.000000	7.325233
388.000000	2112.000000	7.468833
389.000000	2111.000000	7.638933
390.000000	2110.000000	7.813300
391.000000	2109.000000	8.004367
392.000000	2108.000000	8.222600
393.000000	2107.000000	8.444200
394.000000	2106.000000	8.689433
395.000000	2105.000000	8.951133
396.000000	2104.000000	9.223300
397.000000	2103.000000	9.510633
398.000000	2102.000000	9.811633
399.000000	2101.000000	10.133567
400.000000	2100.000000	10.462567
401.000000	2099.000000	10.805967
402.000000	2098.000000	11.162000
403.000000	2097.000000	11.534167
404.000000	2096.000000	11.917567
405.000000	2095.000000	12.300333
406.000000	2094.000000	12.703533
407.000000	2093.000000	13.110333
408.000000	2092.000000	13.520533
409.000000	2091.000000	13.927967
410.000000	2090.000000	14.334533
411.000000	2089.000000	14.754667
412.000000	2088.000000	15.186867
413.000000	2087.000000	15.606367
414.000000	2086.000000	16.016933
415.000000	2085.000000	16.417600
416.000000	2084.000000	16.809767
417.000000	2083.000000	17.201800
418.000000	2082.000000	17.575933
419.000000	2081.000000	17.949333
420.000000	2080.000000	18.322033
421.000000	2079.000000	18.675033
422.000000	2078.000000	19.015000
423.000000	2077.000000	19.344300
424.000000	2076.000000	19.666500
425.000000	2075.000000	19.966067
426.000000	2074.000000	20.260433
427.000000	2073.000000	20.549633
428.000000	2072.000000	20.816167
429.000000	2071.000000	21.070567
430.000000	2070.000000	21.309300
431.000000	2069.000000	21.542700
432.000000	2068.000000	21.751100
433.000000	2067.000000	21.951600
434.000000	2066.000000	22.146033
435.000000	2065.000000	22.303867
436.000000	2064.000000	22.466567
437.000000	2063.000000	22.618633
438.000000	2062.000000	22.746300
439.000000	2061.000000	22.853500
440.000000	2060.000000	22.940100
441.000000	2059.000000	23.010967
442.000000	2058.000000	23.078400
443.000000	2057.000000	23.120767
444.000000	2056.000000	23.123567
445.000000	2055.000000	23.124000
446.000000	2054.000000	23.099767
447.000000	2053.000000	23.050800
448.000000	2052.000000	22.985267
449.000000	2051.000000	22.896300
450.000000	2050.000000	22.798767
451.000000	2049.000000	22.687833
452.000000	2048.000000	22.546433
453.000000	2047.000000	22.386433
454.000000	2046.000000	22.231700
455.000000	2045.000000	22.068267
456.000000	2044.000000	21.898467
457.000000	2043.000000	21.717600
458.000000	2042.000000	21.546000
459.000000	2041.000000	21.400600
460.000000	2040.000000	21.271733
461.000000	2039.000000	21.150733
462.000000	2038.000000	21.071667
463.000000	2037.000000	21.025500
464.000000	2036.000000	21.008633
465.000000	2035.000000	21.040433
466.000000	2034.000000	21.114067
467.000000	2033.000000	21.228533
468.000000	2032.000000	21.397833
469.000000	2031.000000	21.604500
470.000000	2030.000000	21.854700
471.000000	2029.000000	22.144600
472.000000	2028.000000	22.478733
473.000000	2027.000000	22.849900
474.000000	2026.000000	23.247800
475.000000	2025.000000	23.670600
476.000000	2024.000000	24.107733
477.000000	2023.000000	24.546900
478.000000	2022.000000	24.985533
479.000000	2021.000000	25.431267
480.000000	2020.000000	25.879067
481.000000	2019.000000	26.303933
482.000000	2018.000000	26.703067
483.000000	2017.000000	27.081033
484.000000	2016.000000	27.426833
485.000000	2015.000000	27.743100
486.000000	2014.000000	28.021967
487.000000	2013.000000	28.271600
488.000000	2012.000000	28.485533
489.000000	2011.000000	28.673500
490.000000	2010.000000	28.819467
491.000000	2009.000000	28.940267
492.000000	2008.000000	29.031633
493.000000	2007.000000	29.096233
494.000000	2006.000000	29.128633
495.000000	2005.000000	29.142300
496.000000	2004.000000	29.138100
497.000000	2003.000000	29.136067
498.000000	2002.000000	29.119200
499.000000	2001.000000	29.104967
500.000000	2000.000000	29.096367
501.000000	1999.000000	29.103267
502.000000	1998.000000	29.115133
503.000000	1997.000000	29.167133
504.000000	1996.000000	29.235567
505.000000	1995.000000	29.344100
506.000000	1994.000000	29.507033
507.000000	1993.000000	29.723333
508.000000	1992.000000	29.997133
509.000000	1991.000000	30.332467
510.000000	1990.000000	30.735700
511.000000	1989.000000	31.204767
512.000000	1988.000000	31.743467
513.000000	1987.000000	32.353433
514.000000	1986.000000	33.039967
515.000000	1985.000000	33.787133
516.000000	1984.000000	34.586733
517.000000	1983.000000	35.451467
518.000000	1982.000000	36.355700
519.000000	1981.000000	37.319333
520.000000	1980.000000	38.334200
521.000000	1979.000000	39.394767
522.000000	1978.000000	40.485800
523.000000	1977.000000	41.593500
524.000000	1976.000000	42.733467
525.000000	1975.000000	43.875133
526.000000	1974.000000	45.004233
527.000000	1973.000000	46.151800
528.000000	1972.000000	47.276167
529.000000	1971.000000	48.393000
530.000000	1970.000000	49.504133
531.000000	1969.000000	50.595533
532.000000	1968.000000	51.669800
533.000000	1967.000000	52.704567
534.000000	1966.000000	53.713800
535.000000	1965.000000	54.720000
536.000000	1964.000000	55.681233
537.000000	1963.000000	56.596367
538.000000	1962.000000	57.490033
539.000000	1961.000000	58.362467
540.000000	1960.000000	59.199200
541.000000	1959.000000	60.011867
542.000000	1958.000000	60.800300
543.000000	1957.000000	61.559167
544.000000	1956.000000	62.265067
545.000000	1955.000000	62.944333
546.000000	1954.000000	63.591733
547.000000	1953.000000	64.207367
548.000000	1952.000000	64.769167
549.000000	1951.000000	65.335833
550.000000	1950.000000	65.887367
551.000000	1949.000000	66.378333
552.000000	1948.000000	66.883667
553.000000	1947.000000	67.336267
554.000000	1946.000000	67.776833
555.000000	1945.000000	68.200933
556.000000	1944.000000	68.615667
557.000000	1943.000000	68.989433
558.000000	1942.000000	69.366033
559.000000	1941.000000	69.714267
560.000000	1940.000000	70.170233
561.000000	1939.000000	70.484267
562.000000	1938.000000	70.813433
563.000000	1937.000000	71.100833
564.000000	1936.000000	71.359033
565.000000	1935.000000	71.601367
566.000000	1934.000000	71.829400
567.000000	1933.000000	72.051333
568.000000	1932.000000	72.242800
569.000000	1931.000000	72.461833
570.000000	1930.000000	72.629033
571.000000	1929.000000	72.809000
572.000000	1928.000000	72.991467
573.000000	1927.000000	73.124733
574.000000	1926.000000	73.291500
575.000000	1925.000000	73.425900
576.000000	1924.000000	73.567700
577.000000	1923.000000	73.688333
578.000000	1922.000000	73.821900
579.000000	1921.000000	73.904267
580.000000	1920.000000	74.002100
581.000000	1919.000000	74.066000
582.000000	1918.000000	74.120367
583.000000	1917.000000	74.211467
584.000000	1916.000000	74.225800
585.000000	1915.000000	74.250000
586.000000	1914.000000	74.226200
587.000000	1913.000000	74.248700
588.000000	1912.000000	74.211467
589.000000	1911.000000	74.185367
590.000000	1910.000000	74.123200
591.000000	1909.000000	74.061100
592.000000	1908.000000	73.996500
593.000000	1907.000000	73.902333
594.000000	1906.000000	73.752833
595.000000	1905.000000	73.634833
596.000000	1904.000000	73.474367
597.000000	1903.000000	73.337767
598.000000	1902.000000	73.158800
599.000000	1901.000000	72.923433
600.000000	1900.000000	72.720867
601.000000	1899.000000	72.457267
602.000000	1898.000000	72.215300
603.000000	1897.000000	71.911033
604.000000	1896.000000	71.610033
605.000000	1895.000000	71.272133
606.000000	1894.000000	70.920467
607.000000	1893.000000	70.575667
608.000000	1892.000000	70.131867
609.000000	1891.000000	69.700100
610.000000	1890.000000	69.280567
611.000000	1889.000000	68.803967
612.000000	1888.000000	68.276133
613.000000	1887.000000	67.750033
614.000000	1886.000000	67.202433
615.000000	1885.000000	66.629300
616.000000	1884.000000	66.012233
617.000000	1883.000000	65.395900
618.000000	1882.000000	64.759467
619.000000	1881.000000	64.067133
620.000000	1880.000000	63.386000
621.000000	1879.000000	62.660967
622.000000	1878.000000	61.894800
623.000000	1877.000000	61.128233
624.000000	1876.000000	60.307800
625.000000	1875.000000	59.464567
626.000000	1874.000000	58.656033
627.000000	1873.000000	57.778100
628.000000	1872.000000	56.898967
629.000000	1871.000000	56.009967
630.000000	1870.000000	55.121033
631.000000	1869.000000	54.219400
632.000000	1868.000000	53.363833
633.000000	1867.000000	52.523367
634.000000	1866.000000	51.690200
635.000000	1865.000000	50.996900
636.000000	1864.000000	50.309433
637.000000	1863.000000	49.736167
638.000000	1862.000000	49.219933
639.000000	1861.000000	48.778567
640.000000	1860.000000	48.399233
641.000000	1859.000000	48.134067
642.000000	1858.000000	47.954133
643.000000	1857.000000	47.862267
644.000000	1856.000000	47.858133
645.000000	1855.000000	47.946600
646.000000	1854.000000	48.090300
647.000000	1853.000000	48.333667
648.000000	1852.000000	48.627333
649.000000	1851.000000	48.967000
650.000000	1850.000000	49.386367
651.000000	1849.000000	49.824033
652.000000	1848.000000	50.320533
653.000000	1847.000000	50.835467
654.000000	1846.000000	51.366300
655.000000	1845.000000	51.905200
656.000000	1844.000000	52.467167
657.000000	1843.000000	53.006600
658.000000	1842.000000	53.556567
659.000000	1841.000000	54.097200
660.000000	1840.000000	54.604833
661.000000	1839.000000	55.124400
662.000000	1838.000000	55.636133
663.000000	1837.000000	56.125967
664.000000	1836.000000	56.568200
665.000000	1835.000000	57.017333
666.000000	1834.000000	57.426833
667.000000	1833.000000	57.787133
668.000000	1832.000000	58.128233
669.000000	1831.000000	58.470800
670.000000	1830.000000	58.817433
671.000000	1829.000000	59.092500
672.000000	1828.000000	59.380633
673.000000	1827.000000	59.654867
674.000000	1826.000000	59.899667
675.000000	1825.000000	60.101100
676.000000	1824.000000	60.293600
677.000000	1823.000000	60.501867
678.000000	1822.000000	60.677867
679.000000	1821.000000	60.835333
680.000000	1820.000000	60.987200
681.000000	1819.000000	61.110567
682.000000	1818.000000	61.216233
683.000000	1817.000000	61.325833
684.000000	1816.000000	61.402967
685.000000	1815.000000	61.488033
686.000000	1814.000000	61.535767
687.000000	1813.000000	61.611000
688.000000	1812.000000	61.682300
689.000000	1811.000000	61.760267
690.000000	1810.000000	61.823800
691.000000	1809.000000	61.901900
692.000000	1808.000000	61.958967
693.000000	1807.000000	62.044100
694.000000	1806.000000	62.127200
695.000000	1805.000000	62.222333
696.000000	1804.000000	62.323800
697.000000	1803.000000	62.406100
698.000000	1802.000000	62.518433
699.000000	1801.000000	62.640067
700.000000	1800.000000	62.769633
701.000000	1799.000000	62.922533
702.000000	1798.000000	63.090433
703.000000	1797.000000	63.255700
704.000000	1796.000000	63.410133
705.000000	1795.000000	63.599600
706.000000	1794.000000	63.807567
707.000000	1793.000000	64.036533
708.000000	1792.000000	64.273867
709.000000	1791.000000	64.554900
710.000000	1790.000000	64.786600
711.000000	1789.000000	65.039933
712.000000	1788.000000	65.293433
713.000000	1787.000000	65.577533
714.000000	1786.000000	65.905867
715.000000	1785.000000	66.184700
716.000000	1784.000000	66.474800
717.000000	1783.000000	66.784533
718.000000	1782.000000	67.102767
719.000000	1781.000000	67.398667
720.000000	1780.000000	67.719933
721.000000	1779.000000	68.000833
722.000000	1778.000000	68.310233
723.000000	1777.000000	68.636900
724.000000	1776.000000	68.912967
725.000000	1775.000000	69.187067
726.000000	1774.000000	69.465700
727.000000	1773.000000	69.695400
728.000000	1772.000000	69.919600
729.000000	1771.000000	70.153833
730.000000	1770.000000	70.350167
731.000000	1769.000000	70.591900
732.000000	1768.000000	70.817200
733.000000	1767.000000	71.004700
734.000000	1766.000000	71.175533
735.000000	1765.000000	71.315833
736.000000	1764.000000	71.425933
737.000000	1763.000000	71.578333
738.000000	1762.000000	71.738833
739.000000	1761.000000	71.866233
740.000000	1760.000000	72.010867
741.000000	1759.000000	72.165900
742.000000	1758.000000	72.233400
743.000000	1757.000000	72.301533
744.000000	1756.000000	72.425133
745.000000	1755.000000	72.514933
746.000000	1754.000000	72.590233
747.000000	1753.000000	72.653467
748.000000	1752.000000	72.750000
749.000000	1751.000000	72.828867
750.000000	1750.000000	72.862133
751.000000	1749.000000	72.894567
752.000000	1748.000000	72.942867
753.000000	1747.000000	73.014233
754.000000	1746.000000	73.110400
755.000000	1745.000000	73.129767
756.000000	1744.000000	73.128067
757.000000	1743.000000	73.190233
758.000000	1742.000000	73.203733
759.000000	1741.000000	73.215400
760.000000	1740.000000	73.235667
761.000000	1739.000000	73.274567
762.000000	1738.000000	73.265400
763.000000	1737.000000	73.239267
764.000000	1736.000000	73.221300
765.000000	1735.000000	73.133200
766.000000	1734.000000	73.092367
767.000000	1733.000000	73.065500
768.000000	1732.000000	73.043333
769.000000	1731.000000	73.012167
770.000000	1730.000000	72.919433
771.000000	1729.000000	72.877200
772.000000	1728.000000	72.759900
773.000000	1727.000000	72.693067
774.000000	1726.000000	72.639867
775.000000	1725.000000	72.537200
776.000000	1724.000000	72.395333
777.000000	1723.000000	72.366700
778.000000	1722.000000	72.338667
779.000000	1721.000000	72.248133
780.000000	1720.000000	72.139733
781.000000	1719.000000	72.044300
782.000000	1718.000000	72.027533
783.000000	1717.000000	71.928467
784.000000	1716.000000	71.846233
785.000000	1715.000000	71.798467
786.000000	1714.000000	71.750567
787.000000	1713.000000	71.707933
788.000000	1712.000000	71.633567
789.000000	1711.000000	71.587533
790.000000	1710.000000	71.595567
791.000000	1709.000000	71.543933
792.000000	1708.000000	71.523500
793.000000	1707.000000	71.474100
794.000000	1706.000000	71.435900
795.000000	1705.000000	71.426267
796.000000	1704.000000	71.307433
797.000000	1703.000000	71.205300
798.000000	1702.000000	71.119700
799.000000	1701.000000	71.046900
800.000000	1700.000000	70.905567
801.000000	1699.000000	70.789133
802.000000	1698.000000	70.653167
803.000000	1697.000000	70.504967
804.000000	1696.000000	70.444233
805.000000	1695.000000	70.276733
806.000000	1694.000000	70.130633
807.000000	1693.000000	69.938633
808.000000	1692.000000	69.784167
809.000000	1691.000000	69.572600
810.000000	1690.000000	69.370733
811.000000	1689.000000	69.108167
812.000000	1688.000000	68.937167
813.000000	1687.000000	68.656200
814.000000	1686.000000	68.514833
815.000000	1685.000000	68.273033
816.000000	1684.000000	68.059433
817.000000	1683.000000	67.784200
818.000000	1682.000000	67.448500
819.000000	1681.000000	67.230000
820.000000	1680.000000	66.956567
821.000000	1679.000000	66.714633
822.000000	1678.000000	66.487467
823.000000	1677.000000	66.299033
824.000000	1676.000000	66.022533
825.000000	1675.000000	65.803733
826.000000	1674.000000	65.567800
827.000000	1673.000000	65.336000
828.000000	1672.000000	65.138533
829.000000	1671.000000	64.916500
830.000000	1670.000000	64.690400
831.000000	1669.000000	64.568667
832.000000	1668.000000	64.430233
833.000000	1667.000000	64.288833
834.000000	1666.000000	64.057367
835.000000	1665.000000	63.790067
836.000000	1664.000000	63.615267
837.000000	1663.000000	63.718833
838.000000	1662.000000	63.652367
