PE UV       SUBTECH     SPECTRUM    ASCII       PEDS        4.00        
   -1
CICIMAUCR0101-1.ASC
24/04/03
16:31:32.00
24/04/03
16:31:32.00
Vinicio Soto Monge
C. resplendens
250,000000
1
Lambda 1050
1050L1511233
PerkinElmer UV WinLab 6.3.2.0749 / 2.02.05 Lambda 900 UV/VIS/NIR, Aug  7 2015 09:38:08

0
0
3350/servo 860,8/2
0
0
UV/VIS
1
1
1
DoubleDePol,CommonBeamDepol,RBeamAtt,SBeamAtt,60mm sphere, WB InGaAs Detector
0
0
0
0
Program
Program
3350/servo 860,8/2
3350/0,2 860,8/0,2
3350/0,2 860,8/0,2
0
15.00
 
 
 
0
 
860,8
319,2
860,8
Front
100
on
S:100 R:100
0
0
0
0
 
0
 
 
 
0
 
 
0
0
0
0
0
 
 
 
 
0
0


0
0
#HDR
-1
-1
#GR
nm
%R
1.0
0.0
2500,000000
-1,000000
2251
8
72,895300
3,379900
#DATA
501.000000	1999.000000	6.244158
502.000000	1998.000000	6.246997
503.000000	1997.000000	6.247403
504.000000	1996.000000	6.241724
505.000000	1995.000000	6.225904
506.000000	1994.000000	6.218906
507.000000	1993.000000	6.198320
508.000000	1992.000000	6.184731
509.000000	1991.000000	6.181790
510.000000	1990.000000	6.156235
511.000000	1989.000000	6.122972
512.000000	1988.000000	6.122059
513.000000	1987.000000	6.105834
514.000000	1986.000000	6.107760
515.000000	1985.000000	6.102588
516.000000	1984.000000	6.068717
517.000000	1983.000000	6.057866
518.000000	1982.000000	6.025922
519.000000	1981.000000	6.027849
520.000000	1980.000000	5.987082
521.000000	1979.000000	5.970957
522.000000	1978.000000	5.952095
523.000000	1977.000000	5.928061
524.000000	1976.000000	5.907373
525.000000	1975.000000	5.883136
526.000000	1974.000000	5.867417
527.000000	1973.000000	5.850786
528.000000	1972.000000	5.823709
529.000000	1971.000000	5.818740
530.000000	1970.000000	5.804441
531.000000	1969.000000	5.789939
532.000000	1968.000000	5.757691
533.000000	1967.000000	5.709217
534.000000	1966.000000	5.731527
535.000000	1965.000000	5.706073
536.000000	1964.000000	5.692281
537.000000	1963.000000	5.649993
538.000000	1962.000000	5.627277
539.000000	1961.000000	5.630826
540.000000	1960.000000	5.613890
541.000000	1959.000000	5.581743
542.000000	1958.000000	5.568053
543.000000	1957.000000	5.562780
544.000000	1956.000000	5.549292
545.000000	1955.000000	5.515826
546.000000	1954.000000	5.517652
547.000000	1953.000000	5.492401
548.000000	1952.000000	5.452952
549.000000	1951.000000	5.453662
550.000000	1950.000000	5.443419
551.000000	1949.000000	5.433177
552.000000	1948.000000	5.391801
553.000000	1947.000000	5.404883
554.000000	1946.000000	5.366854
555.000000	1945.000000	5.366043
556.000000	1944.000000	5.366449
557.000000	1943.000000	5.339068
558.000000	1942.000000	5.339879
559.000000	1941.000000	5.334606
560.000000	1940.000000	5.312295
561.000000	1939.000000	5.318177
562.000000	1938.000000	5.294447
563.000000	1937.000000	5.305501
564.000000	1936.000000	5.317264
565.000000	1935.000000	5.304689
566.000000	1934.000000	5.310267
567.000000	1933.000000	5.310166
568.000000	1932.000000	5.321118
569.000000	1931.000000	5.354482
570.000000	1930.000000	5.334504
571.000000	1929.000000	5.358234
572.000000	1928.000000	5.371113
573.000000	1927.000000	5.388455
574.000000	1926.000000	5.405694
575.000000	1925.000000	5.424962
576.000000	1924.000000	5.467048
577.000000	1923.000000	5.469076
578.000000	1922.000000	5.496153
579.000000	1921.000000	5.520593
580.000000	1920.000000	5.565720
581.000000	1919.000000	5.576673
582.000000	1918.000000	5.626465
583.000000	1917.000000	5.683255
584.000000	1916.000000	5.712056
585.000000	1915.000000	5.747347
586.000000	1914.000000	5.816915
587.000000	1913.000000	5.863259
588.000000	1912.000000	5.909908
589.000000	1911.000000	5.949864
590.000000	1910.000000	6.023691
591.000000	1909.000000	6.076526
592.000000	1908.000000	6.151367
593.000000	1907.000000	6.227831
594.000000	1906.000000	6.301860
595.000000	1905.000000	6.368690
596.000000	1904.000000	6.426190
597.000000	1903.000000	6.513910
598.000000	1902.000000	6.609135
599.000000	1901.000000	6.709734
600.000000	1900.000000	6.784372
601.000000	1899.000000	6.862458
602.000000	1898.000000	6.947339
603.000000	1897.000000	7.063556
604.000000	1896.000000	7.143569
605.000000	1895.000000	7.242647
606.000000	1894.000000	7.342435
607.000000	1893.000000	7.449829
608.000000	1892.000000	7.546879
609.000000	1891.000000	7.655490
610.000000	1890.000000	7.775864
611.000000	1889.000000	7.874841
612.000000	1888.000000	8.015700
613.000000	1887.000000	8.156255
614.000000	1886.000000	8.298332
615.000000	1885.000000	8.490099
616.000000	1884.000000	8.697991
617.000000	1883.000000	8.940870
618.000000	1882.000000	9.213259
619.000000	1881.000000	9.499946
620.000000	1880.000000	9.779536
621.000000	1879.000000	10.032961
622.000000	1878.000000	10.320257
623.000000	1877.000000	10.590821
624.000000	1876.000000	10.853677
625.000000	1875.000000	11.081344
626.000000	1874.000000	11.296436
627.000000	1873.000000	11.515382
628.000000	1872.000000	11.708062
629.000000	1871.000000	11.882488
630.000000	1870.000000	12.033793
631.000000	1869.000000	12.169784
632.000000	1868.000000	12.287725
633.000000	1867.000000	12.385485
634.000000	1866.000000	12.453227
635.000000	1865.000000	12.526243
636.000000	1864.000000	12.572081
637.000000	1863.000000	12.609501
638.000000	1862.000000	12.642561
639.000000	1861.000000	12.665277
640.000000	1860.000000	12.685458
641.000000	1859.000000	12.679373
642.000000	1858.000000	12.659801
643.000000	1857.000000	12.650065
644.000000	1856.000000	12.631304
645.000000	1855.000000	12.614166
646.000000	1854.000000	12.561128
647.000000	1853.000000	12.488620
648.000000	1852.000000	12.428483
649.000000	1851.000000	12.389034
650.000000	1850.000000	12.349687
651.000000	1849.000000	12.302125
652.000000	1848.000000	12.220388
653.000000	1847.000000	12.153964
654.000000	1846.000000	12.091394
655.000000	1845.000000	12.032272
656.000000	1844.000000	11.993533
657.000000	1843.000000	11.962298
658.000000	1842.000000	11.954997
659.000000	1841.000000	11.918083
660.000000	1840.000000	11.862409
661.000000	1839.000000	11.819106
662.000000	1838.000000	11.776514
663.000000	1837.000000	11.736862
664.000000	1836.000000	11.679870
665.000000	1835.000000	11.623283
666.000000	1834.000000	11.562335
667.000000	1833.000000	11.495607
668.000000	1832.000000	11.434862
669.000000	1831.000000	11.379998
670.000000	1830.000000	11.318239
671.000000	1829.000000	11.233156
672.000000	1828.000000	11.158010
673.000000	1827.000000	11.098077
674.000000	1826.000000	11.026684
675.000000	1825.000000	10.972125
676.000000	1824.000000	10.933589
677.000000	1823.000000	10.910467
678.000000	1822.000000	10.888258
679.000000	1821.000000	10.858849
680.000000	1820.000000	10.817068
681.000000	1819.000000	10.786949
682.000000	1818.000000	10.761495
683.000000	1817.000000	10.746587
684.000000	1816.000000	10.753179
685.000000	1815.000000	10.742227
686.000000	1814.000000	10.720626
687.000000	1813.000000	10.702474
688.000000	1812.000000	10.693955
689.000000	1811.000000	10.679859
690.000000	1810.000000	10.649842
691.000000	1809.000000	10.607756
692.000000	1808.000000	10.565874
693.000000	1807.000000	10.535653
694.000000	1806.000000	10.483123
695.000000	1805.000000	10.436474
696.000000	1804.000000	10.396417
697.000000	1803.000000	10.350477
698.000000	1802.000000	10.312043
699.000000	1801.000000	10.279084
700.000000	1800.000000	10.237506
701.000000	1799.000000	10.192277
702.000000	1798.000000	10.144817
703.000000	1797.000000	10.111757
704.000000	1796.000000	10.081841
705.000000	1795.000000	10.046550
706.000000	1794.000000	9.989963
707.000000	1793.000000	9.938953
708.000000	1792.000000	9.909848
709.000000	1791.000000	9.853565
710.000000	1790.000000	9.803773
711.000000	1789.000000	9.768989
712.000000	1788.000000	9.701551
713.000000	1787.000000	9.653989
714.000000	1786.000000	9.596185
715.000000	1785.000000	9.541221
716.000000	1784.000000	9.460802
717.000000	1783.000000	9.417804
718.000000	1782.000000	9.369431
719.000000	1781.000000	9.309396
720.000000	1780.000000	9.251490
721.000000	1779.000000	9.192368
722.000000	1778.000000	9.118845
723.000000	1777.000000	9.052827
724.000000	1776.000000	8.987011
725.000000	1775.000000	8.911359
726.000000	1774.000000	8.826681
727.000000	1773.000000	8.739671
728.000000	1772.000000	8.656818
729.000000	1771.000000	8.583194
730.000000	1770.000000	8.511801
731.000000	1769.000000	8.434729
732.000000	1768.000000	8.365263
733.000000	1767.000000	8.319628
734.000000	1766.000000	8.272168
735.000000	1765.000000	8.232313
736.000000	1764.000000	8.204425
737.000000	1763.000000	8.205034
738.000000	1762.000000	8.218319
739.000000	1761.000000	8.241136
740.000000	1760.000000	8.278354
741.000000	1759.000000	8.316890
742.000000	1758.000000	8.366581
743.000000	1757.000000	8.421444
744.000000	1756.000000	8.461907
745.000000	1755.000000	8.476916
746.000000	1754.000000	8.506832
747.000000	1753.000000	8.512612
748.000000	1752.000000	8.515553
749.000000	1751.000000	8.495575
750.000000	1750.000000	8.460893
751.000000	1749.000000	8.447203
752.000000	1748.000000	8.427326
753.000000	1747.000000	8.390717
754.000000	1746.000000	8.337679
755.000000	1745.000000	8.265272
756.000000	1744.000000	8.179174
757.000000	1743.000000	8.075025
758.000000	1742.000000	7.996736
759.000000	1741.000000	7.880520
760.000000	1740.000000	7.752844
761.000000	1739.000000	7.645450
762.000000	1738.000000	7.557020
763.000000	1737.000000	7.475689
764.000000	1736.000000	7.413321
765.000000	1735.000000	7.378841
766.000000	1734.000000	7.376509
767.000000	1733.000000	7.386549
768.000000	1732.000000	7.405005
769.000000	1731.000000	7.459159
770.000000	1730.000000	7.489683
771.000000	1729.000000	7.581865
772.000000	1728.000000	7.642813
773.000000	1727.000000	7.695547
774.000000	1726.000000	7.760855
775.000000	1725.000000	7.796450
776.000000	1724.000000	7.812879
777.000000	1723.000000	7.832958
778.000000	1722.000000	7.841172
779.000000	1721.000000	7.831437
780.000000	1720.000000	7.833465
781.000000	1719.000000	7.847156
782.000000	1718.000000	7.839043
783.000000	1717.000000	7.854153
784.000000	1716.000000	7.878390
785.000000	1715.000000	7.889647
786.000000	1714.000000	7.917940
787.000000	1713.000000	7.941265
788.000000	1712.000000	7.949783
789.000000	1711.000000	7.963778
790.000000	1710.000000	7.973716
791.000000	1709.000000	7.959214
792.000000	1708.000000	7.917433
793.000000	1707.000000	7.920881
794.000000	1706.000000	7.899788
795.000000	1705.000000	7.871291
796.000000	1704.000000	7.836710
797.000000	1703.000000	7.782253
798.000000	1702.000000	7.726781
799.000000	1701.000000	7.678206
800.000000	1700.000000	7.581156
801.000000	1699.000000	7.485424
802.000000	1698.000000	7.445772
803.000000	1697.000000	7.356531
804.000000	1696.000000	7.308868
805.000000	1695.000000	7.319313
806.000000	1694.000000	7.339291
807.000000	1693.000000	7.367788
808.000000	1692.000000	7.415755
809.000000	1691.000000	7.524264
810.000000	1690.000000	7.562192
811.000000	1689.000000	7.612694
812.000000	1688.000000	7.668065
813.000000	1687.000000	7.629731
814.000000	1686.000000	7.622734
815.000000	1685.000000	7.621111
816.000000	1684.000000	7.644740
817.000000	1683.000000	7.717350
818.000000	1682.000000	7.861049
819.000000	1681.000000	8.092265
820.000000	1680.000000	8.364147
821.000000	1679.000000	8.693225
822.000000	1678.000000	9.025750
823.000000	1677.000000	9.321464
824.000000	1676.000000	9.622349
825.000000	1675.000000	9.876383
826.000000	1674.000000	10.097052
827.000000	1673.000000	10.297237
828.000000	1672.000000	10.454626
829.000000	1671.000000	10.633616
830.000000	1670.000000	10.724480
831.000000	1669.000000	10.865441
832.000000	1668.000000	10.972328
833.000000	1667.000000	11.059845
834.000000	1666.000000	11.128500
835.000000	1665.000000	11.168050
836.000000	1664.000000	11.228795
837.000000	1663.000000	11.277675
838.000000	1662.000000	11.308301
839.000000	1661.000000	11.323817
840.000000	1660.000000	11.360020
841.000000	1659.000000	11.361440
842.000000	1658.000000	11.378781
843.000000	1657.000000	11.412247
844.000000	1656.000000	11.418940
845.000000	1655.000000	11.421678
846.000000	1654.000000	11.399064
847.000000	1653.000000	11.400280
848.000000	1652.000000	11.410726
849.000000	1651.000000	11.397542
850.000000	1650.000000	11.361339
851.000000	1649.000000	11.315603
852.000000	1648.000000	11.291264
853.000000	1647.000000	11.260841
854.000000	1646.000000	11.234981
855.000000	1645.000000	11.207296
856.000000	1644.000000	11.167949
857.000000	1643.000000	11.142799
858.000000	1642.000000	11.109232
859.000000	1641.000000	11.068871
860.000000	1640.000000	11.037129
861.000000	1639.000000	10.992407
862.000000	1638.000000	10.955088
863.000000	1637.000000	10.907830
864.000000	1636.000000	10.878928
865.000000	1635.000000	10.823761
866.000000	1634.000000	10.805913
867.000000	1633.000000	10.746587
868.000000	1632.000000	10.699229
869.000000	1631.000000	10.665865
870.000000	1630.000000	10.641120
871.000000	1629.000000	10.577333
872.000000	1628.000000	10.530279
873.000000	1627.000000	10.505636
874.000000	1626.000000	10.447426
875.000000	1625.000000	10.408282
876.000000	1624.000000	10.365486
877.000000	1623.000000	10.315896
878.000000	1622.000000	10.260830
879.000000	1621.000000	10.214587
880.000000	1620.000000	10.170169
881.000000	1619.000000	10.130923
882.000000	1618.000000	10.086303
883.000000	1617.000000	10.049592
884.000000	1616.000000	10.005073
885.000000	1615.000000	9.968565
886.000000	1614.000000	9.931043
887.000000	1613.000000	9.894028
888.000000	1612.000000	9.854377
889.000000	1611.000000	9.801237
890.000000	1610.000000	9.762397
891.000000	1609.000000	9.729844
892.000000	1608.000000	9.706520
893.000000	1607.000000	9.673866
894.000000	1606.000000	9.640502
895.000000	1605.000000	9.596489
896.000000	1604.000000	9.552984
897.000000	1603.000000	9.510290
898.000000	1602.000000	9.491124
899.000000	1601.000000	9.448531
900.000000	1600.000000	9.403505
901.000000	1599.000000	9.358681
902.000000	1598.000000	9.320348
903.000000	1597.000000	9.281305
904.000000	1596.000000	9.249868
905.000000	1595.000000	9.222487
906.000000	1594.000000	9.183444
907.000000	1593.000000	9.156063
908.000000	1592.000000	9.138215
909.000000	1591.000000	9.112456
910.000000	1590.000000	9.061751
911.000000	1589.000000	9.045830
912.000000	1588.000000	9.027576
913.000000	1587.000000	8.995023
914.000000	1586.000000	8.968656
915.000000	1585.000000	8.956385
916.000000	1584.000000	8.941072
917.000000	1583.000000	8.923123
918.000000	1582.000000	8.909027
919.000000	1581.000000	8.897162
920.000000	1580.000000	8.895945
921.000000	1579.000000	8.875865
922.000000	1578.000000	8.860857
923.000000	1577.000000	8.851527
924.000000	1576.000000	8.851223
925.000000	1575.000000	8.852642
926.000000	1574.000000	8.848991
927.000000	1573.000000	8.848586
928.000000	1572.000000	8.852135
929.000000	1571.000000	8.844124
930.000000	1570.000000	8.850614
931.000000	1569.000000	8.872620
932.000000	1568.000000	8.881037
933.000000	1567.000000	8.892801
934.000000	1566.000000	8.901015
935.000000	1565.000000	8.914097
936.000000	1564.000000	8.940160
937.000000	1563.000000	8.953647
938.000000	1562.000000	8.970380
939.000000	1561.000000	9.000702
940.000000	1560.000000	9.014494
941.000000	1559.000000	9.025750
942.000000	1558.000000	9.040049
943.000000	1557.000000	9.038731
944.000000	1556.000000	9.051914
945.000000	1555.000000	9.068546
946.000000	1554.000000	9.085075
947.000000	1553.000000	9.111442
948.000000	1552.000000	9.137505
949.000000	1551.000000	9.134057
950.000000	1550.000000	9.131217
951.000000	1549.000000	9.137606
952.000000	1548.000000	9.147747
953.000000	1547.000000	9.160525
954.000000	1546.000000	9.159511
955.000000	1545.000000	9.173607
956.000000	1544.000000	9.190340
957.000000	1543.000000	9.193483
958.000000	1542.000000	9.215185
959.000000	1541.000000	9.239118
960.000000	1540.000000	9.254026
961.000000	1539.000000	9.273395
962.000000	1538.000000	9.285564
963.000000	1537.000000	9.290128
964.000000	1536.000000	9.286578
965.000000	1535.000000	9.304224
966.000000	1534.000000	9.322681
967.000000	1533.000000	9.329171
968.000000	1532.000000	9.339616
969.000000	1531.000000	9.337588
970.000000	1530.000000	9.361521
971.000000	1529.000000	9.375820
972.000000	1528.000000	9.363346
973.000000	1527.000000	9.357566
974.000000	1526.000000	9.360101
975.000000	1525.000000	9.376428
976.000000	1524.000000	9.386772
977.000000	1523.000000	9.389409
978.000000	1522.000000	9.378558
979.000000	1521.000000	9.385758
980.000000	1520.000000	9.382006
981.000000	1519.000000	9.374096
982.000000	1518.000000	9.362231
983.000000	1517.000000	9.360912
984.000000	1516.000000	9.362839
985.000000	1515.000000	9.356045
986.000000	1514.000000	9.333024
987.000000	1513.000000	9.335661
988.000000	1512.000000	9.330692
989.000000	1511.000000	9.310207
990.000000	1510.000000	9.304630
991.000000	1509.000000	9.300979
992.000000	1508.000000	9.311120
993.000000	1507.000000	9.296618
994.000000	1506.000000	9.289114
995.000000	1505.000000	9.270048
996.000000	1504.000000	9.260820
997.000000	1503.000000	9.249056
998.000000	1502.000000	9.229991
999.000000	1501.000000	9.218938
1000.000000	1500.000000	9.206363
1001.000000	1499.000000	9.192571
1002.000000	1498.000000	9.185168
1003.000000	1497.000000	9.178880
1004.000000	1496.000000	9.182125
1005.000000	1495.000000	9.162959
1006.000000	1494.000000	9.146835
1007.000000	1493.000000	9.140750
1008.000000	1492.000000	9.153629
1009.000000	1491.000000	9.152006
1010.000000	1490.000000	9.157584
1011.000000	1489.000000	9.157381
1012.000000	1488.000000	9.156773
1013.000000	1487.000000	9.142068
1014.000000	1486.000000	9.145820
1015.000000	1485.000000	9.128378
1016.000000	1484.000000	9.151297
1017.000000	1483.000000	9.156570
1018.000000	1482.000000	9.157280
1019.000000	1481.000000	9.157178
1020.000000	1480.000000	9.159612
1021.000000	1479.000000	9.171477
1022.000000	1478.000000	9.193483
1023.000000	1477.000000	9.192875
1024.000000	1476.000000	9.198554
1025.000000	1475.000000	9.212751
1026.000000	1474.000000	9.240437
1027.000000	1473.000000	9.264471
1028.000000	1472.000000	9.271063
1029.000000	1471.000000	9.300979
1030.000000	1470.000000	9.305948
1031.000000	1469.000000	9.294488
1032.000000	1468.000000	9.335053
1033.000000	1467.000000	9.363143
1034.000000	1466.000000	9.398941
1035.000000	1465.000000	9.415776
1036.000000	1464.000000	9.442244
1037.000000	1463.000000	9.457455
1038.000000	1462.000000	9.493355
1039.000000	1461.000000	9.554607
1040.000000	1460.000000	9.603487
1041.000000	1459.000000	9.645166
1042.000000	1458.000000	9.706418
1043.000000	1457.000000	9.738261
1044.000000	1456.000000	9.779536
1045.000000	1455.000000	9.877397
1046.000000	1454.000000	9.895448
1047.000000	1453.000000	9.985399
1048.000000	1452.000000	10.043710
1049.000000	1451.000000	10.137819
1050.000000	1450.000000	10.181122
1051.000000	1449.000000	10.284662
1052.000000	1448.000000	10.329080
1053.000000	1447.000000	10.423189
1054.000000	1446.000000	10.511315
1055.000000	1445.000000	10.595384
1056.000000	1444.000000	10.685335
1057.000000	1443.000000	10.726204
1058.000000	1442.000000	10.846781
1059.000000	1441.000000	10.937848
1060.000000	1440.000000	11.016441
1061.000000	1439.000000	11.098685
1062.000000	1438.000000	11.203240
1063.000000	1437.000000	11.279298
1064.000000	1436.000000	11.348561
1065.000000	1435.000000	11.423402
1066.000000	1434.000000	11.546515
1067.000000	1433.000000	11.729561
1068.000000	1432.000000	11.822656
1069.000000	1431.000000	11.905813
1070.000000	1430.000000	11.990490
1071.000000	1429.000000	12.107214
1072.000000	1428.000000	12.212377
1073.000000	1427.000000	12.323726
1074.000000	1426.000000	12.435176
1075.000000	1425.000000	12.600374
1076.000000	1424.000000	12.747318
1077.000000	1423.000000	12.888177
1078.000000	1422.000000	12.982692
1079.000000	1421.000000	13.123856
1080.000000	1420.000000	13.278608
1081.000000	1419.000000	13.428595
1082.000000	1418.000000	13.539944
1083.000000	1417.000000	13.655552
1084.000000	1416.000000	13.800468
1085.000000	1415.000000	13.935749
1086.000000	1414.000000	14.084012
1087.000000	1413.000000	14.170515
1088.000000	1412.000000	14.283284
1089.000000	1411.000000	14.426983
1090.000000	1410.000000	14.577679
1091.000000	1409.000000	14.776951
1092.000000	1408.000000	14.992144
1093.000000	1407.000000	15.223462
1094.000000	1406.000000	15.460154
