PE UV       SUBTECH     SPECTRUM    ASCII       PEDS        4.00        
   -1
CICIMAUCR0097-1.ASC
24/04/03
15:09:17.00
24/04/03
15:09:17.00
Vinicio Soto Monge
C. kalinini
250,000000
1
Lambda 1050
1050L1511233
PerkinElmer UV WinLab 6.3.2.0749 / 2.02.05 Lambda 900 UV/VIS/NIR, Aug  7 2015 09:38:08

0
0
3350/servo 860,8/2
0
0
UV/VIS
1
1
1
DoubleDePol,CommonBeamDepol,RBeamAtt,SBeamAtt,60mm sphere, WB InGaAs Detector
0
0
0
0
Program
Program
3350/servo 860,8/2
3350/0,2 860,8/0,2
3350/0,2 860,8/0,2
0
15.00
 
 
 
0
 
860,8
319,2
860,8
Front
100
on
S:100 R:100
0
0
0
0
 
0
 
 
 
0
 
 
0
0
0
0
0
 
 
 
 
0
0


0
0
#HDR
-1
-1
#GR
nm
%R
1.0
0.0
2500,000000
-1,000000
2251
8
71,118700
4,659200
#DATA
501.000000	1999.000000	9.029843
502.000000	1998.000000	9.017185
503.000000	1997.000000	8.992275
504.000000	1996.000000	8.971820
505.000000	1995.000000	8.942049
506.000000	1994.000000	8.915620
507.000000	1993.000000	8.900431
508.000000	1992.000000	8.905393
509.000000	1991.000000	8.864990
510.000000	1990.000000	8.864686
511.000000	1989.000000	8.826004
512.000000	1988.000000	8.789551
513.000000	1987.000000	8.779323
514.000000	1986.000000	8.756134
515.000000	1985.000000	8.718769
516.000000	1984.000000	8.696087
517.000000	1983.000000	8.644039
518.000000	1982.000000	8.651633
519.000000	1981.000000	8.615584
520.000000	1980.000000	8.582573
521.000000	1979.000000	8.555435
522.000000	1978.000000	8.524044
523.000000	1977.000000	8.501159
524.000000	1976.000000	8.463085
525.000000	1975.000000	8.442529
526.000000	1974.000000	8.420758
527.000000	1973.000000	8.385621
528.000000	1972.000000	8.363141
529.000000	1971.000000	8.319092
530.000000	1970.000000	8.297422
531.000000	1969.000000	8.283752
532.000000	1968.000000	8.274132
533.000000	1967.000000	8.246083
534.000000	1966.000000	8.229274
535.000000	1965.000000	8.208110
536.000000	1964.000000	8.173479
537.000000	1963.000000	8.140468
538.000000	1962.000000	8.138746
539.000000	1961.000000	8.146746
540.000000	1960.000000	8.103609
541.000000	1959.000000	8.076977
542.000000	1958.000000	8.066041
543.000000	1957.000000	8.045080
544.000000	1956.000000	8.028170
545.000000	1955.000000	8.004677
546.000000	1954.000000	8.002551
547.000000	1953.000000	7.970856
548.000000	1952.000000	7.941996
549.000000	1951.000000	7.931972
550.000000	1950.000000	7.903214
551.000000	1949.000000	7.908985
552.000000	1948.000000	7.889240
553.000000	1947.000000	7.885898
554.000000	1946.000000	7.856937
555.000000	1945.000000	7.846710
556.000000	1944.000000	7.836179
557.000000	1943.000000	7.839723
558.000000	1942.000000	7.840837
559.000000	1941.000000	7.840533
560.000000	1940.000000	7.844077
561.000000	1939.000000	7.866355
562.000000	1938.000000	7.880835
563.000000	1937.000000	7.891163
564.000000	1936.000000	7.908479
565.000000	1935.000000	7.932174
566.000000	1934.000000	7.928529
567.000000	1933.000000	7.953844
568.000000	1932.000000	7.996677
569.000000	1931.000000	8.026144
570.000000	1930.000000	8.057940
571.000000	1929.000000	8.135506
572.000000	1928.000000	8.176517
573.000000	1927.000000	8.216312
574.000000	1926.000000	8.266234
575.000000	1925.000000	8.342483
576.000000	1924.000000	8.381368
577.000000	1923.000000	8.429264
578.000000	1922.000000	8.524854
579.000000	1921.000000	8.615483
580.000000	1920.000000	8.699327
581.000000	1919.000000	8.786310
582.000000	1918.000000	8.858914
583.000000	1917.000000	8.941138
584.000000	1916.000000	9.006046
585.000000	1915.000000	9.100422
586.000000	1914.000000	9.228314
587.000000	1913.000000	9.362991
588.000000	1912.000000	9.484302
589.000000	1911.000000	9.582626
590.000000	1910.000000	9.694013
591.000000	1909.000000	9.769453
592.000000	1908.000000	9.851980
593.000000	1907.000000	10.007720
594.000000	1906.000000	10.140675
595.000000	1905.000000	10.318287
596.000000	1904.000000	10.465520
597.000000	1903.000000	10.603336
598.000000	1902.000000	10.738520
599.000000	1901.000000	10.860033
600.000000	1900.000000	11.032784
601.000000	1899.000000	11.217180
602.000000	1898.000000	11.391146
603.000000	1897.000000	11.574935
604.000000	1896.000000	11.704752
605.000000	1895.000000	11.833353
606.000000	1894.000000	11.992231
607.000000	1893.000000	12.175514
608.000000	1892.000000	12.379757
609.000000	1891.000000	12.602430
610.000000	1890.000000	12.793914
611.000000	1889.000000	13.003322
612.000000	1888.000000	13.221742
613.000000	1887.000000	13.436820
614.000000	1886.000000	13.685719
615.000000	1885.000000	13.993249
616.000000	1884.000000	14.322246
617.000000	1883.000000	14.668355
618.000000	1882.000000	15.014870
619.000000	1881.000000	15.368068
620.000000	1880.000000	15.707293
621.000000	1879.000000	16.037910
622.000000	1878.000000	16.344528
623.000000	1877.000000	16.678081
624.000000	1876.000000	16.990572
625.000000	1875.000000	17.265192
626.000000	1874.000000	17.512168
627.000000	1873.000000	17.770282
628.000000	1872.000000	18.001967
629.000000	1871.000000	18.230816
630.000000	1870.000000	18.409542
631.000000	1869.000000	18.574496
632.000000	1868.000000	18.713021
633.000000	1867.000000	18.813269
634.000000	1866.000000	18.888810
635.000000	1865.000000	18.945415
636.000000	1864.000000	19.001817
637.000000	1863.000000	19.062371
638.000000	1862.000000	19.120191
639.000000	1861.000000	19.175885
640.000000	1860.000000	19.213351
641.000000	1859.000000	19.239780
642.000000	1858.000000	19.262058
643.000000	1857.000000	19.263982
644.000000	1856.000000	19.252539
645.000000	1855.000000	19.238565
646.000000	1854.000000	19.220136
647.000000	1853.000000	19.180340
648.000000	1852.000000	19.149962
649.000000	1851.000000	19.119989
650.000000	1850.000000	19.092952
651.000000	1849.000000	19.073712
652.000000	1848.000000	19.046878
653.000000	1847.000000	18.999184
654.000000	1846.000000	18.926378
655.000000	1845.000000	18.875140
656.000000	1844.000000	18.832408
657.000000	1843.000000	18.810535
658.000000	1842.000000	18.823800
659.000000	1841.000000	18.802738
660.000000	1840.000000	18.758285
661.000000	1839.000000	18.729121
662.000000	1838.000000	18.682136
663.000000	1837.000000	18.656214
664.000000	1836.000000	18.623203
665.000000	1835.000000	18.568927
666.000000	1834.000000	18.504120
667.000000	1833.000000	18.443464
668.000000	1832.000000	18.385948
669.000000	1831.000000	18.338862
670.000000	1830.000000	18.294003
671.000000	1829.000000	18.243778
672.000000	1828.000000	18.184641
673.000000	1827.000000	18.124999
674.000000	1826.000000	18.075786
675.000000	1825.000000	18.030927
676.000000	1824.000000	17.995790
677.000000	1823.000000	17.981107
678.000000	1822.000000	17.978373
679.000000	1821.000000	17.970171
680.000000	1820.000000	17.961766
681.000000	1819.000000	17.926325
682.000000	1818.000000	17.920755
683.000000	1817.000000	17.928046
684.000000	1816.000000	17.930679
685.000000	1815.000000	17.939185
686.000000	1814.000000	17.960045
687.000000	1813.000000	17.973107
688.000000	1812.000000	17.958931
689.000000	1811.000000	17.953058
690.000000	1810.000000	17.921464
691.000000	1809.000000	17.900908
692.000000	1808.000000	17.900908
693.000000	1807.000000	17.877416
694.000000	1806.000000	17.847139
695.000000	1805.000000	17.822431
696.000000	1804.000000	17.785471
697.000000	1803.000000	17.761067
698.000000	1802.000000	17.740005
699.000000	1801.000000	17.726132
700.000000	1800.000000	17.697273
701.000000	1799.000000	17.646440
702.000000	1798.000000	17.627504
703.000000	1797.000000	17.604214
704.000000	1796.000000	17.579304
705.000000	1795.000000	17.561887
706.000000	1794.000000	17.533331
707.000000	1793.000000	17.504775
708.000000	1792.000000	17.459816
709.000000	1791.000000	17.420628
710.000000	1790.000000	17.351466
711.000000	1789.000000	17.315823
712.000000	1788.000000	17.284837
713.000000	1787.000000	17.236940
714.000000	1786.000000	17.200790
715.000000	1785.000000	17.139831
716.000000	1784.000000	17.057101
717.000000	1783.000000	17.005660
718.000000	1782.000000	16.945815
719.000000	1781.000000	16.863287
720.000000	1780.000000	16.796860
721.000000	1779.000000	16.729015
722.000000	1778.000000	16.667145
723.000000	1777.000000	16.583909
724.000000	1776.000000	16.482850
725.000000	1775.000000	16.369944
726.000000	1774.000000	16.261899
727.000000	1773.000000	16.153448
728.000000	1772.000000	16.025961
729.000000	1771.000000	15.922168
730.000000	1770.000000	15.817363
731.000000	1769.000000	15.686838
732.000000	1768.000000	15.589425
733.000000	1767.000000	15.490797
734.000000	1766.000000	15.413130
735.000000	1765.000000	15.350652
736.000000	1764.000000	15.289794
737.000000	1763.000000	15.252226
738.000000	1762.000000	15.261542
739.000000	1761.000000	15.258302
740.000000	1760.000000	15.307413
741.000000	1759.000000	15.326146
742.000000	1758.000000	15.372828
743.000000	1757.000000	15.406143
744.000000	1756.000000	15.427407
745.000000	1755.000000	15.423559
746.000000	1754.000000	15.428926
747.000000	1753.000000	15.443103
748.000000	1752.000000	15.404117
749.000000	1751.000000	15.349639
750.000000	1750.000000	15.281693
751.000000	1749.000000	15.215266
752.000000	1748.000000	15.132130
753.000000	1747.000000	15.041806
754.000000	1746.000000	14.945912
755.000000	1745.000000	14.806172
756.000000	1744.000000	14.682532
757.000000	1743.000000	14.507756
758.000000	1742.000000	14.360623
759.000000	1741.000000	14.161241
760.000000	1740.000000	13.946466
761.000000	1739.000000	13.779689
762.000000	1738.000000	13.594281
763.000000	1737.000000	13.451604
764.000000	1736.000000	13.338698
765.000000	1735.000000	13.260322
766.000000	1734.000000	13.221640
767.000000	1733.000000	13.228121
768.000000	1732.000000	13.255360
769.000000	1731.000000	13.324319
770.000000	1730.000000	13.391050
771.000000	1729.000000	13.504057
772.000000	1728.000000	13.584357
773.000000	1727.000000	13.678530
774.000000	1726.000000	13.776247
775.000000	1725.000000	13.814726
776.000000	1724.000000	13.872242
777.000000	1723.000000	13.895127
778.000000	1722.000000	13.919632
779.000000	1721.000000	13.942011
780.000000	1720.000000	13.933302
781.000000	1719.000000	13.954263
782.000000	1718.000000	13.989603
783.000000	1717.000000	14.023830
784.000000	1716.000000	14.046816
785.000000	1715.000000	14.129546
786.000000	1714.000000	14.164076
787.000000	1713.000000	14.210960
788.000000	1712.000000	14.287716
789.000000	1711.000000	14.292981
790.000000	1710.000000	14.310499
791.000000	1709.000000	14.317790
792.000000	1708.000000	14.318701
793.000000	1707.000000	14.314448
794.000000	1706.000000	14.267160
795.000000	1705.000000	14.253388
796.000000	1704.000000	14.197998
797.000000	1703.000000	14.150507
798.000000	1702.000000	14.058967
799.000000	1701.000000	13.965908
800.000000	1700.000000	13.848952
801.000000	1699.000000	13.738172
802.000000	1698.000000	13.631342
803.000000	1697.000000	13.564814
804.000000	1696.000000	13.515905
805.000000	1695.000000	13.537271
806.000000	1694.000000	13.586484
807.000000	1693.000000	13.702022
808.000000	1692.000000	13.861913
809.000000	1691.000000	14.024133
810.000000	1690.000000	14.164278
811.000000	1689.000000	14.295816
812.000000	1688.000000	14.384825
813.000000	1687.000000	14.464011
814.000000	1686.000000	14.501579
815.000000	1685.000000	14.519603
816.000000	1684.000000	14.638585
817.000000	1683.000000	14.830575
818.000000	1682.000000	15.108739
819.000000	1681.000000	15.500011
820.000000	1680.000000	15.943737
821.000000	1679.000000	16.447308
822.000000	1678.000000	16.941360
823.000000	1677.000000	17.390654
824.000000	1676.000000	17.798128
825.000000	1675.000000	18.189198
826.000000	1674.000000	18.538548
827.000000	1673.000000	18.805472
828.000000	1672.000000	19.050422
829.000000	1671.000000	19.285854
830.000000	1670.000000	19.453947
831.000000	1669.000000	19.647356
832.000000	1668.000000	19.792969
833.000000	1667.000000	19.936658
834.000000	1666.000000	20.034982
835.000000	1665.000000	20.159331
836.000000	1664.000000	20.240137
837.000000	1663.000000	20.327222
838.000000	1662.000000	20.374207
839.000000	1661.000000	20.438710
840.000000	1660.000000	20.464025
841.000000	1659.000000	20.520630
842.000000	1658.000000	20.524782
843.000000	1657.000000	20.548679
844.000000	1656.000000	20.564476
845.000000	1655.000000	20.580374
846.000000	1654.000000	20.560020
847.000000	1653.000000	20.529136
848.000000	1652.000000	20.506150
849.000000	1651.000000	20.488024
850.000000	1650.000000	20.460785
851.000000	1649.000000	20.432432
852.000000	1648.000000	20.396180
853.000000	1647.000000	20.330664
854.000000	1646.000000	20.282971
855.000000	1645.000000	20.231530
856.000000	1644.000000	20.182115
857.000000	1643.000000	20.110422
858.000000	1642.000000	20.035590
859.000000	1641.000000	19.975947
860.000000	1640.000000	19.923899
861.000000	1639.000000	19.852409
862.000000	1638.000000	19.798437
863.000000	1637.000000	19.724010
864.000000	1636.000000	19.640267
865.000000	1635.000000	19.574549
866.000000	1634.000000	19.508021
867.000000	1633.000000	19.427619
868.000000	1632.000000	19.356028
869.000000	1631.000000	19.264589
870.000000	1630.000000	19.177606
871.000000	1629.000000	19.090623
872.000000	1628.000000	19.014171
873.000000	1627.000000	18.922125
874.000000	1626.000000	18.834332
875.000000	1625.000000	18.750893
876.000000	1624.000000	18.666542
877.000000	1623.000000	18.600318
878.000000	1622.000000	18.522650
879.000000	1621.000000	18.452173
880.000000	1620.000000	18.374202
881.000000	1619.000000	18.295623
882.000000	1618.000000	18.215121
883.000000	1617.000000	18.143023
884.000000	1616.000000	18.075786
885.000000	1615.000000	18.003891
886.000000	1614.000000	17.927439
887.000000	1613.000000	17.863442
888.000000	1612.000000	17.792762
889.000000	1611.000000	17.729879
890.000000	1610.000000	17.657376
891.000000	1609.000000	17.621124
892.000000	1608.000000	17.555608
893.000000	1607.000000	17.476726
894.000000	1606.000000	17.406046
895.000000	1605.000000	17.370098
896.000000	1604.000000	17.319670
897.000000	1603.000000	17.253446
898.000000	1602.000000	17.195322
899.000000	1601.000000	17.136591
900.000000	1600.000000	17.082112
901.000000	1599.000000	17.037861
902.000000	1598.000000	16.980345
903.000000	1597.000000	16.936297
904.000000	1596.000000	16.889514
905.000000	1595.000000	16.845769
906.000000	1594.000000	16.808910
907.000000	1593.000000	16.776001
908.000000	1592.000000	16.735395
909.000000	1591.000000	16.719497
910.000000	1590.000000	16.697118
911.000000	1589.000000	16.668056
912.000000	1588.000000	16.647703
913.000000	1587.000000	16.629577
914.000000	1586.000000	16.611857
915.000000	1585.000000	16.606186
916.000000	1584.000000	16.599199
917.000000	1583.000000	16.587756
918.000000	1582.000000	16.586339
919.000000	1581.000000	16.572972
920.000000	1580.000000	16.581985
921.000000	1579.000000	16.585326
922.000000	1578.000000	16.579352
923.000000	1577.000000	16.588060
924.000000	1576.000000	16.605781
925.000000	1575.000000	16.632413
926.000000	1574.000000	16.641526
927.000000	1573.000000	16.647197
928.000000	1572.000000	16.683853
929.000000	1571.000000	16.712004
930.000000	1570.000000	16.725066
931.000000	1569.000000	16.766786
932.000000	1568.000000	16.809012
933.000000	1567.000000	16.829973
934.000000	1566.000000	16.863996
935.000000	1565.000000	16.911488
936.000000	1564.000000	16.944397
937.000000	1563.000000	16.962017
938.000000	1562.000000	16.982978
939.000000	1561.000000	17.010116
940.000000	1560.000000	17.031988
941.000000	1559.000000	17.058519
942.000000	1558.000000	17.072695
943.000000	1557.000000	17.062873
944.000000	1556.000000	17.063480
945.000000	1555.000000	17.084846
946.000000	1554.000000	17.083631
947.000000	1553.000000	17.064999
948.000000	1552.000000	17.044443
949.000000	1551.000000	17.039481
950.000000	1550.000000	17.021660
951.000000	1549.000000	16.990572
952.000000	1548.000000	16.979738
953.000000	1547.000000	16.968396
954.000000	1546.000000	16.948144
955.000000	1545.000000	16.922829
956.000000	1544.000000	16.901868
957.000000	1543.000000	16.884046
958.000000	1542.000000	16.870679
959.000000	1541.000000	16.864098
960.000000	1540.000000	16.857313
961.000000	1539.000000	16.838175
962.000000	1538.000000	16.814075
963.000000	1537.000000	16.810227
964.000000	1536.000000	16.791392
965.000000	1535.000000	16.754533
966.000000	1534.000000	16.726079
967.000000	1533.000000	16.712206
968.000000	1532.000000	16.678891
969.000000	1531.000000	16.666942
970.000000	1530.000000	16.645070
971.000000	1529.000000	16.603452
972.000000	1528.000000	16.572770
973.000000	1527.000000	16.536316
974.000000	1526.000000	16.507355
975.000000	1525.000000	16.461788
976.000000	1524.000000	16.423207
977.000000	1523.000000	16.394551
978.000000	1522.000000	16.350300
979.000000	1521.000000	16.316883
980.000000	1520.000000	16.280733
981.000000	1519.000000	16.250963
982.000000	1518.000000	16.230913
983.000000	1517.000000	16.182713
984.000000	1516.000000	16.149195
985.000000	1515.000000	16.127627
986.000000	1514.000000	16.103830
987.000000	1513.000000	16.072440
988.000000	1512.000000	16.044694
989.000000	1511.000000	16.020898
990.000000	1510.000000	16.001557
991.000000	1509.000000	15.964394
992.000000	1508.000000	15.939383
993.000000	1507.000000	15.908397
994.000000	1506.000000	15.890474
995.000000	1505.000000	15.869614
996.000000	1504.000000	15.849463
997.000000	1503.000000	15.856045
998.000000	1502.000000	15.880145
999.000000	1501.000000	15.876297
1000.000000	1500.000000	15.850374
1001.000000	1499.000000	15.839134
1002.000000	1498.000000	15.845818
1003.000000	1497.000000	15.850678
1004.000000	1496.000000	15.847134
1005.000000	1495.000000	15.859893
1006.000000	1494.000000	15.869918
1007.000000	1493.000000	15.873968
1008.000000	1492.000000	15.875183
1009.000000	1491.000000	15.894322
1010.000000	1490.000000	15.906979
1011.000000	1489.000000	15.952749
1012.000000	1488.000000	15.968546
1013.000000	1487.000000	15.983229
1014.000000	1486.000000	15.992950
1015.000000	1485.000000	16.006924
1016.000000	1484.000000	16.038315
1017.000000	1483.000000	16.069908
1018.000000	1482.000000	16.098565
1019.000000	1481.000000	16.125804
1020.000000	1480.000000	16.159828
1021.000000	1479.000000	16.201142
1022.000000	1478.000000	16.210154
1023.000000	1477.000000	16.253595
1024.000000	1476.000000	16.272835
1025.000000	1475.000000	16.330250
1026.000000	1474.000000	16.342502
1027.000000	1473.000000	16.374096
1028.000000	1472.000000	16.427562
1029.000000	1471.000000	16.482141
1030.000000	1470.000000	16.503001
1031.000000	1469.000000	16.512216
1032.000000	1468.000000	16.549075
1033.000000	1467.000000	16.597275
1034.000000	1466.000000	16.636665
1035.000000	1465.000000	16.679701
1036.000000	1464.000000	16.682233
1037.000000	1463.000000	16.736509
1038.000000	1462.000000	16.795746
1039.000000	1461.000000	16.844554
1040.000000	1460.000000	16.901058
1041.000000	1459.000000	16.962523
1042.000000	1458.000000	17.016293
1043.000000	1457.000000	17.075328
1044.000000	1456.000000	17.146818
1045.000000	1455.000000	17.202005
1046.000000	1454.000000	17.283217
1047.000000	1453.000000	17.334455
1048.000000	1452.000000	17.401287
1049.000000	1451.000000	17.527762
1050.000000	1450.000000	17.560773
1051.000000	1449.000000	17.638845
1052.000000	1448.000000	17.715398
1053.000000	1447.000000	17.796306
1054.000000	1446.000000	17.889668
1055.000000	1445.000000	17.969361
1056.000000	1444.000000	18.045813
1057.000000	1443.000000	18.129049
1058.000000	1442.000000	18.208134
1059.000000	1441.000000	18.304129
1060.000000	1440.000000	18.376733
1061.000000	1439.000000	18.448021
1062.000000	1438.000000	18.562243
1063.000000	1437.000000	18.632417
1064.000000	1436.000000	18.718287
1065.000000	1435.000000	18.793625
1066.000000	1434.000000	18.918176
1067.000000	1433.000000	18.980755
1068.000000	1432.000000	19.061359
1069.000000	1431.000000	19.163430
1070.000000	1430.000000	19.280082
1071.000000	1429.000000	19.383672
1072.000000	1428.000000	19.544373
1073.000000	1427.000000	19.639964
1074.000000	1426.000000	19.817778
1075.000000	1425.000000	19.962783
1076.000000	1424.000000	20.161457
1077.000000	1423.000000	20.318311
1078.000000	1422.000000	20.449443
1079.000000	1421.000000	20.651763
1080.000000	1420.000000	20.842437
1081.000000	1419.000000	21.024606
1082.000000	1418.000000	21.204749
1083.000000	1417.000000	21.329199
1084.000000	1416.000000	21.532227
1085.000000	1415.000000	21.722800
