PE UV       SUBTECH     SPECTRUM    ASCII       PEDS        4.00        
   -1
CICIMAUCR0158-1.ASC
24/04/03
16:46:49.00
24/04/03
16:46:49.00
Vinicio Soto Monge
C. cupreomarginata
250,000000
1
Lambda 1050
1050L1511233
PerkinElmer UV WinLab 6.3.2.0749 / 2.02.05 Lambda 900 UV/VIS/NIR, Aug  7 2015 09:38:08

0
0
3350/servo 860,8/2
0
0
UV/VIS
1
1
1
DoubleDePol,CommonBeamDepol,RBeamAtt,SBeamAtt,60mm sphere, WB InGaAs Detector
0
0
0
0
Program
Program
3350/servo 860,8/2
3350/0,2 860,8/0,2
3350/0,2 860,8/0,2
0
15.00
 
 
 
0
 
860,8
319,2
860,8
Front
100
on
S:100 R:100
0
0
0
0
 
0
 
 
 
0
 
 
0
0
0
0
0
 
 
 
 
0
0


0
0
#HDR
-1
-1
#GR
nm
%R
1.0
0.0
2500,000000
-1,000000
2251
8
61,268000
5,280400
#DATA
501.000000	1999.000000	22.157918
502.000000	1998.000000	22.093238
503.000000	1997.000000	22.009522
504.000000	1996.000000	21.944842
505.000000	1995.000000	21.860330
506.000000	1994.000000	21.781797
507.000000	1993.000000	21.694594
508.000000	1992.000000	21.614566
509.000000	1991.000000	21.527761
510.000000	1990.000000	21.444644
511.000000	1989.000000	21.364118
512.000000	1988.000000	21.269341
513.000000	1987.000000	21.193299
514.000000	1986.000000	21.058259
515.000000	1985.000000	20.982018
516.000000	1984.000000	20.905877
517.000000	1983.000000	20.799439
518.000000	1982.000000	20.702967
519.000000	1981.000000	20.612176
520.000000	1980.000000	20.521684
521.000000	1979.000000	20.440959
522.000000	1978.000000	20.330933
523.000000	1977.000000	20.252002
524.000000	1976.000000	20.150248
525.000000	1975.000000	20.066533
526.000000	1974.000000	19.979030
527.000000	1973.000000	19.915247
528.000000	1972.000000	19.793462
529.000000	1971.000000	19.715726
530.000000	1970.000000	19.635698
531.000000	1969.000000	19.552880
532.000000	1968.000000	19.476739
533.000000	1967.000000	19.380965
534.000000	1966.000000	19.321766
535.000000	1965.000000	19.231274
536.000000	1964.000000	19.166694
537.000000	1963.000000	19.055173
538.000000	1962.000000	18.964880
539.000000	1961.000000	18.918040
540.000000	1960.000000	18.818578
541.000000	1959.000000	18.741441
542.000000	1958.000000	18.644969
543.000000	1957.000000	18.563048
544.000000	1956.000000	18.501158
545.000000	1955.000000	18.401995
546.000000	1954.000000	18.306819
547.000000	1953.000000	18.229183
548.000000	1952.000000	18.142578
549.000000	1951.000000	18.085971
550.000000	1950.000000	18.039230
551.000000	1949.000000	17.958903
552.000000	1948.000000	17.884356
553.000000	1947.000000	17.801339
554.000000	1946.000000	17.756591
555.000000	1945.000000	17.700681
556.000000	1944.000000	17.641383
557.000000	1943.000000	17.585075
558.000000	1942.000000	17.548300
559.000000	1941.000000	17.516109
560.000000	1940.000000	17.493187
561.000000	1939.000000	17.461993
562.000000	1938.000000	17.425916
563.000000	1937.000000	17.426315
564.000000	1936.000000	17.410170
565.000000	1935.000000	17.389939
566.000000	1934.000000	17.422229
567.000000	1933.000000	17.417545
568.000000	1932.000000	17.471361
569.000000	1931.000000	17.510728
570.000000	1930.000000	17.526474
571.000000	1929.000000	17.589559
572.000000	1928.000000	17.658525
573.000000	1927.000000	17.708754
574.000000	1926.000000	17.778517
575.000000	1925.000000	17.865521
576.000000	1924.000000	17.988203
577.000000	1923.000000	18.065042
578.000000	1922.000000	18.190415
579.000000	1921.000000	18.342797
580.000000	1920.000000	18.493086
581.000000	1919.000000	18.612579
582.000000	1918.000000	18.778116
583.000000	1917.000000	18.924019
584.000000	1916.000000	19.092247
585.000000	1915.000000	19.274627
586.000000	1914.000000	19.499262
587.000000	1913.000000	19.752999
588.000000	1912.000000	19.992684
589.000000	1911.000000	20.217519
590.000000	1910.000000	20.467170
591.000000	1909.000000	20.694197
592.000000	1908.000000	20.961588
593.000000	1907.000000	21.276715
594.000000	1906.000000	21.633701
595.000000	1905.000000	22.024372
596.000000	1904.000000	22.410857
597.000000	1903.000000	22.759969
598.000000	1902.000000	23.132103
599.000000	1901.000000	23.537524
600.000000	1900.000000	23.986596
601.000000	1899.000000	24.456896
602.000000	1898.000000	24.892315
603.000000	1897.000000	25.373976
604.000000	1896.000000	25.798532
605.000000	1895.000000	26.207640
606.000000	1894.000000	26.692391
607.000000	1893.000000	27.190098
608.000000	1892.000000	27.721390
609.000000	1891.000000	28.262848
610.000000	1890.000000	28.773511
611.000000	1889.000000	29.232649
612.000000	1888.000000	29.731452
613.000000	1887.000000	30.189793
614.000000	1886.000000	30.652020
615.000000	1885.000000	31.134180
616.000000	1884.000000	31.597105
617.000000	1883.000000	32.016080
618.000000	1882.000000	32.406352
619.000000	1881.000000	32.797720
620.000000	1880.000000	33.154507
621.000000	1879.000000	33.508702
622.000000	1878.000000	33.853429
623.000000	1877.000000	34.196063
624.000000	1876.000000	34.527635
625.000000	1875.000000	34.856217
626.000000	1874.000000	35.162276
627.000000	1873.000000	35.450695
628.000000	1872.000000	35.715693
629.000000	1871.000000	35.946010
630.000000	1870.000000	36.131678
631.000000	1869.000000	36.307978
632.000000	1868.000000	36.467137
633.000000	1867.000000	36.570884
634.000000	1866.000000	36.669050
635.000000	1865.000000	36.763728
636.000000	1864.000000	36.860000
637.000000	1863.000000	36.973215
638.000000	1862.000000	37.116029
639.000000	1861.000000	37.244193
640.000000	1860.000000	37.363886
641.000000	1859.000000	37.459062
642.000000	1858.000000	37.533708
643.000000	1857.000000	37.598488
644.000000	1856.000000	37.655394
645.000000	1855.000000	37.708414
646.000000	1854.000000	37.753062
647.000000	1853.000000	37.773692
648.000000	1852.000000	37.801099
649.000000	1851.000000	37.849534
650.000000	1850.000000	37.911822
651.000000	1849.000000	37.993544
652.000000	1848.000000	38.026033
653.000000	1847.000000	38.005005
654.000000	1846.000000	37.956071
655.000000	1845.000000	37.918400
656.000000	1844.000000	37.917802
657.000000	1843.000000	37.950291
658.000000	1842.000000	37.984873
659.000000	1841.000000	37.990554
660.000000	1840.000000	37.978096
661.000000	1839.000000	37.950291
662.000000	1838.000000	37.921090
663.000000	1837.000000	37.903949
664.000000	1836.000000	37.857108
665.000000	1835.000000	37.786648
666.000000	1834.000000	37.729442
667.000000	1833.000000	37.690375
668.000000	1832.000000	37.672337
669.000000	1831.000000	37.663666
670.000000	1830.000000	37.632572
671.000000	1829.000000	37.599385
672.000000	1828.000000	37.550451
673.000000	1827.000000	37.505006
674.000000	1826.000000	37.479592
675.000000	1825.000000	37.448997
676.000000	1824.000000	37.432552
677.000000	1823.000000	37.473114
678.000000	1822.000000	37.516168
679.000000	1821.000000	37.528327
680.000000	1820.000000	37.509491
681.000000	1819.000000	37.449395
682.000000	1818.000000	37.413717
683.000000	1817.000000	37.414713
684.000000	1816.000000	37.426672
685.000000	1815.000000	37.410428
686.000000	1814.000000	37.377141
687.000000	1813.000000	37.374151
688.000000	1812.000000	37.362192
689.000000	1811.000000	37.345847
690.000000	1810.000000	37.291632
691.000000	1809.000000	37.264723
692.000000	1808.000000	37.260936
693.000000	1807.000000	37.245290
694.000000	1806.000000	37.221570
695.000000	1805.000000	37.194562
696.000000	1804.000000	37.167355
697.000000	1803.000000	37.154498
698.000000	1802.000000	37.161375
699.000000	1801.000000	37.142738
700.000000	1800.000000	37.102475
701.000000	1799.000000	37.063508
702.000000	1798.000000	37.038991
703.000000	1797.000000	37.022149
704.000000	1796.000000	37.000423
705.000000	1795.000000	36.989958
706.000000	1794.000000	36.972717
707.000000	1793.000000	36.956073
708.000000	1792.000000	36.937636
709.000000	1791.000000	36.931457
710.000000	1790.000000	36.926375
711.000000	1789.000000	36.920096
712.000000	1788.000000	36.913718
713.000000	1787.000000	36.923983
714.000000	1786.000000	36.941124
715.000000	1785.000000	36.938234
716.000000	1784.000000	36.915511
717.000000	1783.000000	36.905745
718.000000	1782.000000	36.893187
719.000000	1781.000000	36.887208
720.000000	1780.000000	36.885713
721.000000	1779.000000	36.870963
722.000000	1778.000000	36.842360
723.000000	1777.000000	36.811565
724.000000	1776.000000	36.787248
725.000000	1775.000000	36.768711
726.000000	1774.000000	36.743098
727.000000	1773.000000	36.708316
728.000000	1772.000000	36.679016
729.000000	1771.000000	36.639152
730.000000	1770.000000	36.602676
731.000000	1769.000000	36.571382
732.000000	1768.000000	36.537099
733.000000	1767.000000	36.507400
734.000000	1766.000000	36.483581
735.000000	1765.000000	36.450194
736.000000	1764.000000	36.410928
737.000000	1763.000000	36.399766
738.000000	1762.000000	36.389302
739.000000	1761.000000	36.368772
740.000000	1760.000000	36.353324
741.000000	1759.000000	36.329904
742.000000	1758.000000	36.346746
743.000000	1757.000000	36.347145
744.000000	1756.000000	36.320735
745.000000	1755.000000	36.301102
746.000000	1754.000000	36.289641
747.000000	1753.000000	36.279675
748.000000	1752.000000	36.283860
749.000000	1751.000000	36.266519
750.000000	1750.000000	36.245591
751.000000	1749.000000	36.222868
752.000000	1748.000000	36.176027
753.000000	1747.000000	36.149617
754.000000	1746.000000	36.104670
755.000000	1745.000000	36.063311
756.000000	1744.000000	36.011288
757.000000	1743.000000	35.951292
758.000000	1742.000000	35.909135
759.000000	1741.000000	35.845352
760.000000	1740.000000	35.796817
761.000000	1739.000000	35.739811
762.000000	1738.000000	35.700146
763.000000	1737.000000	35.651512
764.000000	1736.000000	35.620318
765.000000	1735.000000	35.596698
766.000000	1734.000000	35.562614
767.000000	1733.000000	35.517268
768.000000	1732.000000	35.511687
769.000000	1731.000000	35.470129
770.000000	1730.000000	35.446011
771.000000	1729.000000	35.422192
772.000000	1728.000000	35.386713
773.000000	1727.000000	35.366581
774.000000	1726.000000	35.358508
775.000000	1725.000000	35.347247
776.000000	1724.000000	35.345453
777.000000	1723.000000	35.391397
778.000000	1722.000000	35.450994
779.000000	1721.000000	35.520557
780.000000	1720.000000	35.642841
781.000000	1719.000000	35.795223
782.000000	1718.000000	35.949000
783.000000	1717.000000	36.118324
784.000000	1716.000000	36.265124
785.000000	1715.000000	36.429365
786.000000	1714.000000	36.595799
787.000000	1713.000000	36.706522
788.000000	1712.000000	36.831198
789.000000	1711.000000	36.943118
790.000000	1710.000000	37.018262
791.000000	1709.000000	37.117823
792.000000	1708.000000	37.196456
793.000000	1707.000000	37.241702
794.000000	1706.000000	37.293625
795.000000	1705.000000	37.321032
796.000000	1704.000000	37.358205
797.000000	1703.000000	37.372756
798.000000	1702.000000	37.386310
799.000000	1701.000000	37.390994
800.000000	1700.000000	37.402056
801.000000	1699.000000	37.396575
802.000000	1698.000000	37.389698
803.000000	1697.000000	37.376742
804.000000	1696.000000	37.360498
805.000000	1695.000000	37.332991
806.000000	1694.000000	37.309671
807.000000	1693.000000	37.253761
808.000000	1692.000000	37.205325
809.000000	1691.000000	37.146924
810.000000	1690.000000	37.123305
811.000000	1689.000000	37.112342
812.000000	1688.000000	37.149914
813.000000	1687.000000	37.178218
814.000000	1686.000000	37.276184
815.000000	1685.000000	37.384516
816.000000	1684.000000	37.550053
817.000000	1683.000000	37.710607
818.000000	1682.000000	37.876243
819.000000	1681.000000	38.056031
820.000000	1680.000000	38.227149
821.000000	1679.000000	38.391390
822.000000	1678.000000	38.554037
823.000000	1677.000000	38.694061
824.000000	1676.000000	38.840861
825.000000	1675.000000	38.973311
826.000000	1674.000000	39.124496
827.000000	1673.000000	39.260534
828.000000	1672.000000	39.392684
829.000000	1671.000000	39.518356
830.000000	1670.000000	39.660473
831.000000	1669.000000	39.800397
832.000000	1668.000000	39.945503
833.000000	1667.000000	40.056326
834.000000	1666.000000	40.172531
835.000000	1665.000000	40.278869
836.000000	1664.000000	40.385506
837.000000	1663.000000	40.500714
838.000000	1662.000000	40.605159
839.000000	1661.000000	40.685286
840.000000	1660.000000	40.761328
841.000000	1659.000000	40.831190
842.000000	1658.000000	40.917198
843.000000	1657.000000	40.945302
844.000000	1656.000000	41.016858
845.000000	1655.000000	41.043667
846.000000	1654.000000	41.060510
847.000000	1653.000000	41.080243
848.000000	1652.000000	41.089810
849.000000	1651.000000	41.115622
850.000000	1650.000000	41.109344
851.000000	1649.000000	41.102866
852.000000	1648.000000	41.082136
853.000000	1647.000000	41.083631
854.000000	1646.000000	41.064197
855.000000	1645.000000	41.054431
856.000000	1644.000000	41.036492
857.000000	1643.000000	41.017855
858.000000	1642.000000	41.008985
859.000000	1641.000000	40.997425
860.000000	1640.000000	40.986761
861.000000	1639.000000	40.965433
862.000000	1638.000000	40.947993
863.000000	1637.000000	40.908926
864.000000	1636.000000	40.890787
865.000000	1635.000000	40.857102
866.000000	1634.000000	40.851720
867.000000	1633.000000	40.823716
868.000000	1632.000000	40.779964
869.000000	1631.000000	40.736014
870.000000	1630.000000	40.704421
871.000000	1629.000000	40.655986
872.000000	1628.000000	40.619909
873.000000	1627.000000	40.596389
874.000000	1626.000000	40.544266
875.000000	1625.000000	40.493340
876.000000	1624.000000	40.467428
877.000000	1623.000000	40.412415
878.000000	1622.000000	40.367866
879.000000	1621.000000	40.331091
880.000000	1620.000000	40.314049
881.000000	1619.000000	40.296609
882.000000	1618.000000	40.257243
883.000000	1617.000000	40.217677
884.000000	1616.000000	40.192862
885.000000	1615.000000	40.159874
886.000000	1614.000000	40.110143
887.000000	1613.000000	40.078152
888.000000	1612.000000	40.030614
889.000000	1611.000000	39.991148
890.000000	1610.000000	39.945703
891.000000	1609.000000	39.896570
892.000000	1608.000000	39.840461
893.000000	1607.000000	39.782956
894.000000	1606.000000	39.719771
895.000000	1605.000000	39.649112
896.000000	1604.000000	39.589415
897.000000	1603.000000	39.529518
898.000000	1602.000000	39.455969
899.000000	1601.000000	39.390093
900.000000	1600.000000	39.329698
901.000000	1599.000000	39.281363
902.000000	1598.000000	39.208810
903.000000	1597.000000	39.135559
904.000000	1596.000000	39.083735
905.000000	1595.000000	39.030915
906.000000	1594.000000	38.982081
907.000000	1593.000000	38.918697
908.000000	1592.000000	38.871956
909.000000	1591.000000	38.826909
910.000000	1590.000000	38.788340
911.000000	1589.000000	38.746084
912.000000	1588.000000	38.682998
913.000000	1587.000000	38.628085
914.000000	1586.000000	38.589815
915.000000	1585.000000	38.549253
916.000000	1584.000000	38.506200
917.000000	1583.000000	38.465538
918.000000	1582.000000	38.430258
919.000000	1581.000000	38.390792
920.000000	1580.000000	38.353918
921.000000	1579.000000	38.315847
922.000000	1578.000000	38.282860
923.000000	1577.000000	38.260735
924.000000	1576.000000	38.242796
925.000000	1575.000000	38.227747
926.000000	1574.000000	38.210904
927.000000	1573.000000	38.199443
928.000000	1572.000000	38.194859
929.000000	1571.000000	38.176422
930.000000	1570.000000	38.170741
931.000000	1569.000000	38.178814
932.000000	1568.000000	38.180209
933.000000	1567.000000	38.179810
934.000000	1566.000000	38.173731
935.000000	1565.000000	38.176222
936.000000	1564.000000	38.171538
937.000000	1563.000000	38.153001
938.000000	1562.000000	38.142836
939.000000	1561.000000	38.135461
940.000000	1560.000000	38.111443
941.000000	1559.000000	38.076960
942.000000	1558.000000	38.039288
943.000000	1557.000000	38.009589
944.000000	1556.000000	37.965240
945.000000	1555.000000	37.903251
946.000000	1554.000000	37.843355
947.000000	1553.000000	37.765918
948.000000	1552.000000	37.698946
949.000000	1551.000000	37.635362
950.000000	1550.000000	37.561015
951.000000	1549.000000	37.488662
952.000000	1548.000000	37.417205
953.000000	1547.000000	37.340765
954.000000	1546.000000	37.263328
955.000000	1545.000000	37.194961
956.000000	1544.000000	37.131776
957.000000	1543.000000	37.080052
958.000000	1542.000000	37.034108
959.000000	1541.000000	36.989659
960.000000	1540.000000	36.948798
961.000000	1539.000000	36.898669
962.000000	1538.000000	36.844752
963.000000	1537.000000	36.807180
964.000000	1536.000000	36.768213
965.000000	1535.000000	36.719379
966.000000	1534.000000	36.660678
967.000000	1533.000000	36.610051
968.000000	1532.000000	36.561316
969.000000	1531.000000	36.495042
970.000000	1530.000000	36.438235
971.000000	1529.000000	36.383820
972.000000	1528.000000	36.342561
973.000000	1527.000000	36.294325
974.000000	1526.000000	36.220875
975.000000	1525.000000	36.156693
976.000000	1524.000000	36.093907
977.000000	1523.000000	36.028728
978.000000	1522.000000	35.967038
979.000000	1521.000000	35.907341
980.000000	1520.000000	35.842562
981.000000	1519.000000	35.791336
982.000000	1518.000000	35.738117
983.000000	1517.000000	35.661577
984.000000	1516.000000	35.580653
985.000000	1515.000000	35.527035
986.000000	1514.000000	35.466242
987.000000	1513.000000	35.396280
988.000000	1512.000000	35.328710
989.000000	1511.000000	35.276089
990.000000	1510.000000	35.209914
991.000000	1509.000000	35.142045
992.000000	1508.000000	35.058130
993.000000	1507.000000	34.999330
994.000000	1506.000000	34.944716
995.000000	1505.000000	34.881332
996.000000	1504.000000	34.824126
997.000000	1503.000000	34.770011
998.000000	1502.000000	34.707025
999.000000	1501.000000	34.656696
1000.000000	1500.000000	34.615436
1001.000000	1499.000000	34.581751
1002.000000	1498.000000	34.535708
1003.000000	1497.000000	34.505411
1004.000000	1496.000000	34.452989
1005.000000	1495.000000	34.429569
1006.000000	1494.000000	34.408540
1007.000000	1493.000000	34.403856
1008.000000	1492.000000	34.406846
1009.000000	1491.000000	34.383824
1010.000000	1490.000000	34.378343
1011.000000	1489.000000	34.377247
1012.000000	1488.000000	34.380835
1013.000000	1487.000000	34.384921
1014.000000	1486.000000	34.373659
1015.000000	1485.000000	34.374656
1016.000000	1484.000000	34.369374
1017.000000	1483.000000	34.385618
1018.000000	1482.000000	34.381931
1019.000000	1481.000000	34.383226
1020.000000	1480.000000	34.372862
1021.000000	1479.000000	34.386017
1022.000000	1478.000000	34.401963
1023.000000	1477.000000	34.410633
1024.000000	1476.000000	34.414321
1025.000000	1475.000000	34.414221
1026.000000	1474.000000	34.467041
1027.000000	1473.000000	34.495943
1028.000000	1472.000000	34.517968
1029.000000	1471.000000	34.569592
1030.000000	1470.000000	34.577466
1031.000000	1469.000000	34.588229
1032.000000	1468.000000	34.616533
1033.000000	1467.000000	34.687392
1034.000000	1466.000000	34.705630
1035.000000	1465.000000	34.747687
1036.000000	1464.000000	34.815257
1037.000000	1463.000000	34.850337
1038.000000	1462.000000	34.894288
1039.000000	1461.000000	34.935547
1040.000000	1460.000000	35.005609
1041.000000	1459.000000	35.051652
1042.000000	1458.000000	35.121913
1043.000000	1457.000000	35.176926
1044.000000	1456.000000	35.238915
1045.000000	1455.000000	35.292234
1046.000000	1454.000000	35.343559
1047.000000	1453.000000	35.425780
1048.000000	1452.000000	35.507302
1049.000000	1451.000000	35.590021
1050.000000	1450.000000	35.626995
1051.000000	1449.000000	35.645034
1052.000000	1448.000000	35.712604
1053.000000	1447.000000	35.796120
1054.000000	1446.000000	35.895183
1055.000000	1445.000000	35.944116
1056.000000	1444.000000	35.970825
1057.000000	1443.000000	36.032316
1058.000000	1442.000000	36.102577
1059.000000	1441.000000	36.210410
1060.000000	1440.000000	36.256852
1061.000000	1439.000000	36.333392
1062.000000	1438.000000	36.421392
1063.000000	1437.000000	36.482485
1064.000000	1436.000000	36.567794
1065.000000	1435.000000	36.665960
1066.000000	1434.000000	36.773196
1067.000000	1433.000000	36.870664
1068.000000	1432.000000	36.985673
1069.000000	1431.000000	37.085533
1070.000000	1430.000000	37.163169
1071.000000	1429.000000	37.280669
1072.000000	1428.000000	37.420493
1073.000000	1427.000000	37.535502
1074.000000	1426.000000	37.667653
1075.000000	1425.000000	37.848238
1076.000000	1424.000000	38.023741
1077.000000	1423.000000	38.164263
1078.000000	1422.000000	38.307775
1079.000000	1421.000000	38.481484
1080.000000	1420.000000	38.724557
1081.000000	1419.000000	38.901654
1082.000000	1418.000000	39.079749
