PE UV       SUBTECH     SPECTRUM    ASCII       PEDS        4.00        
   -1
CICIMAUCR0071-1.ASC
24/04/03
15:28:35.00
24/04/03
15:28:35.00
Vinicio Soto Monge
C. resplendens
250,000000
1
Lambda 1050
1050L1511233
PerkinElmer UV WinLab 6.3.2.0749 / 2.02.05 Lambda 900 UV/VIS/NIR, Aug  7 2015 09:38:08

0
0
3350/servo 860,8/2
0
0
UV/VIS
1
1
1
DoubleDePol,CommonBeamDepol,RBeamAtt,SBeamAtt,60mm sphere, WB InGaAs Detector
0
0
0
0
Program
Program
3350/servo 860,8/2
3350/0,2 860,8/0,2
3350/0,2 860,8/0,2
0
15.00
 
 
 
0
 
860,8
319,2
860,8
Front
100
on
S:100 R:100
0
0
0
0
 
0
 
 
 
0
 
 
0
0
0
0
0
 
 
 
 
0
0


0
0
#HDR
-1
-1
#GR
nm
%R
1.0
0.0
2500,000000
-1,000000
2251
8
72,736100
5,101300
#DATA
501.000000	1999.000000	13.784786
502.000000	1998.000000	13.755167
503.000000	1997.000000	13.677961
504.000000	1996.000000	13.645875
505.000000	1995.000000	13.593548
506.000000	1994.000000	13.524735
507.000000	1993.000000	13.460364
508.000000	1992.000000	13.409420
509.000000	1991.000000	13.341494
510.000000	1990.000000	13.284824
511.000000	1989.000000	13.237434
512.000000	1988.000000	13.182541
513.000000	1987.000000	13.111555
514.000000	1986.000000	13.030499
515.000000	1985.000000	12.986565
516.000000	1984.000000	12.926439
517.000000	1983.000000	12.835609
518.000000	1982.000000	12.753664
519.000000	1981.000000	12.716641
520.000000	1980.000000	12.627983
521.000000	1979.000000	12.575064
522.000000	1978.000000	12.494699
523.000000	1977.000000	12.447408
524.000000	1976.000000	12.394687
525.000000	1975.000000	12.320542
526.000000	1974.000000	12.253801
527.000000	1973.000000	12.191010
528.000000	1972.000000	12.137499
529.000000	1971.000000	12.084185
530.000000	1970.000000	11.997699
531.000000	1969.000000	11.967389
532.000000	1968.000000	11.908942
533.000000	1967.000000	11.848718
534.000000	1966.000000	11.796786
535.000000	1965.000000	11.738833
536.000000	1964.000000	11.668439
537.000000	1963.000000	11.600613
538.000000	1962.000000	11.569118
539.000000	1961.000000	11.516792
540.000000	1960.000000	11.440870
541.000000	1959.000000	11.387754
542.000000	1958.000000	11.348657
543.000000	1957.000000	11.294356
544.000000	1956.000000	11.230380
545.000000	1955.000000	11.148436
546.000000	1954.000000	11.107661
547.000000	1953.000000	11.054347
548.000000	1952.000000	11.005970
549.000000	1951.000000	10.951867
550.000000	1950.000000	10.903490
551.000000	1949.000000	10.873871
552.000000	1948.000000	10.821150
553.000000	1947.000000	10.774155
554.000000	1946.000000	10.742365
555.000000	1945.000000	10.706329
556.000000	1944.000000	10.664764
557.000000	1943.000000	10.626753
558.000000	1942.000000	10.597332
559.000000	1941.000000	10.579166
560.000000	1940.000000	10.532468
561.000000	1939.000000	10.547672
562.000000	1938.000000	10.549548
563.000000	1937.000000	10.530098
564.000000	1936.000000	10.512130
565.000000	1935.000000	10.503540
566.000000	1934.000000	10.491298
567.000000	1933.000000	10.521805
568.000000	1932.000000	10.538885
569.000000	1931.000000	10.569195
570.000000	1930.000000	10.575118
571.000000	1929.000000	10.617374
572.000000	1928.000000	10.648869
573.000000	1927.000000	10.709883
574.000000	1926.000000	10.752929
575.000000	1925.000000	10.802096
576.000000	1924.000000	10.880684
577.000000	1923.000000	10.929061
578.000000	1922.000000	10.995604
579.000000	1921.000000	11.119705
580.000000	1920.000000	11.222285
581.000000	1919.000000	11.325061
582.000000	1918.000000	11.443535
583.000000	1917.000000	11.524197
584.000000	1916.000000	11.616113
585.000000	1915.000000	11.734192
586.000000	1914.000000	11.904401
587.000000	1913.000000	12.090899
588.000000	1912.000000	12.285789
589.000000	1911.000000	12.479495
590.000000	1910.000000	12.637658
591.000000	1909.000000	12.767289
592.000000	1908.000000	12.956650
593.000000	1907.000000	13.190045
594.000000	1906.000000	13.461746
595.000000	1905.000000	13.802359
596.000000	1904.000000	14.109998
597.000000	1903.000000	14.381995
598.000000	1902.000000	14.673442
599.000000	1901.000000	14.985030
600.000000	1900.000000	15.373527
601.000000	1899.000000	15.769823
602.000000	1898.000000	16.171254
603.000000	1897.000000	16.572191
604.000000	1896.000000	16.931563
605.000000	1895.000000	17.265661
606.000000	1894.000000	17.659390
607.000000	1893.000000	18.093796
608.000000	1892.000000	18.584872
609.000000	1891.000000	19.081872
610.000000	1890.000000	19.555276
611.000000	1889.000000	19.981882
612.000000	1888.000000	20.431591
613.000000	1887.000000	20.834207
614.000000	1886.000000	21.253013
615.000000	1885.000000	21.681298
616.000000	1884.000000	22.149963
617.000000	1883.000000	22.561266
618.000000	1882.000000	22.940582
619.000000	1881.000000	23.323747
620.000000	1880.000000	23.654883
621.000000	1879.000000	23.977726
622.000000	1878.000000	24.306295
623.000000	1877.000000	24.635357
624.000000	1876.000000	24.955139
625.000000	1875.000000	25.282128
626.000000	1874.000000	25.589865
627.000000	1873.000000	25.895924
628.000000	1872.000000	26.187766
629.000000	1871.000000	26.450483
630.000000	1870.000000	26.691578
631.000000	1869.000000	26.920332
632.000000	1868.000000	27.132303
633.000000	1867.000000	27.292045
634.000000	1866.000000	27.406373
635.000000	1865.000000	27.523169
636.000000	1864.000000	27.640360
637.000000	1863.000000	27.753898
638.000000	1862.000000	27.890045
639.000000	1861.000000	28.023427
640.000000	1860.000000	28.161252
641.000000	1859.000000	28.286243
642.000000	1858.000000	28.401755
643.000000	1857.000000	28.484194
644.000000	1856.000000	28.543431
645.000000	1855.000000	28.621821
646.000000	1854.000000	28.700607
647.000000	1853.000000	28.747799
648.000000	1852.000000	28.792720
649.000000	1851.000000	28.835371
650.000000	1850.000000	28.879700
651.000000	1849.000000	28.939629
652.000000	1848.000000	29.004790
653.000000	1847.000000	29.056523
654.000000	1846.000000	29.045959
655.000000	1845.000000	29.007949
656.000000	1844.000000	28.971123
657.000000	1843.000000	28.974875
658.000000	1842.000000	29.021968
659.000000	1841.000000	29.060176
660.000000	1840.000000	29.060769
661.000000	1839.000000	29.040825
662.000000	1838.000000	29.016637
663.000000	1837.000000	28.999754
664.000000	1836.000000	28.981391
665.000000	1835.000000	28.960164
666.000000	1834.000000	28.922252
667.000000	1833.000000	28.879009
668.000000	1832.000000	28.847614
669.000000	1831.000000	28.846231
670.000000	1830.000000	28.848305
671.000000	1829.000000	28.822339
672.000000	1828.000000	28.795781
673.000000	1827.000000	28.792523
674.000000	1826.000000	28.791437
675.000000	1825.000000	28.772876
676.000000	1824.000000	28.746219
677.000000	1823.000000	28.743652
678.000000	1822.000000	28.761029
679.000000	1821.000000	28.796176
680.000000	1820.000000	28.806444
681.000000	1819.000000	28.769717
682.000000	1818.000000	28.756586
683.000000	1817.000000	28.748885
684.000000	1816.000000	28.747503
685.000000	1815.000000	28.742171
686.000000	1814.000000	28.726375
687.000000	1813.000000	28.705346
688.000000	1812.000000	28.692017
689.000000	1811.000000	28.689055
690.000000	1810.000000	28.653908
691.000000	1809.000000	28.617082
692.000000	1808.000000	28.596152
693.000000	1807.000000	28.586871
694.000000	1806.000000	28.560116
695.000000	1805.000000	28.514997
696.000000	1804.000000	28.492585
697.000000	1803.000000	28.484983
698.000000	1802.000000	28.469483
699.000000	1801.000000	28.439667
700.000000	1800.000000	28.401854
701.000000	1799.000000	28.357031
702.000000	1798.000000	28.333830
703.000000	1797.000000	28.316355
704.000000	1796.000000	28.294042
705.000000	1795.000000	28.265115
706.000000	1794.000000	28.227993
707.000000	1793.000000	28.212492
708.000000	1792.000000	28.198868
709.000000	1791.000000	28.182775
710.000000	1790.000000	28.168854
711.000000	1789.000000	28.159673
712.000000	1788.000000	28.151281
713.000000	1787.000000	28.149800
714.000000	1786.000000	28.152860
715.000000	1785.000000	28.148220
716.000000	1784.000000	28.130943
717.000000	1783.000000	28.116034
718.000000	1782.000000	28.082171
719.000000	1781.000000	28.072594
720.000000	1780.000000	28.047319
721.000000	1779.000000	28.037644
722.000000	1778.000000	28.002793
723.000000	1777.000000	27.967250
724.000000	1776.000000	27.922033
725.000000	1775.000000	27.887182
726.000000	1774.000000	27.836632
727.000000	1773.000000	27.794772
728.000000	1772.000000	27.765350
729.000000	1771.000000	27.736522
730.000000	1770.000000	27.691600
731.000000	1769.000000	27.662278
732.000000	1768.000000	27.606792
733.000000	1767.000000	27.572731
734.000000	1766.000000	27.536695
735.000000	1765.000000	27.492761
736.000000	1764.000000	27.464821
737.000000	1763.000000	27.449320
738.000000	1762.000000	27.438954
739.000000	1761.000000	27.424539
740.000000	1760.000000	27.417431
741.000000	1759.000000	27.433129
742.000000	1758.000000	27.417036
743.000000	1757.000000	27.432141
744.000000	1756.000000	27.444779
745.000000	1755.000000	27.442903
746.000000	1754.000000	27.458897
747.000000	1753.000000	27.453269
748.000000	1752.000000	27.453960
749.000000	1751.000000	27.450900
750.000000	1750.000000	27.436387
751.000000	1749.000000	27.409434
752.000000	1748.000000	27.377347
753.000000	1747.000000	27.350986
754.000000	1746.000000	27.312186
755.000000	1745.000000	27.264599
756.000000	1744.000000	27.209311
757.000000	1743.000000	27.136153
758.000000	1742.000000	27.044730
759.000000	1741.000000	26.981840
760.000000	1740.000000	26.913816
761.000000	1739.000000	26.829206
762.000000	1738.000000	26.764440
763.000000	1737.000000	26.706980
764.000000	1736.000000	26.632440
765.000000	1735.000000	26.588012
766.000000	1734.000000	26.501032
767.000000	1733.000000	26.459270
768.000000	1732.000000	26.381965
769.000000	1731.000000	26.329441
770.000000	1730.000000	26.293899
771.000000	1729.000000	26.223901
772.000000	1728.000000	26.193492
773.000000	1727.000000	26.158937
774.000000	1726.000000	26.137118
775.000000	1725.000000	26.114805
776.000000	1724.000000	26.125863
777.000000	1723.000000	26.159332
778.000000	1722.000000	26.217977
779.000000	1721.000000	26.312658
780.000000	1720.000000	26.440807
781.000000	1719.000000	26.585247
782.000000	1718.000000	26.765131
783.000000	1717.000000	26.958935
784.000000	1716.000000	27.152739
785.000000	1715.000000	27.319393
786.000000	1714.000000	27.509742
787.000000	1713.000000	27.664055
788.000000	1712.000000	27.796450
789.000000	1711.000000	27.924304
790.000000	1710.000000	28.056304
791.000000	1709.000000	28.190278
792.000000	1708.000000	28.284860
793.000000	1707.000000	28.376184
794.000000	1706.000000	28.455957
795.000000	1705.000000	28.537309
796.000000	1704.000000	28.582231
797.000000	1703.000000	28.647886
798.000000	1702.000000	28.703075
799.000000	1701.000000	28.723018
800.000000	1700.000000	28.797163
801.000000	1699.000000	28.806345
802.000000	1698.000000	28.819377
803.000000	1697.000000	28.842480
804.000000	1696.000000	28.834088
805.000000	1695.000000	28.831422
806.000000	1694.000000	28.786106
807.000000	1693.000000	28.724005
808.000000	1692.000000	28.680861
809.000000	1691.000000	28.636630
810.000000	1690.000000	28.579170
811.000000	1689.000000	28.565052
812.000000	1688.000000	28.558339
813.000000	1687.000000	28.609579
814.000000	1686.000000	28.681157
815.000000	1685.000000	28.790548
816.000000	1684.000000	28.922943
817.000000	1683.000000	29.103123
818.000000	1682.000000	29.260694
819.000000	1681.000000	29.450549
820.000000	1680.000000	29.648105
821.000000	1679.000000	29.806565
822.000000	1678.000000	29.947944
823.000000	1677.000000	30.097518
824.000000	1676.000000	30.231986
825.000000	1675.000000	30.363295
826.000000	1674.000000	30.490951
827.000000	1673.000000	30.614658
828.000000	1672.000000	30.745671
829.000000	1671.000000	30.878659
830.000000	1670.000000	31.010363
831.000000	1669.000000	31.132490
832.000000	1668.000000	31.263404
833.000000	1667.000000	31.403599
834.000000	1666.000000	31.494034
835.000000	1665.000000	31.623467
836.000000	1664.000000	31.727231
837.000000	1663.000000	31.839189
838.000000	1662.000000	31.946310
839.000000	1661.000000	32.045730
840.000000	1660.000000	32.133993
841.000000	1659.000000	32.216925
842.000000	1658.000000	32.285147
843.000000	1657.000000	32.343594
844.000000	1656.000000	32.381308
845.000000	1655.000000	32.415962
846.000000	1654.000000	32.445975
847.000000	1653.000000	32.479741
848.000000	1652.000000	32.484480
849.000000	1651.000000	32.492279
850.000000	1650.000000	32.496327
851.000000	1649.000000	32.484480
852.000000	1648.000000	32.478062
853.000000	1647.000000	32.472040
854.000000	1646.000000	32.444988
855.000000	1645.000000	32.424749
856.000000	1644.000000	32.399968
857.000000	1643.000000	32.378248
858.000000	1642.000000	32.363043
859.000000	1641.000000	32.324737
860.000000	1640.000000	32.304794
861.000000	1639.000000	32.261945
862.000000	1638.000000	32.241212
863.000000	1637.000000	32.217419
864.000000	1636.000000	32.175064
865.000000	1635.000000	32.138337
866.000000	1634.000000	32.108620
867.000000	1633.000000	32.074164
868.000000	1632.000000	32.035758
869.000000	1631.000000	31.987085
870.000000	1630.000000	31.927255
871.000000	1629.000000	31.886283
872.000000	1628.000000	31.839288
873.000000	1627.000000	31.768796
874.000000	1626.000000	31.721110
875.000000	1625.000000	31.659503
876.000000	1624.000000	31.624652
877.000000	1623.000000	31.565810
878.000000	1622.000000	31.513582
879.000000	1621.000000	31.468760
880.000000	1620.000000	31.422752
881.000000	1619.000000	31.361935
882.000000	1618.000000	31.310991
883.000000	1617.000000	31.265181
884.000000	1616.000000	31.215619
885.000000	1615.000000	31.171192
886.000000	1614.000000	31.118767
887.000000	1613.000000	31.068020
888.000000	1612.000000	31.023395
889.000000	1611.000000	30.978572
890.000000	1610.000000	30.923185
891.000000	1609.000000	30.856247
892.000000	1608.000000	30.799083
893.000000	1607.000000	30.734219
894.000000	1606.000000	30.663332
895.000000	1605.000000	30.603008
896.000000	1604.000000	30.546733
897.000000	1603.000000	30.464887
898.000000	1602.000000	30.400615
899.000000	1601.000000	30.337330
900.000000	1600.000000	30.269701
901.000000	1599.000000	30.202960
902.000000	1598.000000	30.136911
903.000000	1597.000000	30.074415
904.000000	1596.000000	30.014685
905.000000	1595.000000	29.963444
906.000000	1594.000000	29.912994
907.000000	1593.000000	29.867875
908.000000	1592.000000	29.828779
909.000000	1591.000000	29.777341
910.000000	1590.000000	29.736566
911.000000	1589.000000	29.707935
912.000000	1588.000000	29.659656
913.000000	1587.000000	29.609305
914.000000	1586.000000	29.569221
915.000000	1585.000000	29.527755
916.000000	1584.000000	29.480563
917.000000	1583.000000	29.432778
918.000000	1582.000000	29.408787
919.000000	1581.000000	29.367617
920.000000	1580.000000	29.326941
921.000000	1579.000000	29.303345
922.000000	1578.000000	29.281230
923.000000	1577.000000	29.266914
924.000000	1576.000000	29.234926
925.000000	1575.000000	29.204912
926.000000	1574.000000	29.191979
927.000000	1573.000000	29.191782
928.000000	1572.000000	29.182600
929.000000	1571.000000	29.170752
930.000000	1570.000000	29.173517
931.000000	1569.000000	29.176676
932.000000	1568.000000	29.183192
933.000000	1567.000000	29.186450
934.000000	1566.000000	29.186944
935.000000	1565.000000	29.176972
936.000000	1564.000000	29.164631
937.000000	1563.000000	29.159695
938.000000	1562.000000	29.151698
939.000000	1561.000000	29.123659
940.000000	1560.000000	29.090585
941.000000	1559.000000	29.072517
942.000000	1558.000000	29.045959
943.000000	1557.000000	29.011404
944.000000	1556.000000	28.965792
945.000000	1555.000000	28.909714
946.000000	1554.000000	28.850180
947.000000	1553.000000	28.787587
948.000000	1552.000000	28.719661
949.000000	1551.000000	28.657265
950.000000	1550.000000	28.576110
951.000000	1549.000000	28.495745
952.000000	1548.000000	28.426141
953.000000	1547.000000	28.343604
954.000000	1546.000000	28.270644
955.000000	1545.000000	28.225821
956.000000	1544.000000	28.176358
957.000000	1543.000000	28.115541
958.000000	1542.000000	28.050182
959.000000	1541.000000	27.993710
960.000000	1540.000000	27.936941
961.000000	1539.000000	27.889946
962.000000	1538.000000	27.824983
963.000000	1537.000000	27.757452
964.000000	1536.000000	27.703349
965.000000	1535.000000	27.655071
966.000000	1534.000000	27.585664
967.000000	1533.000000	27.514284
968.000000	1532.000000	27.451788
969.000000	1531.000000	27.392156
970.000000	1530.000000	27.326699
971.000000	1529.000000	27.241595
972.000000	1528.000000	27.162415
973.000000	1527.000000	27.095378
974.000000	1526.000000	27.009583
975.000000	1525.000000	26.949161
976.000000	1524.000000	26.878373
977.000000	1523.000000	26.809657
978.000000	1522.000000	26.732748
979.000000	1521.000000	26.646262
980.000000	1520.000000	26.557011
981.000000	1519.000000	26.481286
982.000000	1518.000000	26.394109
983.000000	1517.000000	26.333391
984.000000	1516.000000	26.251841
985.000000	1515.000000	26.169402
986.000000	1514.000000	26.083015
987.000000	1513.000000	26.004822
988.000000	1512.000000	25.925148
989.000000	1511.000000	25.837674
990.000000	1510.000000	25.757507
991.000000	1509.000000	25.686718
992.000000	1508.000000	25.600627
993.000000	1507.000000	25.527568
994.000000	1506.000000	25.451448
995.000000	1505.000000	25.377105
996.000000	1504.000000	25.286670
997.000000	1503.000000	25.220818
998.000000	1502.000000	25.155953
999.000000	1501.000000	25.082104
1000.000000	1500.000000	25.017733
1001.000000	1499.000000	24.980710
1002.000000	1498.000000	24.945562
1003.000000	1497.000000	24.902122
1004.000000	1496.000000	24.841996
1005.000000	1495.000000	24.809712
1006.000000	1494.000000	24.788189
1007.000000	1493.000000	24.757188
1008.000000	1492.000000	24.729643
1009.000000	1491.000000	24.710884
1010.000000	1490.000000	24.699333
1011.000000	1489.000000	24.680871
1012.000000	1488.000000	24.660829
1013.000000	1487.000000	24.649475
1014.000000	1486.000000	24.619462
1015.000000	1485.000000	24.590732
1016.000000	1484.000000	24.587178
1017.000000	1483.000000	24.595471
1018.000000	1482.000000	24.577601
1019.000000	1481.000000	24.552030
1020.000000	1480.000000	24.562002
1021.000000	1479.000000	24.565753
1022.000000	1478.000000	24.575429
1023.000000	1477.000000	24.589152
1024.000000	1476.000000	24.586684
1025.000000	1475.000000	24.593891
1026.000000	1474.000000	24.634567
1027.000000	1473.000000	24.664976
1028.000000	1472.000000	24.706540
1029.000000	1471.000000	24.747019
1030.000000	1470.000000	24.773577
1031.000000	1469.000000	24.800135
1032.000000	1468.000000	24.846735
1033.000000	1467.000000	24.901924
1034.000000	1466.000000	24.927495
1035.000000	1465.000000	24.978538
1036.000000	1464.000000	25.019806
1037.000000	1463.000000	25.065913
1038.000000	1462.000000	25.104713
1039.000000	1461.000000	25.147759
1040.000000	1460.000000	25.222496
1041.000000	1459.000000	25.275711
1042.000000	1458.000000	25.310661
1043.000000	1457.000000	25.388360
1044.000000	1456.000000	25.455200
1045.000000	1455.000000	25.508217
1046.000000	1454.000000	25.559753
1047.000000	1453.000000	25.630542
1048.000000	1452.000000	25.673883
1049.000000	1451.000000	25.749213
1050.000000	1450.000000	25.805587
1051.000000	1449.000000	25.835502
1052.000000	1448.000000	25.888914
1053.000000	1447.000000	25.965232
1054.000000	1446.000000	26.052014
1055.000000	1445.000000	26.074425
1056.000000	1444.000000	26.117274
1057.000000	1443.000000	26.171772
1058.000000	1442.000000	26.233280
1059.000000	1441.000000	26.292912
1060.000000	1440.000000	26.386803
1061.000000	1439.000000	26.439820
1062.000000	1438.000000	26.530058
1063.000000	1437.000000	26.598477
1064.000000	1436.000000	26.679336
1065.000000	1435.000000	26.748347
1066.000000	1434.000000	26.870474
1067.000000	1433.000000	26.949556
1068.000000	1432.000000	27.071881
1069.000000	1431.000000	27.160144
1070.000000	1430.000000	27.258379
1071.000000	1429.000000	27.391663
1072.000000	1428.000000	27.541434
1073.000000	1427.000000	27.634041
1074.000000	1426.000000	27.784208
1075.000000	1425.000000	27.960833
1076.000000	1424.000000	28.114554
1077.000000	1423.000000	28.294141
1078.000000	1422.000000	28.466521
1079.000000	1421.000000	28.651933
1080.000000	1420.000000	28.857980
1081.000000	1419.000000	29.082884
1082.000000	1418.000000	29.301173
