PE UV       SUBTECH     SPECTRUM    ASCII       PEDS        4.00        
   -1
CICIMAUCR0100-1.ASC
24/04/03
15:40:25.00
24/04/03
15:40:25.00
Vinicio Soto Monge
C. cupreomarginata
250,000000
1
Lambda 1050
1050L1511233
PerkinElmer UV WinLab 6.3.2.0749 / 2.02.05 Lambda 900 UV/VIS/NIR, Aug  7 2015 09:38:08

0
0
3350/servo 860,8/2
0
0
UV/VIS
1
1
1
DoubleDePol,CommonBeamDepol,RBeamAtt,SBeamAtt,60mm sphere, WB InGaAs Detector
0
0
0
0
Program
Program
3350/servo 860,8/2
3350/0,2 860,8/0,2
3350/0,2 860,8/0,2
0
15.00
 
 
 
0
 
860,8
319,2
860,8
Front
100
on
S:100 R:100
0
0
0
0
 
0
 
 
 
0
 
 
0
0
0
0
0
 
 
 
 
0
0


0
0
#HDR
-1
-1
#GR
nm
%R
1.0
0.0
2500,000000
-1,000000
2251
8
57,680700
4,945700
#DATA
501.000000	1999.000000	10.919280
502.000000	1998.000000	10.900905
503.000000	1997.000000	10.907030
504.000000	1996.000000	10.872015
505.000000	1995.000000	10.854967
506.000000	1994.000000	10.827507
507.000000	1993.000000	10.804231
508.000000	1992.000000	10.802700
509.000000	1991.000000	10.744717
510.000000	1990.000000	10.712050
511.000000	1989.000000	10.693164
512.000000	1988.000000	10.654168
513.000000	1987.000000	10.618235
514.000000	1986.000000	10.576483
515.000000	1985.000000	10.552391
516.000000	1984.000000	10.502880
517.000000	1983.000000	10.471745
518.000000	1982.000000	10.430605
519.000000	1981.000000	10.394161
520.000000	1980.000000	10.354042
521.000000	1979.000000	10.326378
522.000000	1978.000000	10.285748
523.000000	1977.000000	10.224294
524.000000	1976.000000	10.189790
525.000000	1975.000000	10.183767
526.000000	1974.000000	10.144975
527.000000	1973.000000	10.088114
528.000000	1972.000000	10.058306
529.000000	1971.000000	10.030641
530.000000	1970.000000	10.026047
531.000000	1969.000000	9.953772
532.000000	1968.000000	9.913041
533.000000	1967.000000	9.932130
534.000000	1966.000000	9.892522
535.000000	1965.000000	9.847401
536.000000	1964.000000	9.813305
537.000000	1963.000000	9.795951
538.000000	1962.000000	9.748686
539.000000	1961.000000	9.728269
540.000000	1960.000000	9.702034
541.000000	1959.000000	9.674573
542.000000	1958.000000	9.634148
543.000000	1957.000000	9.626594
544.000000	1956.000000	9.588517
545.000000	1955.000000	9.578410
546.000000	1954.000000	9.551869
547.000000	1953.000000	9.510219
548.000000	1952.000000	9.499296
549.000000	1951.000000	9.479696
550.000000	1950.000000	9.434268
551.000000	1949.000000	9.432431
552.000000	1948.000000	9.414464
553.000000	1947.000000	9.400683
554.000000	1946.000000	9.376897
555.000000	1945.000000	9.368016
556.000000	1944.000000	9.380470
557.000000	1943.000000	9.389454
558.000000	1942.000000	9.387208
559.000000	1941.000000	9.404664
560.000000	1940.000000	9.409564
561.000000	1939.000000	9.410789
562.000000	1938.000000	9.421406
563.000000	1937.000000	9.419977
564.000000	1936.000000	9.417833
565.000000	1935.000000	9.449377
566.000000	1934.000000	9.483881
567.000000	1933.000000	9.527164
568.000000	1932.000000	9.570958
569.000000	1931.000000	9.625369
570.000000	1930.000000	9.688559
571.000000	1929.000000	9.728576
572.000000	1928.000000	9.770838
573.000000	1927.000000	9.821982
574.000000	1926.000000	9.865878
575.000000	1925.000000	9.968779
576.000000	1924.000000	10.050445
577.000000	1923.000000	10.105264
578.000000	1922.000000	10.193056
579.000000	1921.000000	10.293609
580.000000	1920.000000	10.356186
581.000000	1919.000000	10.427441
582.000000	1918.000000	10.525033
583.000000	1917.000000	10.651616
584.000000	1916.000000	10.759315
585.000000	1915.000000	10.858642
586.000000	1914.000000	10.988084
587.000000	1913.000000	11.109155
588.000000	1912.000000	11.214097
589.000000	1911.000000	11.308423
590.000000	1910.000000	11.436232
591.000000	1909.000000	11.570982
592.000000	1908.000000	11.706855
593.000000	1907.000000	11.852121
594.000000	1906.000000	11.979521
595.000000	1905.000000	12.116721
596.000000	1904.000000	12.251982
597.000000	1903.000000	12.383772
598.000000	1902.000000	12.532304
599.000000	1901.000000	12.694515
600.000000	1900.000000	12.827122
601.000000	1899.000000	12.944110
602.000000	1898.000000	13.076104
603.000000	1897.000000	13.248115
604.000000	1896.000000	13.405528
605.000000	1895.000000	13.547322
606.000000	1894.000000	13.709533
607.000000	1893.000000	13.872255
608.000000	1892.000000	14.019255
609.000000	1891.000000	14.170339
610.000000	1890.000000	14.319177
611.000000	1889.000000	14.470363
612.000000	1888.000000	14.666772
613.000000	1887.000000	14.837456
614.000000	1886.000000	15.069594
615.000000	1885.000000	15.301630
616.000000	1884.000000	15.572254
617.000000	1883.000000	15.842470
618.000000	1882.000000	16.138410
619.000000	1881.000000	16.472428
620.000000	1880.000000	16.818900
621.000000	1879.000000	17.145262
622.000000	1878.000000	17.454882
623.000000	1877.000000	17.739797
624.000000	1876.000000	18.006134
625.000000	1875.000000	18.259710
626.000000	1874.000000	18.493889
627.000000	1873.000000	18.677538
628.000000	1872.000000	18.849855
629.000000	1871.000000	19.006145
630.000000	1870.000000	19.103023
631.000000	1869.000000	19.203677
632.000000	1868.000000	19.289326
633.000000	1867.000000	19.343226
634.000000	1866.000000	19.412439
635.000000	1865.000000	19.476241
636.000000	1864.000000	19.531264
637.000000	1863.000000	19.598945
638.000000	1862.000000	19.646721
639.000000	1861.000000	19.672854
640.000000	1860.000000	19.653662
641.000000	1859.000000	19.629264
642.000000	1858.000000	19.604866
643.000000	1857.000000	19.581285
644.000000	1856.000000	19.564747
645.000000	1855.000000	19.533918
646.000000	1854.000000	19.476037
647.000000	1853.000000	19.386101
648.000000	1852.000000	19.333426
649.000000	1851.000000	19.333017
650.000000	1850.000000	19.331486
651.000000	1849.000000	19.300555
652.000000	1848.000000	19.191734
653.000000	1847.000000	19.036260
654.000000	1846.000000	18.928460
655.000000	1845.000000	18.887830
656.000000	1844.000000	18.906001
657.000000	1843.000000	18.938362
658.000000	1842.000000	18.917435
659.000000	1841.000000	18.859757
660.000000	1840.000000	18.788809
661.000000	1839.000000	18.732459
662.000000	1838.000000	18.713982
663.000000	1837.000000	18.662838
664.000000	1836.000000	18.568002
665.000000	1835.000000	18.473575
666.000000	1834.000000	18.410895
667.000000	1833.000000	18.377922
668.000000	1832.000000	18.341070
669.000000	1831.000000	18.290130
670.000000	1830.000000	18.211832
671.000000	1829.000000	18.124142
672.000000	1828.000000	18.036555
673.000000	1827.000000	17.967444
674.000000	1826.000000	17.881387
675.000000	1825.000000	17.816054
676.000000	1824.000000	17.818198
677.000000	1823.000000	17.849741
678.000000	1822.000000	17.848823
679.000000	1821.000000	17.795943
680.000000	1820.000000	17.709989
681.000000	1819.000000	17.633018
682.000000	1818.000000	17.622503
683.000000	1817.000000	17.648228
684.000000	1816.000000	17.650372
685.000000	1815.000000	17.626689
686.000000	1814.000000	17.609334
687.000000	1813.000000	17.605557
688.000000	1812.000000	17.607088
689.000000	1811.000000	17.559722
690.000000	1810.000000	17.485609
691.000000	1809.000000	17.470194
692.000000	1808.000000	17.461823
693.000000	1807.000000	17.423134
694.000000	1806.000000	17.356575
695.000000	1805.000000	17.300225
696.000000	1804.000000	17.276644
697.000000	1803.000000	17.233973
698.000000	1802.000000	17.184768
699.000000	1801.000000	17.150979
700.000000	1800.000000	17.093914
701.000000	1799.000000	17.035930
702.000000	1798.000000	16.999588
703.000000	1797.000000	16.961409
704.000000	1796.000000	16.923740
705.000000	1795.000000	16.866267
706.000000	1794.000000	16.818084
707.000000	1793.000000	16.772350
708.000000	1792.000000	16.728760
709.000000	1791.000000	16.669960
710.000000	1790.000000	16.611670
711.000000	1789.000000	16.563079
712.000000	1788.000000	16.511424
713.000000	1787.000000	16.438026
714.000000	1786.000000	16.377388
715.000000	1785.000000	16.305113
716.000000	1784.000000	16.231511
717.000000	1783.000000	16.158317
718.000000	1782.000000	16.070014
719.000000	1781.000000	16.011214
720.000000	1780.000000	15.939551
721.000000	1779.000000	15.855537
722.000000	1778.000000	15.778668
723.000000	1777.000000	15.705269
724.000000	1776.000000	15.616865
725.000000	1775.000000	15.508758
726.000000	1774.000000	15.391975
727.000000	1773.000000	15.294485
728.000000	1772.000000	15.175557
729.000000	1771.000000	15.061530
730.000000	1770.000000	14.959446
731.000000	1769.000000	14.851850
732.000000	1768.000000	14.765997
733.000000	1767.000000	14.680757
734.000000	1766.000000	14.599295
735.000000	1765.000000	14.552642
736.000000	1764.000000	14.504357
737.000000	1763.000000	14.494863
738.000000	1762.000000	14.479244
739.000000	1761.000000	14.508032
740.000000	1760.000000	14.553357
741.000000	1759.000000	14.588984
742.000000	1758.000000	14.644007
743.000000	1757.000000	14.665037
744.000000	1756.000000	14.712710
745.000000	1755.000000	14.725878
746.000000	1754.000000	14.721489
747.000000	1753.000000	14.706278
748.000000	1752.000000	14.698214
749.000000	1751.000000	14.669732
750.000000	1750.000000	14.622876
751.000000	1749.000000	14.583472
752.000000	1748.000000	14.531103
753.000000	1747.000000	14.445046
754.000000	1746.000000	14.348781
755.000000	1745.000000	14.253231
756.000000	1744.000000	14.126239
757.000000	1743.000000	13.986588
758.000000	1742.000000	13.830298
759.000000	1741.000000	13.662677
760.000000	1740.000000	13.487705
761.000000	1739.000000	13.338765
762.000000	1738.000000	13.204321
763.000000	1737.000000	13.068550
764.000000	1736.000000	12.965751
765.000000	1735.000000	12.923693
766.000000	1734.000000	12.889699
767.000000	1733.000000	12.885514
768.000000	1732.000000	12.927266
769.000000	1731.000000	12.964322
770.000000	1730.000000	13.038741
771.000000	1729.000000	13.120715
772.000000	1728.000000	13.186150
773.000000	1727.000000	13.289663
774.000000	1726.000000	13.360917
775.000000	1725.000000	13.419003
776.000000	1724.000000	13.454528
777.000000	1723.000000	13.474537
778.000000	1722.000000	13.497301
779.000000	1721.000000	13.497607
780.000000	1720.000000	13.482397
781.000000	1719.000000	13.490768
782.000000	1718.000000	13.526701
783.000000	1717.000000	13.526497
784.000000	1716.000000	13.567943
785.000000	1715.000000	13.601120
786.000000	1714.000000	13.650529
787.000000	1713.000000	13.669006
788.000000	1712.000000	13.702489
789.000000	1711.000000	13.741690
790.000000	1710.000000	13.739444
791.000000	1709.000000	13.750775
792.000000	1708.000000	13.735156
793.000000	1707.000000	13.714331
794.000000	1706.000000	13.729848
795.000000	1705.000000	13.695854
796.000000	1704.000000	13.632868
797.000000	1703.000000	13.601427
798.000000	1702.000000	13.560593
799.000000	1701.000000	13.431253
800.000000	1700.000000	13.362245
801.000000	1699.000000	13.266898
802.000000	1698.000000	13.169102
803.000000	1697.000000	13.099073
804.000000	1696.000000	13.076410
805.000000	1695.000000	13.056708
806.000000	1694.000000	13.089069
807.000000	1693.000000	13.183904
808.000000	1692.000000	13.307732
809.000000	1691.000000	13.415736
810.000000	1690.000000	13.531908
811.000000	1689.000000	13.640729
812.000000	1688.000000	13.686871
813.000000	1687.000000	13.710554
814.000000	1686.000000	13.697998
815.000000	1685.000000	13.721273
816.000000	1684.000000	13.768333
817.000000	1683.000000	13.907065
818.000000	1682.000000	14.126341
819.000000	1681.000000	14.429325
820.000000	1680.000000	14.807341
821.000000	1679.000000	15.231907
822.000000	1678.000000	15.634117
823.000000	1677.000000	16.028058
824.000000	1676.000000	16.369120
825.000000	1675.000000	16.673227
826.000000	1674.000000	16.945892
827.000000	1673.000000	17.184258
828.000000	1672.000000	17.388017
829.000000	1671.000000	17.570032
830.000000	1670.000000	17.731937
831.000000	1669.000000	17.876283
832.000000	1668.000000	17.985921
833.000000	1667.000000	18.055746
834.000000	1666.000000	18.148540
835.000000	1665.000000	18.210301
836.000000	1664.000000	18.289314
837.000000	1663.000000	18.352197
838.000000	1662.000000	18.390989
839.000000	1661.000000	18.426310
840.000000	1660.000000	18.452137
841.000000	1659.000000	18.492052
842.000000	1658.000000	18.519717
843.000000	1657.000000	18.543706
844.000000	1656.000000	18.543911
845.000000	1655.000000	18.553404
846.000000	1654.000000	18.534417
847.000000	1653.000000	18.536356
848.000000	1652.000000	18.522677
849.000000	1651.000000	18.499606
850.000000	1650.000000	18.487050
851.000000	1649.000000	18.467041
852.000000	1648.000000	18.439989
853.000000	1647.000000	18.408241
854.000000	1646.000000	18.381393
855.000000	1645.000000	18.343826
856.000000	1644.000000	18.296868
857.000000	1643.000000	18.275022
858.000000	1642.000000	18.226124
859.000000	1641.000000	18.183147
860.000000	1640.000000	18.141905
861.000000	1639.000000	18.080655
862.000000	1638.000000	18.049315
863.000000	1637.000000	17.992557
864.000000	1636.000000	17.942638
865.000000	1635.000000	17.898231
866.000000	1634.000000	17.841473
867.000000	1633.000000	17.782979
868.000000	1632.000000	17.714991
869.000000	1631.000000	17.662214
870.000000	1630.000000	17.589734
871.000000	1629.000000	17.540224
872.000000	1628.000000	17.480811
873.000000	1627.000000	17.411700
874.000000	1626.000000	17.334729
875.000000	1625.000000	17.288894
876.000000	1624.000000	17.215904
877.000000	1623.000000	17.162514
878.000000	1622.000000	17.106266
879.000000	1621.000000	17.053897
880.000000	1620.000000	16.989993
881.000000	1619.000000	16.927109
882.000000	1618.000000	16.857284
883.000000	1617.000000	16.811652
884.000000	1616.000000	16.757956
885.000000	1615.000000	16.679352
886.000000	1614.000000	16.630556
887.000000	1613.000000	16.577268
888.000000	1612.000000	16.508668
889.000000	1611.000000	16.455993
890.000000	1610.000000	16.409851
891.000000	1609.000000	16.350745
892.000000	1608.000000	16.297253
893.000000	1607.000000	16.241821
894.000000	1606.000000	16.183736
895.000000	1605.000000	16.143515
896.000000	1604.000000	16.094106
897.000000	1603.000000	16.026935
898.000000	1602.000000	15.991512
899.000000	1601.000000	15.940879
900.000000	1600.000000	15.885753
901.000000	1599.000000	15.834405
902.000000	1598.000000	15.793061
903.000000	1597.000000	15.758353
904.000000	1596.000000	15.706903
905.000000	1595.000000	15.656167
906.000000	1594.000000	15.617375
907.000000	1593.000000	15.574806
908.000000	1592.000000	15.531012
909.000000	1591.000000	15.501919
910.000000	1590.000000	15.468946
911.000000	1589.000000	15.432502
912.000000	1588.000000	15.413106
913.000000	1587.000000	15.387074
914.000000	1586.000000	15.346241
915.000000	1585.000000	15.307449
916.000000	1584.000000	15.283460
917.000000	1583.000000	15.268147
918.000000	1582.000000	15.253243
919.000000	1581.000000	15.245484
920.000000	1580.000000	15.226293
921.000000	1579.000000	15.207101
922.000000	1578.000000	15.195259
923.000000	1577.000000	15.178926
924.000000	1576.000000	15.177497
925.000000	1575.000000	15.163409
926.000000	1574.000000	15.160653
927.000000	1573.000000	15.171270
928.000000	1572.000000	15.165349
929.000000	1571.000000	15.172801
930.000000	1570.000000	15.187399
931.000000	1569.000000	15.176374
932.000000	1568.000000	15.183213
933.000000	1567.000000	15.203936
934.000000	1566.000000	15.206591
935.000000	1565.000000	15.210266
936.000000	1564.000000	15.234766
937.000000	1563.000000	15.245178
938.000000	1562.000000	15.255080
939.000000	1561.000000	15.277232
940.000000	1560.000000	15.282745
941.000000	1559.000000	15.298364
942.000000	1558.000000	15.309695
943.000000	1557.000000	15.309287
944.000000	1556.000000	15.316535
945.000000	1555.000000	15.318576
946.000000	1554.000000	15.319699
947.000000	1553.000000	15.301018
948.000000	1552.000000	15.312145
949.000000	1551.000000	15.329295
950.000000	1550.000000	15.320720
951.000000	1549.000000	15.306428
952.000000	1548.000000	15.297241
953.000000	1547.000000	15.296424
954.000000	1546.000000	15.294587
955.000000	1545.000000	15.300099
956.000000	1544.000000	15.309797
957.000000	1543.000000	15.309185
958.000000	1542.000000	15.304795
959.000000	1541.000000	15.300814
960.000000	1540.000000	15.312349
961.000000	1539.000000	15.322762
962.000000	1538.000000	15.331643
963.000000	1537.000000	15.330418
964.000000	1536.000000	15.325212
965.000000	1535.000000	15.335522
966.000000	1534.000000	15.344301
967.000000	1533.000000	15.346037
968.000000	1532.000000	15.328989
969.000000	1531.000000	15.326641
970.000000	1530.000000	15.343995
971.000000	1529.000000	15.340831
972.000000	1528.000000	15.314901
973.000000	1527.000000	15.316841
974.000000	1526.000000	15.321026
975.000000	1525.000000	15.376458
976.000000	1524.000000	15.485177
977.000000	1523.000000	15.516210
978.000000	1522.000000	15.519885
979.000000	1521.000000	15.527337
980.000000	1520.000000	15.531931
981.000000	1519.000000	15.515292
982.000000	1518.000000	15.518865
983.000000	1517.000000	15.509065
984.000000	1516.000000	15.513352
985.000000	1515.000000	15.518967
986.000000	1514.000000	15.524683
987.000000	1513.000000	15.507635
988.000000	1512.000000	15.514577
989.000000	1511.000000	15.516415
990.000000	1510.000000	15.511923
991.000000	1509.000000	15.507942
992.000000	1508.000000	15.500694
993.000000	1507.000000	15.507533
994.000000	1506.000000	15.517435
995.000000	1505.000000	15.508758
996.000000	1504.000000	15.513250
997.000000	1503.000000	15.498244
998.000000	1502.000000	15.506717
999.000000	1501.000000	15.516517
1000.000000	1500.000000	15.523969
1001.000000	1499.000000	15.552246
1002.000000	1498.000000	15.564598
1003.000000	1497.000000	15.565517
1004.000000	1496.000000	15.563067
1005.000000	1495.000000	15.586036
1006.000000	1494.000000	15.615027
1007.000000	1493.000000	15.644325
1008.000000	1492.000000	15.659944
1009.000000	1491.000000	15.692815
1010.000000	1490.000000	15.719663
1011.000000	1489.000000	15.741305
1012.000000	1488.000000	15.753045
1013.000000	1487.000000	15.777851
1014.000000	1486.000000	15.792755
1015.000000	1485.000000	15.823074
1016.000000	1484.000000	15.842062
1017.000000	1483.000000	15.889224
1018.000000	1482.000000	15.915153
1019.000000	1481.000000	15.953026
1020.000000	1480.000000	15.986714
1021.000000	1479.000000	16.010704
1022.000000	1478.000000	16.046943
1023.000000	1477.000000	16.076344
1024.000000	1476.000000	16.124221
1025.000000	1475.000000	16.145046
1026.000000	1474.000000	16.180367
1027.000000	1473.000000	16.235798
1028.000000	1472.000000	16.273876
1029.000000	1471.000000	16.319915
1030.000000	1470.000000	16.335942
1031.000000	1469.000000	16.352174
1032.000000	1468.000000	16.390965
1033.000000	1467.000000	16.434249
1034.000000	1466.000000	16.458749
1035.000000	1465.000000	16.498868
1036.000000	1464.000000	16.563793
1037.000000	1463.000000	16.600952
1038.000000	1462.000000	16.661691
1039.000000	1461.000000	16.724269
1040.000000	1460.000000	16.785927
1041.000000	1459.000000	16.830027
1042.000000	1458.000000	16.889542
1043.000000	1457.000000	16.945484
1044.000000	1456.000000	17.030928
1045.000000	1455.000000	17.104633
1046.000000	1454.000000	17.170783
1047.000000	1453.000000	17.254185
1048.000000	1452.000000	17.325644
1049.000000	1451.000000	17.401900
1050.000000	1450.000000	17.448144
1051.000000	1449.000000	17.524401
1052.000000	1448.000000	17.599534
1053.000000	1447.000000	17.724689
1054.000000	1446.000000	17.799210
1055.000000	1445.000000	17.873119
1056.000000	1444.000000	17.947844
1057.000000	1443.000000	18.026652
1058.000000	1442.000000	18.125265
1059.000000	1441.000000	18.208157
1060.000000	1440.000000	18.283903
1061.000000	1439.000000	18.365672
1062.000000	1438.000000	18.483375
1063.000000	1437.000000	18.492869
1064.000000	1436.000000	18.587092
1065.000000	1435.000000	18.683561
1066.000000	1434.000000	18.746649
1067.000000	1433.000000	18.843016
1068.000000	1432.000000	18.894772
1069.000000	1431.000000	18.985320
1070.000000	1430.000000	19.050348
1071.000000	1429.000000	19.164784
1072.000000	1428.000000	19.298003
1073.000000	1427.000000	19.379159
1074.000000	1426.000000	19.479610
1075.000000	1425.000000	19.647537
1076.000000	1424.000000	19.762790
1077.000000	1423.000000	19.878144
1078.000000	1422.000000	20.007791
1079.000000	1421.000000	20.163162
1080.000000	1420.000000	20.327619
1081.000000	1419.000000	20.427457
1082.000000	1418.000000	20.548222
1083.000000	1417.000000	20.646732
