PE UV       SUBTECH     SPECTRUM    ASCII       PEDS        4.00        
   -1
CICIMAUCR0112-2.Sample.ASC
24/04/04
15:29:38.00
24/04/04
15:29:38.00
Vinicio Soto Monge
C. resplendens
250,000000
1
Lambda 1050
1050L1511233
PerkinElmer UV WinLab 6.3.2.0749 / 2.02.05 Lambda 900 UV/VIS/NIR, Aug  7 2015 09:38:08

0
0
3350/servo 860,8/2
0
0
UV/VIS
1
1
1
DoubleDePol,CommonBeamDepol,RBeamAtt,SBeamAtt,60mm sphere, WB InGaAs Detector
0
0
0
0
Program
Program
3350/servo 860,8/2
3350/0,2 860,8/0,2
3350/0,2 860,8/0,2
0
15.00
 
 
 
0
 
860,8
319,2
860,8
Front
100
on
S:100 R:100
0
0
0
0
 
0
 
 
 
0
 
 
0
0
0
0
0
 
 
 
 
0
0


0
0
#HDR
-1
-1
#GR
nm
%R
1.0
0.0
2500,000000
-1,000000
2251
8
62,626100
4,604700
#DATA
250.000000	2250.000000	5.550500
251.000000	2249.000000	5.504700
252.000000	2248.000000	5.513150
253.000000	2247.000000	5.499150
254.000000	2246.000000	5.472000
255.000000	2245.000000	5.503850
256.000000	2244.000000	5.485050
257.000000	2243.000000	5.510350
258.000000	2242.000000	5.440150
259.000000	2241.000000	5.456100
260.000000	2240.000000	5.424500
261.000000	2239.000000	5.406500
262.000000	2238.000000	5.413650
263.000000	2237.000000	5.374600
264.000000	2236.000000	5.354300
265.000000	2235.000000	5.341900
266.000000	2234.000000	5.319100
267.000000	2233.000000	5.305500
268.000000	2232.000000	5.281700
269.000000	2231.000000	5.253150
270.000000	2230.000000	5.237400
271.000000	2229.000000	5.210750
272.000000	2228.000000	5.198750
273.000000	2227.000000	5.205650
274.000000	2226.000000	5.193700
275.000000	2225.000000	5.179350
276.000000	2224.000000	5.149550
277.000000	2223.000000	5.159100
278.000000	2222.000000	5.149450
279.000000	2221.000000	5.124650
280.000000	2220.000000	5.109900
281.000000	2219.000000	5.096850
282.000000	2218.000000	5.096050
283.000000	2217.000000	5.072950
284.000000	2216.000000	5.057950
285.000000	2215.000000	5.053050
286.000000	2214.000000	5.042750
287.000000	2213.000000	5.048000
288.000000	2212.000000	5.036000
289.000000	2211.000000	5.019200
290.000000	2210.000000	5.026100
291.000000	2209.000000	4.996700
292.000000	2208.000000	4.986450
293.000000	2207.000000	4.991350
294.000000	2206.000000	5.007400
295.000000	2205.000000	4.998200
296.000000	2204.000000	5.012050
297.000000	2203.000000	5.019450
298.000000	2202.000000	5.013100
299.000000	2201.000000	5.001850
300.000000	2200.000000	4.984650
301.000000	2199.000000	4.993300
302.000000	2198.000000	4.994750
303.000000	2197.000000	5.004800
304.000000	2196.000000	4.980750
305.000000	2195.000000	4.995950
306.000000	2194.000000	4.993600
307.000000	2193.000000	4.987400
308.000000	2192.000000	4.984400
309.000000	2191.000000	4.999200
310.000000	2190.000000	5.004200
311.000000	2189.000000	5.005750
312.000000	2188.000000	4.996250
313.000000	2187.000000	4.991600
314.000000	2186.000000	4.977250
315.000000	2185.000000	4.951600
316.000000	2184.000000	5.001700
317.000000	2183.000000	5.366500
318.000000	2182.000000	5.550500
319.000000	2181.000000	5.326700
320.000000	2180.000000	5.343450
321.000000	2179.000000	5.296700
322.000000	2178.000000	5.356650
323.000000	2177.000000	5.288450
324.000000	2176.000000	5.232650
325.000000	2175.000000	5.324350
326.000000	2174.000000	5.281350
327.000000	2173.000000	5.172650
328.000000	2172.000000	5.153950
329.000000	2171.000000	5.242300
330.000000	2170.000000	5.201400
331.000000	2169.000000	5.228950
332.000000	2168.000000	5.153250
333.000000	2167.000000	5.228300
334.000000	2166.000000	5.242500
335.000000	2165.000000	5.166450
336.000000	2164.000000	5.169750
337.000000	2163.000000	5.181750
338.000000	2162.000000	5.233200
339.000000	2161.000000	5.197850
340.000000	2160.000000	5.167050
341.000000	2159.000000	5.154100
342.000000	2158.000000	5.164550
343.000000	2157.000000	5.201150
344.000000	2156.000000	5.190800
345.000000	2155.000000	5.167150
346.000000	2154.000000	5.142550
347.000000	2153.000000	5.223250
348.000000	2152.000000	5.147500
349.000000	2151.000000	5.142050
350.000000	2150.000000	5.212900
351.000000	2149.000000	5.208550
352.000000	2148.000000	5.201750
353.000000	2147.000000	5.217000
354.000000	2146.000000	5.244250
355.000000	2145.000000	5.276200
356.000000	2144.000000	5.264800
357.000000	2143.000000	5.282650
358.000000	2142.000000	5.300950
359.000000	2141.000000	5.258900
360.000000	2140.000000	5.239250
361.000000	2139.000000	5.312800
362.000000	2138.000000	5.303900
363.000000	2137.000000	5.346050
364.000000	2136.000000	5.316850
365.000000	2135.000000	5.298800
366.000000	2134.000000	5.285800
367.000000	2133.000000	5.304900
368.000000	2132.000000	5.311400
369.000000	2131.000000	5.377250
370.000000	2130.000000	5.355800
371.000000	2129.000000	5.325150
372.000000	2128.000000	5.356800
373.000000	2127.000000	5.388450
374.000000	2126.000000	5.364950
375.000000	2125.000000	5.384600
376.000000	2124.000000	5.460100
377.000000	2123.000000	5.309800
378.000000	2122.000000	5.323000
379.000000	2121.000000	5.332450
380.000000	2120.000000	5.353950
381.000000	2119.000000	5.381450
382.000000	2118.000000	5.395750
383.000000	2117.000000	5.404450
384.000000	2116.000000	5.426200
385.000000	2115.000000	5.438900
386.000000	2114.000000	5.448050
387.000000	2113.000000	5.470950
388.000000	2112.000000	5.489750
389.000000	2111.000000	5.517800
390.000000	2110.000000	5.528850
391.000000	2109.000000	5.540500
392.000000	2108.000000	5.558900
393.000000	2107.000000	5.576250
394.000000	2106.000000	5.597850
395.000000	2105.000000	5.617050
396.000000	2104.000000	5.632750
397.000000	2103.000000	5.649550
398.000000	2102.000000	5.672350
399.000000	2101.000000	5.694450
400.000000	2100.000000	5.715000
401.000000	2099.000000	5.733000
402.000000	2098.000000	5.754750
403.000000	2097.000000	5.787500
404.000000	2096.000000	5.817000
405.000000	2095.000000	5.852900
406.000000	2094.000000	5.889000
407.000000	2093.000000	5.929650
408.000000	2092.000000	5.973900
409.000000	2091.000000	6.020750
410.000000	2090.000000	6.068850
411.000000	2089.000000	6.127600
412.000000	2088.000000	6.197750
413.000000	2087.000000	6.263100
414.000000	2086.000000	6.342400
415.000000	2085.000000	6.433000
416.000000	2084.000000	6.535400
417.000000	2083.000000	6.652150
418.000000	2082.000000	6.772150
419.000000	2081.000000	6.900000
420.000000	2080.000000	7.045450
421.000000	2079.000000	7.211350
422.000000	2078.000000	7.390200
423.000000	2077.000000	7.581400
424.000000	2076.000000	7.794750
425.000000	2075.000000	8.019650
426.000000	2074.000000	8.258950
427.000000	2073.000000	8.514550
428.000000	2072.000000	8.778750
429.000000	2071.000000	9.061500
430.000000	2070.000000	9.368900
431.000000	2069.000000	9.676650
432.000000	2068.000000	9.995600
433.000000	2067.000000	10.332400
434.000000	2066.000000	10.672600
435.000000	2065.000000	11.012550
436.000000	2064.000000	11.361000
437.000000	2063.000000	11.714350
438.000000	2062.000000	12.069850
439.000000	2061.000000	12.421350
440.000000	2060.000000	12.769750
441.000000	2059.000000	13.125100
442.000000	2058.000000	13.476800
443.000000	2057.000000	13.818350
444.000000	2056.000000	14.147550
445.000000	2055.000000	14.457950
446.000000	2054.000000	14.745850
447.000000	2053.000000	15.037700
448.000000	2052.000000	15.319800
449.000000	2051.000000	15.582400
450.000000	2050.000000	15.841250
451.000000	2049.000000	16.094550
452.000000	2048.000000	16.327200
453.000000	2047.000000	16.538250
454.000000	2046.000000	16.754050
455.000000	2045.000000	16.961000
456.000000	2044.000000	17.145300
457.000000	2043.000000	17.327600
458.000000	2042.000000	17.514750
459.000000	2041.000000	17.684900
460.000000	2040.000000	17.840200
461.000000	2039.000000	18.006000
462.000000	2038.000000	18.168500
463.000000	2037.000000	18.319100
464.000000	2036.000000	18.468550
465.000000	2035.000000	18.623250
466.000000	2034.000000	18.778650
467.000000	2033.000000	18.923550
468.000000	2032.000000	19.058900
469.000000	2031.000000	19.207400
470.000000	2030.000000	19.362550
471.000000	2029.000000	19.513150
472.000000	2028.000000	19.658250
473.000000	2027.000000	19.798900
474.000000	2026.000000	19.937350
475.000000	2025.000000	20.075650
476.000000	2024.000000	20.213400
477.000000	2023.000000	20.340100
478.000000	2022.000000	20.453900
479.000000	2021.000000	20.578250
480.000000	2020.000000	20.713450
481.000000	2019.000000	20.849700
482.000000	2018.000000	20.974400
483.000000	2017.000000	21.082950
484.000000	2016.000000	21.167400
485.000000	2015.000000	21.235850
486.000000	2014.000000	21.292400
487.000000	2013.000000	21.320650
488.000000	2012.000000	21.350200
489.000000	2011.000000	21.363300
490.000000	2010.000000	21.359300
491.000000	2009.000000	21.324000
492.000000	2008.000000	21.290450
493.000000	2007.000000	21.234650
494.000000	2006.000000	21.155250
495.000000	2005.000000	21.066600
496.000000	2004.000000	20.985850
497.000000	2003.000000	20.895550
498.000000	2002.000000	20.804300
499.000000	2001.000000	20.710750
500.000000	2000.000000	20.644550
501.000000	1999.000000	20.600650
502.000000	1998.000000	20.594850
503.000000	1997.000000	20.625300
504.000000	1996.000000	20.716400
505.000000	1995.000000	20.857550
506.000000	1994.000000	21.062150
507.000000	1993.000000	21.358200
508.000000	1992.000000	21.728150
509.000000	1991.000000	22.165400
510.000000	1990.000000	22.692600
511.000000	1989.000000	23.295200
512.000000	1988.000000	23.971750
513.000000	1987.000000	24.695600
514.000000	1986.000000	25.465600
515.000000	1985.000000	26.263250
516.000000	1984.000000	27.099550
517.000000	1983.000000	27.952500
518.000000	1982.000000	28.812250
519.000000	1981.000000	29.698400
520.000000	1980.000000	30.609700
521.000000	1979.000000	31.501450
522.000000	1978.000000	32.411800
523.000000	1977.000000	33.322650
524.000000	1976.000000	34.231700
525.000000	1975.000000	35.136200
526.000000	1974.000000	36.031700
527.000000	1973.000000	36.926300
528.000000	1972.000000	37.784350
529.000000	1971.000000	38.643200
530.000000	1970.000000	39.517300
531.000000	1969.000000	40.375550
532.000000	1968.000000	41.211300
533.000000	1967.000000	42.034200
534.000000	1966.000000	42.842900
535.000000	1965.000000	43.617350
536.000000	1964.000000	44.396800
537.000000	1963.000000	45.161200
538.000000	1962.000000	45.906700
539.000000	1961.000000	46.633450
540.000000	1960.000000	47.353950
541.000000	1959.000000	48.045300
542.000000	1958.000000	48.723400
543.000000	1957.000000	49.374650
544.000000	1956.000000	50.011700
545.000000	1955.000000	50.610950
546.000000	1954.000000	51.188800
547.000000	1953.000000	51.742250
548.000000	1952.000000	52.275800
549.000000	1951.000000	52.785150
550.000000	1950.000000	53.270650
551.000000	1949.000000	53.760700
552.000000	1948.000000	54.207100
553.000000	1947.000000	54.649700
554.000000	1946.000000	55.055100
555.000000	1945.000000	55.464800
556.000000	1944.000000	55.829700
557.000000	1943.000000	56.210300
558.000000	1942.000000	56.531900
559.000000	1941.000000	56.872700
560.000000	1940.000000	57.225200
561.000000	1939.000000	57.509500
562.000000	1938.000000	57.795750
563.000000	1937.000000	58.071000
564.000000	1936.000000	58.317950
565.000000	1935.000000	58.537900
566.000000	1934.000000	58.753000
567.000000	1933.000000	58.955050
568.000000	1932.000000	59.139450
569.000000	1931.000000	59.302100
570.000000	1930.000000	59.439750
571.000000	1929.000000	59.599300
572.000000	1928.000000	59.726650
573.000000	1927.000000	59.826500
574.000000	1926.000000	59.910300
575.000000	1925.000000	60.036450
576.000000	1924.000000	60.133350
577.000000	1923.000000	60.208650
578.000000	1922.000000	60.289650
579.000000	1921.000000	60.366450
580.000000	1920.000000	60.417850
581.000000	1919.000000	60.481650
582.000000	1918.000000	60.548400
583.000000	1917.000000	60.623200
584.000000	1916.000000	60.645900
585.000000	1915.000000	60.699700
586.000000	1914.000000	60.721100
587.000000	1913.000000	60.724450
588.000000	1912.000000	60.720000
589.000000	1911.000000	60.736800
590.000000	1910.000000	60.712650
591.000000	1909.000000	60.669950
592.000000	1908.000000	60.608600
593.000000	1907.000000	60.533900
594.000000	1906.000000	60.441950
595.000000	1905.000000	60.277000
596.000000	1904.000000	60.133500
597.000000	1903.000000	59.939750
598.000000	1902.000000	59.758100
599.000000	1901.000000	59.504000
600.000000	1900.000000	59.270700
601.000000	1899.000000	58.991250
602.000000	1898.000000	58.707250
603.000000	1897.000000	58.414600
604.000000	1896.000000	58.113250
605.000000	1895.000000	57.797700
606.000000	1894.000000	57.495150
607.000000	1893.000000	57.157900
608.000000	1892.000000	56.863050
609.000000	1891.000000	56.541000
610.000000	1890.000000	56.191900
611.000000	1889.000000	55.827450
612.000000	1888.000000	55.407350
613.000000	1887.000000	54.975650
614.000000	1886.000000	54.503450
615.000000	1885.000000	53.973700
616.000000	1884.000000	53.375750
617.000000	1883.000000	52.727400
618.000000	1882.000000	52.036700
619.000000	1881.000000	51.297050
620.000000	1880.000000	50.531100
621.000000	1879.000000	49.761550
622.000000	1878.000000	48.990400
623.000000	1877.000000	48.255150
624.000000	1876.000000	47.569450
625.000000	1875.000000	46.951950
626.000000	1874.000000	46.418500
627.000000	1873.000000	45.925900
628.000000	1872.000000	45.479200
629.000000	1871.000000	45.050550
630.000000	1870.000000	44.592100
631.000000	1869.000000	44.092800
632.000000	1868.000000	43.544600
633.000000	1867.000000	42.902850
634.000000	1866.000000	42.193650
635.000000	1865.000000	41.460450
636.000000	1864.000000	40.675850
637.000000	1863.000000	39.839750
638.000000	1862.000000	39.028150
639.000000	1861.000000	38.237650
640.000000	1860.000000	37.481950
641.000000	1859.000000	36.807750
642.000000	1858.000000	36.273350
643.000000	1857.000000	35.862300
644.000000	1856.000000	35.581950
645.000000	1855.000000	35.438450
646.000000	1854.000000	35.435450
647.000000	1853.000000	35.528750
648.000000	1852.000000	35.683700
649.000000	1851.000000	35.893550
650.000000	1850.000000	36.108050
651.000000	1849.000000	36.314350
652.000000	1848.000000	36.531400
653.000000	1847.000000	36.741500
654.000000	1846.000000	36.893800
655.000000	1845.000000	37.056550
656.000000	1844.000000	37.212200
657.000000	1843.000000	37.387400
658.000000	1842.000000	37.585650
659.000000	1841.000000	37.832550
660.000000	1840.000000	38.174750
661.000000	1839.000000	38.576000
662.000000	1838.000000	39.084750
663.000000	1837.000000	39.651050
664.000000	1836.000000	40.288500
665.000000	1835.000000	40.993900
666.000000	1834.000000	41.705600
667.000000	1833.000000	42.390400
668.000000	1832.000000	43.025800
669.000000	1831.000000	43.608100
670.000000	1830.000000	44.138900
671.000000	1829.000000	44.536000
672.000000	1828.000000	44.884100
673.000000	1827.000000	45.140050
674.000000	1826.000000	45.292200
675.000000	1825.000000	45.408600
676.000000	1824.000000	45.484800
677.000000	1823.000000	45.558200
678.000000	1822.000000	45.634950
679.000000	1821.000000	45.716850
680.000000	1820.000000	45.839500
681.000000	1819.000000	45.982100
682.000000	1818.000000	46.183150
683.000000	1817.000000	46.468550
684.000000	1816.000000	46.753850
685.000000	1815.000000	47.086250
686.000000	1814.000000	47.392550
687.000000	1813.000000	47.650200
688.000000	1812.000000	47.878600
689.000000	1811.000000	48.053400
690.000000	1810.000000	48.178700
691.000000	1809.000000	48.267000
692.000000	1808.000000	48.262800
693.000000	1807.000000	48.189350
694.000000	1806.000000	48.119700
695.000000	1805.000000	48.028900
696.000000	1804.000000	47.913350
697.000000	1803.000000	47.757500
698.000000	1802.000000	47.639700
699.000000	1801.000000	47.596000
700.000000	1800.000000	47.526900
701.000000	1799.000000	47.510050
702.000000	1798.000000	47.574250
703.000000	1797.000000	47.675650
704.000000	1796.000000	47.793900
705.000000	1795.000000	47.899100
706.000000	1794.000000	48.026500
707.000000	1793.000000	48.131100
708.000000	1792.000000	48.285000
709.000000	1791.000000	48.402750
710.000000	1790.000000	48.440000
711.000000	1789.000000	48.492800
712.000000	1788.000000	48.535750
713.000000	1787.000000	48.542700
714.000000	1786.000000	48.505500
715.000000	1785.000000	48.445750
716.000000	1784.000000	48.406550
717.000000	1783.000000	48.388100
718.000000	1782.000000	48.366100
719.000000	1781.000000	48.330950
720.000000	1780.000000	48.343400
721.000000	1779.000000	48.389100
722.000000	1778.000000	48.458350
723.000000	1777.000000	48.545600
724.000000	1776.000000	48.730000
725.000000	1775.000000	48.952350
726.000000	1774.000000	49.196000
727.000000	1773.000000	49.452700
728.000000	1772.000000	49.733250
729.000000	1771.000000	50.051600
730.000000	1770.000000	50.352550
731.000000	1769.000000	50.673800
732.000000	1768.000000	50.947950
733.000000	1767.000000	51.219850
734.000000	1766.000000	51.472600
735.000000	1765.000000	51.691800
736.000000	1764.000000	51.925850
737.000000	1763.000000	52.115200
738.000000	1762.000000	52.281150
739.000000	1761.000000	52.476450
740.000000	1760.000000	52.705500
741.000000	1759.000000	52.939300
742.000000	1758.000000	53.175150
743.000000	1757.000000	53.406300
744.000000	1756.000000	53.685850
745.000000	1755.000000	53.991650
746.000000	1754.000000	54.307950
747.000000	1753.000000	54.667500
748.000000	1752.000000	55.045900
749.000000	1751.000000	55.406950
750.000000	1750.000000	55.769600
751.000000	1749.000000	56.148850
752.000000	1748.000000	56.476150
753.000000	1747.000000	56.757900
754.000000	1746.000000	57.024300
755.000000	1745.000000	57.295050
756.000000	1744.000000	57.519750
757.000000	1743.000000	57.691700
758.000000	1742.000000	57.877450
759.000000	1741.000000	58.079750
760.000000	1740.000000	58.230600
761.000000	1739.000000	58.361000
762.000000	1738.000000	58.510400
763.000000	1737.000000	58.640250
764.000000	1736.000000	58.771300
765.000000	1735.000000	58.948900
766.000000	1734.000000	59.092150
767.000000	1733.000000	59.226850
768.000000	1732.000000	59.392100
769.000000	1731.000000	59.612050
770.000000	1730.000000	59.759550
771.000000	1729.000000	59.863500
772.000000	1728.000000	59.944150
773.000000	1727.000000	60.053400
774.000000	1726.000000	60.132100
775.000000	1725.000000	60.108600
776.000000	1724.000000	60.088600
777.000000	1723.000000	60.087450
778.000000	1722.000000	60.031100
779.000000	1721.000000	60.007650
780.000000	1720.000000	59.910350
781.000000	1719.000000	59.855950
782.000000	1718.000000	59.822950
783.000000	1717.000000	59.741500
784.000000	1716.000000	59.701100
785.000000	1715.000000	59.650300
786.000000	1714.000000	59.660350
787.000000	1713.000000	59.766000
788.000000	1712.000000	59.839450
789.000000	1711.000000	59.871550
790.000000	1710.000000	59.979200
791.000000	1709.000000	60.089200
792.000000	1708.000000	60.152850
793.000000	1707.000000	60.269550
794.000000	1706.000000	60.371050
795.000000	1705.000000	60.428450
796.000000	1704.000000	60.526100
797.000000	1703.000000	60.614800
798.000000	1702.000000	60.659100
799.000000	1701.000000	60.704900
800.000000	1700.000000	60.775300
801.000000	1699.000000	60.790500
802.000000	1698.000000	60.880250
803.000000	1697.000000	60.852450
804.000000	1696.000000	60.844050
805.000000	1695.000000	60.881050
806.000000	1694.000000	60.990800
807.000000	1693.000000	61.067900
808.000000	1692.000000	61.063550
809.000000	1691.000000	61.145300
810.000000	1690.000000	61.132300
811.000000	1689.000000	61.228000
812.000000	1688.000000	61.223750
813.000000	1687.000000	61.208650
814.000000	1686.000000	61.197500
815.000000	1685.000000	61.176400
816.000000	1684.000000	61.166350
817.000000	1683.000000	61.015600
818.000000	1682.000000	60.959850
819.000000	1681.000000	60.929200
820.000000	1680.000000	60.795950
821.000000	1679.000000	60.777150
822.000000	1678.000000	60.653250
823.000000	1677.000000	60.590400
824.000000	1676.000000	60.468100
825.000000	1675.000000	60.452850
826.000000	1674.000000	60.463200
827.000000	1673.000000	60.546300
828.000000	1672.000000	60.643550
829.000000	1671.000000	60.604950
830.000000	1670.000000	60.647750
831.000000	1669.000000	60.733050
832.000000	1668.000000	60.720550
833.000000	1667.000000	60.819800
834.000000	1666.000000	60.867200
835.000000	1665.000000	60.927450
836.000000	1664.000000	61.054900
837.000000	1663.000000	61.083750
838.000000	1662.000000	60.984350
839.000000	1661.000000	61.129100
