PE UV       SUBTECH     SPECTRUM    ASCII       PEDS        4.00        
   -1
CICIMAUCR0108-3.Sample.ASC
24/04/04
14:31:49.00
24/04/04
14:31:49.00
Vinicio Soto Monge
C. resplendens
250,000000
1
Lambda 1050
1050L1511233
PerkinElmer UV WinLab 6.3.2.0749 / 2.02.05 Lambda 900 UV/VIS/NIR, Aug  7 2015 09:38:08

0
0
3350/servo 860,8/2
0
0
UV/VIS
1
1
1
DoubleDePol,CommonBeamDepol,RBeamAtt,SBeamAtt,60mm sphere, WB InGaAs Detector
0
0
0
0
Program
Program
3350/servo 860,8/2
3350/0,2 860,8/0,2
3350/0,2 860,8/0,2
0
15.00
 
 
 
0
 
860,8
319,2
860,8
Front
100
on
S:100 R:100
0
0
0
0
 
0
 
 
 
0
 
 
0
0
0
0
0
 
 
 
 
0
0


0
0
#HDR
-1
-1
#GR
nm
%R
1.0
0.0
2500,000000
-1,000000
2251
8
68,128600
5,096800
#DATA
250.000000	2250.000000	5.996633
251.000000	2249.000000	5.976167
252.000000	2248.000000	5.999233
253.000000	2247.000000	5.960167
254.000000	2246.000000	5.964567
255.000000	2245.000000	5.984467
256.000000	2244.000000	5.941133
257.000000	2243.000000	5.944300
258.000000	2242.000000	5.936633
259.000000	2241.000000	5.907200
260.000000	2240.000000	5.892333
261.000000	2239.000000	5.848567
262.000000	2238.000000	5.827500
263.000000	2237.000000	5.803067
264.000000	2236.000000	5.782133
265.000000	2235.000000	5.763300
266.000000	2234.000000	5.746033
267.000000	2233.000000	5.733167
268.000000	2232.000000	5.695600
269.000000	2231.000000	5.682467
270.000000	2230.000000	5.644033
271.000000	2229.000000	5.644933
272.000000	2228.000000	5.614833
273.000000	2227.000000	5.628033
274.000000	2226.000000	5.593167
275.000000	2225.000000	5.581833
276.000000	2224.000000	5.586267
277.000000	2223.000000	5.588700
278.000000	2222.000000	5.575433
279.000000	2221.000000	5.555267
280.000000	2220.000000	5.524033
281.000000	2219.000000	5.532033
282.000000	2218.000000	5.527833
283.000000	2217.000000	5.506700
284.000000	2216.000000	5.481700
285.000000	2215.000000	5.484900
286.000000	2214.000000	5.489200
287.000000	2213.000000	5.509367
288.000000	2212.000000	5.482633
289.000000	2211.000000	5.452433
290.000000	2210.000000	5.468067
291.000000	2209.000000	5.445267
292.000000	2208.000000	5.467167
293.000000	2207.000000	5.432533
294.000000	2206.000000	5.448467
295.000000	2205.000000	5.432667
296.000000	2204.000000	5.434767
297.000000	2203.000000	5.420233
298.000000	2202.000000	5.431767
299.000000	2201.000000	5.407033
300.000000	2200.000000	5.403467
301.000000	2199.000000	5.423333
302.000000	2198.000000	5.383600
303.000000	2197.000000	5.389467
304.000000	2196.000000	5.418800
305.000000	2195.000000	5.365367
306.000000	2194.000000	5.400133
307.000000	2193.000000	5.388367
308.000000	2192.000000	5.342300
309.000000	2191.000000	5.350733
310.000000	2190.000000	5.358600
311.000000	2189.000000	5.347233
312.000000	2188.000000	5.313833
313.000000	2187.000000	5.335500
314.000000	2186.000000	5.330767
315.000000	2185.000000	5.347967
316.000000	2184.000000	5.353200
317.000000	2183.000000	5.620900
318.000000	2182.000000	5.678800
319.000000	2181.000000	5.606833
320.000000	2180.000000	5.446700
321.000000	2179.000000	5.481500
322.000000	2178.000000	5.530633
323.000000	2177.000000	5.538600
324.000000	2176.000000	5.392400
325.000000	2175.000000	5.349133
326.000000	2174.000000	5.367767
327.000000	2173.000000	5.306200
328.000000	2172.000000	5.390800
329.000000	2171.000000	5.424133
330.000000	2170.000000	5.429500
331.000000	2169.000000	5.355733
332.000000	2168.000000	5.339600
333.000000	2167.000000	5.354200
334.000000	2166.000000	5.330533
335.000000	2165.000000	5.395100
336.000000	2164.000000	5.426633
337.000000	2163.000000	5.327767
338.000000	2162.000000	5.393467
339.000000	2161.000000	5.364533
340.000000	2160.000000	5.358667
341.000000	2159.000000	5.404333
342.000000	2158.000000	5.370967
343.000000	2157.000000	5.382267
344.000000	2156.000000	5.429800
345.000000	2155.000000	5.400833
346.000000	2154.000000	5.415900
347.000000	2153.000000	5.424500
348.000000	2152.000000	5.419667
349.000000	2151.000000	5.434600
350.000000	2150.000000	5.523400
351.000000	2149.000000	5.448867
352.000000	2148.000000	5.411867
353.000000	2147.000000	5.477300
354.000000	2146.000000	5.483633
355.000000	2145.000000	5.481600
356.000000	2144.000000	5.523067
357.000000	2143.000000	5.588733
358.000000	2142.000000	5.676200
359.000000	2141.000000	5.645933
360.000000	2140.000000	5.662967
361.000000	2139.000000	5.688167
362.000000	2138.000000	5.674167
363.000000	2137.000000	5.699900
364.000000	2136.000000	5.673167
365.000000	2135.000000	5.697600
366.000000	2134.000000	5.759267
367.000000	2133.000000	5.780967
368.000000	2132.000000	5.780200
369.000000	2131.000000	5.780967
370.000000	2130.000000	5.776200
371.000000	2129.000000	5.782167
372.000000	2128.000000	5.800167
373.000000	2127.000000	5.820467
374.000000	2126.000000	5.808400
375.000000	2125.000000	5.921867
376.000000	2124.000000	5.930167
377.000000	2123.000000	5.888767
378.000000	2122.000000	5.916333
379.000000	2121.000000	5.949200
380.000000	2120.000000	5.978667
381.000000	2119.000000	5.988633
382.000000	2118.000000	6.007600
383.000000	2117.000000	6.053667
384.000000	2116.000000	6.086300
385.000000	2115.000000	6.123667
386.000000	2114.000000	6.164867
387.000000	2113.000000	6.190300
388.000000	2112.000000	6.228833
389.000000	2111.000000	6.270833
390.000000	2110.000000	6.308700
391.000000	2109.000000	6.350100
392.000000	2108.000000	6.393467
393.000000	2107.000000	6.433933
394.000000	2106.000000	6.484900
395.000000	2105.000000	6.535300
396.000000	2104.000000	6.590867
397.000000	2103.000000	6.659833
398.000000	2102.000000	6.731033
399.000000	2101.000000	6.796933
400.000000	2100.000000	6.869167
401.000000	2099.000000	6.953567
402.000000	2098.000000	7.041133
403.000000	2097.000000	7.135000
404.000000	2096.000000	7.243767
405.000000	2095.000000	7.356500
406.000000	2094.000000	7.468000
407.000000	2093.000000	7.602000
408.000000	2092.000000	7.747167
409.000000	2091.000000	7.905367
410.000000	2090.000000	8.074800
411.000000	2089.000000	8.262000
412.000000	2088.000000	8.450900
413.000000	2087.000000	8.663467
414.000000	2086.000000	8.894333
415.000000	2085.000000	9.129033
416.000000	2084.000000	9.377433
417.000000	2083.000000	9.643067
418.000000	2082.000000	9.927800
419.000000	2081.000000	10.225167
420.000000	2080.000000	10.540667
421.000000	2079.000000	10.867100
422.000000	2078.000000	11.194600
423.000000	2077.000000	11.534533
424.000000	2076.000000	11.893933
425.000000	2075.000000	12.270333
426.000000	2074.000000	12.639567
427.000000	2073.000000	13.004933
428.000000	2072.000000	13.378233
429.000000	2071.000000	13.766133
430.000000	2070.000000	14.148400
431.000000	2069.000000	14.522633
432.000000	2068.000000	14.902800
433.000000	2067.000000	15.280600
434.000000	2066.000000	15.649367
435.000000	2065.000000	16.011833
436.000000	2064.000000	16.363400
437.000000	2063.000000	16.705600
438.000000	2062.000000	17.032033
439.000000	2061.000000	17.348200
440.000000	2060.000000	17.663433
441.000000	2059.000000	17.961133
442.000000	2058.000000	18.256167
443.000000	2057.000000	18.539633
444.000000	2056.000000	18.809100
445.000000	2055.000000	19.058667
446.000000	2054.000000	19.287467
447.000000	2053.000000	19.519033
448.000000	2052.000000	19.729433
449.000000	2051.000000	19.917467
450.000000	2050.000000	20.111900
451.000000	2049.000000	20.297433
452.000000	2048.000000	20.465367
453.000000	2047.000000	20.624067
454.000000	2046.000000	20.771900
455.000000	2045.000000	20.913400
456.000000	2044.000000	21.037733
457.000000	2043.000000	21.154233
458.000000	2042.000000	21.258600
459.000000	2041.000000	21.342467
460.000000	2040.000000	21.425600
461.000000	2039.000000	21.506133
462.000000	2038.000000	21.570200
463.000000	2037.000000	21.627100
464.000000	2036.000000	21.675567
465.000000	2035.000000	21.711033
466.000000	2034.000000	21.742167
467.000000	2033.000000	21.771733
468.000000	2032.000000	21.784967
469.000000	2031.000000	21.791700
470.000000	2030.000000	21.805967
471.000000	2029.000000	21.808867
472.000000	2028.000000	21.799267
473.000000	2027.000000	21.787300
474.000000	2026.000000	21.777900
475.000000	2025.000000	21.767200
476.000000	2024.000000	21.751433
477.000000	2023.000000	21.736100
478.000000	2022.000000	21.727767
479.000000	2021.000000	21.709767
480.000000	2020.000000	21.699900
481.000000	2019.000000	21.680400
482.000000	2018.000000	21.663833
483.000000	2017.000000	21.636267
484.000000	2016.000000	21.622133
485.000000	2015.000000	21.623900
486.000000	2014.000000	21.635333
487.000000	2013.000000	21.664633
488.000000	2012.000000	21.701133
489.000000	2011.000000	21.767067
490.000000	2010.000000	21.844233
491.000000	2009.000000	21.950767
492.000000	2008.000000	22.081767
493.000000	2007.000000	22.223567
494.000000	2006.000000	22.386933
495.000000	2005.000000	22.574400
496.000000	2004.000000	22.777200
497.000000	2003.000000	23.007333
498.000000	2002.000000	23.256933
499.000000	2001.000000	23.524167
500.000000	2000.000000	23.811067
501.000000	1999.000000	24.107500
502.000000	1998.000000	24.421700
503.000000	1997.000000	24.743467
504.000000	1996.000000	25.069967
505.000000	1995.000000	25.401200
506.000000	1994.000000	25.749067
507.000000	1993.000000	26.089833
508.000000	1992.000000	26.431300
509.000000	1991.000000	26.784067
510.000000	1990.000000	27.142533
511.000000	1989.000000	27.514233
512.000000	1988.000000	27.891000
513.000000	1987.000000	28.295767
514.000000	1986.000000	28.725400
515.000000	1985.000000	29.172433
516.000000	1984.000000	29.661200
517.000000	1983.000000	30.174100
518.000000	1982.000000	30.742900
519.000000	1981.000000	31.374167
520.000000	1980.000000	32.059733
521.000000	1979.000000	32.794467
522.000000	1978.000000	33.598233
523.000000	1977.000000	34.451033
524.000000	1976.000000	35.349567
525.000000	1975.000000	36.293567
526.000000	1974.000000	37.261667
527.000000	1973.000000	38.279200
528.000000	1972.000000	39.313000
529.000000	1971.000000	40.384533
530.000000	1970.000000	41.494533
531.000000	1969.000000	42.594000
532.000000	1968.000000	43.724933
533.000000	1967.000000	44.870367
534.000000	1966.000000	46.014800
535.000000	1965.000000	47.139133
536.000000	1964.000000	48.222100
537.000000	1963.000000	49.300100
538.000000	1962.000000	50.338867
539.000000	1961.000000	51.335467
540.000000	1960.000000	52.316900
541.000000	1959.000000	53.241667
542.000000	1958.000000	54.119000
543.000000	1957.000000	54.944767
544.000000	1956.000000	55.702933
545.000000	1955.000000	56.425700
546.000000	1954.000000	57.082533
547.000000	1953.000000	57.693267
548.000000	1952.000000	58.291333
549.000000	1951.000000	58.834467
550.000000	1950.000000	59.338967
551.000000	1949.000000	59.831267
552.000000	1948.000000	60.275233
553.000000	1947.000000	60.709567
554.000000	1946.000000	61.093400
555.000000	1945.000000	61.471833
556.000000	1944.000000	61.816933
557.000000	1943.000000	62.161900
558.000000	1942.000000	62.478200
559.000000	1941.000000	62.745700
560.000000	1940.000000	63.128133
561.000000	1939.000000	63.401467
562.000000	1938.000000	63.654467
563.000000	1937.000000	63.876167
564.000000	1936.000000	64.085200
565.000000	1935.000000	64.287133
566.000000	1934.000000	64.450167
567.000000	1933.000000	64.638033
568.000000	1932.000000	64.824533
569.000000	1931.000000	64.984600
570.000000	1930.000000	65.147633
571.000000	1929.000000	65.268400
572.000000	1928.000000	65.425667
573.000000	1927.000000	65.586900
574.000000	1926.000000	65.706567
575.000000	1925.000000	65.811767
576.000000	1924.000000	65.948067
577.000000	1923.000000	66.034200
578.000000	1922.000000	66.131567
579.000000	1921.000000	66.218200
580.000000	1920.000000	66.280967
581.000000	1919.000000	66.328400
582.000000	1918.000000	66.382267
583.000000	1917.000000	66.430467
584.000000	1916.000000	66.460767
585.000000	1915.000000	66.449533
586.000000	1914.000000	66.462000
587.000000	1913.000000	66.460667
588.000000	1912.000000	66.452500
589.000000	1911.000000	66.422833
590.000000	1910.000000	66.413633
591.000000	1909.000000	66.361500
592.000000	1908.000000	66.283967
593.000000	1907.000000	66.236600
594.000000	1906.000000	66.182000
595.000000	1905.000000	66.102200
596.000000	1904.000000	65.997900
597.000000	1903.000000	65.925900
598.000000	1902.000000	65.817033
599.000000	1901.000000	65.702667
600.000000	1900.000000	65.554233
601.000000	1899.000000	65.413567
602.000000	1898.000000	65.227433
603.000000	1897.000000	65.054633
604.000000	1896.000000	64.856300
605.000000	1895.000000	64.619267
606.000000	1894.000000	64.381267
607.000000	1893.000000	64.138767
608.000000	1892.000000	63.841533
609.000000	1891.000000	63.560000
610.000000	1890.000000	63.210800
611.000000	1889.000000	62.831867
612.000000	1888.000000	62.460533
613.000000	1887.000000	62.055900
614.000000	1886.000000	61.570867
615.000000	1885.000000	61.077600
616.000000	1884.000000	60.571700
617.000000	1883.000000	60.011367
618.000000	1882.000000	59.429033
619.000000	1881.000000	58.799600
620.000000	1880.000000	58.136233
621.000000	1879.000000	57.441667
622.000000	1878.000000	56.705767
623.000000	1877.000000	55.951067
624.000000	1876.000000	55.174633
625.000000	1875.000000	54.370933
626.000000	1874.000000	53.594300
627.000000	1873.000000	52.743900
628.000000	1872.000000	51.945700
629.000000	1871.000000	51.104800
630.000000	1870.000000	50.209600
631.000000	1869.000000	49.308300
632.000000	1868.000000	48.404433
633.000000	1867.000000	47.483767
634.000000	1866.000000	46.507100
635.000000	1865.000000	45.589600
636.000000	1864.000000	44.635567
637.000000	1863.000000	43.682733
638.000000	1862.000000	42.763100
639.000000	1861.000000	41.882000
640.000000	1860.000000	41.034667
641.000000	1859.000000	40.237267
642.000000	1858.000000	39.548400
643.000000	1857.000000	38.944867
644.000000	1856.000000	38.434133
645.000000	1855.000000	38.060467
646.000000	1854.000000	37.809300
647.000000	1853.000000	37.655133
648.000000	1852.000000	37.639633
649.000000	1851.000000	37.721933
650.000000	1850.000000	37.897433
651.000000	1849.000000	38.163900
652.000000	1848.000000	38.506533
653.000000	1847.000000	38.910367
654.000000	1846.000000	39.351633
655.000000	1845.000000	39.839767
656.000000	1844.000000	40.339633
657.000000	1843.000000	40.887933
658.000000	1842.000000	41.458400
659.000000	1841.000000	42.031900
660.000000	1840.000000	42.642867
661.000000	1839.000000	43.218067
662.000000	1838.000000	43.823533
663.000000	1837.000000	44.459633
664.000000	1836.000000	45.062033
665.000000	1835.000000	45.656500
666.000000	1834.000000	46.238667
667.000000	1833.000000	46.799933
668.000000	1832.000000	47.378000
669.000000	1831.000000	47.903800
670.000000	1830.000000	48.408700
671.000000	1829.000000	48.894800
672.000000	1828.000000	49.364800
673.000000	1827.000000	49.750600
674.000000	1826.000000	50.104700
675.000000	1825.000000	50.418467
676.000000	1824.000000	50.681867
677.000000	1823.000000	50.916333
678.000000	1822.000000	51.121800
679.000000	1821.000000	51.269033
680.000000	1820.000000	51.409533
681.000000	1819.000000	51.501467
682.000000	1818.000000	51.587100
683.000000	1817.000000	51.617367
684.000000	1816.000000	51.652633
685.000000	1815.000000	51.678567
686.000000	1814.000000	51.677267
687.000000	1813.000000	51.668933
688.000000	1812.000000	51.681167
689.000000	1811.000000	51.646900
690.000000	1810.000000	51.611267
691.000000	1809.000000	51.577200
692.000000	1808.000000	51.539100
693.000000	1807.000000	51.485333
694.000000	1806.000000	51.414200
695.000000	1805.000000	51.352933
696.000000	1804.000000	51.277533
697.000000	1803.000000	51.169633
698.000000	1802.000000	51.052633
699.000000	1801.000000	50.937133
700.000000	1800.000000	50.841333
701.000000	1799.000000	50.736867
702.000000	1798.000000	50.622100
703.000000	1797.000000	50.539933
704.000000	1796.000000	50.442867
705.000000	1795.000000	50.320567
706.000000	1794.000000	50.274267
707.000000	1793.000000	50.220867
708.000000	1792.000000	50.211567
709.000000	1791.000000	50.208633
710.000000	1790.000000	50.205700
711.000000	1789.000000	50.271567
712.000000	1788.000000	50.372300
713.000000	1787.000000	50.469600
714.000000	1786.000000	50.592600
715.000000	1785.000000	50.733833
716.000000	1784.000000	50.896367
717.000000	1783.000000	51.097700
718.000000	1782.000000	51.320100
719.000000	1781.000000	51.540500
720.000000	1780.000000	51.791967
721.000000	1779.000000	52.069100
722.000000	1778.000000	52.355500
723.000000	1777.000000	52.647767
724.000000	1776.000000	52.944700
725.000000	1775.000000	53.296567
726.000000	1774.000000	53.651033
727.000000	1773.000000	53.977867
728.000000	1772.000000	54.313400
729.000000	1771.000000	54.658100
730.000000	1770.000000	55.018667
731.000000	1769.000000	55.383633
732.000000	1768.000000	55.756167
733.000000	1767.000000	56.115333
734.000000	1766.000000	56.434067
735.000000	1765.000000	56.771100
736.000000	1764.000000	57.090567
737.000000	1763.000000	57.357433
738.000000	1762.000000	57.642233
739.000000	1761.000000	57.901500
740.000000	1760.000000	58.187500
741.000000	1759.000000	58.459467
742.000000	1758.000000	58.622000
743.000000	1757.000000	58.823000
744.000000	1756.000000	59.067467
745.000000	1755.000000	59.245133
746.000000	1754.000000	59.419633
747.000000	1753.000000	59.566100
748.000000	1752.000000	59.663267
749.000000	1751.000000	59.781833
750.000000	1750.000000	59.893333
751.000000	1749.000000	60.026733
752.000000	1748.000000	60.153000
753.000000	1747.000000	60.245567
754.000000	1746.000000	60.339633
755.000000	1745.000000	60.441333
756.000000	1744.000000	60.525633
757.000000	1743.000000	60.615333
758.000000	1742.000000	60.767233
759.000000	1741.000000	60.858467
760.000000	1740.000000	60.910367
761.000000	1739.000000	60.981500
762.000000	1738.000000	61.068100
763.000000	1737.000000	61.142567
764.000000	1736.000000	61.221500
765.000000	1735.000000	61.308100
766.000000	1734.000000	61.362267
767.000000	1733.000000	61.426933
768.000000	1732.000000	61.482300
769.000000	1731.000000	61.555700
770.000000	1730.000000	61.604433
771.000000	1729.000000	61.662067
772.000000	1728.000000	61.735133
773.000000	1727.000000	61.805833
774.000000	1726.000000	61.889200
775.000000	1725.000000	61.908933
776.000000	1724.000000	61.942767
777.000000	1723.000000	61.953100
778.000000	1722.000000	61.998267
779.000000	1721.000000	62.068800
780.000000	1720.000000	62.134133
781.000000	1719.000000	62.212733
782.000000	1718.000000	62.222367
783.000000	1717.000000	62.223433
784.000000	1716.000000	62.233600
785.000000	1715.000000	62.248300
786.000000	1714.000000	62.287233
787.000000	1713.000000	62.303267
788.000000	1712.000000	62.274200
789.000000	1711.000000	62.308100
790.000000	1710.000000	62.371133
791.000000	1709.000000	62.397100
792.000000	1708.000000	62.365900
793.000000	1707.000000	62.401800
794.000000	1706.000000	62.441433
795.000000	1705.000000	62.468300
796.000000	1704.000000	62.601400
797.000000	1703.000000	62.669067
798.000000	1702.000000	62.743467
799.000000	1701.000000	62.844467
800.000000	1700.000000	62.920333
801.000000	1699.000000	63.040033
802.000000	1698.000000	63.070667
803.000000	1697.000000	63.122367
804.000000	1696.000000	63.289033
805.000000	1695.000000	63.446567
806.000000	1694.000000	63.588133
807.000000	1693.000000	63.779433
808.000000	1692.000000	63.940767
809.000000	1691.000000	63.991467
810.000000	1690.000000	64.114200
811.000000	1689.000000	64.239800
812.000000	1688.000000	64.352667
813.000000	1687.000000	64.557633
814.000000	1686.000000	64.675600
815.000000	1685.000000	64.802000
816.000000	1684.000000	64.913300
817.000000	1683.000000	64.970333
818.000000	1682.000000	65.109967
819.000000	1681.000000	65.113800
820.000000	1680.000000	65.138200
821.000000	1679.000000	65.254133
822.000000	1678.000000	65.305100
823.000000	1677.000000	65.170600
824.000000	1676.000000	65.209667
825.000000	1675.000000	65.171067
826.000000	1674.000000	65.071033
827.000000	1673.000000	65.077067
828.000000	1672.000000	65.108867
829.000000	1671.000000	64.955500
830.000000	1670.000000	64.857300
831.000000	1669.000000	64.809700
832.000000	1668.000000	64.699967
833.000000	1667.000000	64.566333
834.000000	1666.000000	64.443233
835.000000	1665.000000	64.307200
836.000000	1664.000000	64.150100
837.000000	1663.000000	63.967033
838.000000	1662.000000	63.990500
