PE UV       SUBTECH     SPECTRUM    ASCII       PEDS        4.00        
   -1
CICIMAUCR0019-1.Sample.ASC
24/03/08
13:32:45.00
24/03/08
13:32:45.00
Vinicio Soto Monge
C. cupreomarginata
250,000000
1
Lambda 1050
1050L1511233
PerkinElmer UV WinLab 6.3.2.0749 / 2.02.05 Lambda 900 UV/VIS/NIR, Aug  7 2015 09:38:08

0
0
3350/servo 860,8/2
0
0
UV/VIS
1
1
1
DoubleDePol,CommonBeamDepol,RBeamAtt,SBeamAtt,60mm sphere, WB InGaAs Detector
0
0
0
0
Program
Program
3350/servo 860,8/2
3350/0,2 860,8/0,2
3350/0,2 860,8/0,2
0
15.00
 
 
 
0
 
860,8
319,2
860,8
Front
100
on
S:100 R:100
0
0
0
0
 
0
 
 
 
0
 
 
0
0
0
0
0
 
 
 
 
0
0


0
0
#HDR
-1
-1
#GR
nm
%R
1.0
0.0
2500,000000
-1,000000
2251
8
27,863200
2,274800
#DATA
501.000000	1999.000000	9.297024
502.000000	1998.000000	9.298009
503.000000	1997.000000	9.282474
504.000000	1996.000000	9.283131
505.000000	1995.000000	9.258516
506.000000	1994.000000	9.222742
507.000000	1993.000000	9.224711
508.000000	1992.000000	9.207098
509.000000	1991.000000	9.149772
510.000000	1990.000000	9.155680
511.000000	1989.000000	9.116077
512.000000	1988.000000	9.099120
513.000000	1987.000000	9.044420
514.000000	1986.000000	9.028557
515.000000	1985.000000	9.002957
516.000000	1984.000000	8.972654
517.000000	1983.000000	8.930972
518.000000	1982.000000	8.900231
519.000000	1981.000000	8.875616
520.000000	1980.000000	8.836341
521.000000	1979.000000	8.787221
522.000000	1978.000000	8.773108
523.000000	1977.000000	8.708672
524.000000	1976.000000	8.678805
525.000000	1975.000000	8.660864
526.000000	1974.000000	8.626731
527.000000	1973.000000	8.583190
528.000000	1972.000000	8.552120
529.000000	1971.000000	8.499061
530.000000	1970.000000	8.469852
531.000000	1969.000000	8.455083
532.000000	1968.000000	8.417011
533.000000	1967.000000	8.395350
534.000000	1966.000000	8.368766
535.000000	1965.000000	8.330148
536.000000	1964.000000	8.309252
537.000000	1963.000000	8.274135
538.000000	1962.000000	8.239784
539.000000	1961.000000	8.217357
540.000000	1960.000000	8.159046
541.000000	1959.000000	8.138589
542.000000	1958.000000	8.118568
543.000000	1957.000000	8.083451
544.000000	1956.000000	8.036628
545.000000	1955.000000	8.019343
546.000000	1954.000000	7.985429
547.000000	1953.000000	7.956219
548.000000	1952.000000	7.920664
549.000000	1951.000000	7.880733
550.000000	1950.000000	7.831284
551.000000	1949.000000	7.840802
552.000000	1948.000000	7.812796
553.000000	1947.000000	7.778772
554.000000	1946.000000	7.761268
555.000000	1945.000000	7.731074
556.000000	1944.000000	7.738622
557.000000	1943.000000	7.732496
558.000000	1942.000000	7.726698
559.000000	1941.000000	7.722650
560.000000	1940.000000	7.694972
561.000000	1939.000000	7.681406
562.000000	1938.000000	7.681516
563.000000	1937.000000	7.719915
564.000000	1936.000000	7.706459
565.000000	1935.000000	7.713023
566.000000	1934.000000	7.751641
567.000000	1933.000000	7.787524
568.000000	1932.000000	7.825595
569.000000	1931.000000	7.858853
570.000000	1930.000000	7.893423
571.000000	1929.000000	7.913444
572.000000	1928.000000	7.972848
573.000000	1927.000000	8.006433
574.000000	1926.000000	8.100189
575.000000	1925.000000	8.162657
576.000000	1924.000000	8.227421
577.000000	1923.000000	8.296890
578.000000	1922.000000	8.377518
579.000000	1921.000000	8.446112
580.000000	1920.000000	8.551245
581.000000	1919.000000	8.629794
582.000000	1918.000000	8.721034
583.000000	1917.000000	8.836560
584.000000	1916.000000	8.947054
585.000000	1915.000000	9.045186
586.000000	1914.000000	9.169136
587.000000	1913.000000	9.276020
588.000000	1912.000000	9.391984
589.000000	1911.000000	9.514183
590.000000	1910.000000	9.654106
591.000000	1909.000000	9.780353
592.000000	1908.000000	9.919072
593.000000	1907.000000	10.035474
594.000000	1906.000000	10.163581
595.000000	1905.000000	10.325274
596.000000	1904.000000	10.455570
597.000000	1903.000000	10.611464
598.000000	1902.000000	10.752043
599.000000	1901.000000	10.894810
600.000000	1900.000000	11.052346
601.000000	1899.000000	11.202333
602.000000	1898.000000	11.377373
603.000000	1897.000000	11.562697
604.000000	1896.000000	11.713450
605.000000	1895.000000	11.852060
606.000000	1894.000000	12.013862
607.000000	1893.000000	12.171507
608.000000	1892.000000	12.307054
609.000000	1891.000000	12.457588
610.000000	1890.000000	12.591494
611.000000	1889.000000	12.727915
612.000000	1888.000000	12.907988
613.000000	1887.000000	13.079417
614.000000	1886.000000	13.243298
615.000000	1885.000000	13.430810
616.000000	1884.000000	13.637029
617.000000	1883.000000	13.836027
618.000000	1882.000000	14.071565
619.000000	1881.000000	14.313230
620.000000	1880.000000	14.538047
621.000000	1879.000000	14.754221
622.000000	1878.000000	14.947093
623.000000	1877.000000	15.139527
624.000000	1876.000000	15.286670
625.000000	1875.000000	15.425827
626.000000	1874.000000	15.557544
627.000000	1873.000000	15.660599
628.000000	1872.000000	15.744947
629.000000	1871.000000	15.832029
630.000000	1870.000000	15.893512
631.000000	1869.000000	15.958276
632.000000	1868.000000	16.058487
633.000000	1867.000000	16.117235
634.000000	1866.000000	16.176092
635.000000	1865.000000	16.254203
636.000000	1864.000000	16.315577
637.000000	1863.000000	16.359993
638.000000	1862.000000	16.364697
639.000000	1861.000000	16.377497
640.000000	1860.000000	16.364260
641.000000	1859.000000	16.331549
642.000000	1858.000000	16.305731
643.000000	1857.000000	16.312842
644.000000	1856.000000	16.310763
645.000000	1855.000000	16.298729
646.000000	1854.000000	16.268753
647.000000	1853.000000	16.219633
648.000000	1852.000000	16.182218
649.000000	1851.000000	16.182656
650.000000	1850.000000	16.184406
651.000000	1849.000000	16.133973
652.000000	1848.000000	16.043061
653.000000	1847.000000	15.949306
654.000000	1846.000000	15.895262
655.000000	1845.000000	15.899310
656.000000	1844.000000	15.924581
657.000000	1843.000000	15.930051
658.000000	1842.000000	15.916376
659.000000	1841.000000	15.880165
660.000000	1840.000000	15.826450
661.000000	1839.000000	15.780720
662.000000	1838.000000	15.738492
663.000000	1837.000000	15.698561
664.000000	1836.000000	15.659286
665.000000	1835.000000	15.633140
666.000000	1834.000000	15.599773
667.000000	1833.000000	15.575158
668.000000	1832.000000	15.557107
669.000000	1831.000000	15.517285
670.000000	1830.000000	15.460726
671.000000	1829.000000	15.411933
672.000000	1828.000000	15.363907
673.000000	1827.000000	15.313692
674.000000	1826.000000	15.277590
675.000000	1825.000000	15.262493
676.000000	1824.000000	15.244333
677.000000	1823.000000	15.255273
678.000000	1822.000000	15.252428
679.000000	1821.000000	15.204073
680.000000	1820.000000	15.148061
681.000000	1819.000000	15.112506
682.000000	1818.000000	15.111083
683.000000	1817.000000	15.137339
684.000000	1816.000000	15.151561
685.000000	1815.000000	15.145107
686.000000	1814.000000	15.137121
687.000000	1813.000000	15.142262
688.000000	1812.000000	15.136245
689.000000	1811.000000	15.110646
690.000000	1810.000000	15.084062
691.000000	1809.000000	15.049054
692.000000	1808.000000	15.041833
693.000000	1807.000000	15.029580
694.000000	1806.000000	14.999933
695.000000	1805.000000	14.955407
696.000000	1804.000000	14.933090
697.000000	1803.000000	14.910006
698.000000	1802.000000	14.882985
699.000000	1801.000000	14.853556
700.000000	1800.000000	14.806952
701.000000	1799.000000	14.775226
702.000000	1798.000000	14.761551
703.000000	1797.000000	14.743390
704.000000	1796.000000	14.713196
705.000000	1795.000000	14.688143
706.000000	1794.000000	14.641867
707.000000	1793.000000	14.621738
708.000000	1792.000000	14.609922
709.000000	1791.000000	14.562333
710.000000	1790.000000	14.518355
711.000000	1789.000000	14.499975
712.000000	1788.000000	14.461248
713.000000	1787.000000	14.408079
714.000000	1786.000000	14.379745
715.000000	1785.000000	14.321544
716.000000	1784.000000	14.258967
717.000000	1783.000000	14.215317
718.000000	1782.000000	14.178996
719.000000	1781.000000	14.138299
720.000000	1780.000000	14.073863
721.000000	1779.000000	14.012708
722.000000	1778.000000	13.932190
723.000000	1777.000000	13.895760
724.000000	1776.000000	13.831542
725.000000	1775.000000	13.749820
726.000000	1774.000000	13.668974
727.000000	1773.000000	13.593378
728.000000	1772.000000	13.506077
729.000000	1771.000000	13.424793
730.000000	1770.000000	13.349198
731.000000	1769.000000	13.272946
732.000000	1768.000000	13.216933
733.000000	1767.000000	13.144292
734.000000	1766.000000	13.082699
735.000000	1765.000000	13.028656
736.000000	1764.000000	12.985662
737.000000	1763.000000	12.989162
738.000000	1762.000000	13.001415
739.000000	1761.000000	13.025374
740.000000	1760.000000	13.067055
741.000000	1759.000000	13.084012
742.000000	1758.000000	13.109940
743.000000	1757.000000	13.147027
744.000000	1756.000000	13.172189
745.000000	1755.000000	13.198554
746.000000	1754.000000	13.196475
747.000000	1753.000000	13.182800
748.000000	1752.000000	13.165515
749.000000	1751.000000	13.129523
750.000000	1750.000000	13.104251
751.000000	1749.000000	13.070228
752.000000	1748.000000	13.021982
753.000000	1747.000000	12.978222
754.000000	1746.000000	12.890593
755.000000	1745.000000	12.815545
756.000000	1744.000000	12.699143
757.000000	1743.000000	12.561846
758.000000	1742.000000	12.468747
759.000000	1741.000000	12.340640
760.000000	1740.000000	12.173367
761.000000	1739.000000	12.040009
762.000000	1738.000000	11.933234
763.000000	1737.000000	11.812129
764.000000	1736.000000	11.746708
765.000000	1735.000000	11.680958
766.000000	1734.000000	11.638620
767.000000	1733.000000	11.649013
768.000000	1732.000000	11.699228
769.000000	1731.000000	11.731173
770.000000	1730.000000	11.795609
771.000000	1729.000000	11.841667
772.000000	1728.000000	11.907416
773.000000	1727.000000	11.965945
774.000000	1726.000000	12.038368
775.000000	1725.000000	12.055981
776.000000	1724.000000	12.119214
777.000000	1723.000000	12.096897
778.000000	1722.000000	12.114729
779.000000	1721.000000	12.148862
780.000000	1720.000000	12.146345
781.000000	1719.000000	12.168116
782.000000	1718.000000	12.172383
783.000000	1717.000000	12.229380
784.000000	1716.000000	12.273359
785.000000	1715.000000	12.314931
786.000000	1714.000000	12.320401
787.000000	1713.000000	12.365473
788.000000	1712.000000	12.381883
789.000000	1711.000000	12.424987
790.000000	1710.000000	12.433192
791.000000	1709.000000	12.446320
792.000000	1708.000000	12.443038
793.000000	1707.000000	12.430457
794.000000	1706.000000	12.411093
795.000000	1705.000000	12.388666
796.000000	1704.000000	12.361097
797.000000	1703.000000	12.309898
798.000000	1702.000000	12.274015
799.000000	1701.000000	12.197326
800.000000	1700.000000	12.108384
801.000000	1699.000000	12.014081
802.000000	1698.000000	11.951832
803.000000	1697.000000	11.877003
804.000000	1696.000000	11.864531
805.000000	1695.000000	11.831930
806.000000	1694.000000	11.852497
807.000000	1693.000000	11.940892
808.000000	1692.000000	12.021192
809.000000	1691.000000	12.157395
810.000000	1690.000000	12.211110
811.000000	1689.000000	12.281017
812.000000	1688.000000	12.324558
813.000000	1687.000000	12.343265
814.000000	1686.000000	12.357597
815.000000	1685.000000	12.369631
816.000000	1684.000000	12.422908
817.000000	1683.000000	12.572458
818.000000	1682.000000	12.769487
819.000000	1681.000000	12.996383
820.000000	1680.000000	13.301280
821.000000	1679.000000	13.623791
822.000000	1678.000000	13.941161
823.000000	1677.000000	14.234352
824.000000	1676.000000	14.480721
825.000000	1675.000000	14.737811
826.000000	1674.000000	14.890533
827.000000	1673.000000	15.068964
828.000000	1672.000000	15.204839
829.000000	1671.000000	15.351435
830.000000	1670.000000	15.444972
831.000000	1669.000000	15.543323
832.000000	1668.000000	15.641345
833.000000	1667.000000	15.763216
834.000000	1666.000000	15.824809
835.000000	1665.000000	15.897888
836.000000	1664.000000	15.950290
837.000000	1663.000000	15.975562
838.000000	1662.000000	16.017243
839.000000	1661.000000	16.030918
840.000000	1660.000000	16.076866
841.000000	1659.000000	16.107717
842.000000	1658.000000	16.120954
843.000000	1657.000000	16.134301
844.000000	1656.000000	16.141412
845.000000	1655.000000	16.130800
846.000000	1654.000000	16.134738
847.000000	1653.000000	16.126643
848.000000	1652.000000	16.110014
849.000000	1651.000000	16.106513
850.000000	1650.000000	16.089556
851.000000	1649.000000	16.076538
852.000000	1648.000000	16.076100
853.000000	1647.000000	16.031574
854.000000	1646.000000	16.012211
855.000000	1645.000000	15.999192
856.000000	1644.000000	15.975671
857.000000	1643.000000	15.941648
858.000000	1642.000000	15.903139
859.000000	1641.000000	15.876773
860.000000	1640.000000	15.832576
861.000000	1639.000000	15.808508
862.000000	1638.000000	15.770437
863.000000	1637.000000	15.727880
864.000000	1636.000000	15.680948
865.000000	1635.000000	15.649222
866.000000	1634.000000	15.625919
867.000000	1633.000000	15.588505
868.000000	1632.000000	15.551746
869.000000	1631.000000	15.487200
870.000000	1630.000000	15.442018
871.000000	1629.000000	15.401868
872.000000	1628.000000	15.353514
873.000000	1627.000000	15.299251
874.000000	1626.000000	15.257789
875.000000	1625.000000	15.226500
876.000000	1624.000000	15.169503
877.000000	1623.000000	15.108786
878.000000	1622.000000	15.060322
879.000000	1621.000000	15.028924
880.000000	1620.000000	15.013717
881.000000	1619.000000	14.970176
882.000000	1618.000000	14.910335
883.000000	1617.000000	14.876311
884.000000	1616.000000	14.825003
885.000000	1615.000000	14.793933
886.000000	1614.000000	14.754330
887.000000	1613.000000	14.706304
888.000000	1612.000000	14.662434
889.000000	1611.000000	14.598326
890.000000	1610.000000	14.559817
891.000000	1609.000000	14.537609
892.000000	1608.000000	14.496693
893.000000	1607.000000	14.449870
894.000000	1606.000000	14.413768
895.000000	1605.000000	14.359178
896.000000	1604.000000	14.316840
897.000000	1603.000000	14.294851
898.000000	1602.000000	14.260061
899.000000	1601.000000	14.212691
900.000000	1600.000000	14.164774
901.000000	1599.000000	14.139503
902.000000	1598.000000	14.088851
903.000000	1597.000000	14.050014
904.000000	1596.000000	14.027805
905.000000	1595.000000	13.990391
906.000000	1594.000000	13.946959
907.000000	1593.000000	13.924641
908.000000	1592.000000	13.892259
909.000000	1591.000000	13.852109
910.000000	1590.000000	13.814913
911.000000	1589.000000	13.791502
912.000000	1588.000000	13.780343
913.000000	1587.000000	13.762948
914.000000	1586.000000	13.727174
915.000000	1585.000000	13.695339
916.000000	1584.000000	13.679695
917.000000	1583.000000	13.671052
918.000000	1582.000000	13.666676
919.000000	1581.000000	13.653439
920.000000	1580.000000	13.645781
921.000000	1579.000000	13.633966
922.000000	1578.000000	13.612851
923.000000	1577.000000	13.608475
924.000000	1576.000000	13.600380
925.000000	1575.000000	13.602021
926.000000	1574.000000	13.601583
927.000000	1573.000000	13.606506
928.000000	1572.000000	13.621713
929.000000	1571.000000	13.624448
930.000000	1570.000000	13.635388
931.000000	1569.000000	13.647094
932.000000	1568.000000	13.659018
933.000000	1567.000000	13.666786
934.000000	1566.000000	13.685165
935.000000	1565.000000	13.697855
936.000000	1564.000000	13.718641
937.000000	1563.000000	13.734285
938.000000	1562.000000	13.735270
939.000000	1561.000000	13.755509
940.000000	1560.000000	13.780671
941.000000	1559.000000	13.776186
942.000000	1558.000000	13.778264
943.000000	1557.000000	13.783844
944.000000	1556.000000	13.793471
945.000000	1555.000000	13.812944
946.000000	1554.000000	13.809005
947.000000	1553.000000	13.813928
948.000000	1552.000000	13.809990
949.000000	1551.000000	13.799269
950.000000	1550.000000	13.811303
951.000000	1549.000000	13.805395
952.000000	1548.000000	13.808021
953.000000	1547.000000	13.805833
954.000000	1546.000000	13.795878
955.000000	1545.000000	13.798503
956.000000	1544.000000	13.799707
957.000000	1543.000000	13.799816
958.000000	1542.000000	13.791392
959.000000	1541.000000	13.791611
960.000000	1540.000000	13.807693
961.000000	1539.000000	13.817429
962.000000	1538.000000	13.813819
963.000000	1537.000000	13.812944
964.000000	1536.000000	13.826728
965.000000	1535.000000	13.831432
966.000000	1534.000000	13.815569
967.000000	1533.000000	13.816335
968.000000	1532.000000	13.817867
969.000000	1531.000000	13.811959
970.000000	1530.000000	13.807693
971.000000	1529.000000	13.814804
972.000000	1528.000000	13.820274
973.000000	1527.000000	13.816116
974.000000	1526.000000	13.793471
975.000000	1525.000000	13.762182
976.000000	1524.000000	13.763933
977.000000	1523.000000	13.760760
978.000000	1522.000000	13.740412
979.000000	1521.000000	13.747304
980.000000	1520.000000	13.747851
981.000000	1519.000000	13.724221
982.000000	1518.000000	13.719407
983.000000	1517.000000	13.697746
984.000000	1516.000000	13.672146
985.000000	1515.000000	13.691182
986.000000	1514.000000	13.692713
987.000000	1513.000000	13.674334
988.000000	1512.000000	13.663066
989.000000	1511.000000	13.655080
990.000000	1510.000000	13.640530
991.000000	1509.000000	13.625651
992.000000	1508.000000	13.621166
993.000000	1507.000000	13.613508
994.000000	1506.000000	13.590643
995.000000	1505.000000	13.588674
996.000000	1504.000000	13.571608
997.000000	1503.000000	13.556073
998.000000	1502.000000	13.560558
999.000000	1501.000000	13.566028
1000.000000	1500.000000	13.565044
1001.000000	1499.000000	13.557386
1002.000000	1498.000000	13.551587
1003.000000	1497.000000	13.561105
1004.000000	1496.000000	13.558698
1005.000000	1495.000000	13.571936
1006.000000	1494.000000	13.574999
1007.000000	1493.000000	13.599505
1008.000000	1492.000000	13.596988
1009.000000	1491.000000	13.603552
1010.000000	1490.000000	13.628496
1011.000000	1489.000000	13.658581
1012.000000	1488.000000	13.664269
1013.000000	1487.000000	13.678601
1014.000000	1486.000000	13.697746
1015.000000	1485.000000	13.724986
1016.000000	1484.000000	13.743256
1017.000000	1483.000000	13.756494
1018.000000	1482.000000	13.788001
1019.000000	1481.000000	13.803645
1020.000000	1480.000000	13.816116
1021.000000	1479.000000	13.845545
1022.000000	1478.000000	13.862830
1023.000000	1477.000000	13.887555
1024.000000	1476.000000	13.936566
1025.000000	1475.000000	13.955711
1026.000000	1474.000000	13.980654
1027.000000	1473.000000	14.021570
1028.000000	1472.000000	14.068065
1029.000000	1471.000000	14.068940
1030.000000	1470.000000	14.099572
1031.000000	1469.000000	14.125390
1032.000000	1468.000000	14.157007
1033.000000	1467.000000	14.172651
1034.000000	1466.000000	14.204596
1035.000000	1465.000000	14.229211
1036.000000	1464.000000	14.279535
1037.000000	1463.000000	14.303274
1038.000000	1462.000000	14.367602
1039.000000	1461.000000	14.380620
1040.000000	1460.000000	14.407314
1041.000000	1459.000000	14.452933
1042.000000	1458.000000	14.489801
1043.000000	1457.000000	14.543954
1044.000000	1456.000000	14.592200
1045.000000	1455.000000	14.626989
1046.000000	1454.000000	14.680376
1047.000000	1453.000000	14.742406
1048.000000	1452.000000	14.786275
1049.000000	1451.000000	14.859354
1050.000000	1450.000000	14.901473
1051.000000	1449.000000	14.935497
1052.000000	1448.000000	15.017656
1053.000000	1447.000000	15.074434
1054.000000	1446.000000	15.159110
1055.000000	1445.000000	15.197728
1056.000000	1444.000000	15.236018
1057.000000	1443.000000	15.324632
1058.000000	1442.000000	15.393445
1059.000000	1441.000000	15.448910
1060.000000	1440.000000	15.492014
1061.000000	1439.000000	15.559514
1062.000000	1438.000000	15.604368
1063.000000	1437.000000	15.674821
1064.000000	1436.000000	15.736413
1065.000000	1435.000000	15.777876
1066.000000	1434.000000	15.850080
1067.000000	1433.000000	15.923815
1068.000000	1432.000000	15.975452
1069.000000	1431.000000	16.032778
1070.000000	1430.000000	16.106513
1071.000000	1429.000000	16.149945
1072.000000	1428.000000	16.241732
1073.000000	1427.000000	16.337128
1074.000000	1426.000000	16.448826
1075.000000	1425.000000	16.549583
1076.000000	1424.000000	16.638197
1077.000000	1423.000000	16.764116
1078.000000	1422.000000	16.836648
1079.000000	1421.000000	16.923293
1080.000000	1420.000000	17.059715
1081.000000	1419.000000	17.139686
1082.000000	1418.000000	17.194277
1083.000000	1417.000000	17.282781
1084.000000	1416.000000	17.403340
