PE UV       SUBTECH     SPECTRUM    ASCII       PEDS        4.00        
   -1
2-STRIGIDIA BELTI INBIO0004211063.ASC
23/11/17
10:41:59.00
23/11/17
10:41:59.00
Vinicio Soto Monge

250,000000
1
Lambda 1050
1050L1511233
PerkinElmer UV WinLab 6.3.2.0749 / 2.02.05 Lambda 900 UV/VIS/NIR, Aug  7 2015 09:38:08

0
0
3350/servo 860,8/2
0
0
UV/VIS
1
1
1
DoubleDePol,CommonBeamDepol,RBeamAtt,SBeamAtt,60mm sphere, WB InGaAs Detector
0
0
0
0
Program
Program
3350/servo 860,8/2
3350/0,4 860,8/0,4
3350/0,4 860,8/0,4
0
20.00
 
 
 
0
 
860,8
319,2
860,8
Front
100
on
S:100 R:100
0
0
0
0
 
0
 
 
 
0
 
 
0
0
0
0
0
 
 
 
 
0
0


0
0
#HDR
-1
-1
#GR
nm
%R
1.0
0.0
2200,000000
-1,000000
1951
8
108,797053
5,244670
#DATA
250.000000	2.425297
251.000000	2.421202
252.000000	2.380508
253.000000	2.366764
254.000000	2.367142
255.000000	2.332285
256.000000	2.343354
257.000000	2.308971
258.000000	2.317244
259.000000	2.314057
260.000000	2.310835
261.000000	2.289603
262.000000	2.268455
263.000000	2.292957
264.000000	2.258569
265.000000	2.259259
266.000000	2.275483
267.000000	2.234588
268.000000	2.248931
269.000000	2.229280
270.000000	2.229958
271.000000	2.231490
272.000000	2.243122
273.000000	2.237835
274.000000	2.180860
275.000000	2.197273
276.000000	2.190414
277.000000	2.212744
278.000000	2.200612
279.000000	2.208508
280.000000	2.208981
281.000000	2.196988
282.000000	2.201012
283.000000	2.180419
284.000000	2.175640
285.000000	2.176782
286.000000	2.172378
287.000000	2.187872
288.000000	2.158935
289.000000	2.178913
290.000000	2.155707
291.000000	2.173320
292.000000	2.172466
293.000000	2.154572
294.000000	2.150910
295.000000	2.147960
296.000000	2.131226
297.000000	2.143019
298.000000	2.150162
299.000000	2.149373
300.000000	2.174109
301.000000	2.156947
302.000000	2.140849
303.000000	2.140092
304.000000	2.150680
305.000000	2.170146
306.000000	2.130349
307.000000	2.113358
308.000000	2.139328
309.000000	2.146018
310.000000	2.097516
311.000000	2.099800
312.000000	2.085763
313.000000	2.102560
314.000000	2.095803
315.000000	2.068898
316.000000	2.096208
317.000000	2.197894
318.000000	2.229674
319.000000	2.184141
320.000000	2.193819
321.000000	2.139063
322.000000	2.234048
323.000000	2.105683
324.000000	2.188515
325.000000	2.199321
326.000000	2.223867
327.000000	2.157410
328.000000	2.120399
329.000000	2.101252
330.000000	2.147745
331.000000	2.116328
332.000000	2.124308
333.000000	2.091847
334.000000	2.127670
335.000000	2.120433
336.000000	2.135097
337.000000	2.162945
338.000000	2.155763
339.000000	2.120849
340.000000	2.137490
341.000000	2.144560
342.000000	2.128441
343.000000	2.122078
344.000000	2.136079
345.000000	2.129108
346.000000	2.130778
347.000000	2.125757
348.000000	2.133676
349.000000	2.119320
350.000000	2.110196
351.000000	2.142743
352.000000	2.143732
353.000000	2.110948
354.000000	2.115961
355.000000	2.147577
356.000000	2.126380
357.000000	2.129059
358.000000	2.140681
359.000000	2.129568
360.000000	2.111102
361.000000	2.117734
362.000000	2.106010
363.000000	2.122700
364.000000	2.123868
365.000000	2.105698
366.000000	2.108856
367.000000	2.131367
368.000000	2.101718
369.000000	2.105808
370.000000	2.120365
371.000000	2.107013
372.000000	2.108187
373.000000	2.100356
374.000000	2.104144
375.000000	2.099175
376.000000	2.053884
377.000000	2.001416
378.000000	1.999295
379.000000	2.001179
380.000000	1.998674
381.000000	1.992689
382.000000	1.990749
383.000000	1.987420
384.000000	1.988156
385.000000	1.985684
386.000000	1.981532
387.000000	1.981524
388.000000	1.984829
389.000000	1.987041
390.000000	1.985618
391.000000	1.984888
392.000000	1.986796
393.000000	1.985101
394.000000	1.980325
395.000000	1.981892
396.000000	1.986190
397.000000	1.984498
398.000000	1.979965
399.000000	1.977764
400.000000	1.978033
401.000000	1.980161
402.000000	1.979254
403.000000	1.981420
404.000000	1.984615
405.000000	1.979999
406.000000	1.977656
407.000000	1.985109
408.000000	1.986003
409.000000	1.986628
410.000000	1.985653
411.000000	1.982127
412.000000	1.985033
413.000000	1.986423
414.000000	1.989537
415.000000	1.988607
416.000000	1.986351
417.000000	1.985706
418.000000	1.985962
419.000000	1.983027
420.000000	1.986489
421.000000	1.990792
422.000000	1.988719
423.000000	1.990390
424.000000	1.991003
425.000000	1.991816
426.000000	1.995261
427.000000	1.997939
428.000000	1.995019
429.000000	1.997110
430.000000	2.001338
431.000000	2.001892
432.000000	2.001082
433.000000	2.001128
434.000000	2.000323
435.000000	2.002240
436.000000	2.002923
437.000000	1.996440
438.000000	1.997685
439.000000	2.000863
440.000000	2.000054
441.000000	2.001830
442.000000	2.002078
443.000000	2.004459
444.000000	2.012382
445.000000	2.013184
446.000000	2.010744
447.000000	2.017121
448.000000	2.016757
449.000000	2.014141
450.000000	2.013433
451.000000	2.016852
452.000000	2.020750
453.000000	2.018937
454.000000	2.016962
455.000000	2.016196
456.000000	2.015707
457.000000	2.019422
458.000000	2.020879
459.000000	2.021518
460.000000	2.023143
461.000000	2.020910
462.000000	2.022192
463.000000	2.027043
464.000000	2.028462
465.000000	2.030126
466.000000	2.035502
467.000000	2.034811
468.000000	2.036246
469.000000	2.038914
470.000000	2.036524
471.000000	2.038315
472.000000	2.043611
473.000000	2.045357
474.000000	2.049953
475.000000	2.053202
476.000000	2.058326
477.000000	2.064993
478.000000	2.072789
479.000000	2.079568
480.000000	2.085269
481.000000	2.094052
482.000000	2.106619
483.000000	2.120819
484.000000	2.136891
485.000000	2.152950
486.000000	2.169492
487.000000	2.186872
488.000000	2.207904
489.000000	2.237062
490.000000	2.262513
491.000000	2.289077
492.000000	2.321692
493.000000	2.359266
494.000000	2.395542
495.000000	2.438110
496.000000	2.481576
497.000000	2.529204
498.000000	2.581022
499.000000	2.638803
500.000000	2.698271
501.000000	2.762753
502.000000	2.832296
503.000000	2.905711
504.000000	2.983712
505.000000	3.069582
506.000000	3.153364
507.000000	3.241466
508.000000	3.333392
509.000000	3.436912
510.000000	3.538590
511.000000	3.643086
512.000000	3.748783
513.000000	3.865747
514.000000	3.982017
515.000000	4.096876
516.000000	4.216482
517.000000	4.331236
518.000000	4.452887
519.000000	4.573173
520.000000	4.694182
521.000000	4.813497
522.000000	4.930853
523.000000	5.038960
524.000000	5.151076
525.000000	5.249715
526.000000	5.344041
527.000000	5.436160
528.000000	5.518010
529.000000	5.589593
530.000000	5.659042
531.000000	5.721077
532.000000	5.764953
533.000000	5.803386
534.000000	5.828731
535.000000	5.850431
536.000000	5.858588
537.000000	5.865182
538.000000	5.850432
539.000000	5.837909
540.000000	5.809223
541.000000	5.765369
542.000000	5.717965
543.000000	5.662806
544.000000	5.600494
545.000000	5.538116
546.000000	5.471802
547.000000	5.397298
548.000000	5.319065
549.000000	5.242543
550.000000	5.164945
551.000000	5.085379
552.000000	4.999426
553.000000	4.934841
554.000000	4.883305
555.000000	4.830277
556.000000	4.790329
557.000000	4.748814
558.000000	4.733851
559.000000	4.736233
560.000000	4.743210
561.000000	4.777958
562.000000	4.829415
563.000000	4.894533
564.000000	4.972734
565.000000	5.055747
566.000000	5.166371
567.000000	5.277364
568.000000	5.397336
569.000000	5.520502
570.000000	5.646321
571.000000	5.779587
572.000000	5.911363
573.000000	6.038661
574.000000	6.165538
575.000000	6.275847
576.000000	6.393591
577.000000	6.502313
578.000000	6.599083
579.000000	6.688049
580.000000	6.788245
581.000000	6.870321
582.000000	6.943997
583.000000	7.026375
584.000000	7.106295
585.000000	7.178605
586.000000	7.256847
587.000000	7.324716
588.000000	7.417293
589.000000	7.503551
590.000000	7.605377
591.000000	7.701790
592.000000	7.798227
593.000000	7.913899
594.000000	8.035758
595.000000	8.169198
596.000000	8.298396
597.000000	8.434788
598.000000	8.564308
599.000000	8.701019
600.000000	8.846471
601.000000	8.999263
602.000000	9.147811
603.000000	9.292739
604.000000	9.434979
605.000000	9.567931
606.000000	9.702335
607.000000	9.837408
608.000000	9.964136
609.000000	10.091663
610.000000	10.216801
611.000000	10.341937
612.000000	10.443052
613.000000	10.560117
614.000000	10.662092
615.000000	10.786453
616.000000	10.878257
617.000000	10.985552
618.000000	11.095186
619.000000	11.209449
620.000000	11.316777
621.000000	11.431310
622.000000	11.545322
623.000000	11.677642
624.000000	11.803011
625.000000	11.925120
626.000000	12.059099
627.000000	12.191247
628.000000	12.323013
629.000000	12.450592
630.000000	12.588938
631.000000	12.726209
632.000000	12.859494
633.000000	12.996550
634.000000	13.137603
635.000000	13.267417
636.000000	13.389588
637.000000	13.523339
638.000000	13.657282
639.000000	13.789073
640.000000	13.927235
641.000000	14.050447
642.000000	14.192893
643.000000	14.331236
644.000000	14.469372
645.000000	14.601568
646.000000	14.727411
647.000000	14.861807
648.000000	15.010782
649.000000	15.151602
650.000000	15.284816
651.000000	15.433927
652.000000	15.573924
653.000000	15.720096
654.000000	15.857103
655.000000	16.001559
656.000000	16.153404
657.000000	16.292650
658.000000	16.437125
659.000000	16.583679
660.000000	16.730486
661.000000	16.891003
662.000000	17.045631
663.000000	17.181024
664.000000	17.323822
665.000000	17.453963
666.000000	17.577757
667.000000	17.711875
668.000000	17.847012
669.000000	17.990334
670.000000	18.131067
671.000000	18.277329
672.000000	18.429621
673.000000	18.534785
674.000000	18.653499
675.000000	18.781209
676.000000	18.900058
677.000000	19.045936
678.000000	19.166403
679.000000	19.282666
680.000000	19.410242
681.000000	19.544547
682.000000	19.668699
683.000000	19.806400
684.000000	19.928623
685.000000	20.056163
686.000000	20.198981
687.000000	20.306125
688.000000	20.401860
689.000000	20.531341
690.000000	20.662757
691.000000	20.785102
692.000000	20.903724
693.000000	21.024415
694.000000	21.138213
695.000000	21.253613
696.000000	21.364307
697.000000	21.470180
698.000000	21.588112
699.000000	21.705280
700.000000	21.825376
701.000000	21.946054
702.000000	22.044938
703.000000	22.149659
704.000000	22.254638
705.000000	22.364153
706.000000	22.491696
707.000000	22.598970
708.000000	22.697861
709.000000	22.802163
710.000000	22.895281
711.000000	23.002785
712.000000	23.122360
713.000000	23.246897
714.000000	23.358662
715.000000	23.452348
716.000000	23.567581
717.000000	23.663236
718.000000	23.731244
719.000000	23.818593
720.000000	23.925255
721.000000	24.025971
722.000000	24.147242
723.000000	24.262475
724.000000	24.360151
725.000000	24.450444
726.000000	24.546912
727.000000	24.630637
728.000000	24.724115
729.000000	24.818795
730.000000	24.909576
731.000000	25.005004
732.000000	25.112007
733.000000	25.207342
734.000000	25.282023
735.000000	25.371941
736.000000	25.484949
737.000000	25.582234
738.000000	25.664991
739.000000	25.763333
740.000000	25.847608
741.000000	25.917893
742.000000	26.026667
743.000000	26.132198
744.000000	26.206972
745.000000	26.312451
746.000000	26.415908
747.000000	26.494054
748.000000	26.591953
749.000000	26.679046
750.000000	26.753339
751.000000	26.819682
752.000000	26.904697
753.000000	26.967903
754.000000	27.067490
755.000000	27.190797
756.000000	27.247845
757.000000	27.291787
758.000000	27.372301
759.000000	27.516073
760.000000	27.590897
761.000000	27.653829
762.000000	27.750494
763.000000	27.820591
764.000000	27.924783
765.000000	28.002204
766.000000	28.042806
767.000000	28.130327
768.000000	28.230870
769.000000	28.374365
770.000000	28.423621
771.000000	28.504643
772.000000	28.598336
773.000000	28.669615
774.000000	28.750507
775.000000	28.812614
776.000000	28.871422
777.000000	28.978776
778.000000	29.026954
779.000000	29.087419
780.000000	29.183808
781.000000	29.228122
782.000000	29.308154
783.000000	29.349050
784.000000	29.425180
785.000000	29.558047
786.000000	29.580391
787.000000	29.691049
788.000000	29.793436
789.000000	29.812550
790.000000	29.869669
791.000000	29.973178
792.000000	30.047372
793.000000	30.086241
794.000000	30.163493
795.000000	30.199598
796.000000	30.241719
797.000000	30.342054
798.000000	30.426069
799.000000	30.554974
800.000000	30.577165
801.000000	30.647322
802.000000	30.744688
803.000000	30.861199
804.000000	30.892051
805.000000	30.919604
806.000000	30.983507
807.000000	31.062624
808.000000	31.044163
809.000000	31.186045
810.000000	31.276424
811.000000	31.327806
812.000000	31.413391
813.000000	31.514472
814.000000	31.529155
815.000000	31.573388
816.000000	31.659293
817.000000	31.664274
818.000000	31.753301
819.000000	31.769356
820.000000	31.904084
821.000000	31.964620
822.000000	31.926188
823.000000	32.038242
824.000000	32.063477
825.000000	32.179076
826.000000	32.310034
827.000000	32.319145
828.000000	32.291816
829.000000	32.398226
830.000000	32.468514
831.000000	32.494656
832.000000	32.477309
833.000000	32.643891
834.000000	32.591791
835.000000	32.723691
836.000000	32.721744
837.000000	32.828300
838.000000	32.853399
839.000000	32.937359
840.000000	32.920184
841.000000	33.113751
842.000000	33.152192
843.000000	33.071814
844.000000	33.159287
845.000000	33.260164
846.000000	33.276595
847.000000	33.423731
848.000000	33.373905
849.000000	33.517673
850.000000	33.729539
851.000000	33.553257
852.000000	33.439346
853.000000	33.592261
854.000000	33.553992
855.000000	33.709225
856.000000	33.794637
857.000000	33.866138
858.000000	33.790000
859.000000	33.960478
860.000000	33.540340
861.000000	34.235921
862.000000	33.961100
863.000000	33.722406
864.000000	33.719466
865.000000	33.407053
866.000000	33.519702
867.000000	34.071904
868.000000	34.198022
869.000000	33.962194
870.000000	34.233609
871.000000	34.127169
872.000000	33.972248
873.000000	34.275688
874.000000	33.845132
875.000000	34.419658
876.000000	34.431790
877.000000	34.513727
878.000000	34.480708
879.000000	34.026840
880.000000	33.957862
881.000000	34.654887
882.000000	34.650796
883.000000	34.470718
884.000000	34.936172
885.000000	34.697791
886.000000	34.603416
887.000000	34.716180
888.000000	34.572365
889.000000	34.734796
890.000000	34.734305
891.000000	34.900418
892.000000	34.676989
893.000000	34.265912
894.000000	34.650866
895.000000	34.857094
896.000000	34.920481
897.000000	35.113757
898.000000	35.045902
899.000000	35.064051
900.000000	35.346168
901.000000	35.353731
902.000000	35.334957
903.000000	34.886977
904.000000	34.985876
905.000000	35.107995
906.000000	35.350573
907.000000	34.922997
908.000000	35.118965
909.000000	35.117385
910.000000	35.373074
911.000000	35.305449
912.000000	35.281760
913.000000	35.758565
914.000000	35.911037
915.000000	35.335321
916.000000	35.473635
917.000000	35.009462
918.000000	35.313622
919.000000	35.470392
920.000000	35.546832
921.000000	35.610922
922.000000	35.211549
923.000000	35.259495
924.000000	35.325083
925.000000	35.655131
926.000000	35.990452
927.000000	36.246618
928.000000	35.659157
929.000000	35.555221
930.000000	35.734082
931.000000	36.030707
932.000000	35.819759
933.000000	35.834842
934.000000	36.198747
935.000000	36.117830
936.000000	35.971527
937.000000	35.912821
938.000000	35.719315
939.000000	36.238647
940.000000	36.012338
941.000000	36.376363
942.000000	36.000916
943.000000	35.758593
944.000000	35.931621
945.000000	36.463895
946.000000	36.653897
947.000000	36.395485
948.000000	36.038931
949.000000	36.299890
950.000000	36.176437
951.000000	36.227404
952.000000	36.040904
953.000000	35.929143
954.000000	35.993005
955.000000	36.179543
956.000000	36.178699
957.000000	36.033495
958.000000	36.062788
959.000000	36.133052
960.000000	36.208014
961.000000	36.174224
962.000000	36.108252
963.000000	36.474060
964.000000	36.749881
965.000000	36.407450
966.000000	36.273745
967.000000	36.176081
968.000000	36.233355
969.000000	36.625485
970.000000	36.544033
971.000000	36.493814
972.000000	36.357533
973.000000	36.212963
974.000000	36.148468
975.000000	36.215159
976.000000	36.398187
977.000000	36.526739
978.000000	36.453629
979.000000	36.579964
980.000000	36.932257
981.000000	36.866394
982.000000	36.804501
983.000000	36.914608
984.000000	36.656281
985.000000	36.465444
986.000000	36.533213
987.000000	36.608411
988.000000	36.630943
989.000000	36.323629
990.000000	36.302679
991.000000	36.710305
992.000000	36.829495
993.000000	36.903146
994.000000	36.822764
995.000000	36.876765
996.000000	36.776056
997.000000	36.526351
998.000000	36.564639
999.000000	36.932163
1000.000000	36.705348
1001.000000	36.536742
1002.000000	36.681495
1003.000000	36.607839
1004.000000	36.683221
1005.000000	36.998427
1006.000000	37.094178
1007.000000	37.288981
1008.000000	37.121744
1009.000000	36.651959
1010.000000	36.856852
1011.000000	36.940967
1012.000000	36.895349
1013.000000	37.117996
1014.000000	37.081244
1015.000000	37.107412
1016.000000	36.884728
1017.000000	36.711332
1018.000000	36.718488
1019.000000	36.775936
1020.000000	37.027489
1021.000000	37.190351
1022.000000	37.016246
1023.000000	37.322166
1024.000000	37.333961
1025.000000	37.041688
1026.000000	36.870804
1027.000000	36.898089
1028.000000	36.633901
1029.000000	36.860244
1030.000000	36.863205
1031.000000	36.756874
1032.000000	37.212096
1033.000000	37.153157
1034.000000	36.945630
1035.000000	36.961139
1036.000000	37.040825
1037.000000	37.066202
1038.000000	36.983398
1039.000000	37.179720
1040.000000	37.107183
1041.000000	36.909835
1042.000000	37.336647
1043.000000	37.146410
1044.000000	37.046462
1045.000000	37.335569
1046.000000	37.343307
1047.000000	37.281649
1048.000000	37.027063
1049.000000	36.852641
1050.000000	36.978283
1051.000000	36.790623
1052.000000	36.821841
1053.000000	36.924941
1054.000000	37.131613
1055.000000	37.297904
1056.000000	36.821896
1057.000000	36.756996
1058.000000	36.930891
1059.000000	37.255690
1060.000000	37.258289
1061.000000	37.041646
1062.000000	37.112341
1063.000000	36.852111
1064.000000	36.978616
1065.000000	37.427296
1066.000000	37.658980
1067.000000	37.240763
1068.000000	37.256848
1069.000000	37.245049
1070.000000	37.399509
1071.000000	37.178639
1072.000000	37.008210
1073.000000	37.174550
1074.000000	37.383410
1075.000000	37.084455
1076.000000	37.309970
1077.000000	36.900638
1078.000000	37.269289
1079.000000	37.622997
1080.000000	37.360699
1081.000000	37.162232
1082.000000	37.178356
1083.000000	36.831775
1084.000000	37.449388
1085.000000	37.307826
1086.000000	37.615808
1087.000000	37.534122
1088.000000	37.175825
1089.000000	37.279538
1090.000000	37.250990
1091.000000	37.265063
1092.000000	37.022976
1093.000000	37.643116
1094.000000	37.299566
1095.000000	37.741188
1096.000000	37.471237
1097.000000	37.507473
1098.000000	37.638766
1099.000000	37.221506
1100.000000	37.205294
1101.000000	37.106333
1102.000000	36.744549
1103.000000	37.226691
1104.000000	37.578658
1105.000000	36.966899
1106.000000	37.246913
1107.000000	37.183864
1108.000000	37.040477
1109.000000	37.605561
1110.000000	37.749961
1111.000000	37.234508
1112.000000	37.414997
1113.000000	37.267783
1114.000000	37.346860
1115.000000	37.766084
1116.000000	37.237784
1117.000000	37.360770
1118.000000	37.601338
1119.000000	37.187029
1120.000000	37.989379
1121.000000	37.189833
1122.000000	37.752092
1123.000000	37.596338
1124.000000	37.221791
1125.000000	38.075499
1126.000000	37.513310
1127.000000	37.450406
1128.000000	37.652784
1129.000000	37.321091
1130.000000	37.661346
1131.000000	37.526534
1132.000000	37.569321
1133.000000	37.290058
1134.000000	37.641084
1135.000000	37.446791
1136.000000	36.979205
1137.000000	37.465638
1138.000000	37.677323
1139.000000	37.051324
1140.000000	37.141123
1141.000000	38.032320
1142.000000	37.727054
1143.000000	37.050442
1144.000000	37.656068
1145.000000	36.820698
1146.000000	37.392372
1147.000000	36.907069
1148.000000	37.318230
1149.000000	37.400431
1150.000000	36.960408
1151.000000	37.398236
1152.000000	37.549100
1153.000000	36.921099
1154.000000	37.473787
1155.000000	37.244966
1156.000000	37.390449
1157.000000	37.092818
1158.000000	36.602647
1159.000000	37.144865
1160.000000	37.006832
1161.000000	37.366967
1162.000000	36.816923
1163.000000	36.717783
1164.000000	36.844803
1165.000000	36.426232
1166.000000	36.771521
1167.000000	37.083364
1168.000000	37.355462
1169.000000	37.221329
1170.000000	36.876123
1171.000000	37.022993
1172.000000	37.111874
1173.000000	37.224912
1174.000000	37.205291
1175.000000	37.059324
1176.000000	37.193415
