PE UV       SUBTECH     SPECTRUM    ASCII       PEDS        4.00        
   -1
2-STRIGIDIA BELTI INBIO0004211063.ASC
23/11/17
10:41:59.00
23/11/17
10:41:59.00
Vinicio Soto Monge

250,000000
1
Lambda 1050
1050L1511233
PerkinElmer UV WinLab 6.3.2.0749 / 2.02.05 Lambda 900 UV/VIS/NIR, Aug  7 2015 09:38:08

0
0
3350/servo 860,8/2
0
0
UV/VIS
1
1
1
DoubleDePol,CommonBeamDepol,RBeamAtt,SBeamAtt,60mm sphere, WB InGaAs Detector
0
0
0
0
Program
Program
3350/servo 860,8/2
3350/0,4 860,8/0,4
3350/0,4 860,8/0,4
0
20.00
 
 
 
0
 
860,8
319,2
860,8
Front
100
on
S:100 R:100
0
0
0
0
 
0
 
 
 
0
 
 
0
0
0
0
0
 
 
 
 
0
0


0
0
#HDR
-1
-1
#GR
nm
%R
1.0
0.0
2200,000000
-1,000000
1951
8
108,797053
5,244670
#DATA
1999.000000	80.944825
1998.000000	81.128852
1997.000000	81.555470
1996.000000	81.584314
1995.000000	82.063469
1994.000000	81.842871
1993.000000	81.811711
1992.000000	81.006351
1991.000000	81.716688
1990.000000	81.693027
1989.000000	81.459709
1988.000000	81.272257
1987.000000	82.160963
1986.000000	80.259004
1985.000000	81.221630
1984.000000	80.963718
1983.000000	79.988986
1982.000000	79.884072
1981.000000	80.103562
1980.000000	79.731283
1979.000000	80.307331
1978.000000	80.155607
1977.000000	79.355158
1976.000000	79.422369
1975.000000	80.774556
1974.000000	80.318661
1973.000000	81.038879
1972.000000	80.309614
1971.000000	80.298628
1970.000000	79.412055
1969.000000	79.607944
1968.000000	78.284791
1967.000000	80.234546
1966.000000	78.153559
1965.000000	78.713647
1964.000000	77.961395
1963.000000	78.357422
1962.000000	79.451809
1961.000000	78.478876
1960.000000	79.307513
1959.000000	79.125185
1958.000000	78.316367
1957.000000	77.501353
1956.000000	78.322430
1955.000000	77.701258
1954.000000	77.081334
1953.000000	78.258953
1952.000000	76.540926
1951.000000	75.624244
1950.000000	76.426241
1949.000000	76.745932
1948.000000	76.409562
1947.000000	77.930650
1946.000000	77.112754
1945.000000	76.221649
1944.000000	76.283076
1943.000000	76.741186
1942.000000	77.045422
1941.000000	77.164615
1940.000000	74.609203
1939.000000	75.654544
1938.000000	74.131034
1937.000000	76.944527
1936.000000	76.588963
1935.000000	76.800326
1934.000000	75.141902
1933.000000	76.620439
1932.000000	76.341021
1931.000000	77.675182
1930.000000	77.380305
1929.000000	76.222453
1928.000000	76.979263
1927.000000	75.428725
1926.000000	76.486904
1925.000000	76.484723
1924.000000	77.058553
1923.000000	77.527541
1922.000000	76.907989
1921.000000	77.079839
1920.000000	78.066097
1919.000000	79.670329
1918.000000	76.070611
1917.000000	75.584885
1916.000000	74.148889
1915.000000	76.567803
1914.000000	79.168126
1913.000000	79.932373
1912.000000	78.089040
1911.000000	77.128510
1910.000000	78.656055
1909.000000	79.832089
1908.000000	81.562949
1907.000000	80.140372
1906.000000	83.758258
1905.000000	80.963575
1904.000000	82.430833
1903.000000	83.081574
1902.000000	87.319787
1901.000000	83.889120
1900.000000	84.185654
1899.000000	85.207053
1898.000000	85.564390
1897.000000	85.088459
1896.000000	85.365789
1895.000000	84.752461
1894.000000	87.051434
1893.000000	88.541380
1892.000000	87.386964
1891.000000	87.813509
1890.000000	87.589882
1889.000000	89.484081
1888.000000	88.771992
1887.000000	89.213824
1886.000000	90.785315
1885.000000	87.415312
1884.000000	88.781930
1883.000000	92.059807
1882.000000	90.639930
1881.000000	90.128983
1880.000000	91.572677
1879.000000	90.816958
1878.000000	91.712233
1877.000000	91.693453
1876.000000	93.740898
1875.000000	90.803832
1874.000000	92.102521
1873.000000	91.865283
1872.000000	94.403287
1871.000000	93.366274
1870.000000	100.447647
1869.000000	94.138369
1868.000000	90.753991
1867.000000	89.723807
1866.000000	91.132718
1865.000000	93.445597
1864.000000	92.781189
1863.000000	94.206058
1862.000000	93.037833
1861.000000	91.839967
1860.000000	91.197579
1859.000000	91.936930
1858.000000	90.101400
1857.000000	89.259771
1856.000000	90.134023
1855.000000	92.796075
1854.000000	93.919013
1853.000000	95.582797
1852.000000	93.274246
1851.000000	91.567091
1850.000000	91.134029
1849.000000	92.203198
1848.000000	92.865220
1847.000000	95.202074
1846.000000	92.940820
1845.000000	91.843997
1844.000000	93.291768
1843.000000	91.799377
1842.000000	92.503720
1841.000000	94.139018
1840.000000	91.211413
1839.000000	90.357516
1838.000000	90.397987
1837.000000	90.695140
1836.000000	90.756428
1835.000000	92.276753
1834.000000	93.462711
1833.000000	92.039481
1832.000000	91.044410
1831.000000	93.997162
1830.000000	96.282070
1829.000000	92.338497
1828.000000	91.509392
1827.000000	92.383743
1826.000000	93.280018
1825.000000	94.186428
1824.000000	91.586076
1823.000000	92.128488
1822.000000	91.441196
1821.000000	90.766207
1820.000000	92.257060
1819.000000	93.129165
1818.000000	92.348753
1817.000000	95.425793
1816.000000	92.775653
1815.000000	92.099796
1814.000000	92.767759
1813.000000	92.129920
1812.000000	92.822187
1811.000000	93.945075
1810.000000	93.304221
1809.000000	92.030390
1808.000000	91.730843
1807.000000	91.760892
1806.000000	92.488265
1805.000000	92.715401
1804.000000	91.612414
1803.000000	91.188594
1802.000000	92.042277
1801.000000	93.029128
1800.000000	93.659998
1799.000000	93.063905
1798.000000	92.271090
1797.000000	92.363809
1796.000000	92.436614
1795.000000	91.916349
1794.000000	90.635626
1793.000000	90.060365
1792.000000	91.004076
1791.000000	91.995523
1790.000000	92.141408
1789.000000	91.762774
1788.000000	92.361080
1787.000000	92.306342
1786.000000	91.984177
1785.000000	92.374919
1784.000000	92.262543
1783.000000	91.555830
1782.000000	91.763605
1781.000000	91.578844
1780.000000	91.230095
1779.000000	91.591927
1778.000000	92.067320
1777.000000	91.784023
1776.000000	92.287936
1775.000000	92.663666
1774.000000	92.598092
1773.000000	91.697910
1772.000000	91.188443
1771.000000	90.942884
1770.000000	92.364293
1769.000000	91.603987
1768.000000	90.959152
1767.000000	91.506881
1766.000000	91.562560
1765.000000	91.921211
1764.000000	91.457466
1763.000000	90.910735
1762.000000	91.124972
1761.000000	92.318246
1760.000000	92.384308
1759.000000	91.257678
1758.000000	90.946725
1757.000000	92.157388
1756.000000	91.107251
1755.000000	90.846260
1754.000000	90.272565
1753.000000	91.488803
1752.000000	91.633472
1751.000000	91.631019
1750.000000	92.140979
1749.000000	90.989071
1748.000000	91.382085
1747.000000	90.798907
1746.000000	90.490716
1745.000000	89.415831
1744.000000	90.464550
1743.000000	90.766475
1742.000000	91.107042
1741.000000	90.297396
1740.000000	90.627372
1739.000000	91.124919
1738.000000	91.118907
1737.000000	90.015166
1736.000000	90.636260
1735.000000	91.022222
1734.000000	91.626603
1733.000000	91.004037
1732.000000	90.360994
1731.000000	90.970408
1730.000000	90.878843
1729.000000	90.082988
1728.000000	89.790382
1727.000000	90.122973
1726.000000	89.975302
1725.000000	90.966977
1724.000000	90.650582
1723.000000	91.204775
1722.000000	89.781151
1721.000000	90.916573
1720.000000	90.353212
1719.000000	90.466293
1718.000000	91.155907
1717.000000	91.741655
1716.000000	90.754448
1715.000000	91.820248
1714.000000	91.844610
1713.000000	92.391990
1712.000000	91.449972
1711.000000	91.693267
1710.000000	91.476681
1709.000000	91.668122
1708.000000	90.893977
1707.000000	91.659202
1706.000000	92.096281
1705.000000	91.472331
1704.000000	92.080817
1703.000000	92.396936
1702.000000	92.553485
1701.000000	91.542067
1700.000000	91.492991
1699.000000	91.664680
1698.000000	93.789299
1697.000000	92.429334
1696.000000	92.034843
1695.000000	91.234090
1694.000000	91.345810
1693.000000	91.812279
1692.000000	92.837836
1691.000000	92.722426
1690.000000	92.784674
1689.000000	91.447662
1688.000000	91.483507
1687.000000	90.277596
1686.000000	91.029455
1685.000000	92.479221
1684.000000	92.305542
1683.000000	91.774978
1682.000000	91.595190
1681.000000	91.041732
1680.000000	91.363389
1679.000000	92.088721
1678.000000	93.549994
1677.000000	91.103058
1676.000000	93.408090
1675.000000	93.505619
1674.000000	92.588687
1673.000000	93.232859
1672.000000	92.487306
1671.000000	91.730398
1670.000000	94.248695
1669.000000	93.203941
1668.000000	92.188093
1667.000000	92.923677
1666.000000	93.001520
1665.000000	93.426252
1664.000000	92.969442
1663.000000	93.573261
1662.000000	92.651989
1661.000000	93.614569
1660.000000	92.616337
1659.000000	95.243232
1658.000000	95.005505
1657.000000	93.441257
1656.000000	93.994654
1655.000000	93.434497
1654.000000	94.370450
1653.000000	94.302902
1652.000000	95.107033
1651.000000	93.562863
1650.000000	94.491842
1649.000000	93.278470
1648.000000	94.459891
1647.000000	93.447921
1646.000000	93.229020
1645.000000	93.954342
1644.000000	94.442690
1643.000000	94.355180
1642.000000	94.602106
1641.000000	93.563294
1640.000000	92.650027
1639.000000	93.561741
1638.000000	93.125629
1637.000000	93.286535
1636.000000	94.287919
1635.000000	93.901618
1634.000000	93.996261
1633.000000	93.403228
1632.000000	93.481364
1631.000000	93.013576
1630.000000	92.484006
1629.000000	93.335152
1628.000000	92.771355
1627.000000	92.662517
1626.000000	92.497121
1625.000000	93.014898
1624.000000	92.836576
1623.000000	94.256727
1622.000000	93.702539
1621.000000	93.844785
1620.000000	93.796033
1619.000000	94.591210
1618.000000	92.827177
1617.000000	93.525841
1616.000000	92.483918
1615.000000	94.723866
1614.000000	93.519234
1613.000000	93.556876
1612.000000	92.958637
1611.000000	93.454387
1610.000000	93.920177
1609.000000	92.385500
1608.000000	92.699800
1607.000000	92.917506
1606.000000	93.468216
1605.000000	92.998874
1604.000000	92.175703
1603.000000	93.539088
1602.000000	94.358972
1601.000000	94.230677
1600.000000	93.426953
1599.000000	92.484918
1598.000000	93.986958
1597.000000	93.086501
1596.000000	93.110525
1595.000000	93.594524
1594.000000	93.451604
1593.000000	93.204641
1592.000000	92.917213
1591.000000	93.818577
1590.000000	93.290675
1589.000000	92.124167
1588.000000	93.353490
1587.000000	93.051175
1586.000000	93.389822
1585.000000	92.756733
1584.000000	92.074304
1583.000000	93.307123
1582.000000	93.151208
1581.000000	92.768938
1580.000000	92.236137
1579.000000	92.646461
1578.000000	91.828569
1577.000000	91.445290
1576.000000	91.232510
1575.000000	91.323253
1574.000000	92.521128
1573.000000	93.241158
1572.000000	92.683808
1571.000000	92.229286
1570.000000	92.419841
1569.000000	92.713069
1568.000000	92.525673
1567.000000	93.081347
1566.000000	93.033520
1565.000000	91.797758
1564.000000	93.114300
1563.000000	93.087281
1562.000000	92.513588
1561.000000	92.159410
1560.000000	92.429953
1559.000000	93.671336
1558.000000	93.169296
1557.000000	93.595981
1556.000000	93.075581
1555.000000	92.823218
1554.000000	92.480443
1553.000000	92.658767
1552.000000	93.407162
1551.000000	92.618018
1550.000000	92.436525
1549.000000	92.567867
1548.000000	93.122553
1547.000000	92.924366
1546.000000	91.462849
1545.000000	92.176532
1544.000000	92.924848
1543.000000	92.741070
1542.000000	92.764954
1541.000000	92.209636
1540.000000	91.387524
1539.000000	91.581712
1538.000000	91.474449
1537.000000	91.331710
1536.000000	91.103220
1535.000000	91.701447
1534.000000	92.307169
1533.000000	91.247802
1532.000000	91.352222
1531.000000	92.188616
1530.000000	92.181543
1529.000000	91.930052
1528.000000	91.790406
1527.000000	92.378431
1526.000000	92.164576
1525.000000	91.897279
1524.000000	92.124648
1523.000000	92.130256
1522.000000	91.964549
1521.000000	91.908428
1520.000000	92.108362
1519.000000	91.882887
1518.000000	91.694212
1517.000000	90.781231
1516.000000	91.398671
1515.000000	91.473182
1514.000000	90.949849
1513.000000	90.901919
1512.000000	90.544070
1511.000000	90.022447
1510.000000	90.688652
1509.000000	89.980774
1508.000000	89.675258
1507.000000	90.299093
1506.000000	91.175597
1505.000000	90.663721
1504.000000	90.435911
1503.000000	90.474367
1502.000000	90.147249
1501.000000	89.408596
1500.000000	90.352909
1499.000000	90.668750
1498.000000	89.243287
1497.000000	90.265054
1496.000000	91.247867
1495.000000	90.884693
1494.000000	89.780384
1493.000000	89.634746
1492.000000	90.534613
1491.000000	90.186637
1490.000000	90.191928
1489.000000	90.902211
1488.000000	90.625096
1487.000000	90.587026
1486.000000	90.133981
1485.000000	90.006824
1484.000000	90.067505
1483.000000	90.818372
1482.000000	89.697077
1481.000000	90.693081
1480.000000	91.134745
1479.000000	90.601594
1478.000000	89.574260
1477.000000	89.230750
1476.000000	88.791405
1475.000000	90.419315
1474.000000	91.400860
1473.000000	89.819813
1472.000000	90.809293
1471.000000	91.191462
1470.000000	91.018353
1469.000000	91.655488
1468.000000	90.938463
1467.000000	89.375193
1466.000000	90.054266
1465.000000	90.749629
1464.000000	91.170674
1463.000000	91.471922
1462.000000	91.596953
1461.000000	92.052098
1460.000000	91.066130
1459.000000	91.665760
1458.000000	92.555640
1457.000000	91.276851
1456.000000	92.450971
1455.000000	90.965265
1454.000000	91.379973
1453.000000	90.873184
1452.000000	91.533122
1451.000000	91.948680
1450.000000	92.814814
1449.000000	92.134047
1448.000000	91.740361
1447.000000	90.837638
1446.000000	90.500260
1445.000000	91.368495
1444.000000	91.602277
1443.000000	90.903930
1442.000000	91.250835
1441.000000	94.905290
1440.000000	92.877689
1439.000000	95.267751
1438.000000	94.087490
1437.000000	92.296443
1436.000000	91.333115
1435.000000	91.430928
1434.000000	91.639405
1433.000000	92.570770
1432.000000	94.105150
1431.000000	93.532671
1430.000000	92.693419
1429.000000	92.628595
1428.000000	92.410435
1427.000000	92.998858
1426.000000	92.365222
1425.000000	93.808194
1424.000000	92.744183
1423.000000	93.076025
1422.000000	93.960875
1421.000000	92.557320
1420.000000	94.023238
1419.000000	94.052966
1418.000000	93.096644
1417.000000	94.286566
1416.000000	93.992868
1415.000000	94.186879
1414.000000	95.383069
1413.000000	93.836757
1412.000000	94.117683
1411.000000	93.225063
1410.000000	94.570043
1409.000000	98.361016
1408.000000	94.760092
1407.000000	94.776240
1406.000000	96.002563
1405.000000	93.833255
1404.000000	93.556250
1403.000000	95.436742
1402.000000	95.273525
1401.000000	95.990340
1400.000000	103.759236
1399.000000	98.858117
1398.000000	96.635335
1397.000000	95.878870
1396.000000	91.898761
1395.000000	99.036326
1394.000000	96.899430
1393.000000	96.017336
1392.000000	93.888282
1391.000000	98.785270
1390.000000	98.861185
1389.000000	98.086788
1388.000000	94.188068
1387.000000	97.836750
1386.000000	96.167119
1385.000000	98.798123
1384.000000	96.829894
1383.000000	101.278646
1382.000000	107.767138
1381.000000	100.473104
1380.000000	109.205028
1379.000000	96.334694
1378.000000	101.771561
1377.000000	96.073772
1376.000000	97.996640
1375.000000	98.374218
1374.000000	98.975407
1373.000000	97.102841
1372.000000	97.254728
1371.000000	96.933198
1370.000000	96.613917
1369.000000	97.287649
1368.000000	101.583063
1367.000000	104.526816
1366.000000	96.705514
1365.000000	92.932139
1364.000000	101.521986
1363.000000	95.863651
1362.000000	93.547118
1361.000000	100.138936
1360.000000	100.723802
1359.000000	99.112787
1358.000000	96.651848
1357.000000	98.692750
1356.000000	97.600329
1355.000000	106.194522
1354.000000	101.491023
1353.000000	98.708169
1352.000000	96.184781
1351.000000	99.604697
1350.000000	97.394630
1349.000000	97.144849
1348.000000	98.135777
1347.000000	98.467264
1346.000000	98.720700
1345.000000	98.517859
1344.000000	98.913578
1343.000000	99.861842
1342.000000	99.055475
1341.000000	98.139012
1340.000000	98.534123
1339.000000	98.818323
1338.000000	99.083733
1337.000000	98.574974
1336.000000	99.248436
1335.000000	98.672939
1334.000000	100.005388
1333.000000	100.556084
1332.000000	99.169154
1331.000000	99.089356
1330.000000	99.374429
1329.000000	98.862822
1328.000000	98.387192
1327.000000	99.511457
1326.000000	98.873711
1325.000000	99.016783
1324.000000	98.273927
1323.000000	97.560246
1322.000000	98.155187
1321.000000	99.036307
1320.000000	99.542122
1319.000000	98.958108
1318.000000	99.129145
1317.000000	99.084734
1316.000000	99.046263
1315.000000	100.025033
1314.000000	99.777369
1313.000000	99.251064
1312.000000	99.393910
1311.000000	99.067176
1310.000000	98.475988
1309.000000	98.267576
1308.000000	98.431626
1307.000000	99.656603
1306.000000	99.202996
1305.000000	99.026162
1304.000000	99.711564
1303.000000	99.299425
1302.000000	99.224705
1301.000000	98.907941
1300.000000	98.014445
1299.000000	98.831797
1298.000000	99.239503
1297.000000	98.684649
1296.000000	99.044184
1295.000000	98.692796
1294.000000	98.853303
1293.000000	99.389180
1292.000000	99.334111
1291.000000	99.848823
1290.000000	100.010956
1289.000000	98.934850
1288.000000	98.296451
1287.000000	98.400931
1286.000000	98.480323
1285.000000	99.485963
1284.000000	100.101570
1283.000000	99.821407
1282.000000	98.913990
1281.000000	98.212901
1280.000000	98.146821
1279.000000	98.337315
1278.000000	98.763108
1277.000000	98.807160
1276.000000	98.345888
1275.000000	98.244751
1274.000000	98.684061
1273.000000	98.307320
1272.000000	98.296399
1271.000000	98.903943
1270.000000	99.361000
1269.000000	98.794230
1268.000000	98.329047
1267.000000	98.159720
1266.000000	98.361227
1265.000000	98.927651
1264.000000	99.461810
1263.000000	99.207726
1262.000000	98.134529
1261.000000	98.248301
1260.000000	99.095421
1259.000000	98.911367
1258.000000	98.960374
1257.000000	98.693510
1256.000000	98.863786
1255.000000	99.767235
1254.000000	99.749483
1253.000000	99.353984
1252.000000	99.802978
1251.000000	100.087195
1250.000000	99.257125
1249.000000	99.619357
1248.000000	99.172328
1247.000000	97.861296
1246.000000	98.635509
1245.000000	99.213561
1244.000000	98.742786
1243.000000	99.017592
1242.000000	99.616732
1241.000000	98.754875
1240.000000	98.484454
1239.000000	98.646158
1238.000000	98.597187
1237.000000	98.544359
1236.000000	98.477118
1235.000000	98.459000
1234.000000	98.313579
1233.000000	97.908728
1232.000000	98.574040
1231.000000	99.105622
1230.000000	98.847040
1229.000000	98.699742
1228.000000	98.954681
1227.000000	99.365365
1226.000000	99.213951
1225.000000	98.533175
1224.000000	98.007269
1223.000000	99.153007
1222.000000	98.780881
1221.000000	99.082696
1220.000000	98.976153
1219.000000	98.824889
1218.000000	98.720299
1217.000000	98.379207
1216.000000	99.961676
1215.000000	98.692097
1214.000000	98.499347
1213.000000	97.618919
1212.000000	97.870073
1211.000000	98.021335
1210.000000	98.002290
1209.000000	98.142462
1208.000000	97.369204
1207.000000	98.579567
1206.000000	98.991158
1205.000000	98.053289
1204.000000	99.317012
1203.000000	99.318938
1202.000000	98.100914
1201.000000	98.616002
1200.000000	98.685281
1199.000000	98.373531
1198.000000	98.667881
1197.000000	98.277888
1196.000000	98.646863
1195.000000	98.257957
1194.000000	98.073917
1193.000000	97.651863
1192.000000	99.037437
1191.000000	99.238402
1190.000000	98.402304
1189.000000	97.975813
1188.000000	97.767401
1187.000000	98.377324
1186.000000	97.713359
1185.000000	97.878581
1184.000000	98.107687
1183.000000	97.815122
1182.000000	98.113295
1181.000000	97.996251
1180.000000	99.536787
1179.000000	98.940598
1178.000000	98.487682
1177.000000	98.744371
1176.000000	98.635544
1175.000000	98.279940
1174.000000	98.667037
1173.000000	98.719073
1172.000000	98.419299
1171.000000	98.183592
1170.000000	97.794096
1169.000000	98.709570
1168.000000	99.065286
1167.000000	98.343693
1166.000000	97.516696
1165.000000	96.601004
1164.000000	97.711037
1163.000000	97.374184
1162.000000	97.637100
1161.000000	99.095797
1160.000000	98.140732
1159.000000	98.506790
1158.000000	97.068849
1157.000000	98.368764
1156.000000	99.158070
1155.000000	98.772255
1154.000000	99.379080
1153.000000	97.913373
1152.000000	99.578807
1151.000000	99.178720
1150.000000	98.017618
1149.000000	99.184542
1148.000000	98.966547
1147.000000	97.876166
1146.000000	99.163169
1145.000000	97.647112
1144.000000	99.862482
1143.000000	98.256385
1142.000000	100.050733
1141.000000	100.860289
1140.000000	98.496867
1139.000000	98.258724
1138.000000	99.918850
1137.000000	99.357469
1136.000000	98.067466
1135.000000	99.307487
1134.000000	99.822744
1133.000000	98.891837
1132.000000	99.632431
1131.000000	99.518962
1130.000000	99.876480
1129.000000	98.974136
1128.000000	99.853772
1127.000000	99.317074
1126.000000	99.483892
1125.000000	100.974798
1124.000000	98.710795
