PE UV       SUBTECH     SPECTRUM    ASCII       PEDS        4.00        
   -1
CICIMAUCR0250-3.Sample.ASC
24/05/27
16:50:50.00
24/05/27
16:50:50.00
Vinicio Soto Monge
C. resplendens, M
250,000000
1
Lambda 1050
1050L1511233
PerkinElmer UV WinLab 6.3.2.0749 / 2.02.05 Lambda 900 UV/VIS/NIR, Aug  7 2015 09:38:08

0
0
3350/servo 860,8/2
0
0
UV/VIS
1
1
1
DoubleDePol,CommonBeamDepol,RBeamAtt,SBeamAtt,60mm sphere, WB InGaAs Detector
0
0
0
0
Program
Program
3350/servo 860,8/2
3350/0,2 860,8/0,2
3350/0,2 860,8/0,2
0
15.00
 
 
 
0
 
860,8
319,2
860,8
Front
100
on
S:100 R:100
0
0
0
0
 
0
 
 
 
0
 
 
0
0
0
0
0
 
 
 
 
0
0


0
0
#HDR
-1
-1
#GR
nm
%R
1.0
0.0
2500,000000
-1,000000
2251
8
89,705100
5,547200
#DATA
250.000000	0.157593
251.000000	0.164042
252.000000	0.154156
253.000000	0.161730
254.000000	0.157604
255.000000	0.147531
256.000000	0.132122
257.000000	0.137641
258.000000	0.129446
259.000000	0.151206
260.000000	0.156668
261.000000	0.140496
262.000000	0.140154
263.000000	0.131347
264.000000	0.133388
265.000000	0.145820
266.000000	0.138562
267.000000	0.139887
268.000000	0.152886
269.000000	0.159709
270.000000	0.150430
271.000000	0.150749
272.000000	0.147206
273.000000	0.150132
274.000000	0.149413
275.000000	0.139117
276.000000	0.134821
277.000000	0.135938
278.000000	0.143041
279.000000	0.135417
280.000000	0.126421
281.000000	0.120974
282.000000	0.131545
283.000000	0.136527
284.000000	0.127692
285.000000	0.106713
286.000000	0.092576
287.000000	0.112367
288.000000	0.126990
289.000000	0.118562
290.000000	0.112855
291.000000	0.111652
292.000000	0.116765
293.000000	0.123972
294.000000	0.101501
295.000000	0.089072
296.000000	0.103788
297.000000	0.101707
298.000000	0.106221
299.000000	0.130729
300.000000	0.096117
301.000000	0.066460
302.000000	0.058462
303.000000	0.082184
304.000000	0.094177
305.000000	0.102966
306.000000	0.094406
307.000000	0.096281
308.000000	0.095923
309.000000	0.086289
310.000000	0.069896
311.000000	0.069326
312.000000	0.085879
313.000000	0.073540
314.000000	0.082772
315.000000	0.071432
316.000000	0.086957
317.000000	0.316876
318.000000	0.481657
319.000000	0.419659
320.000000	0.317925
321.000000	0.206403
322.000000	0.260289
323.000000	0.367060
324.000000	0.190016
325.000000	0.151587
326.000000	0.078373
327.000000	0.020174
328.000000	0.111138
329.000000	0.257183
330.000000	0.229740
331.000000	0.063547
332.000000	0.016715
333.000000	0.114740
334.000000	0.185476
335.000000	0.104776
336.000000	0.078010
337.000000	0.122243
338.000000	0.084266
339.000000	0.115217
340.000000	0.163204
341.000000	0.099603
342.000000	0.071913
343.000000	0.099632
344.000000	0.059099
345.000000	0.084137
346.000000	0.079489
347.000000	0.067022
348.000000	0.065498
349.000000	0.033531
350.000000	0.081666
351.000000	0.072265
352.000000	0.061862
353.000000	0.060722
354.000000	0.098488
355.000000	0.105079
356.000000	0.135918
357.000000	0.095773
358.000000	0.091830
359.000000	0.160169
360.000000	0.157074
361.000000	0.147038
362.000000	0.144518
363.000000	0.203110
364.000000	0.227216
365.000000	0.180655
366.000000	0.142044
367.000000	0.158550
368.000000	0.197598
369.000000	0.185268
370.000000	0.152539
371.000000	0.153882
372.000000	0.194982
373.000000	0.327132
374.000000	0.283063
375.000000	0.181486
376.000000	0.196387
377.000000	0.197801
378.000000	0.207862
379.000000	0.212461
380.000000	0.211684
381.000000	0.228147
382.000000	0.258877
383.000000	0.245511
384.000000	0.254635
385.000000	0.270991
386.000000	0.288403
387.000000	0.279032
388.000000	0.286784
389.000000	0.305602
390.000000	0.308116
391.000000	0.325492
392.000000	0.353741
393.000000	0.379777
394.000000	0.380906
395.000000	0.392397
396.000000	0.416729
397.000000	0.455517
398.000000	0.489499
399.000000	0.511117
400.000000	0.547737
401.000000	0.579024
402.000000	0.602281
403.000000	0.626863
404.000000	0.670294
405.000000	0.712824
406.000000	0.751238
407.000000	0.804079
408.000000	0.839668
409.000000	0.883166
410.000000	0.935698
411.000000	0.990867
412.000000	1.030135
413.000000	1.073030
414.000000	1.120987
415.000000	1.158321
416.000000	1.201194
417.000000	1.234427
418.000000	1.271068
419.000000	1.296995
420.000000	1.314045
421.000000	1.346372
422.000000	1.344871
423.000000	1.341501
424.000000	1.367231
425.000000	1.345126
426.000000	1.348546
427.000000	1.338815
428.000000	1.314651
429.000000	1.306197
430.000000	1.294697
431.000000	1.264203
432.000000	1.241712
433.000000	1.206922
434.000000	1.208486
435.000000	1.160791
436.000000	1.101766
437.000000	1.109307
438.000000	1.075360
439.000000	1.038582
440.000000	0.987475
441.000000	0.959219
442.000000	0.962515
443.000000	0.939187
444.000000	0.894198
445.000000	0.867122
446.000000	0.838577
447.000000	0.795884
448.000000	0.764939
449.000000	0.732676
450.000000	0.750026
451.000000	0.726518
452.000000	0.698104
453.000000	0.694093
454.000000	0.658291
455.000000	0.642872
456.000000	0.626542
457.000000	0.616981
458.000000	0.605916
459.000000	0.589308
460.000000	0.586518
461.000000	0.592190
462.000000	0.587454
463.000000	0.579095
464.000000	0.621472
465.000000	0.613399
466.000000	0.619815
467.000000	0.678144
468.000000	0.712516
469.000000	0.754152
470.000000	0.794961
471.000000	0.845030
472.000000	0.917523
473.000000	0.957588
474.000000	1.014009
475.000000	1.054834
476.000000	1.114833
477.000000	1.152252
478.000000	1.174261
479.000000	1.193700
480.000000	1.209554
481.000000	1.205915
482.000000	1.196109
483.000000	1.217275
484.000000	1.176661
485.000000	1.138009
486.000000	1.085811
487.000000	1.018882
488.000000	0.939862
489.000000	0.863720
490.000000	0.736794
491.000000	0.611577
492.000000	0.475082
493.000000	0.362639
494.000000	0.235126
495.000000	0.099974
496.000000	0.036373
497.000000	0.189104
498.000000	0.294017
499.000000	0.385572
500.000000	0.503672
501.000000	0.605037
502.000000	0.680193
503.000000	0.750797
504.000000	0.807432
505.000000	0.854787
506.000000	0.911125
507.000000	0.951663
508.000000	0.974842
509.000000	0.991920
510.000000	1.038512
511.000000	1.048400
512.000000	1.112206
513.000000	1.169572
514.000000	1.205758
515.000000	1.257860
516.000000	1.321764
517.000000	1.386071
518.000000	1.453716
519.000000	1.543107
520.000000	1.605942
521.000000	1.669641
522.000000	1.751893
523.000000	1.808678
524.000000	1.886175
525.000000	1.949581
526.000000	1.983076
527.000000	2.044703
528.000000	2.078428
529.000000	2.127912
530.000000	2.164416
531.000000	2.170682
532.000000	2.198440
533.000000	2.189752
534.000000	2.163506
535.000000	2.156692
536.000000	2.143571
537.000000	2.118662
538.000000	2.084278
539.000000	2.118573
540.000000	2.107592
541.000000	2.127624
542.000000	2.147016
543.000000	2.149006
544.000000	2.169452
545.000000	2.194459
546.000000	2.207838
547.000000	2.241043
548.000000	2.256927
549.000000	2.295924
550.000000	2.308228
551.000000	2.358837
552.000000	2.354687
553.000000	2.411333
554.000000	2.476412
555.000000	2.508759
556.000000	2.553034
557.000000	2.590191
558.000000	2.634953
559.000000	2.694561
560.000000	2.715534
561.000000	2.738585
562.000000	2.735103
563.000000	2.745470
564.000000	2.767385
565.000000	2.774540
566.000000	2.781059
567.000000	2.799777
568.000000	2.794977
569.000000	2.837969
570.000000	2.851546
571.000000	2.871047
572.000000	2.865030
573.000000	2.900876
574.000000	2.919065
575.000000	2.961022
576.000000	2.997343
577.000000	3.020884
578.000000	3.059223
579.000000	3.112678
580.000000	3.142107
581.000000	3.172935
582.000000	3.193044
583.000000	3.175411
584.000000	3.239208
585.000000	3.245270
586.000000	3.247640
587.000000	3.278101
588.000000	3.277918
589.000000	3.293338
590.000000	3.301694
591.000000	3.305119
592.000000	3.300120
593.000000	3.287993
594.000000	3.274765
595.000000	3.297365
596.000000	3.314585
597.000000	3.324986
598.000000	3.317560
599.000000	3.370498
600.000000	3.398049
601.000000	3.392327
602.000000	3.399089
603.000000	3.450164
604.000000	3.452970
605.000000	3.463450
606.000000	3.506156
607.000000	3.539314
608.000000	3.559889
609.000000	3.595502
610.000000	3.606322
611.000000	3.608703
612.000000	3.612060
613.000000	3.626343
614.000000	3.639501
615.000000	3.637892
616.000000	3.599194
617.000000	3.553446
618.000000	3.563866
619.000000	3.537869
620.000000	3.478030
621.000000	3.439384
622.000000	3.395321
623.000000	3.369900
624.000000	3.359950
625.000000	3.361526
626.000000	3.366996
627.000000	3.363966
628.000000	3.390490
629.000000	3.460143
630.000000	3.496951
631.000000	3.543199
632.000000	3.637662
633.000000	3.706476
634.000000	3.715739
635.000000	3.717256
636.000000	3.734202
637.000000	3.675221
638.000000	3.597087
639.000000	3.482661
640.000000	3.301026
641.000000	3.126853
642.000000	2.925846
643.000000	2.726294
644.000000	2.554128
645.000000	2.410137
646.000000	2.301900
647.000000	2.213399
648.000000	2.180355
649.000000	2.172779
650.000000	2.196846
651.000000	2.276671
652.000000	2.339097
653.000000	2.341965
654.000000	2.362417
655.000000	2.349623
656.000000	2.305512
657.000000	2.248011
658.000000	2.175457
659.000000	2.114927
660.000000	2.015303
661.000000	1.945680
662.000000	1.857625
663.000000	1.735502
664.000000	1.612289
665.000000	1.495790
666.000000	1.335947
667.000000	1.164391
668.000000	1.015907
669.000000	0.892478
670.000000	0.777832
671.000000	0.614512
672.000000	0.430420
673.000000	0.309352
674.000000	0.178226
675.000000	0.137480
676.000000	0.230539
677.000000	0.365518
678.000000	0.474242
679.000000	0.580279
680.000000	0.690173
681.000000	0.779841
682.000000	0.887427
683.000000	0.955217
684.000000	0.998909
685.000000	1.073884
686.000000	1.128310
687.000000	1.164523
688.000000	1.276649
689.000000	1.368189
690.000000	1.393713
691.000000	1.444736
692.000000	1.483146
693.000000	1.534688
694.000000	1.542989
695.000000	1.552651
696.000000	1.573969
697.000000	1.568001
698.000000	1.563329
699.000000	1.548421
700.000000	1.536222
701.000000	1.478499
702.000000	1.455982
703.000000	1.435401
704.000000	1.395779
705.000000	1.341562
706.000000	1.263649
707.000000	1.204470
708.000000	1.208627
709.000000	1.108907
710.000000	1.057016
711.000000	1.021174
712.000000	0.980985
713.000000	0.945223
714.000000	0.914089
715.000000	0.874244
716.000000	0.847391
717.000000	0.868483
718.000000	0.858752
719.000000	0.921722
720.000000	1.012739
721.000000	1.055421
722.000000	1.102650
723.000000	1.116675
724.000000	1.170796
725.000000	1.202822
726.000000	1.307294
727.000000	1.423757
728.000000	1.503777
729.000000	1.512763
730.000000	1.563090
731.000000	1.638906
732.000000	1.643141
733.000000	1.724366
734.000000	1.826793
735.000000	1.944314
736.000000	2.017428
737.000000	2.066793
738.000000	2.116858
739.000000	2.223380
740.000000	2.261826
741.000000	2.367313
742.000000	2.390620
743.000000	2.505616
744.000000	2.526867
745.000000	2.587225
746.000000	2.584065
747.000000	2.609260
748.000000	2.660073
749.000000	2.658617
750.000000	2.736109
751.000000	2.698633
752.000000	2.614762
753.000000	2.729553
754.000000	2.765201
755.000000	2.801667
756.000000	2.784124
757.000000	2.798839
758.000000	2.879293
759.000000	2.959679
760.000000	2.949916
761.000000	2.989152
762.000000	2.998359
763.000000	3.098858
764.000000	3.211110
765.000000	3.157434
766.000000	3.199934
767.000000	3.283701
768.000000	3.420709
769.000000	3.301203
770.000000	3.373873
771.000000	3.335474
772.000000	3.353157
773.000000	3.338844
774.000000	3.298237
775.000000	3.400020
776.000000	3.286699
777.000000	3.282730
778.000000	3.335895
779.000000	3.306657
780.000000	3.322050
781.000000	3.221789
782.000000	3.297897
783.000000	3.124680
784.000000	3.177582
785.000000	3.216596
786.000000	3.168024
787.000000	3.133310
788.000000	3.132514
789.000000	3.252059
790.000000	3.235788
791.000000	3.109057
792.000000	3.295650
793.000000	3.332223
794.000000	3.485548
795.000000	3.391137
796.000000	3.520950
797.000000	3.522942
798.000000	3.511758
799.000000	3.528767
800.000000	3.536654
801.000000	3.655762
802.000000	3.628542
803.000000	3.806638
804.000000	3.795243
805.000000	3.825686
806.000000	3.830094
807.000000	3.757052
808.000000	3.795663
809.000000	3.683631
810.000000	3.808224
811.000000	3.818294
812.000000	3.863729
813.000000	3.883558
814.000000	3.740424
815.000000	3.516637
816.000000	3.681737
817.000000	3.784557
818.000000	3.568072
819.000000	3.501013
820.000000	3.462547
821.000000	3.466296
822.000000	3.438496
823.000000	3.318331
824.000000	3.165001
825.000000	3.203242
826.000000	3.014861
827.000000	3.049365
828.000000	2.832245
829.000000	2.819372
830.000000	2.712999
831.000000	2.667519
832.000000	2.681717
833.000000	2.639490
834.000000	2.251660
835.000000	2.287486
836.000000	1.986752
837.000000	2.135341
838.000000	2.111215
839.000000	1.890050
840.000000	1.965421
841.000000	1.414244
842.000000	1.697701
843.000000	1.637675
844.000000	1.518249
845.000000	1.533590
846.000000	1.510374
847.000000	1.572679
848.000000	1.457368
849.000000	1.585183
850.000000	1.565946
851.000000	1.827707
852.000000	1.715986
853.000000	1.732781
854.000000	1.566525
855.000000	1.757147
856.000000	1.611708
857.000000	1.455031
858.000000	1.599907
859.000000	1.612471
860.000000	1.608721
861.000000	1.619668
862.000000	1.619323
863.000000	1.612664
864.000000	1.620038
865.000000	1.625079
866.000000	1.641472
867.000000	1.648307
868.000000	1.633569
869.000000	1.532569
870.000000	1.417698
871.000000	1.359223
872.000000	1.380362
873.000000	1.407241
874.000000	1.455057
875.000000	1.493586
876.000000	1.550750
877.000000	1.582371
878.000000	1.613658
879.000000	1.641918
880.000000	1.670255
881.000000	1.705702
882.000000	1.726256
883.000000	1.759820
884.000000	1.783563
885.000000	1.799257
886.000000	1.827590
887.000000	1.882626
888.000000	1.913739
889.000000	1.930880
890.000000	1.966411
891.000000	1.999479
892.000000	2.013803
893.000000	2.043171
894.000000	2.069667
895.000000	2.095731
896.000000	2.108828
897.000000	2.120442
898.000000	2.128908
899.000000	2.139582
900.000000	2.157281
901.000000	2.163521
902.000000	2.172211
903.000000	2.189481
904.000000	2.192959
905.000000	2.199652
906.000000	2.212298
907.000000	2.223245
908.000000	2.216136
909.000000	2.216077
910.000000	2.221815
911.000000	2.227548
912.000000	2.240458
913.000000	2.247150
914.000000	2.235759
915.000000	2.246935
916.000000	2.254947
917.000000	2.254300
918.000000	2.243222
919.000000	2.242502
920.000000	2.241384
921.000000	2.239946
922.000000	2.223277
923.000000	2.221478
924.000000	2.232586
925.000000	2.216605
926.000000	2.208489
927.000000	2.194935
928.000000	2.185375
929.000000	2.185446
930.000000	2.182206
931.000000	2.180112
932.000000	2.181868
933.000000	2.172267
934.000000	2.176578
935.000000	2.184850
936.000000	2.192262
937.000000	2.198517
938.000000	2.195704
939.000000	2.202765
940.000000	2.214993
941.000000	2.226209
942.000000	2.223270
943.000000	2.223101
944.000000	2.242036
945.000000	2.242294
946.000000	2.231098
947.000000	2.234502
948.000000	2.235514
949.000000	2.236456
950.000000	2.232422
951.000000	2.223138
952.000000	2.216650
953.000000	2.211137
954.000000	2.216180
955.000000	2.209316
956.000000	2.202666
957.000000	2.205106
958.000000	2.197651
959.000000	2.186226
960.000000	2.182064
961.000000	2.185949
962.000000	2.182391
963.000000	2.168037
964.000000	2.160554
965.000000	2.162849
966.000000	2.154153
967.000000	2.142692
968.000000	2.124737
969.000000	2.121625
970.000000	2.114552
971.000000	2.102675
972.000000	2.088786
973.000000	2.089959
974.000000	2.084806
975.000000	2.084179
976.000000	2.078745
977.000000	2.074196
978.000000	2.091983
979.000000	2.107856
980.000000	2.099008
981.000000	2.101606
982.000000	2.117607
983.000000	2.133059
984.000000	2.139500
985.000000	2.141925
986.000000	2.156397
987.000000	2.173379
988.000000	2.176423
989.000000	2.190825
990.000000	2.203003
991.000000	2.197082
992.000000	2.201282
993.000000	2.217232
994.000000	2.227167
995.000000	2.213249
996.000000	2.212175
997.000000	2.219959
998.000000	2.216788
999.000000	2.225114
1000.000000	2.219412
1001.000000	2.218027
1002.000000	2.215909
1003.000000	2.219641
1004.000000	2.215086
1005.000000	2.206651
1006.000000	2.197266
1007.000000	2.196780
1008.000000	2.195818
1009.000000	2.184290
1010.000000	2.173831
1011.000000	2.167787
1012.000000	2.169848
1013.000000	2.163940
1014.000000	2.158234
1015.000000	2.153748
1016.000000	2.149792
1017.000000	2.155559
1018.000000	2.164116
1019.000000	2.167083
1020.000000	2.167403
1021.000000	2.174315
1022.000000	2.174605
1023.000000	2.185338
1024.000000	2.202299
1025.000000	2.205882
1026.000000	2.207696
1027.000000	2.230349
1028.000000	2.236025
1029.000000	2.240169
1030.000000	2.265152
1031.000000	2.259997
1032.000000	2.273498
1033.000000	2.289849
1034.000000	2.301615
1035.000000	2.300213
1036.000000	2.304744
1037.000000	2.310221
1038.000000	2.328886
1039.000000	2.332681
1040.000000	2.340811
1041.000000	2.345158
1042.000000	2.363100
1043.000000	2.366451
1044.000000	2.355570
1045.000000	2.385486
1046.000000	2.388886
1047.000000	2.386829
1048.000000	2.385338
1049.000000	2.390905
1050.000000	2.390383
1051.000000	2.391184
1052.000000	2.390118
1053.000000	2.402645
1054.000000	2.413006
1055.000000	2.407952
1056.000000	2.409942
1057.000000	2.409970
1058.000000	2.410060
1059.000000	2.416321
1060.000000	2.408633
1061.000000	2.414776
1062.000000	2.419117
1063.000000	2.424170
1064.000000	2.425695
1065.000000	2.425473
1066.000000	2.433859
1067.000000	2.428255
1068.000000	2.419424
1069.000000	2.434594
1070.000000	2.431967
1071.000000	2.424944
1072.000000	2.422450
1073.000000	2.434253
1074.000000	2.439026
1075.000000	2.451469
1076.000000	2.435292
1077.000000	2.441326
1078.000000	2.439436
1079.000000	2.448997
1080.000000	2.437994
1081.000000	2.444947
1082.000000	2.459772
1083.000000	2.457711
1084.000000	2.462436
1085.000000	2.457395
1086.000000	2.464505
1087.000000	2.459260
1088.000000	2.476016
1089.000000	2.474303
1090.000000	2.459916
1091.000000	2.459062
1092.000000	2.475052
1093.000000	2.473979
1094.000000	2.467030
1095.000000	2.474630
1096.000000	2.464721
1097.000000	2.479030
1098.000000	2.463099
1099.000000	2.472920
1100.000000	2.462997
1101.000000	2.464162
1102.000000	2.469495
1103.000000	2.465168
1104.000000	2.460230
1105.000000	2.465611
1106.000000	2.454409
1107.000000	2.469428
1108.000000	2.455022
1109.000000	2.458552
1110.000000	2.460752
1111.000000	2.455762
1112.000000	2.454533
1113.000000	2.454505
1114.000000	2.443056
1115.000000	2.438960
1116.000000	2.439235
1117.000000	2.435223
1118.000000	2.434404
1119.000000	2.425287
1120.000000	2.422227
1121.000000	2.416084
1122.000000	2.410223
1123.000000	2.406591
1124.000000	2.401969
1125.000000	2.396834
1126.000000	2.376104
1127.000000	2.376661
1128.000000	2.351265
1129.000000	2.347431
1130.000000	2.333220
1131.000000	2.311185
1132.000000	2.290188
1133.000000	2.280857
1134.000000	2.270690
1135.000000	2.258733
1136.000000	2.254009
1137.000000	2.243558
1138.000000	2.232390
1139.000000	2.226636
1140.000000	2.229197
1141.000000	2.234991
1142.000000	2.237766
1143.000000	2.239485
1144.000000	2.235186
1145.000000	2.234667
1146.000000	2.242623
1147.000000	2.244852
1148.000000	2.239718
1149.000000	2.239521
1150.000000	2.238750
1151.000000	2.241474
1152.000000	2.229703
1153.000000	2.222622
1154.000000	2.210367
1155.000000	2.207926
1156.000000	2.214399
1157.000000	2.220201
1158.000000	2.205439
1159.000000	2.203107
1160.000000	2.220844
1161.000000	2.224283
1162.000000	2.220547
1163.000000	2.216304
1164.000000	2.232467
1165.000000	2.244758
1166.000000	2.256773
1167.000000	2.249453
1168.000000	2.256039
1169.000000	2.263847
1170.000000	2.285343
1171.000000	2.295627
1172.000000	2.318712
1173.000000	2.332928
1174.000000	2.339064
1175.000000	2.356795
1176.000000	2.371022
1177.000000	2.394628
1178.000000	2.416189
1179.000000	2.435152
1180.000000	2.464113
1181.000000	2.496863
1182.000000	2.539276
1183.000000	2.562894
1184.000000	2.572055
1185.000000	2.585861
1186.000000	2.603259
1187.000000	2.596749
1188.000000	2.584502
1189.000000	2.570336
1190.000000	2.545646
1191.000000	2.523303
1192.000000	2.495428
1193.000000	2.471493
1194.000000	2.457487
1195.000000	2.445557
1196.000000	2.444302
1197.000000	2.430010
1198.000000	2.420760
1199.000000	2.421145
1200.000000	2.430310
1201.000000	2.426559
1202.000000	2.437283
1203.000000	2.440557
