PE UV       SUBTECH     SPECTRUM    ASCII       PEDS        4.00        
   -1
CICIMAUCR0257-3.Sample.ASC
24/07/01
10:08:09.00
24/07/01
10:08:09.00
Vinicio Soto Monge
C. resplendens. Sex F. Dorsal.
250,000000
1
Lambda 1050
1050L1511233
PerkinElmer UV WinLab 6.3.2.0749 / 2.02.05 Lambda 900 UV/VIS/NIR, Aug  7 2015 09:38:08

0
0
3350/servo 860,8/2
0
0
UV/VIS
1
1
1
DoubleDePol,CommonBeamDepol,RBeamAtt,SBeamAtt,60mm sphere, WB InGaAs Detector
0
0
0
0
Program
Program
3350/servo 860,8/2
3350/0,2 860,8/0,2
3350/0,2 860,8/0,2
0
15.00
 
 
 
0
 
860,8
319,2
860,8
Front
100
on
S:100 R:100
0
0
0
0
 
0
 
 
 
0
 
 
0
0
0
0
0
 
 
 
 
0
0


0
0
#HDR
-1
-1
#GR
nm
%R
1.0
0.0
2500,000000
-1,000000
2251
8
90,810900
5,926100
#DATA
250.000000	0.095216
251.000000	0.063983
252.000000	0.073165
253.000000	0.093547
254.000000	0.100634
255.000000	0.088326
256.000000	0.112007
257.000000	0.080603
258.000000	0.075633
259.000000	0.095782
260.000000	0.075896
261.000000	0.083663
262.000000	0.075558
263.000000	0.069107
264.000000	0.065844
265.000000	0.077245
266.000000	0.078996
267.000000	0.055707
268.000000	0.081838
269.000000	0.088024
270.000000	0.095560
271.000000	0.078212
272.000000	0.077467
273.000000	0.067856
274.000000	0.040993
275.000000	0.029183
276.000000	0.045159
277.000000	0.075569
278.000000	0.065351
279.000000	0.063456
280.000000	0.069691
281.000000	0.080957
282.000000	0.064710
283.000000	0.073864
284.000000	0.070145
285.000000	0.056968
286.000000	0.072117
287.000000	0.041773
288.000000	0.041457
289.000000	0.051808
290.000000	0.056073
291.000000	0.063455
292.000000	0.077951
293.000000	0.052711
294.000000	0.072142
295.000000	0.097664
296.000000	0.075985
297.000000	0.072522
298.000000	0.053963
299.000000	0.070731
300.000000	0.092514
301.000000	0.105253
302.000000	0.114880
303.000000	0.069042
304.000000	0.094270
305.000000	0.118733
306.000000	0.134721
307.000000	0.129224
308.000000	0.126836
309.000000	0.120570
310.000000	0.105194
311.000000	0.099179
312.000000	0.107861
313.000000	0.131367
314.000000	0.139296
315.000000	0.108055
316.000000	0.278507
317.000000	0.537937
318.000000	0.475409
319.000000	0.379452
320.000000	0.464936
321.000000	0.347752
322.000000	0.127330
323.000000	0.217708
324.000000	0.079914
325.000000	0.119098
326.000000	0.194108
327.000000	0.269060
328.000000	0.171150
329.000000	0.045251
330.000000	0.151415
331.000000	0.090997
332.000000	0.200627
333.000000	0.123862
334.000000	0.186430
335.000000	0.153085
336.000000	0.166437
337.000000	0.059179
338.000000	0.118246
339.000000	0.133020
340.000000	0.112567
341.000000	0.294432
342.000000	0.355863
343.000000	0.293792
344.000000	0.121422
345.000000	0.164310
346.000000	0.199688
347.000000	0.029345
348.000000	0.062197
349.000000	0.140861
350.000000	0.201454
351.000000	0.156905
352.000000	0.089520
353.000000	0.052550
354.000000	0.140141
355.000000	0.185521
356.000000	0.169976
357.000000	0.128324
358.000000	0.110415
359.000000	0.107350
360.000000	0.104179
361.000000	0.096042
362.000000	0.148793
363.000000	0.188611
364.000000	0.175525
365.000000	0.188929
366.000000	0.228615
367.000000	0.241780
368.000000	0.101545
369.000000	0.011158
370.000000	0.187882
371.000000	0.328075
372.000000	0.301624
373.000000	0.353668
374.000000	0.316608
375.000000	0.231922
376.000000	0.147710
377.000000	0.107565
378.000000	0.112805
379.000000	0.085666
380.000000	0.087348
381.000000	0.090407
382.000000	0.099350
383.000000	0.096539
384.000000	0.103682
385.000000	0.123021
386.000000	0.124851
387.000000	0.155809
388.000000	0.213414
389.000000	0.245754
390.000000	0.281004
391.000000	0.315724
392.000000	0.365647
393.000000	0.419592
394.000000	0.481710
395.000000	0.530753
396.000000	0.569075
397.000000	0.630407
398.000000	0.678202
399.000000	0.744077
400.000000	0.785429
401.000000	0.814761
402.000000	0.883814
403.000000	0.917316
404.000000	0.964590
405.000000	0.994001
406.000000	1.027742
407.000000	1.031543
408.000000	1.034917
409.000000	1.038448
410.000000	1.030253
411.000000	1.038732
412.000000	1.001138
413.000000	0.976137
414.000000	0.946095
415.000000	0.906137
416.000000	0.887818
417.000000	0.834310
418.000000	0.783804
419.000000	0.728981
420.000000	0.708472
421.000000	0.649238
422.000000	0.583025
423.000000	0.551919
424.000000	0.507963
425.000000	0.467830
426.000000	0.447445
427.000000	0.407604
428.000000	0.387458
429.000000	0.376983
430.000000	0.340523
431.000000	0.336193
432.000000	0.357756
433.000000	0.357153
434.000000	0.351166
435.000000	0.374512
436.000000	0.371906
437.000000	0.373922
438.000000	0.396317
439.000000	0.405911
440.000000	0.409953
441.000000	0.444987
442.000000	0.442755
443.000000	0.455149
444.000000	0.477234
445.000000	0.514601
446.000000	0.484011
447.000000	0.510686
448.000000	0.567925
449.000000	0.585837
450.000000	0.620057
451.000000	0.656976
452.000000	0.668657
453.000000	0.721557
454.000000	0.763603
455.000000	0.773383
456.000000	0.810280
457.000000	0.876901
458.000000	0.899560
459.000000	0.909405
460.000000	0.971033
461.000000	0.972762
462.000000	0.972863
463.000000	0.958416
464.000000	0.912411
465.000000	0.879464
466.000000	0.836462
467.000000	0.760282
468.000000	0.683202
469.000000	0.558325
470.000000	0.429294
471.000000	0.280699
472.000000	0.137057
473.000000	0.091821
474.000000	0.265252
475.000000	0.461509
476.000000	0.629601
477.000000	0.832036
478.000000	1.034933
479.000000	1.187778
480.000000	1.360153
481.000000	1.504484
482.000000	1.663419
483.000000	1.715968
484.000000	1.823664
485.000000	1.887277
486.000000	1.911208
487.000000	1.911839
488.000000	1.901337
489.000000	1.862739
490.000000	1.826298
491.000000	1.766179
492.000000	1.699550
493.000000	1.637110
494.000000	1.604451
495.000000	1.542066
496.000000	1.525643
497.000000	1.497234
498.000000	1.525458
499.000000	1.578070
500.000000	1.615550
501.000000	1.663974
502.000000	1.726873
503.000000	1.832250
504.000000	1.967008
505.000000	2.079915
506.000000	2.219829
507.000000	2.373504
508.000000	2.524349
509.000000	2.683597
510.000000	2.876627
511.000000	3.027667
512.000000	3.160814
513.000000	3.306805
514.000000	3.424543
515.000000	3.510048
516.000000	3.619539
517.000000	3.662599
518.000000	3.734216
519.000000	3.750800
520.000000	3.758087
521.000000	3.717915
522.000000	3.647081
523.000000	3.549455
524.000000	3.450033
525.000000	3.332764
526.000000	3.197825
527.000000	3.039653
528.000000	2.883321
529.000000	2.725413
530.000000	2.557148
531.000000	2.408064
532.000000	2.250870
533.000000	2.104896
534.000000	1.974554
535.000000	1.868092
536.000000	1.755077
537.000000	1.647594
538.000000	1.561530
539.000000	1.502452
540.000000	1.418979
541.000000	1.331171
542.000000	1.284946
543.000000	1.205396
544.000000	1.140268
545.000000	1.104178
546.000000	1.030970
547.000000	0.992977
548.000000	0.930989
549.000000	0.898830
550.000000	0.902340
551.000000	0.869300
552.000000	0.843803
553.000000	0.843241
554.000000	0.845350
555.000000	0.814474
556.000000	0.792611
557.000000	0.772285
558.000000	0.765039
559.000000	0.724767
560.000000	0.675236
561.000000	0.608800
562.000000	0.558285
563.000000	0.523221
564.000000	0.475876
565.000000	0.432274
566.000000	0.406950
567.000000	0.360933
568.000000	0.290153
569.000000	0.263380
570.000000	0.250199
571.000000	0.228129
572.000000	0.207554
573.000000	0.196394
574.000000	0.161195
575.000000	0.173092
576.000000	0.166038
577.000000	0.140009
578.000000	0.175898
579.000000	0.193847
580.000000	0.226539
581.000000	0.211538
582.000000	0.229144
583.000000	0.288657
584.000000	0.298665
585.000000	0.326152
586.000000	0.361979
587.000000	0.410841
588.000000	0.434203
589.000000	0.489808
590.000000	0.523175
591.000000	0.569887
592.000000	0.624702
593.000000	0.689121
594.000000	0.765434
595.000000	0.827849
596.000000	0.914419
597.000000	1.004634
598.000000	1.094603
599.000000	1.158735
600.000000	1.255139
601.000000	1.366649
602.000000	1.483005
603.000000	1.562339
604.000000	1.659217
605.000000	1.752316
606.000000	1.818971
607.000000	1.883131
608.000000	1.960474
609.000000	2.040676
610.000000	2.102060
611.000000	2.165416
612.000000	2.263358
613.000000	2.374034
614.000000	2.499599
615.000000	2.609640
616.000000	2.719163
617.000000	2.842192
618.000000	2.950212
619.000000	3.009778
620.000000	3.079955
621.000000	3.130059
622.000000	3.176671
623.000000	3.163011
624.000000	3.082213
625.000000	3.017191
626.000000	2.969198
627.000000	2.890719
628.000000	2.790188
629.000000	2.690318
630.000000	2.551753
631.000000	2.406945
632.000000	2.268113
633.000000	2.116148
634.000000	1.975666
635.000000	1.825753
636.000000	1.671083
637.000000	1.519384
638.000000	1.364430
639.000000	1.239442
640.000000	1.151440
641.000000	1.114310
642.000000	1.194681
643.000000	1.358095
644.000000	1.598557
645.000000	1.853406
646.000000	2.133141
647.000000	2.429293
648.000000	2.681522
649.000000	2.954611
650.000000	3.202913
651.000000	3.394051
652.000000	3.594415
653.000000	3.828980
654.000000	4.007750
655.000000	4.119070
656.000000	4.233950
657.000000	4.358827
658.000000	4.454625
659.000000	4.521910
660.000000	4.581056
661.000000	4.642646
662.000000	4.660677
663.000000	4.631689
664.000000	4.586294
665.000000	4.561000
666.000000	4.509820
667.000000	4.435685
668.000000	4.353499
669.000000	4.246406
670.000000	4.160381
671.000000	4.055675
672.000000	3.957693
673.000000	3.850780
674.000000	3.737902
675.000000	3.603112
676.000000	3.514495
677.000000	3.404146
678.000000	3.295056
679.000000	3.157744
680.000000	3.046505
681.000000	2.981792
682.000000	2.883633
683.000000	2.755171
684.000000	2.712446
685.000000	2.631383
686.000000	2.525716
687.000000	2.423003
688.000000	2.329519
689.000000	2.259896
690.000000	2.158439
691.000000	2.036447
692.000000	1.942604
693.000000	1.920498
694.000000	1.890442
695.000000	1.784073
696.000000	1.708981
697.000000	1.660651
698.000000	1.591786
699.000000	1.587054
700.000000	1.571239
701.000000	1.539816
702.000000	1.518993
703.000000	1.437728
704.000000	1.415233
705.000000	1.337787
706.000000	1.320800
707.000000	1.351777
708.000000	1.407808
709.000000	1.350375
710.000000	1.264808
711.000000	1.281402
712.000000	1.252234
713.000000	1.194047
714.000000	1.243487
715.000000	1.283570
716.000000	1.319772
717.000000	1.368028
718.000000	1.422691
719.000000	1.449295
720.000000	1.571664
721.000000	1.603853
722.000000	1.596407
723.000000	1.695414
724.000000	1.742489
725.000000	1.873142
726.000000	1.847040
727.000000	1.894398
728.000000	1.891058
729.000000	1.996879
730.000000	2.023385
731.000000	2.020980
732.000000	2.019112
733.000000	2.020380
734.000000	1.993231
735.000000	2.008781
736.000000	1.992583
737.000000	1.990536
738.000000	1.926288
739.000000	1.901946
740.000000	1.876791
741.000000	1.842947
742.000000	1.733655
743.000000	1.662756
744.000000	1.485424
745.000000	1.521560
746.000000	1.469369
747.000000	1.436127
748.000000	1.377657
749.000000	1.275909
750.000000	1.185967
751.000000	1.049159
752.000000	1.090603
753.000000	1.019765
754.000000	0.989590
755.000000	1.098889
756.000000	0.946026
757.000000	0.846588
758.000000	0.854277
759.000000	0.796493
760.000000	0.804207
761.000000	0.710808
762.000000	0.679550
763.000000	0.676758
764.000000	0.750088
765.000000	0.670165
766.000000	0.728158
767.000000	0.759361
768.000000	0.755912
769.000000	0.779656
770.000000	0.832105
771.000000	0.914732
772.000000	1.018856
773.000000	1.099450
774.000000	1.140143
775.000000	1.113359
776.000000	1.301836
777.000000	1.423587
778.000000	1.434515
779.000000	1.382596
780.000000	1.654094
781.000000	1.492495
782.000000	1.606210
783.000000	1.748109
784.000000	1.710462
785.000000	1.765239
786.000000	1.841142
787.000000	1.809212
788.000000	1.946772
789.000000	1.961019
790.000000	1.897315
791.000000	1.946599
792.000000	2.036314
793.000000	1.987705
794.000000	1.868268
795.000000	1.910645
796.000000	1.934217
797.000000	1.927461
798.000000	2.048377
799.000000	1.908700
800.000000	1.718522
801.000000	1.680887
802.000000	1.690320
803.000000	1.705795
804.000000	1.500163
805.000000	1.603361
806.000000	1.567260
807.000000	1.507256
808.000000	1.523779
809.000000	1.482287
810.000000	1.376244
811.000000	1.470909
812.000000	1.398489
813.000000	1.367755
814.000000	1.357820
815.000000	1.449035
816.000000	1.322037
817.000000	1.377588
818.000000	1.425590
819.000000	1.551455
820.000000	1.786467
821.000000	1.567739
822.000000	1.744915
823.000000	1.791128
824.000000	1.934856
825.000000	2.068753
826.000000	2.053035
827.000000	2.085991
828.000000	2.180298
829.000000	2.191493
830.000000	2.330010
831.000000	2.463209
832.000000	2.440419
833.000000	2.504408
834.000000	2.729341
835.000000	2.617018
836.000000	2.827104
837.000000	2.644515
838.000000	2.411785
839.000000	2.493689
840.000000	2.554402
841.000000	2.389586
842.000000	2.609792
843.000000	2.683023
844.000000	2.598552
845.000000	2.775466
846.000000	2.675732
847.000000	2.349716
848.000000	2.414760
849.000000	2.298076
850.000000	2.166523
851.000000	2.086736
852.000000	2.174289
853.000000	2.358562
854.000000	2.350991
855.000000	2.287368
856.000000	2.003695
857.000000	1.997212
858.000000	2.087457
859.000000	2.060782
860.000000	2.038373
861.000000	2.011475
862.000000	2.011346
863.000000	1.994908
864.000000	1.966730
865.000000	1.950158
866.000000	1.930761
867.000000	1.910032
868.000000	1.861621
869.000000	1.852803
870.000000	1.871787
871.000000	1.836660
872.000000	1.812001
873.000000	1.740760
874.000000	1.644950
875.000000	1.550303
876.000000	1.469031
877.000000	1.402262
878.000000	1.331471
879.000000	1.292388
880.000000	1.248932
881.000000	1.213082
882.000000	1.204841
883.000000	1.170540
884.000000	1.151271
885.000000	1.131183
886.000000	1.127593
887.000000	1.102613
888.000000	1.094320
889.000000	1.083745
890.000000	1.078749
891.000000	1.075231
892.000000	1.082954
893.000000	1.078704
894.000000	1.089297
895.000000	1.095407
896.000000	1.093118
897.000000	1.090807
898.000000	1.085669
899.000000	1.080624
900.000000	1.083280
901.000000	1.097064
902.000000	1.103811
903.000000	1.100876
904.000000	1.100554
905.000000	1.101727
906.000000	1.102298
907.000000	1.104621
908.000000	1.094226
909.000000	1.090021
910.000000	1.080832
911.000000	1.067108
912.000000	1.063749
913.000000	1.055107
914.000000	1.060325
915.000000	1.055707
916.000000	1.039566
917.000000	1.031886
918.000000	1.031575
919.000000	1.033211
920.000000	1.030611
921.000000	1.045993
922.000000	1.064097
923.000000	1.083978
924.000000	1.100399
925.000000	1.109661
926.000000	1.128893
927.000000	1.150717
928.000000	1.177047
929.000000	1.194899
930.000000	1.207884
931.000000	1.232758
932.000000	1.251734
933.000000	1.271018
934.000000	1.284025
935.000000	1.283257
936.000000	1.294226
937.000000	1.311838
938.000000	1.324016
939.000000	1.331455
940.000000	1.337987
941.000000	1.346014
942.000000	1.351722
943.000000	1.353920
944.000000	1.360366
945.000000	1.383987
946.000000	1.387237
947.000000	1.388806
948.000000	1.399694
949.000000	1.406355
950.000000	1.415175
951.000000	1.422723
952.000000	1.427966
953.000000	1.428982
954.000000	1.436343
955.000000	1.451209
956.000000	1.450572
957.000000	1.460713
958.000000	1.472314
959.000000	1.480034
960.000000	1.503198
961.000000	1.514351
962.000000	1.528420
963.000000	1.552790
964.000000	1.566409
965.000000	1.586729
966.000000	1.611817
967.000000	1.627704
968.000000	1.642054
969.000000	1.663413
970.000000	1.685338
971.000000	1.706903
972.000000	1.725275
973.000000	1.747995
974.000000	1.777619
975.000000	1.805669
976.000000	1.822732
977.000000	1.843915
978.000000	1.862608
979.000000	1.877798
980.000000	1.905765
981.000000	1.926482
982.000000	1.945506
983.000000	1.965528
984.000000	1.981263
985.000000	1.999931
986.000000	2.017773
987.000000	2.026729
988.000000	2.034806
989.000000	2.051825
990.000000	2.063347
991.000000	2.069694
992.000000	2.077400
993.000000	2.086353
994.000000	2.101650
995.000000	2.111265
996.000000	2.105458
997.000000	2.111033
998.000000	2.114757
999.000000	2.116145
1000.000000	2.113902
1001.000000	2.108521
1002.000000	2.113901
1003.000000	2.112502
1004.000000	2.113652
1005.000000	2.110876
1006.000000	2.112722
1007.000000	2.105319
1008.000000	2.104193
1009.000000	2.099435
1010.000000	2.083913
1011.000000	2.077664
1012.000000	2.086442
1013.000000	2.081310
1014.000000	2.071936
1015.000000	2.078081
1016.000000	2.077168
1017.000000	2.064533
1018.000000	2.075581
1019.000000	2.072270
1020.000000	2.070150
1021.000000	2.069264
1022.000000	2.063709
1023.000000	2.061568
1024.000000	2.063527
1025.000000	2.069864
1026.000000	2.071198
1027.000000	2.076014
1028.000000	2.090548
1029.000000	2.088291
1030.000000	2.088481
1031.000000	2.093291
1032.000000	2.096554
1033.000000	2.104975
1034.000000	2.115537
1035.000000	2.114298
1036.000000	2.119373
1037.000000	2.124042
1038.000000	2.143194
1039.000000	2.146970
1040.000000	2.155430
1041.000000	2.165397
1042.000000	2.174868
1043.000000	2.186191
1044.000000	2.194683
1045.000000	2.206380
1046.000000	2.219905
1047.000000	2.217687
1048.000000	2.235381
1049.000000	2.242650
1050.000000	2.247129
1051.000000	2.259054
1052.000000	2.265149
1053.000000	2.282420
1054.000000	2.290618
1055.000000	2.305192
1056.000000	2.329535
1057.000000	2.326317
1058.000000	2.343963
1059.000000	2.350196
1060.000000	2.352865
1061.000000	2.357098
1062.000000	2.378886
1063.000000	2.374041
1064.000000	2.389538
1065.000000	2.382039
1066.000000	2.381982
1067.000000	2.385980
1068.000000	2.393117
1069.000000	2.407182
1070.000000	2.395036
1071.000000	2.395369
1072.000000	2.388445
1073.000000	2.400298
1074.000000	2.377539
1075.000000	2.394607
1076.000000	2.365874
1077.000000	2.373431
1078.000000	2.373366
1079.000000	2.363973
1080.000000	2.363595
1081.000000	2.342366
1082.000000	2.352308
1083.000000	2.350491
1084.000000	2.337400
1085.000000	2.331007
1086.000000	2.317141
1087.000000	2.319454
1088.000000	2.324720
1089.000000	2.321648
1090.000000	2.305338
1091.000000	2.306618
1092.000000	2.299461
1093.000000	2.295983
1094.000000	2.294993
1095.000000	2.284407
1096.000000	2.287085
1097.000000	2.278289
1098.000000	2.285914
1099.000000	2.278606
1100.000000	2.277491
1101.000000	2.275306
1102.000000	2.283515
1103.000000	2.278930
1104.000000	2.292499
1105.000000	2.288654
1106.000000	2.297896
1107.000000	2.303443
1108.000000	2.317934
1109.000000	2.315766
1110.000000	2.321418
1111.000000	2.328256
1112.000000	2.345250
1113.000000	2.341431
1114.000000	2.340240
1115.000000	2.360617
1116.000000	2.355792
1117.000000	2.352441
1118.000000	2.374771
1119.000000	2.389282
1120.000000	2.392368
1121.000000	2.399347
1122.000000	2.410524
1123.000000	2.406186
1124.000000	2.415441
1125.000000	2.418835
1126.000000	2.425074
1127.000000	2.422915
1128.000000	2.433785
1129.000000	2.442493
1130.000000	2.430832
1131.000000	2.433348
1132.000000	2.438068
1133.000000	2.429023
1134.000000	2.439935
1135.000000	2.439133
1136.000000	2.445054
1137.000000	2.438310
1138.000000	2.441516
1139.000000	2.439958
1140.000000	2.427119
1141.000000	2.432646
1142.000000	2.438774
1143.000000	2.442314
1144.000000	2.423290
1145.000000	2.411313
1146.000000	2.401366
1147.000000	2.389593
1148.000000	2.376036
1149.000000	2.350569
1150.000000	2.338692
1151.000000	2.345235
1152.000000	2.340368
1153.000000	2.340599
1154.000000	2.342727
1155.000000	2.345366
1156.000000	2.349691
1157.000000	2.348565
1158.000000	2.356940
1159.000000	2.360757
1160.000000	2.372955
1161.000000	2.385996
1162.000000	2.389136
1163.000000	2.393772
1164.000000	2.411627
1165.000000	2.420080
1166.000000	2.428291
1167.000000	2.436551
1168.000000	2.443271
1169.000000	2.461906
1170.000000	2.476287
1171.000000	2.483933
1172.000000	2.492912
1173.000000	2.514143
1174.000000	2.533943
1175.000000	2.553495
1176.000000	2.571172
1177.000000	2.594853
1178.000000	2.627312
1179.000000	2.662757
1180.000000	2.710571
1181.000000	2.732851
1182.000000	2.738277
1183.000000	2.740796
1184.000000	2.733603
1185.000000	2.714939
1186.000000	2.688191
1187.000000	2.668126
1188.000000	2.643558
1189.000000	2.607025
1190.000000	2.568197
1191.000000	2.540085
1192.000000	2.525094
1193.000000	2.509068
1194.000000	2.508113
1195.000000	2.504550
1196.000000	2.496000
1197.000000	2.497166
1198.000000	2.507335
1199.000000	2.510805
1200.000000	2.508739
1201.000000	2.512684
1202.000000	2.510798
