PE UV       SUBTECH     SPECTRUM    ASCII       PEDS        4.00        
   -1
CICIMAUCR0101-1.ASC
24/04/03
16:31:32.00
24/04/03
16:31:32.00
Vinicio Soto Monge
C. resplendens
250,000000
1
Lambda 1050
1050L1511233
PerkinElmer UV WinLab 6.3.2.0749 / 2.02.05 Lambda 900 UV/VIS/NIR, Aug  7 2015 09:38:08

0
0
3350/servo 860,8/2
0
0
UV/VIS
1
1
1
DoubleDePol,CommonBeamDepol,RBeamAtt,SBeamAtt,60mm sphere, WB InGaAs Detector
0
0
0
0
Program
Program
3350/servo 860,8/2
3350/0,2 860,8/0,2
3350/0,2 860,8/0,2
0
15.00
 
 
 
0
 
860,8
319,2
860,8
Front
100
on
S:100 R:100
0
0
0
0
 
0
 
 
 
0
 
 
0
0
0
0
0
 
 
 
 
0
0


0
0
#HDR
-1
-1
#GR
nm
%R
1.0
0.0
2500,000000
-1,000000
2251
8
72,895300
3,379900
#DATA
2482.000000	3.664169
2481.000000	3.619143
2480.000000	3.697432
2479.000000	3.682423
2478.000000	3.703415
2477.000000	3.636079
2476.000000	3.624822
2475.000000	3.688711
2474.000000	3.648654
2473.000000	3.666299
2472.000000	3.666400
2471.000000	3.671572
2470.000000	3.673398
2469.000000	3.625735
2468.000000	3.646118
2467.000000	3.640439
2466.000000	3.662648
2465.000000	3.654738
2464.000000	3.650885
2463.000000	3.685770
2462.000000	3.699359
2461.000000	3.701286
2460.000000	3.693883
2459.000000	3.706559
2458.000000	3.700880
2457.000000	3.687494
2456.000000	3.719134
2455.000000	3.708486
2454.000000	3.738199
2453.000000	3.745197
2452.000000	3.758988
2451.000000	3.737996
2450.000000	3.759698
2449.000000	3.773186
2448.000000	3.779676
2447.000000	3.790527
2446.000000	3.790121
2445.000000	3.801885
2444.000000	3.814663
2443.000000	3.827745
2442.000000	3.825514
2441.000000	3.839914
2440.000000	3.847418
2439.000000	3.847216
2438.000000	3.861819
2437.000000	3.887577
2436.000000	3.879667
2435.000000	3.888591
2434.000000	3.907859
2433.000000	3.915769
2432.000000	3.928446
2431.000000	3.956232
2430.000000	3.951263
2429.000000	3.945178
2428.000000	3.967387
2427.000000	3.980368
2426.000000	3.982599
2425.000000	3.996695
2424.000000	4.006532
2423.000000	4.006329
2422.000000	4.011907
2421.000000	4.033507
2420.000000	4.051558
2419.000000	4.063727
2418.000000	4.059164
2417.000000	4.083705
2416.000000	4.081677
2415.000000	4.088167
2414.000000	4.088066
2413.000000	4.103176
2412.000000	4.121126
2411.000000	4.137960
2410.000000	4.146478
2409.000000	4.157735
2408.000000	4.145464
2407.000000	4.133498
2406.000000	4.167470
2405.000000	4.181871
2404.000000	4.184507
2403.000000	4.202660
2402.000000	4.217060
2401.000000	4.214322
2400.000000	4.233996
2399.000000	4.230649
2398.000000	4.229230
2397.000000	4.243630
2396.000000	4.259146
2395.000000	4.270402
2394.000000	4.285918
2393.000000	4.280848
2392.000000	4.282774
2391.000000	4.287541
2390.000000	4.300420
2389.000000	4.315327
2388.000000	4.297479
2387.000000	4.295045
2386.000000	4.320398
2385.000000	4.330133
2384.000000	4.325063
2383.000000	4.328308
2382.000000	4.331147
2381.000000	4.316443
2380.000000	4.332263
2379.000000	4.346764
2378.000000	4.345750
2377.000000	4.350111
2376.000000	4.343824
2375.000000	4.336522
2374.000000	4.339666
2373.000000	4.342201
2372.000000	4.343215
2371.000000	4.347677
2370.000000	4.342201
2369.000000	4.331959
2368.000000	4.329829
2367.000000	4.331046
2366.000000	4.328004
2365.000000	4.339362
2364.000000	4.334899
2363.000000	4.321108
2362.000000	4.321006
2361.000000	4.321817
2360.000000	4.307316
2359.000000	4.296566
2358.000000	4.290380
2357.000000	4.283586
2356.000000	4.279732
2355.000000	4.285107
2354.000000	4.285614
2353.000000	4.278008
2352.000000	4.278008
2351.000000	4.296262
2350.000000	4.302651
2349.000000	4.293321
2348.000000	4.281456
2347.000000	4.288048
2346.000000	4.290380
2345.000000	4.301028
2344.000000	4.307214
2343.000000	4.294639
2342.000000	4.288758
2341.000000	4.316240
2340.000000	4.314719
2339.000000	4.301333
2338.000000	4.295552
2337.000000	4.301637
2336.000000	4.302854
2335.000000	4.288048
2334.000000	4.275371
2333.000000	4.275473
2332.000000	4.282876
2331.000000	4.271112
2330.000000	4.273952
2329.000000	4.251743
2328.000000	4.239878
2327.000000	4.241906
2326.000000	4.223348
2325.000000	4.183392
2324.000000	4.173454
2323.000000	4.179031
2322.000000	4.168586
2321.000000	4.138264
2320.000000	4.140090
2319.000000	4.128732
2318.000000	4.120720
2317.000000	4.097497
2316.000000	4.081880
2315.000000	4.053891
2314.000000	4.047603
2313.000000	4.043040
2312.000000	4.029451
2311.000000	4.007343
2310.000000	3.984019
2309.000000	3.979252
2308.000000	3.980672
2307.000000	3.951871
2306.000000	3.944367
2305.000000	3.940006
2304.000000	3.940615
2303.000000	3.934125
2302.000000	3.924693
2301.000000	3.921955
2300.000000	3.894270
2299.000000	3.910090
2298.000000	3.891938
2297.000000	3.891532
2296.000000	3.903194
2295.000000	3.891329
2294.000000	3.885853
2293.000000	3.859892
2292.000000	3.864861
2291.000000	3.840421
2290.000000	3.834539
2289.000000	3.812128
2288.000000	3.801885
2287.000000	3.790020
2286.000000	3.772375
2285.000000	3.765681
2284.000000	3.736070
2283.000000	3.724002
2282.000000	3.716295
2281.000000	3.701590
2280.000000	3.674513
2279.000000	3.655042
2278.000000	3.643279
2277.000000	3.634760
2276.000000	3.613667
2275.000000	3.596021
2274.000000	3.553632
2273.000000	3.567221
2272.000000	3.548054
2271.000000	3.514284
2270.000000	3.507896
2269.000000	3.497349
2268.000000	3.467331
2267.000000	3.477270
2266.000000	3.463883
2265.000000	3.470678
2264.000000	3.446846
2263.000000	3.456785
2262.000000	3.431939
2261.000000	3.427578
2260.000000	3.429708
2259.000000	3.428288
2258.000000	3.433257
2257.000000	3.439241
2256.000000	3.450092
2255.000000	3.477270
2254.000000	3.462058
2253.000000	3.504549
2252.000000	3.488526
2251.000000	3.516313
2250.000000	3.519862
2249.000000	3.539637
2248.000000	3.523919
2247.000000	3.545012
2246.000000	3.555356
2245.000000	3.574015
2244.000000	3.582838
2243.000000	3.611842
2242.000000	3.631211
2241.000000	3.643380
2240.000000	3.615695
2239.000000	3.663155
2238.000000	3.666299
2237.000000	3.665285
2236.000000	3.669950
2235.000000	3.695100
2234.000000	3.714571
2233.000000	3.705545
2232.000000	3.695404
2231.000000	3.708182
2230.000000	3.713556
2229.000000	3.709399
2228.000000	3.676542
2227.000000	3.684350
2226.000000	3.661533
2225.000000	3.662851
2224.000000	3.662445
2223.000000	3.649668
2222.000000	3.606771
2221.000000	3.605554
2220.000000	3.577768
2219.000000	3.581114
2218.000000	3.530814
2217.000000	3.522195
2216.000000	3.552516
2215.000000	3.529090
2214.000000	3.498464
2213.000000	3.504143
2212.000000	3.490453
2211.000000	3.497450
2210.000000	3.509214
2209.000000	3.515197
2208.000000	3.552415
2207.000000	3.571582
2206.000000	3.604337
2205.000000	3.650479
2204.000000	3.679787
2203.000000	3.734853
2202.000000	3.782718
2201.000000	3.836466
2200.000000	3.902992
2199.000000	3.962824
2198.000000	4.035231
2197.000000	4.091210
2196.000000	4.153273
2195.000000	4.221218
2194.000000	4.298392
2193.000000	4.364309
2192.000000	4.416332
2191.000000	4.457505
2190.000000	4.495331
2189.000000	4.538836
2188.000000	4.604043
2187.000000	4.632438
2186.000000	4.658602
2185.000000	4.719753
2184.000000	4.755551
2183.000000	4.781918
2182.000000	4.804735
2181.000000	4.814065
2180.000000	4.827045
2179.000000	4.857266
2178.000000	4.885356
2177.000000	4.913346
2176.000000	4.925312
2175.000000	4.920242
2174.000000	4.932817
2173.000000	4.953809
2172.000000	4.987578
2171.000000	5.006238
2170.000000	5.010294
2169.000000	5.017393
2168.000000	5.054408
2167.000000	5.065766
2166.000000	5.074082
2165.000000	5.095074
2164.000000	5.101057
2163.000000	5.126917
2162.000000	5.135638
2161.000000	5.148111
2160.000000	5.158050
2159.000000	5.179042
2158.000000	5.189690
2157.000000	5.213116
2156.000000	5.225183
2155.000000	5.235426
2154.000000	5.244350
2153.000000	5.262503
2152.000000	5.277106
2151.000000	5.300430
2150.000000	5.312802
2149.000000	5.322436
2148.000000	5.325681
2147.000000	5.342211
2146.000000	5.365232
2145.000000	5.371722
2144.000000	5.385818
2143.000000	5.399001
2142.000000	5.411373
2141.000000	5.409954
2140.000000	5.415633
2139.000000	5.415430
2138.000000	5.436118
2137.000000	5.437943
2136.000000	5.439464
2135.000000	5.452141
2134.000000	5.452343
2133.000000	5.447171
2132.000000	5.449200
2131.000000	5.442608
2130.000000	5.441695
2129.000000	5.440073
2128.000000	5.441492
2127.000000	5.434394
2126.000000	5.431960
2125.000000	5.431047
2124.000000	5.421920
2123.000000	5.427295
2122.000000	5.417864
2121.000000	5.403970
2120.000000	5.394134
2119.000000	5.401334
2118.000000	5.391903
2117.000000	5.373750
2116.000000	5.363812
2115.000000	5.366550
2114.000000	5.366144
2113.000000	5.350831
2112.000000	5.345051
2111.000000	5.328217
2110.000000	5.321219
2109.000000	5.316859
2108.000000	5.301850
2107.000000	5.286638
2106.000000	5.276599
2105.000000	5.265241
2104.000000	5.254694
2103.000000	5.249421
2102.000000	5.245466
2101.000000	5.240091
2100.000000	5.225691
2099.000000	5.215448
2098.000000	5.199324
2097.000000	5.196484
2096.000000	5.210986
2095.000000	5.208349
2094.000000	5.195774
2093.000000	5.179853
2092.000000	5.169915
2091.000000	5.172957
2090.000000	5.163323
2089.000000	5.150241
2088.000000	5.143447
2087.000000	5.131886
2086.000000	5.115153
2085.000000	5.116370
2084.000000	5.120426
2083.000000	5.110589
2082.000000	5.117485
2081.000000	5.120426
2080.000000	5.104201
2079.000000	5.102781
2078.000000	5.102071
2077.000000	5.094668
2076.000000	5.081586
2075.000000	5.083209
2074.000000	5.090510
2073.000000	5.082093
2072.000000	5.077428
2071.000000	5.058769
2070.000000	5.043354
2069.000000	5.058160
2068.000000	5.063738
2067.000000	5.071952
2066.000000	5.061101
2065.000000	5.067287
2064.000000	5.057755
2063.000000	5.063839
2062.000000	5.056132
2061.000000	5.059276
2060.000000	5.056031
2059.000000	5.062521
2058.000000	5.067997
2057.000000	5.065462
2056.000000	5.064346
2055.000000	5.084527
2054.000000	5.107649
2053.000000	5.119311
2052.000000	5.132697
2051.000000	5.142432
2050.000000	5.160991
2049.000000	5.182388
2048.000000	5.202873
2047.000000	5.230457
2046.000000	5.260576
2045.000000	5.282379
2044.000000	5.317366
2043.000000	5.344949
2042.000000	5.381964
2041.000000	5.427498
2040.000000	5.461369
2039.000000	5.482158
2038.000000	5.519477
2037.000000	5.555681
2036.000000	5.563591
2035.000000	5.589552
2034.000000	5.624640
2033.000000	5.666117
2032.000000	5.698467
2031.000000	5.724732
2030.000000	5.764384
2029.000000	5.794097
2028.000000	5.826244
2027.000000	5.857175
2026.000000	5.879789
2025.000000	5.903215
2024.000000	5.918528
2023.000000	5.950270
2022.000000	5.987690
2021.000000	5.999454
2020.000000	6.020750
2019.000000	6.042350
2018.000000	6.060402
2017.000000	6.097822
2016.000000	6.108369
2015.000000	6.138691
2014.000000	6.164043
2013.000000	6.159480
2012.000000	6.189802
2011.000000	6.213734
2010.000000	6.213937
2009.000000	6.221137
2008.000000	6.229960
2007.000000	6.262107
2006.000000	6.265150
2005.000000	6.245577
2004.000000	6.251662
2003.000000	6.258964
2002.000000	6.275392
2001.000000	6.262513
2000.000000	6.248315
1999.000000	6.244158
1998.000000	6.246997
1997.000000	6.247403
1996.000000	6.241724
1995.000000	6.225904
1994.000000	6.218906
1993.000000	6.198320
1992.000000	6.184731
1991.000000	6.181790
1990.000000	6.156235
1989.000000	6.122972
1988.000000	6.122059
1987.000000	6.105834
1986.000000	6.107760
1985.000000	6.102588
1984.000000	6.068717
1983.000000	6.057866
1982.000000	6.025922
1981.000000	6.027849
1980.000000	5.987082
1979.000000	5.970957
1978.000000	5.952095
1977.000000	5.928061
1976.000000	5.907373
1975.000000	5.883136
1974.000000	5.867417
1973.000000	5.850786
1972.000000	5.823709
1971.000000	5.818740
1970.000000	5.804441
1969.000000	5.789939
1968.000000	5.757691
1967.000000	5.709217
1966.000000	5.731527
1965.000000	5.706073
1964.000000	5.692281
1963.000000	5.649993
1962.000000	5.627277
1961.000000	5.630826
1960.000000	5.613890
1959.000000	5.581743
1958.000000	5.568053
1957.000000	5.562780
1956.000000	5.549292
1955.000000	5.515826
1954.000000	5.517652
1953.000000	5.492401
1952.000000	5.452952
1951.000000	5.453662
1950.000000	5.443419
1949.000000	5.433177
1948.000000	5.391801
1947.000000	5.404883
1946.000000	5.366854
1945.000000	5.366043
1944.000000	5.366449
1943.000000	5.339068
1942.000000	5.339879
1941.000000	5.334606
1940.000000	5.312295
1939.000000	5.318177
1938.000000	5.294447
1937.000000	5.305501
1936.000000	5.317264
1935.000000	5.304689
1934.000000	5.310267
1933.000000	5.310166
1932.000000	5.321118
1931.000000	5.354482
1930.000000	5.334504
1929.000000	5.358234
1928.000000	5.371113
1927.000000	5.388455
1926.000000	5.405694
1925.000000	5.424962
1924.000000	5.467048
1923.000000	5.469076
1922.000000	5.496153
1921.000000	5.520593
1920.000000	5.565720
1919.000000	5.576673
1918.000000	5.626465
1917.000000	5.683255
1916.000000	5.712056
1915.000000	5.747347
1914.000000	5.816915
1913.000000	5.863259
1912.000000	5.909908
1911.000000	5.949864
1910.000000	6.023691
1909.000000	6.076526
1908.000000	6.151367
1907.000000	6.227831
1906.000000	6.301860
1905.000000	6.368690
1904.000000	6.426190
1903.000000	6.513910
1902.000000	6.609135
1901.000000	6.709734
1900.000000	6.784372
1899.000000	6.862458
1898.000000	6.947339
1897.000000	7.063556
1896.000000	7.143569
1895.000000	7.242647
1894.000000	7.342435
1893.000000	7.449829
1892.000000	7.546879
1891.000000	7.655490
1890.000000	7.775864
1889.000000	7.874841
1888.000000	8.015700
1887.000000	8.156255
1886.000000	8.298332
1885.000000	8.490099
1884.000000	8.697991
1883.000000	8.940870
1882.000000	9.213259
1881.000000	9.499946
1880.000000	9.779536
1879.000000	10.032961
1878.000000	10.320257
1877.000000	10.590821
1876.000000	10.853677
1875.000000	11.081344
1874.000000	11.296436
1873.000000	11.515382
1872.000000	11.708062
1871.000000	11.882488
1870.000000	12.033793
1869.000000	12.169784
1868.000000	12.287725
1867.000000	12.385485
1866.000000	12.453227
1865.000000	12.526243
1864.000000	12.572081
1863.000000	12.609501
1862.000000	12.642561
1861.000000	12.665277
1860.000000	12.685458
1859.000000	12.679373
1858.000000	12.659801
1857.000000	12.650065
1856.000000	12.631304
1855.000000	12.614166
1854.000000	12.561128
1853.000000	12.488620
1852.000000	12.428483
1851.000000	12.389034
1850.000000	12.349687
1849.000000	12.302125
1848.000000	12.220388
1847.000000	12.153964
1846.000000	12.091394
1845.000000	12.032272
1844.000000	11.993533
1843.000000	11.962298
1842.000000	11.954997
1841.000000	11.918083
1840.000000	11.862409
1839.000000	11.819106
1838.000000	11.776514
1837.000000	11.736862
1836.000000	11.679870
1835.000000	11.623283
1834.000000	11.562335
1833.000000	11.495607
1832.000000	11.434862
1831.000000	11.379998
1830.000000	11.318239
1829.000000	11.233156
1828.000000	11.158010
1827.000000	11.098077
1826.000000	11.026684
1825.000000	10.972125
1824.000000	10.933589
1823.000000	10.910467
1822.000000	10.888258
1821.000000	10.858849
1820.000000	10.817068
1819.000000	10.786949
1818.000000	10.761495
1817.000000	10.746587
1816.000000	10.753179
1815.000000	10.742227
1814.000000	10.720626
1813.000000	10.702474
1812.000000	10.693955
1811.000000	10.679859
1810.000000	10.649842
1809.000000	10.607756
1808.000000	10.565874
1807.000000	10.535653
1806.000000	10.483123
1805.000000	10.436474
1804.000000	10.396417
1803.000000	10.350477
1802.000000	10.312043
1801.000000	10.279084
1800.000000	10.237506
1799.000000	10.192277
1798.000000	10.144817
1797.000000	10.111757
1796.000000	10.081841
1795.000000	10.046550
1794.000000	9.989963
1793.000000	9.938953
1792.000000	9.909848
1791.000000	9.853565
1790.000000	9.803773
1789.000000	9.768989
1788.000000	9.701551
1787.000000	9.653989
1786.000000	9.596185
1785.000000	9.541221
1784.000000	9.460802
1783.000000	9.417804
1782.000000	9.369431
1781.000000	9.309396
1780.000000	9.251490
1779.000000	9.192368
1778.000000	9.118845
1777.000000	9.052827
1776.000000	8.987011
1775.000000	8.911359
1774.000000	8.826681
1773.000000	8.739671
1772.000000	8.656818
1771.000000	8.583194
1770.000000	8.511801
1769.000000	8.434729
1768.000000	8.365263
1767.000000	8.319628
1766.000000	8.272168
1765.000000	8.232313
1764.000000	8.204425
1763.000000	8.205034
1762.000000	8.218319
1761.000000	8.241136
1760.000000	8.278354
1759.000000	8.316890
1758.000000	8.366581
1757.000000	8.421444
1756.000000	8.461907
1755.000000	8.476916
1754.000000	8.506832
1753.000000	8.512612
1752.000000	8.515553
1751.000000	8.495575
1750.000000	8.460893
1749.000000	8.447203
1748.000000	8.427326
1747.000000	8.390717
1746.000000	8.337679
1745.000000	8.265272
1744.000000	8.179174
1743.000000	8.075025
1742.000000	7.996736
1741.000000	7.880520
1740.000000	7.752844
1739.000000	7.645450
1738.000000	7.557020
1737.000000	7.475689
1736.000000	7.413321
1735.000000	7.378841
1734.000000	7.376509
1733.000000	7.386549
1732.000000	7.405005
1731.000000	7.459159
1730.000000	7.489683
1729.000000	7.581865
1728.000000	7.642813
1727.000000	7.695547
1726.000000	7.760855
1725.000000	7.796450
1724.000000	7.812879
1723.000000	7.832958
1722.000000	7.841172
1721.000000	7.831437
1720.000000	7.833465
1719.000000	7.847156
1718.000000	7.839043
1717.000000	7.854153
1716.000000	7.878390
1715.000000	7.889647
1714.000000	7.917940
1713.000000	7.941265
1712.000000	7.949783
1711.000000	7.963778
1710.000000	7.973716
1709.000000	7.959214
1708.000000	7.917433
1707.000000	7.920881
1706.000000	7.899788
1705.000000	7.871291
1704.000000	7.836710
1703.000000	7.782253
1702.000000	7.726781
1701.000000	7.678206
1700.000000	7.581156
1699.000000	7.485424
1698.000000	7.445772
1697.000000	7.356531
1696.000000	7.308868
1695.000000	7.319313
1694.000000	7.339291
1693.000000	7.367788
1692.000000	7.415755
1691.000000	7.524264
1690.000000	7.562192
1689.000000	7.612694
1688.000000	7.668065
1687.000000	7.629731
1686.000000	7.622734
1685.000000	7.621111
1684.000000	7.644740
1683.000000	7.717350
1682.000000	7.861049
1681.000000	8.092265
1680.000000	8.364147
1679.000000	8.693225
1678.000000	9.025750
1677.000000	9.321464
1676.000000	9.622349
1675.000000	9.876383
1674.000000	10.097052
1673.000000	10.297237
1672.000000	10.454626
1671.000000	10.633616
1670.000000	10.724480
1669.000000	10.865441
1668.000000	10.972328
1667.000000	11.059845
1666.000000	11.128500
1665.000000	11.168050
1664.000000	11.228795
1663.000000	11.277675
1662.000000	11.308301
1661.000000	11.323817
1660.000000	11.360020
1659.000000	11.361440
1658.000000	11.378781
1657.000000	11.412247
1656.000000	11.418940
1655.000000	11.421678
1654.000000	11.399064
1653.000000	11.400280
1652.000000	11.410726
1651.000000	11.397542
1650.000000	11.361339
1649.000000	11.315603
1648.000000	11.291264
1647.000000	11.260841
1646.000000	11.234981
1645.000000	11.207296
1644.000000	11.167949
1643.000000	11.142799
1642.000000	11.109232
1641.000000	11.068871
1640.000000	11.037129
1639.000000	10.992407
1638.000000	10.955088
1637.000000	10.907830
1636.000000	10.878928
1635.000000	10.823761
1634.000000	10.805913
1633.000000	10.746587
1632.000000	10.699229
1631.000000	10.665865
1630.000000	10.641120
1629.000000	10.577333
1628.000000	10.530279
1627.000000	10.505636
1626.000000	10.447426
1625.000000	10.408282
1624.000000	10.365486
1623.000000	10.315896
1622.000000	10.260830
1621.000000	10.214587
1620.000000	10.170169
1619.000000	10.130923
1618.000000	10.086303
1617.000000	10.049592
1616.000000	10.005073
1615.000000	9.968565
1614.000000	9.931043
1613.000000	9.894028
1612.000000	9.854377
1611.000000	9.801237
1610.000000	9.762397
1609.000000	9.729844
1608.000000	9.706520
1607.000000	9.673866
1606.000000	9.640502
1605.000000	9.596489
1604.000000	9.552984
1603.000000	9.510290
1602.000000	9.491124
1601.000000	9.448531
1600.000000	9.403505
1599.000000	9.358681
1598.000000	9.320348
1597.000000	9.281305
1596.000000	9.249868
1595.000000	9.222487
1594.000000	9.183444
1593.000000	9.156063
1592.000000	9.138215
1591.000000	9.112456
1590.000000	9.061751
1589.000000	9.045830
1588.000000	9.027576
1587.000000	8.995023
1586.000000	8.968656
1585.000000	8.956385
1584.000000	8.941072
1583.000000	8.923123
1582.000000	8.909027
1581.000000	8.897162
1580.000000	8.895945
1579.000000	8.875865
1578.000000	8.860857
1577.000000	8.851527
1576.000000	8.851223
1575.000000	8.852642
1574.000000	8.848991
1573.000000	8.848586
1572.000000	8.852135
1571.000000	8.844124
