PE UV       SUBTECH     SPECTRUM    ASCII       PEDS        4.00        
   -1
CICIMAUCR0209-1.Sample.ASC
24/06/07
13:36:42.00
24/06/07
13:36:42.00
Vinicio Soto Monge
C. cupreomarginata. Sex F. Ventral
250,000000
1
Lambda 1050
1050L1511233
PerkinElmer UV WinLab 6.3.2.0749 / 2.02.05 Lambda 900 UV/VIS/NIR, Aug  7 2015 09:38:08

0
0
3350/servo 860,8/2
0
0
UV/VIS
1
1
1
DoubleDePol,CommonBeamDepol,RBeamAtt,SBeamAtt,60mm sphere, WB InGaAs Detector
0
0
0
0
Program
Program
3350/servo 860,8/2
3350/0,2 860,8/0,2
3350/0,2 860,8/0,2
0
15.00
 
 
 
0
 
860,8
319,2
860,8
Front
100
on
S:100 R:100
0
0
0
0
 
0
 
 
 
0
 
 
0
0
0
0
0
 
 
 
 
0
0


0
0
#HDR
-1
-1
#GR
nm
%R
1.0
0.0
2500,000000
-1,000000
2251
8
55,875900
4,616300
#DATA
2482.000000	5.754528
2481.000000	5.719462
2480.000000	5.708656
2479.000000	5.652402
2478.000000	5.754740
2477.000000	5.710669
2476.000000	5.745205
2475.000000	5.669776
2474.000000	5.737154
2473.000000	5.743404
2472.000000	5.753786
2471.000000	5.725288
2470.000000	5.735565
2469.000000	5.783661
2468.000000	5.713317
2467.000000	5.685455
2466.000000	5.727195
2465.000000	5.688527
2464.000000	5.744040
2463.000000	5.702617
2462.000000	5.743828
2461.000000	5.770207
2460.000000	5.809193
2459.000000	5.799234
2458.000000	5.773809
2457.000000	5.798810
2456.000000	5.822753
2455.000000	5.869896
2454.000000	5.886740
2453.000000	5.866930
2452.000000	5.896487
2451.000000	5.916086
2450.000000	5.970538
2449.000000	5.997129
2448.000000	6.017999
2447.000000	6.042365
2446.000000	6.051370
2445.000000	6.073406
2444.000000	6.099679
2443.000000	6.132732
2442.000000	6.155615
2441.000000	6.184642
2440.000000	6.204665
2439.000000	6.253715
2438.000000	6.270877
2437.000000	6.294713
2436.000000	6.327660
2435.000000	6.365905
2434.000000	6.367494
2433.000000	6.386139
2432.000000	6.408175
2431.000000	6.437626
2430.000000	6.460297
2429.000000	6.470255
2428.000000	6.507122
2427.000000	6.526297
2426.000000	6.571321
2425.000000	6.581068
2424.000000	6.572699
2423.000000	6.573440
2422.000000	6.610943
2421.000000	6.635097
2420.000000	6.661900
2419.000000	6.677473
2418.000000	6.684994
2417.000000	6.692622
2416.000000	6.704911
2415.000000	6.721226
2414.000000	6.739024
2413.000000	6.756610
2412.000000	6.771229
2411.000000	6.764555
2410.000000	6.796019
2409.000000	6.806401
2408.000000	6.807566
2407.000000	6.815936
2406.000000	6.826424
2405.000000	6.847188
2404.000000	6.863820
2403.000000	6.876003
2402.000000	6.894119
2401.000000	6.904925
2400.000000	6.946135
2399.000000	6.977176
2398.000000	6.990206
2397.000000	7.008851
2396.000000	7.009593
2395.000000	7.017433
2394.000000	7.039256
2393.000000	7.051015
2392.000000	7.059173
2391.000000	7.081738
2390.000000	7.080361
2389.000000	7.094239
2388.000000	7.100913
2387.000000	7.101866
2386.000000	7.119135
2385.000000	7.129411
2384.000000	7.116274
2383.000000	7.128351
2382.000000	7.128669
2381.000000	7.123690
2380.000000	7.129834
2379.000000	7.139581
2378.000000	7.139369
2377.000000	7.148162
2376.000000	7.159392
2375.000000	7.137144
2374.000000	7.122419
2373.000000	7.128351
2372.000000	7.122207
2371.000000	7.108117
2370.000000	7.096781
2369.000000	7.078560
2368.000000	7.073157
2367.000000	7.071780
2366.000000	7.060868
2365.000000	7.041799
2364.000000	7.022094
2363.000000	7.006521
2362.000000	6.981519
2361.000000	6.958318
2360.000000	6.946241
2359.000000	6.916048
2358.000000	6.890305
2357.000000	6.883419
2356.000000	6.866151
2355.000000	6.864350
2354.000000	6.854074
2353.000000	6.850896
2352.000000	6.860960
2351.000000	6.841043
2350.000000	6.841467
2349.000000	6.862549
2348.000000	6.874732
2347.000000	6.878864
2346.000000	6.887975
2345.000000	6.916790
2344.000000	6.941686
2343.000000	6.953763
2342.000000	6.970819
2341.000000	6.995397
2340.000000	7.013831
2339.000000	7.032582
2338.000000	7.051651
2337.000000	7.055253
2336.000000	7.050380
2335.000000	7.046248
2334.000000	7.057160
2333.000000	7.057584
2332.000000	7.049532
2331.000000	7.023365
2330.000000	7.017962
2329.000000	7.025484
2328.000000	7.002919
2327.000000	6.972514
2326.000000	6.952915
2325.000000	6.940097
2324.000000	6.913612
2323.000000	6.876851
2322.000000	6.861913
2321.000000	6.839772
2320.000000	6.802693
2319.000000	6.759894
2318.000000	6.728430
2317.000000	6.668786
2316.000000	6.650352
2315.000000	6.618676
2314.000000	6.562316
2313.000000	6.534560
2312.000000	6.509135
2311.000000	6.469196
2310.000000	6.431057
2309.000000	6.408492
2308.000000	6.390589
2307.000000	6.393449
2306.000000	6.376816
2305.000000	6.374062
2304.000000	6.387410
2303.000000	6.395144
2302.000000	6.398428
2301.000000	6.423218
2300.000000	6.464217
2299.000000	6.495892
2298.000000	6.525661
2297.000000	6.580856
2296.000000	6.598124
2295.000000	6.630436
2294.000000	6.674824
2293.000000	6.700991
2292.000000	6.729065
2291.000000	6.739130
2290.000000	6.749512
2289.000000	6.768475
2288.000000	6.779704
2287.000000	6.788603
2286.000000	6.789239
2285.000000	6.795383
2284.000000	6.780128
2283.000000	6.780128
2282.000000	6.768687
2281.000000	6.757351
2280.000000	6.740401
2279.000000	6.695165
2278.000000	6.682134
2277.000000	6.688279
2276.000000	6.663171
2275.000000	6.655649
2274.000000	6.625456
2273.000000	6.637957
2272.000000	6.627257
2271.000000	6.640394
2270.000000	6.624291
2269.000000	6.642936
2268.000000	6.664018
2267.000000	6.683935
2266.000000	6.721755
2265.000000	6.767733
2264.000000	6.817843
2263.000000	6.879393
2262.000000	6.951538
2261.000000	7.042222
2260.000000	7.109494
2259.000000	7.180156
2258.000000	7.344892
2257.000000	7.424028
2256.000000	7.529650
2255.000000	7.655294
2254.000000	7.768438
2253.000000	7.867809
2252.000000	7.984978
2251.000000	8.105113
2250.000000	8.198764
2249.000000	8.332036
2248.000000	8.416364
2247.000000	8.525058
2246.000000	8.595931
2245.000000	8.714160
2244.000000	8.808022
2243.000000	8.862793
2242.000000	8.934938
2241.000000	9.012697
2240.000000	9.072341
2239.000000	9.127747
2238.000000	9.181988
2237.000000	9.229449
2236.000000	9.277546
2235.000000	9.343228
2234.000000	9.355941
2233.000000	9.384863
2232.000000	9.435714
2231.000000	9.461033
2230.000000	9.474487
2229.000000	9.478937
2228.000000	9.504256
2227.000000	9.502455
2226.000000	9.517075
2225.000000	9.525762
2224.000000	9.538899
2223.000000	9.511566
2222.000000	9.507647
2221.000000	9.509342
2220.000000	9.508282
2219.000000	9.480526
2218.000000	9.489213
2217.000000	9.470038
2216.000000	9.461563
2215.000000	9.438574
2214.000000	9.436773
2213.000000	9.400754
2212.000000	9.385604
2211.000000	9.380307
2210.000000	9.353610
2209.000000	9.351068
2208.000000	9.341957
2207.000000	9.329668
2206.000000	9.318968
2205.000000	9.293437
2204.000000	9.308162
2203.000000	9.296509
2202.000000	9.297463
2201.000000	9.295026
2200.000000	9.311341
2199.000000	9.275957
2198.000000	9.282207
2197.000000	9.267905
2196.000000	9.249896
2195.000000	9.257100
2194.000000	9.252756
2193.000000	9.246823
2192.000000	9.246929
2191.000000	9.247989
2190.000000	9.241844
2189.000000	9.237925
2188.000000	9.233581
2187.000000	9.217584
2186.000000	9.228708
2185.000000	9.212923
2184.000000	9.193854
2183.000000	9.192159
2182.000000	9.205295
2181.000000	9.183895
2180.000000	9.160483
2179.000000	9.172772
2178.000000	9.186968
2177.000000	9.182730
2176.000000	9.144592
2175.000000	9.140036
2174.000000	9.162602
2173.000000	9.151584
2172.000000	9.141837
2171.000000	9.152643
2170.000000	9.165780
2169.000000	9.174573
2168.000000	9.186862
2167.000000	9.194277
2166.000000	9.182306
2165.000000	9.193642
2164.000000	9.225741
2163.000000	9.218749
2162.000000	9.220233
2161.000000	9.248413
2160.000000	9.244493
2159.000000	9.272249
2158.000000	9.291848
2157.000000	9.320875
2156.000000	9.331893
2155.000000	9.344182
2154.000000	9.377129
2153.000000	9.386240
2152.000000	9.428828
2151.000000	9.447049
2150.000000	9.455736
2149.000000	9.492285
2148.000000	9.517075
2147.000000	9.533602
2146.000000	9.548115
2145.000000	9.561464
2144.000000	9.599178
2143.000000	9.607124
2142.000000	9.621637
2141.000000	9.646003
2140.000000	9.671747
2139.000000	9.691134
2138.000000	9.705859
2137.000000	9.730014
2136.000000	9.737959
2135.000000	9.748235
2134.000000	9.756392
2133.000000	9.764550
2132.000000	9.772389
2131.000000	9.780547
2130.000000	9.797073
2129.000000	9.805972
2128.000000	9.795272
2127.000000	9.805866
2126.000000	9.815930
2125.000000	9.820274
2124.000000	9.818261
2123.000000	9.803218
2122.000000	9.799086
2121.000000	9.807137
2120.000000	9.791564
2119.000000	9.790399
2118.000000	9.780864
2117.000000	9.759041
2116.000000	9.747070
2115.000000	9.731073
2114.000000	9.720267
2113.000000	9.706919
2112.000000	9.693888
2111.000000	9.692829
2110.000000	9.683506
2109.000000	9.658081
2108.000000	9.639223
2107.000000	9.620684
2106.000000	9.595788
2105.000000	9.584559
2104.000000	9.579685
2103.000000	9.563053
2102.000000	9.549810
2101.000000	9.531907
2100.000000	9.514003
2099.000000	9.497900
2098.000000	9.497688
2097.000000	9.479467
2096.000000	9.454783
2095.000000	9.447473
2094.000000	9.444083
2093.000000	9.424060
2092.000000	9.410182
2091.000000	9.406051
2090.000000	9.389630
2089.000000	9.384015
2088.000000	9.374481
2087.000000	9.354140
2086.000000	9.345347
2085.000000	9.349373
2084.000000	9.323947
2083.000000	9.304560
2082.000000	9.306150
2081.000000	9.282737
2080.000000	9.260278
2079.000000	9.241844
2078.000000	9.228602
2077.000000	9.213770
2076.000000	9.187285
2075.000000	9.161542
2074.000000	9.134951
2073.000000	9.110161
2072.000000	9.086643
2071.000000	9.063972
2070.000000	9.039712
2069.000000	9.024245
2068.000000	9.008671
2067.000000	8.977101
2066.000000	8.937268
2065.000000	8.922437
2064.000000	8.906652
2063.000000	8.874552
2062.000000	8.854529
2061.000000	8.836202
2060.000000	8.805374
2059.000000	8.792873
2058.000000	8.790436
2057.000000	8.782914
2056.000000	8.784080
2055.000000	8.795203
2054.000000	8.799229
2053.000000	8.802937
2052.000000	8.822112
2051.000000	8.856860
2050.000000	8.879107
2049.000000	8.904957
2048.000000	8.947544
2047.000000	8.972546
2046.000000	9.018736
2045.000000	9.069693
2044.000000	9.111645
2043.000000	9.155927
2042.000000	9.211122
2041.000000	9.256040
2040.000000	9.300959
2039.000000	9.346513
2038.000000	9.406792
2037.000000	9.441964
2036.000000	9.469932
2035.000000	9.524173
2034.000000	9.580215
2033.000000	9.582969
2032.000000	9.609031
2031.000000	9.663166
2030.000000	9.697278
2029.000000	9.698867
2028.000000	9.726941
2027.000000	9.745163
2026.000000	9.782454
2025.000000	9.800675
2024.000000	9.817625
2023.000000	9.817625
2022.000000	9.834258
2021.000000	9.837224
2020.000000	9.846971
2019.000000	9.860955
2018.000000	9.860425
2017.000000	9.889241
2016.000000	9.902059
2015.000000	9.900046
2014.000000	9.879388
2013.000000	9.887757
2012.000000	9.878753
2011.000000	9.878753
2010.000000	9.864769
2009.000000	9.868582
2008.000000	9.853115
2007.000000	9.832033
2006.000000	9.816778
2005.000000	9.797603
2004.000000	9.792200
2003.000000	9.749189
2002.000000	9.722068
2001.000000	9.706071
2000.000000	9.685625
1999.000000	9.656174
1998.000000	9.610938
1997.000000	9.579579
1996.000000	9.547162
1995.000000	9.532542
1994.000000	9.506905
1993.000000	9.442388
1992.000000	9.413784
1991.000000	9.384545
1990.000000	9.342487
1989.000000	9.308798
1988.000000	9.268223
1987.000000	9.230721
1986.000000	9.185908
1985.000000	9.130608
1984.000000	9.093105
1983.000000	9.053060
1982.000000	9.005811
1981.000000	8.960151
1980.000000	8.923390
1979.000000	8.886947
1978.000000	8.821264
1977.000000	8.818298
1976.000000	8.757701
1975.000000	8.721046
1974.000000	8.669135
1973.000000	8.650384
1972.000000	8.596673
1971.000000	8.562454
1970.000000	8.532367
1969.000000	8.497090
1968.000000	8.463189
1967.000000	8.417847
1966.000000	8.379497
1965.000000	8.350787
1964.000000	8.333519
1963.000000	8.264129
1962.000000	8.234783
1961.000000	8.218469
1960.000000	8.159884
1959.000000	8.143781
1958.000000	8.121746
1957.000000	8.067505
1956.000000	8.059454
1955.000000	8.045893
1954.000000	7.996102
1953.000000	7.965485
1952.000000	7.930949
1951.000000	7.907960
1950.000000	7.877979
1949.000000	7.855520
1948.000000	7.815157
1947.000000	7.812509
1946.000000	7.781998
1945.000000	7.743330
1944.000000	7.753606
1943.000000	7.707734
1942.000000	7.701696
1941.000000	7.709641
1940.000000	7.690148
1939.000000	7.682521
1938.000000	7.653811
1937.000000	7.670550
1936.000000	7.667901
1935.000000	7.664193
1934.000000	7.697670
1933.000000	7.675317
1932.000000	7.702437
1931.000000	7.710171
1930.000000	7.736126
1929.000000	7.753076
1928.000000	7.798525
1927.000000	7.805940
1926.000000	7.846091
1925.000000	7.900968
1924.000000	7.946310
1923.000000	7.967710
1922.000000	8.038266
1921.000000	8.091341
1920.000000	8.148549
1919.000000	8.223660
1918.000000	8.267942
1917.000000	8.351105
1916.000000	8.435433
1915.000000	8.473571
1914.000000	8.566586
1913.000000	8.666169
1912.000000	8.784080
1911.000000	8.864700
1910.000000	8.967143
1909.000000	9.059311
1908.000000	9.138447
1907.000000	9.252756
1906.000000	9.393020
1905.000000	9.517923
1904.000000	9.676726
1903.000000	9.793683
1902.000000	9.932888
1901.000000	10.074211
1900.000000	10.249329
1899.000000	10.465446
1898.000000	10.635690
1897.000000	10.808584
1896.000000	10.999381
1895.000000	11.162633
1894.000000	11.325462
1893.000000	11.522192
1892.000000	11.749962
1891.000000	12.023604
1890.000000	12.284321
1889.000000	12.542284
1888.000000	12.802259
1887.000000	13.080774
1886.000000	13.380795
1885.000000	13.712068
1884.000000	14.096310
1883.000000	14.520386
1882.000000	14.913527
1881.000000	15.328069
1880.000000	15.734029
1879.000000	16.106088
1878.000000	16.510777
1877.000000	16.942904
1876.000000	17.344309
1875.000000	17.739146
1874.000000	18.111841
1873.000000	18.504876
1872.000000	18.889755
1871.000000	19.239779
1870.000000	19.560034
1869.000000	19.898617
1868.000000	20.206477
1867.000000	20.416131
1866.000000	20.609788
1865.000000	20.784695
1864.000000	20.929408
1863.000000	21.071261
1862.000000	21.195952
1861.000000	21.349564
1860.000000	21.497985
1859.000000	21.605832
1858.000000	21.734760
1857.000000	21.820465
1856.000000	21.881274
1855.000000	21.907759
1854.000000	21.964967
1853.000000	22.019102
1852.000000	22.010732
1851.000000	22.017724
1850.000000	22.018254
1849.000000	21.996748
1848.000000	22.008508
1847.000000	22.032768
1846.000000	22.022280
1845.000000	21.967509
1844.000000	21.933820
1843.000000	21.904581
1842.000000	21.901615
1841.000000	21.900767
1840.000000	21.879367
1839.000000	21.866549
1838.000000	21.826927
1837.000000	21.787624
1836.000000	21.765165
1835.000000	21.720352
1834.000000	21.671832
1833.000000	21.608162
1832.000000	21.546506
1831.000000	21.485167
1830.000000	21.438447
1829.000000	21.376261
1828.000000	21.308142
1827.000000	21.246697
1826.000000	21.186841
1825.000000	21.121158
1824.000000	21.059925
1823.000000	21.014689
1822.000000	20.974644
1821.000000	20.967864
1820.000000	20.949748
1819.000000	20.916165
1818.000000	20.881947
1817.000000	20.849741
1816.000000	20.823998
1815.000000	20.819231
1814.000000	20.810756
1813.000000	20.778762
1812.000000	20.762871
1811.000000	20.739035
1810.000000	20.709583
1809.000000	20.678755
1808.000000	20.630235
1807.000000	20.584151
1806.000000	20.560738
1805.000000	20.513913
1804.000000	20.460626
1803.000000	20.424077
1802.000000	20.375874
1801.000000	20.335511
1800.000000	20.279045
1799.000000	20.222791
1798.000000	20.169186
1797.000000	20.116322
1796.000000	20.074900
1795.000000	20.033160
1794.000000	19.979342
1793.000000	19.927114
1792.000000	19.883467
1791.000000	19.837066
1790.000000	19.785367
1789.000000	19.727101
1788.000000	19.680275
1787.000000	19.631013
1786.000000	19.573382
1785.000000	19.520836
1784.000000	19.456319
1783.000000	19.375699
1782.000000	19.305249
1781.000000	19.248148
1780.000000	19.194860
1779.000000	19.131191
1778.000000	19.051842
1777.000000	18.968362
1776.000000	18.879055
1775.000000	18.790807
1774.000000	18.719192
1773.000000	18.622469
1772.000000	18.515153
1771.000000	18.411332
1770.000000	18.306558
1769.000000	18.213861
1768.000000	18.110464
1767.000000	18.010775
1766.000000	17.924858
1765.000000	17.856315
1764.000000	17.815210
1763.000000	17.780886
1762.000000	17.765843
1761.000000	17.778237
1760.000000	17.811397
1759.000000	17.862777
1758.000000	17.915005
1757.000000	17.965327
1756.000000	18.027725
1755.000000	18.067452
1754.000000	18.109087
1753.000000	18.144894
1752.000000	18.163539
1751.000000	18.160679
1750.000000	18.152098
1749.000000	18.140339
1748.000000	18.105908
1747.000000	18.059401
1746.000000	18.005372
1745.000000	17.930473
1744.000000	17.842013
1743.000000	17.725056
1742.000000	17.590195
1741.000000	17.430756
1740.000000	17.249811
1739.000000	17.072786
1738.000000	16.910593
1737.000000	16.754862
1736.000000	16.611949
1735.000000	16.478889
1734.000000	16.400494
1733.000000	16.367335
1732.000000	16.354199
1731.000000	16.343499
1730.000000	16.394244
1729.000000	16.460880
1728.000000	16.510777
1727.000000	16.591927
1726.000000	16.673077
1725.000000	16.755180
1724.000000	16.818849
1723.000000	16.867158
1722.000000	16.909004
1721.000000	16.955193
1720.000000	16.999794
1719.000000	17.018863
1718.000000	17.056366
1717.000000	17.110289
1716.000000	17.174064
1715.000000	17.234026
1714.000000	17.291234
1713.000000	17.389863
1712.000000	17.457029
1711.000000	17.500146
1710.000000	17.534047
1709.000000	17.566782
1708.000000	17.563498
1707.000000	17.566570
1706.000000	17.537119
1705.000000	17.506397
1704.000000	17.472390
1703.000000	17.426306
1702.000000	17.354797
1701.000000	17.270787
1700.000000	17.162941
1699.000000	17.029033
1698.000000	16.939938
1697.000000	16.822981
1696.000000	16.741513
1695.000000	16.664601
1694.000000	16.674454
1693.000000	16.708248
1692.000000	16.794059
1691.000000	16.918644
1690.000000	17.049162
1689.000000	17.171098
1688.000000	17.272164
1687.000000	17.355009
1686.000000	17.421645
1685.000000	17.443892
1684.000000	17.520699
1683.000000	17.619752
1682.000000	17.823685
1681.000000	18.106968
1680.000000	18.461547
1679.000000	18.892403
1678.000000	19.320187
1677.000000	19.787592
1676.000000	20.224592
1675.000000	20.647079
1674.000000	20.994031
1673.000000	21.304963
1672.000000	21.604031
1671.000000	21.836992
1670.000000	22.055333
1669.000000	22.248884
1668.000000	22.418600
1667.000000	22.558122
1666.000000	22.675291
1665.000000	22.785256
1664.000000	22.895327
1663.000000	22.968743
1662.000000	23.060699
1661.000000	23.115681
1660.000000	23.165049
1659.000000	23.225541
1658.000000	23.270777
1657.000000	23.311140
1656.000000	23.313788
1655.000000	23.331798
1654.000000	23.333281
1653.000000	23.319403
1652.000000	23.305631
1651.000000	23.293448
1650.000000	23.286986
1649.000000	23.252237
1648.000000	23.194818
1647.000000	23.154773
1646.000000	23.104664
1645.000000	23.066314
1644.000000	23.014191
1643.000000	22.953170
1642.000000	22.879648
1641.000000	22.836425
1640.000000	22.798287
1639.000000	22.738325
1638.000000	22.671689
1637.000000	22.598803
1636.000000	22.562148
1635.000000	22.478561
1634.000000	22.411502
1633.000000	22.320923
1632.000000	22.266894
1631.000000	22.199517
1630.000000	22.125889
1629.000000	22.034781
1628.000000	21.959140
1627.000000	21.862947
1626.000000	21.810931
1625.000000	21.715903
1624.000000	21.644288
1623.000000	21.545976
1622.000000	21.489298
1621.000000	21.413657
1620.000000	21.329330
1619.000000	21.273182
1618.000000	21.208347
1617.000000	21.124866
1616.000000	21.034394
1615.000000	20.975492
1614.000000	20.919661
1613.000000	20.854297
1612.000000	20.773147
1611.000000	20.712338
1610.000000	20.624938
1609.000000	20.567307
1608.000000	20.510417
1607.000000	20.437213
1606.000000	20.354156
1605.000000	20.289321
1604.000000	20.213363
1603.000000	20.147257
1602.000000	20.092168
1601.000000	20.009535
1600.000000	19.928068
1599.000000	19.884209
1598.000000	19.801046
1597.000000	19.729749
1596.000000	19.686102
1595.000000	19.629318
1594.000000	19.565755
1593.000000	19.515222
1592.000000	19.437674
1591.000000	19.394133
1590.000000	19.332582
1589.000000	19.281307
1588.000000	19.243275
1587.000000	19.172401
1586.000000	19.132038
1585.000000	19.098985
1584.000000	19.071971
1583.000000	19.015717
1582.000000	18.963912
1581.000000	18.941241
