PE UV       SUBTECH     SPECTRUM    ASCII       PEDS        4.00        
   -1
CICIMAUCR0245-1.Sample.ASC
24/06/21
14:06:48.00
24/06/21
14:06:48.00
Vinicio Soto Monge
C. resplendens. Ventral. Sex M
250,000000
1
Lambda 1050
1050L1511233
PerkinElmer UV WinLab 6.3.2.0749 / 2.02.05 Lambda 900 UV/VIS/NIR, Aug  7 2015 09:38:08

0
0
3350/servo 860,8/2
0
0
UV/VIS
1
1
1
DoubleDePol,CommonBeamDepol,RBeamAtt,SBeamAtt,60mm sphere, WB InGaAs Detector
0
0
0
0
Program
Program
3350/servo 860,8/2
3350/0,2 860,8/0,2
3350/0,2 860,8/0,2
0
15.00
 
 
 
0
 
860,8
319,2
860,8
Front
100
on
S:100 R:100
0
0
0
0
 
0
 
 
 
0
 
 
0
0
0
0
0
 
 
 
 
0
0


0
0
#HDR
-1
-1
#GR
nm
%R
1.0
0.0
2500,000000
-1,000000
2251
8
53,412200
4,221700
#DATA
2482.000000	5.885661
2481.000000	5.832168
2480.000000	5.860199
2479.000000	5.874448
2478.000000	5.833103
2477.000000	5.893953
2476.000000	5.824810
2475.000000	5.814182
2474.000000	5.870010
2473.000000	5.850388
2472.000000	5.848403
2471.000000	5.804838
2470.000000	5.812547
2469.000000	5.817569
2468.000000	5.867791
2467.000000	5.811612
2466.000000	5.763026
2465.000000	5.802502
2464.000000	5.840461
2463.000000	5.855060
2462.000000	5.844666
2461.000000	5.824927
2460.000000	5.826679
2459.000000	5.828197
2458.000000	5.859615
2457.000000	5.847819
2456.000000	5.863703
2455.000000	5.842680
2454.000000	5.849921
2453.000000	5.862302
2452.000000	5.911706
2451.000000	5.922685
2450.000000	5.960059
2449.000000	5.983535
2448.000000	5.983652
2447.000000	5.993813
2446.000000	6.022077
2445.000000	6.033290
2444.000000	6.036560
2443.000000	6.030253
2442.000000	6.087833
2441.000000	6.088651
2440.000000	6.116565
2439.000000	6.142376
2438.000000	6.169473
2437.000000	6.187810
2436.000000	6.184656
2435.000000	6.206497
2434.000000	6.221096
2433.000000	6.253799
2432.000000	6.267815
2431.000000	6.274005
2430.000000	6.273421
2429.000000	6.310795
2428.000000	6.312547
2427.000000	6.322475
2426.000000	6.357163
2425.000000	6.375383
2424.000000	6.349922
2423.000000	6.364755
2422.000000	6.377719
2421.000000	6.392669
2420.000000	6.402947
2419.000000	6.437635
2418.000000	6.432262
2417.000000	6.435532
2416.000000	6.449548
2415.000000	6.457607
2414.000000	6.484236
2413.000000	6.478513
2412.000000	6.491477
2411.000000	6.504208
2410.000000	6.513435
2409.000000	6.515771
2408.000000	6.551043
2407.000000	6.561671
2406.000000	6.556883
2405.000000	6.565876
2404.000000	6.569847
2403.000000	6.581059
2402.000000	6.587483
2401.000000	6.603134
2400.000000	6.630347
2399.000000	6.623690
2398.000000	6.643194
2397.000000	6.654640
2396.000000	6.667137
2395.000000	6.687109
2394.000000	6.709067
2393.000000	6.711870
2392.000000	6.715841
2391.000000	6.737915
2390.000000	6.747609
2389.000000	6.742587
2388.000000	6.765362
2387.000000	6.768516
2386.000000	6.763844
2385.000000	6.784984
2384.000000	6.776691
2383.000000	6.791407
2382.000000	6.797130
2381.000000	6.792459
2380.000000	6.799116
2379.000000	6.802503
2378.000000	6.796663
2377.000000	6.796430
2376.000000	6.789422
2375.000000	6.794678
2374.000000	6.778794
2373.000000	6.768749
2372.000000	6.770618
2371.000000	6.762793
2370.000000	6.760690
2369.000000	6.754734
2368.000000	6.742237
2367.000000	6.746558
2366.000000	6.741536
2365.000000	6.722732
2364.000000	6.713855
2363.000000	6.686876
2362.000000	6.666553
2361.000000	6.662933
2360.000000	6.654757
2359.000000	6.635252
2358.000000	6.619835
2357.000000	6.604652
2356.000000	6.601615
2355.000000	6.597644
2354.000000	6.575220
2353.000000	6.568095
2352.000000	6.573701
2351.000000	6.578840
2350.000000	6.588067
2349.000000	6.600447
2348.000000	6.609674
2347.000000	6.596359
2346.000000	6.608740
2345.000000	6.630814
2344.000000	6.638289
2343.000000	6.653939
2342.000000	6.653122
2341.000000	6.677299
2340.000000	6.701125
2339.000000	6.694117
2338.000000	6.701709
2337.000000	6.704395
2336.000000	6.709184
2335.000000	6.706614
2334.000000	6.707899
2333.000000	6.718410
2332.000000	6.697387
2331.000000	6.692482
2330.000000	6.679751
2329.000000	6.678116
2328.000000	6.663633
2327.000000	6.632916
2326.000000	6.612828
2325.000000	6.601849
2324.000000	6.581643
2323.000000	6.559219
2322.000000	6.525815
2321.000000	6.507361
2320.000000	6.481199
2319.000000	6.449081
2318.000000	6.435182
2317.000000	6.391501
2316.000000	6.354243
2315.000000	6.347469
2314.000000	6.301218
2313.000000	6.268165
2312.000000	6.249244
2311.000000	6.225535
2310.000000	6.176481
2309.000000	6.165268
2308.000000	6.152888
2307.000000	6.141092
2306.000000	6.124974
2305.000000	6.123105
2304.000000	6.128011
2303.000000	6.139457
2302.000000	6.148567
2301.000000	6.158261
2300.000000	6.183956
2299.000000	6.202526
2298.000000	6.219929
2297.000000	6.249594
2296.000000	6.258938
2295.000000	6.279027
2294.000000	6.323409
2293.000000	6.366857
2292.000000	6.353425
2291.000000	6.360083
2290.000000	6.385311
2289.000000	6.393369
2288.000000	6.391501
2287.000000	6.392085
2286.000000	6.400144
2285.000000	6.386128
2284.000000	6.366390
2283.000000	6.369310
2282.000000	6.369193
2281.000000	6.360784
2280.000000	6.350155
2279.000000	6.334388
2278.000000	6.325161
2277.000000	6.304722
2276.000000	6.283232
2275.000000	6.262792
2274.000000	6.268165
2273.000000	6.265011
2272.000000	6.248894
2271.000000	6.246908
2270.000000	6.257303
2269.000000	6.272136
2268.000000	6.264077
2267.000000	6.280428
2266.000000	6.299232
2265.000000	6.348286
2264.000000	6.374332
2263.000000	6.417312
2262.000000	6.484119
2261.000000	6.534108
2260.000000	6.604068
2259.000000	6.649852
2258.000000	6.753449
2257.000000	6.816752
2256.000000	6.912991
2255.000000	6.961928
2254.000000	7.061204
2253.000000	7.162115
2252.000000	7.245858
2251.000000	7.331936
2250.000000	7.423386
2249.000000	7.501756
2248.000000	7.573702
2247.000000	7.640859
2246.000000	7.690497
2245.000000	7.772954
2244.000000	7.838944
2243.000000	7.911824
2242.000000	7.937402
2241.000000	7.996617
2240.000000	8.076505
2239.000000	8.098346
2238.000000	8.153590
2237.000000	8.183723
2236.000000	8.225536
2235.000000	8.246442
2234.000000	8.282181
2233.000000	8.327848
2232.000000	8.347704
2231.000000	8.367208
2230.000000	8.414627
2229.000000	8.419416
2228.000000	8.413342
2227.000000	8.423036
2226.000000	8.420934
2225.000000	8.419766
2224.000000	8.462630
2223.000000	8.456907
2222.000000	8.425489
2221.000000	8.445227
2220.000000	8.461812
2219.000000	8.444410
2218.000000	8.450133
2217.000000	8.433431
2216.000000	8.440672
2215.000000	8.414160
2214.000000	8.420701
2213.000000	8.398159
2212.000000	8.432730
2211.000000	8.394071
2210.000000	8.371530
2209.000000	8.365807
2208.000000	8.395940
2207.000000	8.367208
2206.000000	8.342798
2205.000000	8.357281
2204.000000	8.343966
2203.000000	8.340112
2202.000000	8.341280
2201.000000	8.349339
2200.000000	8.326914
2199.000000	8.321191
2198.000000	8.338477
2197.000000	8.325746
2196.000000	8.333454
2195.000000	8.344200
2194.000000	8.318271
2193.000000	8.295963
2192.000000	8.313483
2191.000000	8.282882
2190.000000	8.294328
2189.000000	8.282765
2188.000000	8.290474
2187.000000	8.273655
2186.000000	8.265012
2185.000000	8.282298
2184.000000	8.248544
2183.000000	8.257888
2182.000000	8.223901
2181.000000	8.247376
2180.000000	8.234763
2179.000000	8.239084
2178.000000	8.251698
2177.000000	8.216893
2176.000000	8.211520
2175.000000	8.219579
2174.000000	8.218762
2173.000000	8.201359
2172.000000	8.249479
2171.000000	8.239785
2170.000000	8.201009
2169.000000	8.219462
2168.000000	8.230441
2167.000000	8.221448
2166.000000	8.250296
2165.000000	8.238850
2164.000000	8.238033
2163.000000	8.256837
2162.000000	8.246909
2161.000000	8.260457
2160.000000	8.281364
2159.000000	8.271670
2158.000000	8.277977
2157.000000	8.298650
2156.000000	8.311380
2155.000000	8.331703
2154.000000	8.359617
2153.000000	8.363821
2152.000000	8.381574
2151.000000	8.390217
2150.000000	8.403064
2149.000000	8.433081
2148.000000	8.433782
2147.000000	8.442424
2146.000000	8.451418
2145.000000	8.475477
2144.000000	8.494865
2143.000000	8.498486
2142.000000	8.513786
2141.000000	8.525699
2140.000000	8.534109
2139.000000	8.557935
2138.000000	8.555949
2137.000000	8.568330
2136.000000	8.593324
2135.000000	8.590988
2134.000000	8.598229
2133.000000	8.618668
2132.000000	8.625559
2131.000000	8.622873
2130.000000	8.632567
2129.000000	8.626143
2128.000000	8.625559
2127.000000	8.630348
2126.000000	8.609558
2125.000000	8.616216
2124.000000	8.616566
2123.000000	8.623691
2122.000000	8.607573
2121.000000	8.603368
2120.000000	8.611661
2119.000000	8.599748
2118.000000	8.582228
2117.000000	8.572417
2116.000000	8.562840
2115.000000	8.558285
2114.000000	8.552679
2113.000000	8.529320
2112.000000	8.527685
2111.000000	8.526984
2110.000000	8.521495
2109.000000	8.506078
2108.000000	8.475945
2107.000000	8.452352
2106.000000	8.456089
2105.000000	8.450600
2104.000000	8.438804
2103.000000	8.419065
2102.000000	8.412174
2101.000000	8.405167
2100.000000	8.394422
2099.000000	8.391735
2098.000000	8.375034
2097.000000	8.371063
2096.000000	8.373982
2095.000000	8.355879
2094.000000	8.336608
2093.000000	8.331586
2092.000000	8.323060
2091.000000	8.326447
2090.000000	8.328432
2089.000000	8.321775
2088.000000	8.311380
2087.000000	8.313950
2086.000000	8.308227
2085.000000	8.291408
2084.000000	8.290591
2083.000000	8.294562
2082.000000	8.282065
2081.000000	8.263261
2080.000000	8.260107
2079.000000	8.256954
2078.000000	8.239434
2077.000000	8.237682
2076.000000	8.228456
2075.000000	8.208717
2074.000000	8.201242
2073.000000	8.205797
2072.000000	8.192599
2071.000000	8.170292
2070.000000	8.145414
2069.000000	8.114814
2068.000000	8.116683
2067.000000	8.117383
2066.000000	8.103368
2065.000000	8.089703
2064.000000	8.088885
2063.000000	8.073118
2062.000000	8.048241
2061.000000	8.057818
2060.000000	8.045905
2059.000000	8.033057
2058.000000	8.021728
2057.000000	8.004676
2056.000000	8.015538
2055.000000	8.038196
2054.000000	8.041934
2053.000000	8.051861
2052.000000	8.054314
2051.000000	8.069030
2050.000000	8.093440
2049.000000	8.122055
2048.000000	8.161182
2047.000000	8.185942
2046.000000	8.213739
2045.000000	8.248544
2044.000000	8.296898
2043.000000	8.343382
2042.000000	8.375150
2041.000000	8.409955
2040.000000	8.448615
2039.000000	8.498603
2038.000000	8.524531
2037.000000	8.552095
2036.000000	8.582228
2035.000000	8.635253
2034.000000	8.677066
2033.000000	8.701359
2032.000000	8.720631
2031.000000	8.740252
2030.000000	8.768283
2029.000000	8.798299
2028.000000	8.799818
2027.000000	8.821191
2026.000000	8.833338
2025.000000	8.857631
2024.000000	8.873983
2023.000000	8.885429
2022.000000	8.911357
2021.000000	8.936819
2020.000000	8.930862
2019.000000	8.919066
2018.000000	8.923387
2017.000000	8.939154
2016.000000	8.948965
2015.000000	8.947680
2014.000000	8.945228
2013.000000	8.951535
2012.000000	8.971623
2011.000000	8.974076
2010.000000	8.944877
2009.000000	8.928760
2008.000000	8.937519
2007.000000	8.926657
2006.000000	8.909138
2005.000000	8.904583
2004.000000	8.877253
2003.000000	8.865457
2002.000000	8.855529
2001.000000	8.829017
2000.000000	8.804022
1999.000000	8.773305
1998.000000	8.763728
1997.000000	8.749012
1996.000000	8.719112
1995.000000	8.702761
1994.000000	8.662700
1993.000000	8.646933
1992.000000	8.622756
1991.000000	8.587134
1990.000000	8.557001
1989.000000	8.519860
1988.000000	8.484821
1987.000000	8.461579
1986.000000	8.431446
1985.000000	8.409488
1984.000000	8.381224
1983.000000	8.326330
1982.000000	8.323644
1981.000000	8.294095
1980.000000	8.244690
1979.000000	8.202761
1978.000000	8.193067
1977.000000	8.145765
1976.000000	8.118084
1975.000000	8.102667
1974.000000	8.045671
1973.000000	8.016706
1972.000000	8.012852
1971.000000	7.962980
1970.000000	7.954104
1969.000000	7.916963
1968.000000	7.913809
1967.000000	7.847586
1966.000000	7.829016
1965.000000	7.798416
1964.000000	7.773655
1963.000000	7.742004
1962.000000	7.715024
1961.000000	7.697972
1960.000000	7.640509
1959.000000	7.647867
1958.000000	7.620420
1957.000000	7.600214
1956.000000	7.554080
1955.000000	7.550343
1954.000000	7.526633
1953.000000	7.507362
1952.000000	7.491244
1951.000000	7.484821
1950.000000	7.448497
1949.000000	7.435183
1948.000000	7.389048
1947.000000	7.367909
1946.000000	7.366857
1945.000000	7.349455
1944.000000	7.352024
1943.000000	7.328198
1942.000000	7.301919
1941.000000	7.283349
1940.000000	7.290941
1939.000000	7.276341
1938.000000	7.287320
1937.000000	7.276458
1936.000000	7.300985
1935.000000	7.282414
1934.000000	7.286385
1933.000000	7.295379
1932.000000	7.312197
1931.000000	7.347586
1930.000000	7.334856
1929.000000	7.327731
1928.000000	7.368259
1927.000000	7.398275
1926.000000	7.431796
1925.000000	7.458308
1924.000000	7.476294
1923.000000	7.519275
1922.000000	7.569497
1921.000000	7.611427
1920.000000	7.670058
1919.000000	7.747143
1918.000000	7.775641
1917.000000	7.826680
1916.000000	7.893721
1915.000000	7.937986
1914.000000	7.966367
1913.000000	8.065877
1912.000000	8.165503
1911.000000	8.234879
1910.000000	8.335323
1909.000000	8.418365
1908.000000	8.462163
1907.000000	8.535861
1906.000000	8.669941
1905.000000	8.765597
1904.000000	8.883443
1903.000000	9.005844
1902.000000	9.109792
1901.000000	9.200659
1900.000000	9.329951
1899.000000	9.488092
1898.000000	9.663985
1897.000000	9.802855
1896.000000	9.946046
1895.000000	10.048475
1894.000000	10.189914
1893.000000	10.345953
1892.000000	10.482953
1891.000000	10.699375
1890.000000	10.915096
1889.000000	11.105939
1888.000000	11.309396
1887.000000	11.521964
1886.000000	11.758474
1885.000000	11.997203
1884.000000	12.283702
1883.000000	12.633737
1882.000000	12.992882
1881.000000	13.311733
1880.000000	13.669360
1879.000000	14.006081
1878.000000	14.323647
1877.000000	14.695873
1876.000000	15.036915
1875.000000	15.356116
1874.000000	15.669945
1873.000000	15.994169
1872.000000	16.341518
1871.000000	16.652310
1870.000000	16.965087
1869.000000	17.250651
1868.000000	17.554202
1867.000000	17.758711
1866.000000	17.937758
1865.000000	18.080598
1864.000000	18.209073
1863.000000	18.314305
1862.000000	18.389638
1861.000000	18.513675
1860.000000	18.615287
1859.000000	18.707204
1858.000000	18.820379
1857.000000	18.883448
1856.000000	18.918137
1855.000000	18.949671
1854.000000	18.972329
1853.000000	19.015544
1852.000000	19.021500
1851.000000	19.003280
1850.000000	18.984943
1849.000000	18.965555
1848.000000	18.953409
1847.000000	18.963687
1846.000000	18.967190
1845.000000	18.945116
1844.000000	18.883565
1843.000000	18.803210
1842.000000	18.771325
1841.000000	18.793516
1840.000000	18.801575
1839.000000	18.791881
1838.000000	18.760113
1837.000000	18.721687
1836.000000	18.701131
1835.000000	18.681977
1834.000000	18.651493
1833.000000	18.594263
1832.000000	18.509587
1831.000000	18.439510
1830.000000	18.400267
1829.000000	18.363126
1828.000000	18.300407
1827.000000	18.239556
1826.000000	18.188867
1825.000000	18.144485
1824.000000	18.090292
1823.000000	18.039253
1822.000000	17.995454
1821.000000	17.967190
1820.000000	17.972563
1819.000000	17.954810
1818.000000	17.927129
1817.000000	17.897346
1816.000000	17.871535
1815.000000	17.863593
1814.000000	17.878075
1813.000000	17.868381
1812.000000	17.856235
1811.000000	17.831474
1810.000000	17.805312
1809.000000	17.787559
1808.000000	17.755440
1807.000000	17.714445
1806.000000	17.673216
1805.000000	17.646470
1804.000000	17.604541
1803.000000	17.544158
1802.000000	17.508652
1801.000000	17.482490
1800.000000	17.439976
1799.000000	17.396529
1798.000000	17.355533
1797.000000	17.302742
1796.000000	17.258360
1795.000000	17.229278
1794.000000	17.204751
1793.000000	17.155930
1792.000000	17.104190
1791.000000	17.062611
1790.000000	17.009586
1789.000000	16.960883
1788.000000	16.919303
1787.000000	16.863826
1786.000000	16.792347
1785.000000	16.739205
1784.000000	16.697743
1783.000000	16.641564
1782.000000	16.568451
1781.000000	16.505848
1780.000000	16.436822
1779.000000	16.374220
1778.000000	16.320378
1777.000000	16.258243
1776.000000	16.183260
1775.000000	16.100569
1774.000000	16.023017
1773.000000	15.928647
1772.000000	15.825750
1771.000000	15.748432
1770.000000	15.653711
1769.000000	15.556303
1768.000000	15.469174
1767.000000	15.384731
1766.000000	15.303559
1765.000000	15.233832
1764.000000	15.190851
1763.000000	15.161652
1762.000000	15.141797
1761.000000	15.158382
1760.000000	15.174850
1759.000000	15.224371
1758.000000	15.267002
1757.000000	15.322713
1756.000000	15.398747
1755.000000	15.444297
1754.000000	15.474897
1753.000000	15.482489
1752.000000	15.497672
1751.000000	15.527689
1750.000000	15.506899
1749.000000	15.474080
1748.000000	15.453524
1747.000000	15.441494
1746.000000	15.372468
1745.000000	15.295850
1744.000000	15.202414
1743.000000	15.110496
1742.000000	14.985992
1741.000000	14.848291
1740.000000	14.698092
1739.000000	14.539601
1738.000000	14.393490
1737.000000	14.227758
1736.000000	14.102320
1735.000000	14.006548
1734.000000	13.951070
1733.000000	13.893840
1732.000000	13.897695
1731.000000	13.907155
1730.000000	13.923390
1729.000000	13.985758
1728.000000	14.072420
1727.000000	14.157447
1726.000000	14.234766
1725.000000	14.284404
1724.000000	14.353079
1723.000000	14.393257
1722.000000	14.437873
1721.000000	14.440092
1720.000000	14.485642
1719.000000	14.482021
1718.000000	14.528622
1717.000000	14.571720
1716.000000	14.588071
1715.000000	14.636074
1714.000000	14.707669
1713.000000	14.757775
1712.000000	14.793047
1711.000000	14.831823
1710.000000	14.877606
1709.000000	14.893607
1708.000000	14.899798
1707.000000	14.874103
1706.000000	14.854831
1705.000000	14.837546
1704.000000	14.812201
1703.000000	14.763030
1702.000000	14.731963
1701.000000	14.645651
1700.000000	14.539251
1699.000000	14.430748
1698.000000	14.342334
1697.000000	14.238503
1696.000000	14.137008
1695.000000	14.104422
1694.000000	14.093093
1693.000000	14.103371
1692.000000	14.205684
1691.000000	14.282535
1690.000000	14.388585
1689.000000	14.521498
1688.000000	14.613299
1687.000000	14.671580
1686.000000	14.701479
1685.000000	14.742942
1684.000000	14.762797
1683.000000	14.854831
1682.000000	14.981554
1681.000000	15.214444
1680.000000	15.549179
1679.000000	15.884264
1678.000000	16.276112
1677.000000	16.715729
1676.000000	17.122877
1675.000000	17.509353
1674.000000	17.848993
1673.000000	18.141565
1672.000000	18.400033
1671.000000	18.649040
1670.000000	18.839884
1669.000000	19.016011
1668.000000	19.146471
1667.000000	19.305313
1666.000000	19.422458
1665.000000	19.512507
1664.000000	19.602206
1663.000000	19.671582
1662.000000	19.754040
1661.000000	19.810218
1660.000000	19.866864
1659.000000	19.869200
1658.000000	19.928765
1657.000000	19.945934
1656.000000	19.978987
1655.000000	20.001062
1654.000000	20.027808
1653.000000	20.001062
1652.000000	19.997791
1651.000000	19.995923
1650.000000	19.959599
1649.000000	19.940678
1648.000000	19.927013
1647.000000	19.895946
1646.000000	19.854133
1645.000000	19.796086
1644.000000	19.767471
1643.000000	19.703000
1642.000000	19.658384
1641.000000	19.617039
1640.000000	19.564014
1639.000000	19.521734
1638.000000	19.448854
1637.000000	19.406457
1636.000000	19.350629
1635.000000	19.275413
1634.000000	19.203117
1633.000000	19.138646
1632.000000	19.090993
1631.000000	19.036100
1630.000000	18.962402
1629.000000	18.895478
1628.000000	18.809400
1627.000000	18.759645
1626.000000	18.700080
1625.000000	18.616338
1624.000000	18.546027
1623.000000	18.459131
1622.000000	18.387302
1621.000000	18.339650
1620.000000	18.262448
1619.000000	18.190502
1618.000000	18.146938
1617.000000	18.096833
1616.000000	18.020565
1615.000000	17.941612
1614.000000	17.896879
1613.000000	17.832875
1612.000000	17.784873
1611.000000	17.704518
1610.000000	17.665391
1609.000000	17.587022
1608.000000	17.557239
1607.000000	17.490315
1606.000000	17.431334
1605.000000	17.378075
1604.000000	17.328904
1603.000000	17.282186
1602.000000	17.193188
1601.000000	17.130002
1600.000000	17.093562
1599.000000	17.033763
1598.000000	16.967540
1597.000000	16.944298
1596.000000	16.887185
1595.000000	16.804143
1594.000000	16.763265
1593.000000	16.741541
1592.000000	16.677421
1591.000000	16.637827
1590.000000	16.591926
1589.000000	16.554902
1588.000000	16.516827
1587.000000	16.478869
1586.000000	16.442779
1585.000000	16.407740
1584.000000	16.377490
1583.000000	16.343036
1582.000000	16.305545
1581.000000	16.284171
1580.000000	16.261396
