PE UV       SUBTECH     SPECTRUM    ASCII       PEDS        4.00        
   -1
CICIMAUCR0253-1.Sample.ASC
24/06/26
16:05:43.00
24/06/26
16:05:43.00
Vinicio Soto Monge
C. resplendens. Sex M. Ventral
250,000000
1
Lambda 1050
1050L1511233
PerkinElmer UV WinLab 6.3.2.0749 / 2.02.05 Lambda 900 UV/VIS/NIR, Aug  7 2015 09:38:08

0
0
3350/servo 860,8/2
0
0
UV/VIS
1
1
1
DoubleDePol,CommonBeamDepol,RBeamAtt,SBeamAtt,60mm sphere, WB InGaAs Detector
0
0
0
0
Program
Program
3350/servo 860,8/2
3350/0,2 860,8/0,2
3350/0,2 860,8/0,2
0
15.00
 
 
 
0
 
860,8
319,2
860,8
Front
100
on
S:100 R:100
0
0
0
0
 
0
 
 
 
0
 
 
0
0
0
0
0
 
 
 
 
0
0


0
0
#HDR
-1
-1
#GR
nm
%R
1.0
0.0
2500,000000
-1,000000
2251
8
61,810600
4,609400
#DATA
2482.000000	6.196493
2481.000000	6.155095
2480.000000	6.174663
2479.000000	6.164822
2478.000000	6.244903
2477.000000	6.251463
2476.000000	6.231556
2475.000000	6.196719
2474.000000	6.231217
2473.000000	6.167085
2472.000000	6.218322
2471.000000	6.128289
2470.000000	6.149892
2469.000000	6.155208
2468.000000	6.169007
2467.000000	6.156792
2466.000000	6.178169
2465.000000	6.166858
2464.000000	6.205202
2463.000000	6.182354
2462.000000	6.207577
2461.000000	6.201809
2460.000000	6.217870
2459.000000	6.228389
2458.000000	6.212780
2457.000000	6.216060
2456.000000	6.259607
2455.000000	6.280192
2454.000000	6.292182
2453.000000	6.298403
2452.000000	6.340931
2451.000000	6.375881
2450.000000	6.398729
2449.000000	6.409927
2448.000000	6.397937
2447.000000	6.476774
2446.000000	6.500526
2445.000000	6.510027
2444.000000	6.520886
2443.000000	6.543960
2442.000000	6.592143
2441.000000	6.607413
2440.000000	6.624379
2439.000000	6.653222
2438.000000	6.679123
2437.000000	6.714187
2436.000000	6.763162
2435.000000	6.798113
2434.000000	6.789516
2433.000000	6.800601
2432.000000	6.829896
2431.000000	6.871519
2430.000000	6.882152
2429.000000	6.892897
2428.000000	6.923210
2427.000000	6.927960
2426.000000	6.958952
2425.000000	6.982139
2424.000000	7.007136
2423.000000	7.009285
2422.000000	7.019917
2421.000000	7.040842
2420.000000	7.054528
2419.000000	7.074322
2418.000000	7.087442
2417.000000	7.115267
2416.000000	7.126804
2415.000000	7.143996
2414.000000	7.159605
2413.000000	7.179964
2412.000000	7.194216
2411.000000	7.212313
2410.000000	7.220231
2409.000000	7.238102
2408.000000	7.242060
2407.000000	7.247489
2406.000000	7.255746
2405.000000	7.273957
2404.000000	7.288887
2403.000000	7.305966
2402.000000	7.325873
2401.000000	7.328475
2400.000000	7.334809
2399.000000	7.360145
2398.000000	7.369533
2397.000000	7.392267
2396.000000	7.412061
2395.000000	7.438642
2394.000000	7.445880
2393.000000	7.470538
2392.000000	7.503000
2391.000000	7.525282
2390.000000	7.538063
2389.000000	7.540438
2388.000000	7.533200
2387.000000	7.544058
2386.000000	7.568376
2385.000000	7.585568
2384.000000	7.590771
2383.000000	7.597445
2382.000000	7.607059
2381.000000	7.625495
2380.000000	7.620745
2379.000000	7.628323
2378.000000	7.652981
2377.000000	7.633300
2376.000000	7.626174
2375.000000	7.624364
2374.000000	7.616560
2373.000000	7.620519
2372.000000	7.624817
2371.000000	7.618370
2370.000000	7.627871
2369.000000	7.623007
2368.000000	7.617012
2367.000000	7.615655
2366.000000	7.607511
2365.000000	7.602761
2364.000000	7.601630
2363.000000	7.585116
2362.000000	7.558536
2361.000000	7.547338
2360.000000	7.540778
2359.000000	7.534670
2358.000000	7.532295
2357.000000	7.515329
2356.000000	7.499154
2355.000000	7.500738
2354.000000	7.493612
2353.000000	7.484337
2352.000000	7.501190
2351.000000	7.496553
2350.000000	7.496892
2349.000000	7.503905
2348.000000	7.500625
2347.000000	7.514197
2346.000000	7.536593
2345.000000	7.548695
2344.000000	7.557178
2343.000000	7.569394
2342.000000	7.589980
2341.000000	7.598915
2340.000000	7.604571
2339.000000	7.633865
2338.000000	7.636241
2337.000000	7.632282
2336.000000	7.663160
2335.000000	7.682841
2334.000000	7.669721
2333.000000	7.659880
2332.000000	7.676168
2331.000000	7.671870
2330.000000	7.677525
2329.000000	7.688496
2328.000000	7.657392
2327.000000	7.625043
2326.000000	7.637259
2325.000000	7.626627
2324.000000	7.605475
2323.000000	7.583872
2322.000000	7.571656
2321.000000	7.536367
2320.000000	7.508655
2319.000000	7.473592
2318.000000	7.439999
2317.000000	7.429140
2316.000000	7.394982
2315.000000	7.354942
2314.000000	7.324516
2313.000000	7.291262
2312.000000	7.237536
2311.000000	7.209825
2310.000000	7.174761
2309.000000	7.153497
2308.000000	7.145127
2307.000000	7.134834
2306.000000	7.125559
2305.000000	7.101920
2304.000000	7.100449
2303.000000	7.107688
2302.000000	7.127030
2301.000000	7.134042
2300.000000	7.149651
2299.000000	7.156325
2298.000000	7.179399
2297.000000	7.216046
2296.000000	7.242513
2295.000000	7.287869
2294.000000	7.331415
2293.000000	7.336618
2292.000000	7.355734
2291.000000	7.372134
2290.000000	7.401881
2289.000000	7.423598
2288.000000	7.437397
2287.000000	7.441017
2286.000000	7.448482
2285.000000	7.449387
2284.000000	7.443279
2283.000000	7.437963
2282.000000	7.450292
2281.000000	7.416246
2280.000000	7.411269
2279.000000	7.412627
2278.000000	7.377337
2277.000000	7.367384
2276.000000	7.353698
2275.000000	7.326326
2274.000000	7.302234
2273.000000	7.296918
2272.000000	7.282553
2271.000000	7.278933
2270.000000	7.312074
2269.000000	7.304609
2268.000000	7.319200
2267.000000	7.337410
2266.000000	7.357430
2265.000000	7.407424
2264.000000	7.447803
2263.000000	7.495648
2262.000000	7.542701
2261.000000	7.616107
2260.000000	7.686800
2259.000000	7.751611
2258.000000	7.854199
2257.000000	7.935411
2256.000000	8.031891
2255.000000	8.146922
2254.000000	8.255732
2253.000000	8.356284
2252.000000	8.420756
2251.000000	8.537822
2250.000000	8.657829
2249.000000	8.736100
2248.000000	8.839028
2247.000000	8.921257
2246.000000	9.006427
2245.000000	9.095217
2244.000000	9.148378
2243.000000	9.222011
2242.000000	9.274719
2241.000000	9.363395
2240.000000	9.407281
2239.000000	9.461347
2238.000000	9.521068
2237.000000	9.559977
2236.000000	9.561221
2235.000000	9.613590
2234.000000	9.639378
2233.000000	9.693896
2232.000000	9.676477
2231.000000	9.693444
2230.000000	9.729186
2229.000000	9.768208
2228.000000	9.756897
2227.000000	9.767077
2226.000000	9.792074
2225.000000	9.771036
2224.000000	9.775786
2223.000000	9.762892
2222.000000	9.757915
2221.000000	9.729751
2220.000000	9.719345
2219.000000	9.709505
2218.000000	9.679192
2217.000000	9.664149
2216.000000	9.655326
2215.000000	9.627615
2214.000000	9.617888
2213.000000	9.602844
2212.000000	9.577621
2211.000000	9.548553
2210.000000	9.551041
2209.000000	9.523556
2208.000000	9.530682
2207.000000	9.522651
2206.000000	9.504328
2205.000000	9.490302
2204.000000	9.481706
2203.000000	9.465871
2202.000000	9.454221
2201.000000	9.444380
2200.000000	9.446077
2199.000000	9.452977
2198.000000	9.444946
2197.000000	9.442118
2196.000000	9.415312
2195.000000	9.394048
2194.000000	9.411014
2193.000000	9.412371
2192.000000	9.392125
2191.000000	9.400947
2190.000000	9.386017
2189.000000	9.370634
2188.000000	9.374367
2187.000000	9.381832
2186.000000	9.361925
2185.000000	9.351180
2184.000000	9.335684
2183.000000	9.327766
2182.000000	9.351067
2181.000000	9.329237
2180.000000	9.330594
2179.000000	9.346655
2178.000000	9.325391
2177.000000	9.293269
2176.000000	9.299716
2175.000000	9.317926
2174.000000	9.314307
2173.000000	9.298132
2172.000000	9.295078
2171.000000	9.306615
2170.000000	9.314420
2169.000000	9.320075
2168.000000	9.312836
2167.000000	9.317361
2166.000000	9.329802
2165.000000	9.351745
2164.000000	9.347560
2163.000000	9.363056
2162.000000	9.360228
2161.000000	9.392012
2160.000000	9.402983
2159.000000	9.415990
2158.000000	9.429790
2157.000000	9.445625
2156.000000	9.473562
2155.000000	9.485212
2154.000000	9.502405
2153.000000	9.527741
2152.000000	9.552398
2151.000000	9.585539
2150.000000	9.611327
2149.000000	9.641188
2148.000000	9.675346
2147.000000	9.690277
2146.000000	9.692765
2145.000000	9.731787
2144.000000	9.760517
2143.000000	9.776465
2142.000000	9.798068
2141.000000	9.825893
2140.000000	9.854735
2139.000000	9.867743
2138.000000	9.879506
2137.000000	9.911855
2136.000000	9.912759
2135.000000	9.922487
2134.000000	9.953478
2133.000000	9.962074
2132.000000	9.966599
2131.000000	9.976439
2130.000000	9.984017
2129.000000	9.998834
2128.000000	10.009353
2127.000000	10.015574
2126.000000	10.024284
2125.000000	10.022361
2124.000000	10.030278
2123.000000	10.026772
2122.000000	10.047358
2121.000000	10.041815
2120.000000	10.015461
2119.000000	10.007544
2118.000000	9.990238
2117.000000	10.006865
2116.000000	9.998608
2115.000000	9.991709
2114.000000	9.965581
2113.000000	9.968182
2112.000000	9.946126
2111.000000	9.929726
2110.000000	9.914682
2109.000000	9.913777
2108.000000	9.922374
2107.000000	9.894662
2106.000000	9.862540
2105.000000	9.862653
2104.000000	9.842520
2103.000000	9.820351
2102.000000	9.825214
2101.000000	9.804629
2100.000000	9.782686
2099.000000	9.777143
2098.000000	9.758028
2097.000000	9.758141
2096.000000	9.753617
2095.000000	9.730656
2094.000000	9.729299
2093.000000	9.729977
2092.000000	9.716744
2091.000000	9.697516
2090.000000	9.688354
2089.000000	9.672971
2088.000000	9.670596
2087.000000	9.672858
2086.000000	9.656231
2085.000000	9.627954
2084.000000	9.609857
2083.000000	9.612345
2082.000000	9.600922
2081.000000	9.578752
2080.000000	9.576151
2079.000000	9.559977
2078.000000	9.527175
2077.000000	9.496523
2076.000000	9.479444
2075.000000	9.455804
2074.000000	9.412258
2073.000000	9.393595
2072.000000	9.369616
2071.000000	9.345524
2070.000000	9.330142
2069.000000	9.289423
2068.000000	9.259223
2067.000000	9.233774
2066.000000	9.202217
2065.000000	9.178577
2064.000000	9.140008
2063.000000	9.098045
2062.000000	9.076328
2061.000000	9.050313
2060.000000	9.028257
2059.000000	9.004391
2058.000000	8.982222
2057.000000	8.971477
2056.000000	8.957226
2055.000000	8.928270
2054.000000	8.942748
2053.000000	8.959375
2052.000000	8.941391
2051.000000	8.964578
2050.000000	8.988443
2049.000000	9.023054
2048.000000	9.044092
2047.000000	9.073953
2046.000000	9.104152
2045.000000	9.140234
2044.000000	9.175750
2043.000000	9.214546
2042.000000	9.232304
2041.000000	9.266462
2040.000000	9.322903
2039.000000	9.365544
2038.000000	9.395970
2037.000000	9.426283
2036.000000	9.467794
2035.000000	9.495279
2034.000000	9.525252
2033.000000	9.550476
2032.000000	9.569591
2031.000000	9.601148
2030.000000	9.630782
2029.000000	9.645147
2028.000000	9.665506
2027.000000	9.683603
2026.000000	9.689937
2025.000000	9.687449
2024.000000	9.696724
2023.000000	9.717309
2022.000000	9.724435
2021.000000	9.714821
2020.000000	9.735972
2019.000000	9.732240
2018.000000	9.723078
2017.000000	9.737103
2016.000000	9.741741
2015.000000	9.736311
2014.000000	9.716065
2013.000000	9.713577
2012.000000	9.710636
2011.000000	9.690164
2010.000000	9.669917
2009.000000	9.664941
2008.000000	9.636890
2007.000000	9.631234
2006.000000	9.602618
2005.000000	9.591986
2004.000000	9.599112
2003.000000	9.557828
2002.000000	9.513829
2001.000000	9.486457
2000.000000	9.478200
1999.000000	9.442345
1998.000000	9.426283
1997.000000	9.386356
1996.000000	9.330933
1995.000000	9.305484
1994.000000	9.268385
1993.000000	9.251193
1992.000000	9.210474
1991.000000	9.175071
1990.000000	9.132543
1989.000000	9.106528
1988.000000	9.077007
1987.000000	9.035496
1986.000000	8.972156
1985.000000	8.963447
1984.000000	8.914697
1983.000000	8.880199
1982.000000	8.814257
1981.000000	8.785528
1980.000000	8.788130
1979.000000	8.736552
1978.000000	8.704543
1977.000000	8.657716
1976.000000	8.606818
1975.000000	8.583065
1974.000000	8.558408
1973.000000	8.520517
1972.000000	8.464755
1971.000000	8.427768
1970.000000	8.412499
1969.000000	8.372233
1968.000000	8.347914
1967.000000	8.298486
1966.000000	8.279371
1965.000000	8.243177
1964.000000	8.196916
1963.000000	8.173050
1962.000000	8.148958
1961.000000	8.110501
1960.000000	8.084600
1959.000000	8.071366
1958.000000	8.035285
1957.000000	8.017640
1956.000000	7.964253
1955.000000	7.960747
1954.000000	7.930660
1953.000000	7.897746
1952.000000	7.867320
1951.000000	7.841079
1950.000000	7.815290
1949.000000	7.797532
1948.000000	7.795044
1947.000000	7.768124
1946.000000	7.759189
1945.000000	7.694944
1944.000000	7.692455
1943.000000	7.719149
1942.000000	7.685556
1941.000000	7.642575
1940.000000	7.646647
1939.000000	7.643253
1938.000000	7.639973
1937.000000	7.645968
1936.000000	7.607398
1935.000000	7.628662
1934.000000	7.640539
1933.000000	7.647778
1932.000000	7.638503
1931.000000	7.690645
1930.000000	7.682615
1929.000000	7.712362
1928.000000	7.718922
1927.000000	7.745955
1926.000000	7.789954
1925.000000	7.795949
1924.000000	7.834292
1923.000000	7.888132
1922.000000	7.924100
1921.000000	7.957467
1920.000000	7.995358
1919.000000	8.060055
1918.000000	8.118193
1917.000000	8.148392
1916.000000	8.242046
1915.000000	8.314434
1914.000000	8.353117
1913.000000	8.439984
1912.000000	8.523005
1911.000000	8.631588
1910.000000	8.701489
1909.000000	8.770824
1908.000000	8.869002
1907.000000	8.960393
1906.000000	9.072595
1905.000000	9.191811
1904.000000	9.331047
1903.000000	9.440309
1902.000000	9.580788
1901.000000	9.694349
1900.000000	9.873285
1899.000000	10.017610
1898.000000	10.198583
1897.000000	10.383514
1896.000000	10.556229
1895.000000	10.746024
1894.000000	10.913650
1893.000000	11.112606
1892.000000	11.311789
1891.000000	11.564132
1890.000000	11.819642
1889.000000	12.081260
1888.000000	12.346046
1887.000000	12.630398
1886.000000	12.914186
1885.000000	13.228625
1884.000000	13.564103
1883.000000	13.918921
1882.000000	14.287992
1881.000000	14.648014
1880.000000	15.030883
1879.000000	15.372242
1878.000000	15.742670
1877.000000	16.112419
1876.000000	16.483299
1875.000000	16.854180
1874.000000	17.229245
1873.000000	17.580783
1872.000000	17.938656
1871.000000	18.278771
1870.000000	18.621940
1869.000000	18.949726
1868.000000	19.258397
1867.000000	19.505085
1866.000000	19.736390
1865.000000	19.930483
1864.000000	20.117789
1863.000000	20.289261
1862.000000	20.451118
1861.000000	20.599402
1860.000000	20.783654
1859.000000	20.947095
1858.000000	21.090516
1857.000000	21.238121
1856.000000	21.335507
1855.000000	21.407670
1854.000000	21.480059
1853.000000	21.578802
1852.000000	21.637504
1851.000000	21.671663
1850.000000	21.722901
1849.000000	21.773686
1848.000000	21.784884
1847.000000	21.805583
1846.000000	21.825716
1845.000000	21.817911
1844.000000	21.794046
1843.000000	21.787598
1842.000000	21.793706
1841.000000	21.818137
1840.000000	21.830466
1839.000000	21.808523
1838.000000	21.810220
1837.000000	21.792236
1836.000000	21.761357
1835.000000	21.738170
1834.000000	21.699148
1833.000000	21.660692
1832.000000	21.623366
1831.000000	21.585362
1830.000000	21.547131
1829.000000	21.508222
1828.000000	21.477005
1827.000000	21.420564
1826.000000	21.366046
1825.000000	21.333471
1824.000000	21.281215
1823.000000	21.233371
1822.000000	21.209844
1821.000000	21.195027
1820.000000	21.174781
1819.000000	21.148314
1818.000000	21.120150
1817.000000	21.089611
1816.000000	21.082033
1815.000000	21.057488
1814.000000	21.047535
1813.000000	21.046290
1812.000000	21.020502
1811.000000	20.981027
1810.000000	20.956709
1809.000000	20.933070
1808.000000	20.898911
1807.000000	20.863056
1806.000000	20.836476
1805.000000	20.805145
1804.000000	20.761825
1803.000000	20.706628
1802.000000	20.670094
1801.000000	20.641139
1800.000000	20.590466
1799.000000	20.538776
1798.000000	20.493533
1797.000000	20.464238
1796.000000	20.422954
1795.000000	20.380991
1794.000000	20.357351
1793.000000	20.317990
1792.000000	20.261662
1791.000000	20.222414
1790.000000	20.189613
1789.000000	20.152626
1788.000000	20.107157
1787.000000	20.062140
1786.000000	20.020969
1785.000000	19.984435
1784.000000	19.937383
1783.000000	19.901527
1782.000000	19.856624
1781.000000	19.796111
1780.000000	19.765911
1779.000000	19.703928
1778.000000	19.642285
1777.000000	19.589237
1776.000000	19.540488
1775.000000	19.479070
1774.000000	19.414825
1773.000000	19.348204
1772.000000	19.276494
1771.000000	19.198224
1770.000000	19.114863
1769.000000	19.049148
1768.000000	18.984337
1767.000000	18.905501
1766.000000	18.830737
1765.000000	18.763098
1764.000000	18.720796
1763.000000	18.695347
1762.000000	18.673178
1761.000000	18.677136
1760.000000	18.708467
1759.000000	18.745001
1758.000000	18.772599
1757.000000	18.821462
1756.000000	18.854942
1755.000000	18.910591
1754.000000	18.958322
1753.000000	18.990445
1752.000000	19.027318
1751.000000	19.046659
1750.000000	19.045415
1749.000000	19.034331
1748.000000	19.032973
1747.000000	19.006845
1746.000000	18.960471
1745.000000	18.915454
1744.000000	18.847137
1743.000000	18.777350
1742.000000	18.676232
1741.000000	18.572738
1740.000000	18.456237
1739.000000	18.312364
1738.000000	18.178445
1737.000000	18.051085
1736.000000	17.940353
1735.000000	17.826340
1734.000000	17.743545
1733.000000	17.685634
1732.000000	17.648874
1731.000000	17.634283
1730.000000	17.655661
1729.000000	17.707690
1728.000000	17.741623
1727.000000	17.794331
1726.000000	17.863100
1725.000000	17.922142
1724.000000	17.983221
1723.000000	18.039661
1722.000000	18.080719
1721.000000	18.136934
1720.000000	18.176069
1719.000000	18.206721
1718.000000	18.280920
1717.000000	18.349803
1716.000000	18.416649
1715.000000	18.510189
1714.000000	18.573982
1713.000000	18.681774
1712.000000	18.755520
1711.000000	18.808454
1710.000000	18.854489
1709.000000	18.930158
1708.000000	18.956060
1707.000000	18.966579
1706.000000	18.958209
1705.000000	18.924842
1704.000000	18.929593
1703.000000	18.862746
1702.000000	18.794995
1701.000000	18.751901
1700.000000	18.680530
1699.000000	18.586876
1698.000000	18.491979
1697.000000	18.397195
1696.000000	18.322544
1695.000000	18.241332
1694.000000	18.214526
1693.000000	18.187946
1692.000000	18.232510
1691.000000	18.277753
1690.000000	18.365185
1689.000000	18.451373
1688.000000	18.537448
1687.000000	18.627821
1686.000000	18.703151
1685.000000	18.777802
1684.000000	18.853132
1683.000000	18.974610
1682.000000	19.114863
1681.000000	19.300925
1680.000000	19.575777
1679.000000	19.882412
1678.000000	20.212008
1677.000000	20.600420
1676.000000	20.978765
1675.000000	21.330417
1674.000000	21.643273
1673.000000	21.972869
1672.000000	22.223968
1671.000000	22.453916
1670.000000	22.653777
1669.000000	22.843685
1668.000000	23.025449
1667.000000	23.192509
1666.000000	23.291818
1665.000000	23.416463
1664.000000	23.508758
1663.000000	23.625146
1662.000000	23.672878
1661.000000	23.750696
1660.000000	23.805892
1659.000000	23.844462
1658.000000	23.918548
1657.000000	23.957570
1656.000000	23.977137
1655.000000	23.998062
1654.000000	24.019213
1653.000000	24.005075
1652.000000	23.991050
1651.000000	23.968428
1650.000000	23.957909
1649.000000	23.942753
1648.000000	23.912327
1647.000000	23.886425
1646.000000	23.859279
1645.000000	23.811435
1644.000000	23.758840
1643.000000	23.713710
1642.000000	23.661454
1641.000000	23.617907
1640.000000	23.565765
1639.000000	23.506496
1638.000000	23.455145
1637.000000	23.398026
1636.000000	23.358664
1635.000000	23.306069
1634.000000	23.236056
1633.000000	23.171697
1632.000000	23.128264
1631.000000	23.055649
1630.000000	22.969008
1629.000000	22.897637
1628.000000	22.848096
1627.000000	22.757384
1626.000000	22.689745
1625.000000	22.598694
1624.000000	22.539312
1623.000000	22.448487
1622.000000	22.397136
1621.000000	22.338772
1620.000000	22.265478
1619.000000	22.194447
1618.000000	22.127035
1617.000000	22.047972
1616.000000	21.988704
1615.000000	21.923328
1614.000000	21.857838
1613.000000	21.779568
1612.000000	21.726860
1611.000000	21.661483
1610.000000	21.604138
1609.000000	21.531183
1608.000000	21.454722
1607.000000	21.388668
1606.000000	21.320237
1605.000000	21.275560
1604.000000	21.192991
1603.000000	21.104428
1602.000000	21.051493
1601.000000	20.985099
1600.000000	20.899590
1599.000000	20.815890
1598.000000	20.769177
1597.000000	20.709003
1596.000000	20.623494
1595.000000	20.576780
1594.000000	20.502356
1593.000000	20.431889
1592.000000	20.381217
1591.000000	20.321270
1590.000000	20.237005
1589.000000	20.190631
1588.000000	20.125820
1587.000000	20.079785
1586.000000	20.021422
1585.000000	19.978441
1584.000000	19.929917
1583.000000	19.874382
1582.000000	19.841354
1581.000000	19.786723
