PE UV       SUBTECH     SPECTRUM    ASCII       PEDS        4.00        
   -1
CICIMAUCR0101-2.Sample.ASC
24/04/11
13:49:31.00
24/04/11
13:49:31.00
Vinicio Soto Monge
C. resplendens
250,000000
1
Lambda 1050
1050L1511233
PerkinElmer UV WinLab 6.3.2.0749 / 2.02.05 Lambda 900 UV/VIS/NIR, Aug  7 2015 09:38:08

0
0
3350/2 860,8/2
0
0
UV/VIS
1
1
1
DoubleDePol,CommonBeamDepol,RBeamAtt,SBeamAtt,60mm sphere, WB InGaAs Detector
0
0
0
0
Program
Program
3350/2 860,8/2
3350/0,2 860,8/0,2
3350/0,2 860,8/0,2
0
15.00
 
 
 
0
 
860,8
319,2
860,8
Front
100
on
S:100 R:100
0
0
0
0
 
0
 
 
 
0
 
 
0
0
0
0
0
 
 
 
 
0
0


0
0
#HDR
-1
-1
#GR
nm
%R
1.0
0.0
2400,000000
-1,000000
2151
8
91,058000
6,062600
#DATA
2382.000000	8.535400
2381.000000	8.187325
2380.000000	8.932132
2379.000000	8.860761
2378.000000	9.680977
2377.000000	9.478573
2376.000000	8.903866
2375.000000	9.209037
2374.000000	8.867827
2373.000000	9.403769
2372.000000	9.091532
2371.000000	8.133014
2370.000000	8.772430
2369.000000	8.860660
2368.000000	8.281915
2367.000000	7.997237
2366.000000	9.345017
2365.000000	9.146751
2364.000000	8.258899
2363.000000	9.176935
2362.000000	9.171787
2361.000000	8.903967
2360.000000	9.007037
2359.000000	9.250528
2358.000000	8.929810
2357.000000	8.837744
2356.000000	8.394272
2355.000000	8.507235
2354.000000	8.922845
2353.000000	8.801806
2352.000000	9.306454
2351.000000	8.281108
2350.000000	8.949193
2349.000000	8.350561
2348.000000	8.440305
2347.000000	8.894377
2346.000000	8.137658
2345.000000	8.125544
2344.000000	8.256173
2343.000000	8.520661
2342.000000	8.013288
2341.000000	8.767786
2340.000000	8.478464
2339.000000	9.050748
2338.000000	8.561849
2337.000000	8.214481
2336.000000	7.920212
2335.000000	8.255264
2334.000000	8.676931
2333.000000	7.980580
2332.000000	8.140787
2331.000000	8.759004
2330.000000	8.655631
2329.000000	7.917689
2328.000000	7.484715
2327.000000	7.686716
2326.000000	8.170467
2325.000000	8.791106
2324.000000	8.468470
2323.000000	8.139374
2322.000000	7.837333
2321.000000	7.898407
2320.000000	7.869838
2319.000000	8.469984
2318.000000	8.022777
2317.000000	8.176120
2316.000000	7.980782
2315.000000	7.852980
2314.000000	8.201761
2313.000000	7.799779
2312.000000	7.539531
2311.000000	7.524086
2310.000000	7.967053
2309.000000	7.619079
2308.000000	7.135833
2307.000000	6.848631
2306.000000	7.392851
2305.000000	7.765658
2304.000000	7.690047
2303.000000	7.421622
2302.000000	7.412536
2301.000000	7.413041
2300.000000	7.606864
2299.000000	7.547203
2298.000000	7.356004
2297.000000	7.740825
2296.000000	7.892552
2295.000000	7.914458
2294.000000	7.876804
2293.000000	7.959886
2292.000000	7.980479
2291.000000	7.891543
2290.000000	7.485523
2289.000000	7.515707
2288.000000	7.689037
2287.000000	7.476538
2286.000000	7.672885
2285.000000	7.688936
2284.000000	7.746074
2283.000000	7.869031
2282.000000	7.522067
2281.000000	7.371551
2280.000000	7.677428
2279.000000	7.906079
2278.000000	7.781003
2277.000000	7.857926
2276.000000	7.638563
2275.000000	7.536906
2274.000000	7.742844
2273.000000	7.482494
2272.000000	7.260506
2271.000000	7.252935
2270.000000	7.157840
2269.000000	7.567898
2268.000000	7.944440
2267.000000	7.934345
2266.000000	7.949690
2265.000000	7.856412
2264.000000	8.031863
2263.000000	8.303115
2262.000000	8.011168
2261.000000	8.124736
2260.000000	8.364492
2259.000000	8.133822
2258.000000	8.062148
2257.000000	8.368025
2256.000000	8.208020
2255.000000	8.083650
2254.000000	8.543274
2253.000000	8.948284
2252.000000	8.687329
2251.000000	8.785250
2250.000000	9.153111
2249.000000	9.007441
2248.000000	8.757489
2247.000000	8.817453
2246.000000	9.041966
2245.000000	9.115760
2244.000000	9.096075
2243.000000	8.975844
2242.000000	9.173099
2241.000000	9.216609
2240.000000	9.039644
2239.000000	9.028640
2238.000000	9.088100
2237.000000	9.185819
2236.000000	9.166840
2235.000000	9.297873
2234.000000	9.200356
2233.000000	9.338152
2232.000000	9.331086
2231.000000	9.305041
2230.000000	9.477160
2229.000000	9.544190
2228.000000	9.265973
2227.000000	9.534600
2226.000000	9.529048
2225.000000	9.523597
2224.000000	9.627979
2223.000000	9.504113
2222.000000	9.238515
2221.000000	9.359856
2220.000000	9.615966
2219.000000	9.504113
2218.000000	9.213277
2217.000000	9.312511
2216.000000	9.413461
2215.000000	9.521881
2214.000000	9.546916
2213.000000	9.452730
2212.000000	9.459595
2211.000000	9.383882
2210.000000	9.221959
2209.000000	9.275159
2208.000000	9.395996
2207.000000	9.385901
2206.000000	9.184507
2205.000000	9.398318
2204.000000	9.451519
2203.000000	9.505325
2202.000000	9.512593
2201.000000	9.629089
2200.000000	9.433247
2199.000000	8.958278
2198.000000	9.068717
2197.000000	9.302517
2196.000000	9.619095
2195.000000	9.430723
2194.000000	9.014608
2193.000000	9.093551
2192.000000	9.524707
2191.000000	9.451014
2190.000000	9.349055
2189.000000	9.433751
2188.000000	9.437285
2187.000000	9.113337
2186.000000	9.424868
2185.000000	9.559131
2184.000000	9.160682
2183.000000	9.538941
2182.000000	9.595978
2181.000000	9.428603
2180.000000	9.078307
2179.000000	9.444856
2178.000000	9.381258
2177.000000	9.172494
2176.000000	9.085273
2175.000000	9.250629
2174.000000	9.612533
2173.000000	9.310593
2172.000000	9.176330
2171.000000	9.391454
2170.000000	8.998355
2169.000000	9.291816
2168.000000	9.297066
2167.000000	9.565592
2166.000000	9.283034
2165.000000	9.603549
2164.000000	9.367024
2163.000000	9.544190
2162.000000	9.525313
2161.000000	9.406293
2160.000000	9.632219
2159.000000	9.842800
2158.000000	9.748008
2157.000000	9.457777
2156.000000	9.797776
2155.000000	9.557314
2154.000000	10.084877
2153.000000	10.093256
2152.000000	10.088108
2151.000000	9.815644
2150.000000	9.877325
2149.000000	10.197840
2148.000000	9.908720
2147.000000	10.219140
2146.000000	9.966564
2145.000000	9.891155
2144.000000	10.105774
2143.000000	9.500378
2142.000000	9.839266
2141.000000	10.057924
2140.000000	10.090026
2139.000000	10.296266
2138.000000	10.309389
2137.000000	10.195316
2136.000000	9.996243
2135.000000	10.386313
2134.000000	9.982110
2133.000000	10.170382
2132.000000	10.066706
2131.000000	10.455565
2130.000000	10.025216
2129.000000	9.954450
2128.000000	10.535820
2127.000000	10.427097
2126.000000	9.976457
2125.000000	9.689962
2124.000000	10.134343
2123.000000	10.528046
2122.000000	10.480701
2121.000000	9.987864
2120.000000	10.117888
2119.000000	9.896000
2118.000000	10.047223
2117.000000	9.987764
2116.000000	10.415084
2115.000000	10.261943
2114.000000	9.933453
2113.000000	9.943548
2112.000000	9.872176
2111.000000	10.243368
2110.000000	9.651601
2109.000000	9.862182
2108.000000	9.727919
2107.000000	9.639790
2106.000000	9.793738
2105.000000	10.005834
2104.000000	9.790508
2103.000000	9.548329
2102.000000	9.522991
2101.000000	9.611726
2100.000000	9.860264
2099.000000	9.853097
2098.000000	9.765977
2097.000000	9.725395
2096.000000	9.605467
2095.000000	9.670882
2094.000000	9.803934
2093.000000	9.620407
2092.000000	9.838863
2091.000000	9.733875
2090.000000	9.712171
2089.000000	9.616370
2088.000000	9.814635
2087.000000	9.534398
2086.000000	9.453639
2085.000000	9.802016
2084.000000	9.712373
2083.000000	9.546008
2082.000000	9.612533
2081.000000	9.824427
2080.000000	9.624445
2079.000000	9.488062
2078.000000	9.623739
2077.000000	9.498662
2076.000000	9.400640
2075.000000	9.395492
2074.000000	9.648472
2073.000000	9.608596
2072.000000	9.341786
2071.000000	9.291110
2070.000000	9.516227
2069.000000	9.669974
2068.000000	9.524606
2067.000000	9.648371
2066.000000	9.582854
2065.000000	9.409624
2064.000000	9.638982
2063.000000	9.548329
2062.000000	9.363793
2061.000000	9.413864
2060.000000	9.424060
2059.000000	9.405788
2058.000000	9.221050
2057.000000	9.337244
2056.000000	9.389233
2055.000000	9.405082
2054.000000	9.264459
2053.000000	9.264661
2052.000000	9.215094
2051.000000	9.160077
2050.000000	9.297368
2049.000000	9.364197
2048.000000	9.385497
2047.000000	9.277077
2046.000000	9.233770
2045.000000	9.396097
2044.000000	9.558424
2043.000000	9.596684
2042.000000	9.556203
2041.000000	9.686429
2040.000000	9.765674
2039.000000	9.796060
2038.000000	9.950109
2037.000000	9.992609
2036.000000	10.131718
2035.000000	10.087805
2034.000000	10.190975
2033.000000	10.266688
2032.000000	10.264164
2031.000000	10.293944
2030.000000	10.472120
2029.000000	10.534305
2028.000000	10.573171
2027.000000	10.562773
2026.000000	10.674524
2025.000000	10.700166
2024.000000	10.669780
2023.000000	10.782844
2022.000000	10.833823
2021.000000	10.885207
2020.000000	10.924880
2019.000000	10.949612
2018.000000	10.974951
2017.000000	11.019571
2016.000000	11.086197
2015.000000	11.091043
2014.000000	11.063585
2013.000000	11.141013
2012.000000	11.278810
2011.000000	11.268008
2010.000000	11.245395
2009.000000	11.320906
2008.000000	11.365424
2007.000000	11.361992
2006.000000	11.352907
2005.000000	11.370270
2004.000000	11.407218
2003.000000	11.411256
2002.000000	11.478084
2001.000000	11.444064
2000.000000	11.449415
1999.000000	11.505038
1998.000000	11.494640
1997.000000	11.501707
1996.000000	11.463346
1995.000000	11.379154
1994.000000	11.368554
1993.000000	11.448203
1992.000000	11.412366
1991.000000	11.449515
1990.000000	11.437704
1989.000000	11.356036
1988.000000	11.417010
1987.000000	11.396618
1986.000000	11.291125
1985.000000	11.297990
1984.000000	11.330799
1983.000000	11.299908
1982.000000	11.253269
1981.000000	11.239035
1980.000000	11.199059
1979.000000	11.127082
1978.000000	11.068026
1977.000000	11.110728
1976.000000	11.022700
1975.000000	10.994434
1974.000000	11.038852
1973.000000	11.040871
1972.000000	11.005236
1971.000000	10.892980
1970.000000	10.858253
1969.000000	10.832107
1968.000000	10.860373
1967.000000	10.840789
1966.000000	10.798491
1965.000000	10.736508
1964.000000	10.708242
1963.000000	10.730653
1962.000000	10.716015
1961.000000	10.726211
1960.000000	10.675231
1959.000000	10.627381
1958.000000	10.599822
1957.000000	10.531479
1956.000000	10.558634
1955.000000	10.539050
1954.000000	10.584477
1953.000000	10.541675
1952.000000	10.585285
1951.000000	10.587607
1950.000000	10.535214
1949.000000	10.490089
1948.000000	10.567316
1947.000000	10.465357
1946.000000	10.464650
1945.000000	10.505737
1944.000000	10.466164
1943.000000	10.406806
1942.000000	10.475956
1941.000000	10.429015
1940.000000	10.433759
1939.000000	10.530368
1938.000000	10.491402
1937.000000	10.395600
1936.000000	10.455968
1935.000000	10.457785
1934.000000	10.569133
1933.000000	10.564691
1932.000000	10.669982
1931.000000	10.720961
1930.000000	10.744886
1929.000000	10.802933
1928.000000	10.901661
1927.000000	10.889245
1926.000000	10.927404
1925.000000	10.874102
1924.000000	11.068935
1923.000000	11.089832
1922.000000	11.161304
1921.000000	11.468191
1920.000000	11.611641
1919.000000	11.404997
1918.000000	11.383292
1917.000000	11.505038
1916.000000	11.771545
1915.000000	11.884407
1914.000000	12.011200
1913.000000	12.003225
1912.000000	12.074394
1911.000000	12.291941
1910.000000	12.322529
1909.000000	12.361495
1908.000000	12.390973
1907.000000	12.679992
1906.000000	12.800627
1905.000000	12.975875
1904.000000	12.867859
1903.000000	13.100144
1902.000000	13.277311
1901.000000	13.321325
1900.000000	13.550178
1899.000000	13.816282
1898.000000	13.772671
1897.000000	13.826478
1896.000000	13.881394
1895.000000	13.903704
1894.000000	14.129932
1893.000000	14.335567
1892.000000	14.454890
1891.000000	14.587739
1890.000000	14.739366
1889.000000	14.826183
1888.000000	14.881604
1887.000000	15.088551
1886.000000	15.236745
1885.000000	15.483466
1884.000000	15.802871
1883.000000	15.975495
1882.000000	16.161949
1881.000000	16.673260
1880.000000	16.976513
1879.000000	17.143383
1878.000000	17.447847
1877.000000	18.064448
1876.000000	18.109169
1875.000000	18.261805
1874.000000	18.611494
1873.000000	18.890923
1872.000000	18.881737
1871.000000	19.097164
1870.000000	19.285334
1869.000000	19.297246
1868.000000	19.442008
1867.000000	19.429389
1866.000000	19.225673
1865.000000	19.248992
1864.000000	19.329348
1863.000000	19.330256
1862.000000	19.202454
1861.000000	19.295025
1860.000000	19.480268
1859.000000	19.318042
1858.000000	19.113315
1857.000000	19.150667
1856.000000	19.105845
1855.000000	18.946547
1854.000000	19.027205
1853.000000	18.876689
1852.000000	18.650966
1851.000000	18.635218
1850.000000	18.617450
1849.000000	18.614018
1848.000000	18.740104
1847.000000	18.598169
1846.000000	18.245955
1845.000000	18.133699
1844.000000	18.083628
1843.000000	18.165801
1842.000000	18.211330
1841.000000	18.172565
1840.000000	18.112298
1839.000000	17.935939
1838.000000	17.883546
1837.000000	18.023967
1836.000000	17.882637
1835.000000	17.728083
1834.000000	17.624812
1833.000000	17.557579
1832.000000	17.613909
1831.000000	17.512758
1830.000000	17.392022
1829.000000	17.317218
1828.000000	17.218590
1827.000000	17.152266
1826.000000	17.105224
1825.000000	17.012350
1824.000000	16.921596
1823.000000	16.940877
1822.000000	16.978330
1821.000000	17.046774
1820.000000	17.013965
1819.000000	16.830943
1818.000000	16.880611
1817.000000	16.910290
1816.000000	16.910593
1815.000000	16.878289
1814.000000	16.841947
1813.000000	16.859613
1812.000000	16.894945
1811.000000	16.909078
1810.000000	16.873645
1809.000000	16.796217
1808.000000	16.739079
1807.000000	16.729388
1806.000000	16.700920
1805.000000	16.590986
1804.000000	16.570190
1803.000000	16.587150
1802.000000	16.572007
1801.000000	16.538492
1800.000000	16.405339
1799.000000	16.341135
1798.000000	16.311254
1797.000000	16.329223
1796.000000	16.301664
1795.000000	16.264010
1794.000000	16.172448
1793.000000	16.135198
1792.000000	16.107840
1791.000000	16.061000
1790.000000	16.000632
1789.000000	15.973476
1788.000000	15.902610
1787.000000	15.871214
1786.000000	15.777230
1785.000000	15.723424
1784.000000	15.626613
1783.000000	15.538181
1782.000000	15.461257
1781.000000	15.387564
1780.000000	15.321341
1779.000000	15.213224
1778.000000	15.102482
1777.000000	15.062910
1776.000000	14.952976
1775.000000	14.846676
1774.000000	14.722003
1773.000000	14.591777
1772.000000	14.496582
1771.000000	14.361814
1770.000000	14.211904
1769.000000	14.060075
1768.000000	13.879880
1767.000000	13.710184
1766.000000	13.655368
1765.000000	13.603177
1764.000000	13.499804
1763.000000	13.499703
1762.000000	13.536247
1761.000000	13.532916
1760.000000	13.579353
1759.000000	13.652642
1758.000000	13.661021
1757.000000	13.724619
1756.000000	13.810528
1755.000000	13.838188
1754.000000	13.825569
1753.000000	13.767826
1752.000000	13.798716
1751.000000	13.801846
1750.000000	13.744406
1749.000000	13.695950
1748.000000	13.640730
1747.000000	13.576728
1746.000000	13.464371
1745.000000	13.328896
1744.000000	13.172828
1743.000000	12.988292
1742.000000	12.817687
1741.000000	12.644760
1740.000000	12.466180
1739.000000	12.284269
1738.000000	12.091051
1737.000000	11.896622
1736.000000	11.762863
1735.000000	11.641118
1734.000000	11.538856
1733.000000	11.537746
1732.000000	11.547235
1731.000000	11.577924
1730.000000	11.642935
1729.000000	11.735304
1728.000000	11.831105
1727.000000	11.927714
1726.000000	12.025333
1725.000000	12.092767
1724.000000	12.121740
1723.000000	12.137286
1722.000000	12.175950
1721.000000	12.236015
1720.000000	12.283461
1719.000000	12.322630
1718.000000	12.325759
1717.000000	12.366543
1716.000000	12.449826
1715.000000	12.500705
1714.000000	12.506762
1713.000000	12.590247
1712.000000	12.662124
1711.000000	12.712296
1710.000000	12.761559
1709.000000	12.776802
1708.000000	12.802444
1707.000000	12.809914
1706.000000	12.814558
1705.000000	12.832527
1704.000000	12.831820
1703.000000	12.820413
1702.000000	12.753382
1701.000000	12.717343
1700.000000	12.691298
1699.000000	12.596607
1698.000000	12.528769
1697.000000	12.535028
1696.000000	12.493235
1695.000000	12.505954
1694.000000	12.591762
1693.000000	12.689380
1692.000000	12.821422
1691.000000	12.989100
1690.000000	13.136082
1689.000000	13.191403
1688.000000	13.269235
1687.000000	13.302952
1686.000000	13.306183
1685.000000	13.306385
1684.000000	13.331622
1683.000000	13.440446
1682.000000	13.629929
1681.000000	13.987896
1680.000000	14.396137
1679.000000	14.809324
1678.000000	15.256632
1677.000000	15.643573
1676.000000	16.031825
1675.000000	16.352139
1674.000000	16.643782
1673.000000	16.870516
1672.000000	17.083015
1671.000000	17.245140
1670.000000	17.399088
1669.000000	17.517098
1668.000000	17.653986
1667.000000	17.775631
1666.000000	17.827317
1665.000000	17.912115
1664.000000	17.955422
1663.000000	18.019121
1662.000000	18.064347
1661.000000	18.065356
1660.000000	18.098266
1659.000000	18.116942
1658.000000	18.148337
1657.000000	18.158937
1656.000000	18.143290
1655.000000	18.107856
1654.000000	18.087969
1653.000000	18.069596
1652.000000	18.036384
1651.000000	18.044561
1650.000000	17.991562
1649.000000	17.950375
1648.000000	17.907774
1647.000000	17.862246
1646.000000	17.824995
1645.000000	17.782899
1644.000000	17.683363
1643.000000	17.652472
1642.000000	17.603411
1641.000000	17.556671
1640.000000	17.473084
1639.000000	17.456832
1638.000000	17.393940
1637.000000	17.311060
1636.000000	17.253620
1635.000000	17.159535
1634.000000	17.075746
1633.000000	17.003163
1632.000000	16.954001
1631.000000	16.887576
1630.000000	16.824785
1629.000000	16.739786
1628.000000	16.667808
1627.000000	16.577761
1626.000000	16.551212
1625.000000	16.443498
1624.000000	16.393629
1623.000000	16.313778
1622.000000	16.247656
1621.000000	16.173862
1620.000000	16.122983
1619.000000	16.014765
1618.000000	15.971659
1617.000000	15.946826
1616.000000	15.861422
1615.000000	15.777230
1614.000000	15.714944
1613.000000	15.694148
1612.000000	15.631055
1611.000000	15.581589
1610.000000	15.566245
1609.000000	15.531317
1608.000000	15.612379
1607.000000	15.577047
1606.000000	15.517789
1605.000000	15.463377
1604.000000	15.469232
1603.000000	15.449345
1602.000000	15.354856
1601.000000	15.346881
1600.000000	15.297517
1599.000000	15.278740
1598.000000	15.241591
1597.000000	15.181728
1596.000000	15.181728
1595.000000	15.162042
1594.000000	15.138016
1593.000000	15.147708
1592.000000	15.124590
1591.000000	15.117524
1590.000000	15.126710
1589.000000	15.116817
1588.000000	15.099857
1587.000000	15.076033
1586.000000	15.065232
1585.000000	15.072803
1584.000000	15.057963
1583.000000	15.067654
1582.000000	15.053421
1581.000000	15.072500
1580.000000	15.083705
1579.000000	15.060083
1578.000000	15.105208
1577.000000	15.090570
1576.000000	15.111063
1575.000000	15.115404
1574.000000	15.152654
1573.000000	15.180314
1572.000000	15.183848
1571.000000	15.203634
1570.000000	15.252493
1569.000000	15.292369
1568.000000	15.268746
1567.000000	15.333859
1566.000000	15.377267
1565.000000	15.386656
1564.000000	15.432588
1563.000000	15.464286
1562.000000	15.484173
1561.000000	15.533739
1560.000000	15.531216
1559.000000	15.542017
1558.000000	15.592896
1557.000000	15.630449
1556.000000	15.640443
1555.000000	15.601981
1554.000000	15.622373
1553.000000	15.637011
1552.000000	15.655384
1551.000000	15.654172
1550.000000	15.641655
1549.000000	15.622676
1548.000000	15.602486
1547.000000	15.633680
1546.000000	15.629944
1545.000000	15.598145
1544.000000	15.596833
1543.000000	15.601578
1542.000000	15.575533
1541.000000	15.561803
1540.000000	15.560693
1539.000000	15.558068
1538.000000	15.546156
1537.000000	15.564832
1536.000000	15.560592
1535.000000	15.574321
1534.000000	15.552011
1533.000000	15.526370
1532.000000	15.559986
1531.000000	15.560592
1530.000000	15.551305
1529.000000	15.543531
1528.000000	15.526774
1527.000000	15.503858
1526.000000	15.494773
1525.000000	15.518799
1524.000000	15.506887
1523.000000	15.488615
1522.000000	15.465295
1521.000000	15.440159
1520.000000	15.408360
1519.000000	15.401091
1518.000000	15.389987
1517.000000	15.401192
1516.000000	15.408663
1515.000000	15.469636
1514.000000	15.494066
1513.000000	15.490230
1512.000000	15.472867
1511.000000	15.457018
1510.000000	15.461358
1509.000000	15.498306
1508.000000	15.511228
1507.000000	15.503656
1506.000000	15.493158
1505.000000	15.516275
1504.000000	15.528389
1503.000000	15.517789
1502.000000	15.512136
1501.000000	15.523947
1500.000000	15.574422
1499.000000	15.587344
1498.000000	15.579570
1497.000000	15.618638
1496.000000	15.621566
1495.000000	15.631963
1494.000000	15.686375
1493.000000	15.687587
1492.000000	15.723525
1491.000000	15.759564
