PE UV       SUBTECH     SPECTRUM    ASCII       PEDS        4.00        
   -1
CICIMAUCR0244-3.Sample.ASC
24/06/21
15:30:51.00
24/06/21
15:30:51.00
Vinicio Soto Monge
C. cupreomarginata. Ventral. Sex M
250,000000
1
Lambda 1050
1050L1511233
PerkinElmer UV WinLab 6.3.2.0749 / 2.02.05 Lambda 900 UV/VIS/NIR, Aug  7 2015 09:38:08

0
0
3350/servo 860,8/2
0
0
UV/VIS
1
1
1
DoubleDePol,CommonBeamDepol,RBeamAtt,SBeamAtt,60mm sphere, WB InGaAs Detector
0
0
0
0
Program
Program
3350/servo 860,8/2
3350/0,2 860,8/0,2
3350/0,2 860,8/0,2
0
15.00
 
 
 
0
 
860,8
319,2
860,8
Front
100
on
S:100 R:100
0
0
0
0
 
0
 
 
 
0
 
 
0
0
0
0
0
 
 
 
 
0
0


0
0
#HDR
-1
-1
#GR
nm
%R
1.0
0.0
2500,000000
-1,000000
2251
8
57,107000
3,834700
#DATA
2482.000000	5.036474
2481.000000	4.971467
2480.000000	5.045920
2479.000000	5.017583
2478.000000	5.052921
2477.000000	5.014916
2476.000000	5.067256
2475.000000	5.001693
2474.000000	5.022806
2473.000000	4.977468
2472.000000	4.997581
2471.000000	4.973689
2470.000000	4.980246
2469.000000	4.970133
2468.000000	4.962355
2467.000000	4.999692
2466.000000	4.984913
2465.000000	4.981690
2464.000000	4.981579
2463.000000	4.992136
2462.000000	4.976134
2461.000000	5.003915
2460.000000	5.000359
2459.000000	5.033474
2458.000000	5.039586
2457.000000	5.017917
2456.000000	5.035141
2455.000000	5.060700
2454.000000	5.027696
2453.000000	5.062589
2452.000000	5.076146
2451.000000	5.043142
2450.000000	5.091259
2449.000000	5.108261
2448.000000	5.125818
2447.000000	5.130597
2446.000000	5.151154
2445.000000	5.151932
2444.000000	5.169045
2443.000000	5.213162
2442.000000	5.222274
2441.000000	5.205605
2440.000000	5.224274
2439.000000	5.259278
2438.000000	5.290393
2437.000000	5.291282
2436.000000	5.317285
2435.000000	5.309728
2434.000000	5.312951
2433.000000	5.337843
2432.000000	5.364735
2431.000000	5.376625
2430.000000	5.366068
2429.000000	5.377736
2428.000000	5.393405
2427.000000	5.401072
2426.000000	5.413963
2425.000000	5.425186
2424.000000	5.429631
2423.000000	5.445633
2422.000000	5.451967
2421.000000	5.460746
2420.000000	5.476192
2419.000000	5.492750
2418.000000	5.489861
2417.000000	5.484304
2416.000000	5.503418
2415.000000	5.515530
2414.000000	5.526643
2413.000000	5.529976
2412.000000	5.543645
2411.000000	5.554868
2410.000000	5.549645
2409.000000	5.550423
2408.000000	5.566203
2407.000000	5.568870
2406.000000	5.572981
2405.000000	5.575537
2404.000000	5.585205
2403.000000	5.588316
2402.000000	5.593650
2401.000000	5.594095
2400.000000	5.595095
2399.000000	5.605652
2398.000000	5.631655
2397.000000	5.641211
2396.000000	5.656324
2395.000000	5.671104
2394.000000	5.683550
2393.000000	5.684883
2392.000000	5.686883
2391.000000	5.684105
2390.000000	5.702885
2389.000000	5.718665
2388.000000	5.709997
2387.000000	5.706441
2386.000000	5.720665
2385.000000	5.729777
2384.000000	5.733222
2383.000000	5.724443
2382.000000	5.726221
2381.000000	5.752669
2380.000000	5.752002
2379.000000	5.736778
2378.000000	5.731444
2377.000000	5.742557
2376.000000	5.739223
2375.000000	5.735778
2374.000000	5.742001
2373.000000	5.743890
2372.000000	5.722554
2371.000000	5.712775
2370.000000	5.710219
2369.000000	5.709330
2368.000000	5.704330
2367.000000	5.707886
2366.000000	5.700107
2365.000000	5.698440
2364.000000	5.689550
2363.000000	5.672437
2362.000000	5.656324
2361.000000	5.651101
2360.000000	5.658769
2359.000000	5.647101
2358.000000	5.631766
2357.000000	5.613653
2356.000000	5.603985
2355.000000	5.603096
2354.000000	5.592428
2353.000000	5.586983
2352.000000	5.583760
2351.000000	5.589094
2350.000000	5.593095
2349.000000	5.606541
2348.000000	5.613319
2347.000000	5.609319
2346.000000	5.613208
2345.000000	5.628543
2344.000000	5.654213
2343.000000	5.657102
2342.000000	5.659325
2341.000000	5.673215
2340.000000	5.680660
2339.000000	5.687661
2338.000000	5.695884
2337.000000	5.684439
2336.000000	5.690328
2335.000000	5.710219
2334.000000	5.721665
2333.000000	5.716442
2332.000000	5.712886
2331.000000	5.708330
2330.000000	5.699329
2329.000000	5.719332
2328.000000	5.696996
2327.000000	5.685994
2326.000000	5.680660
2325.000000	5.679994
2324.000000	5.673771
2323.000000	5.649657
2322.000000	5.624654
2321.000000	5.615986
2320.000000	5.621542
2319.000000	5.590094
2318.000000	5.565647
2317.000000	5.545867
2316.000000	5.532866
2315.000000	5.518975
2314.000000	5.478637
2313.000000	5.472192
2312.000000	5.460302
2311.000000	5.425075
2310.000000	5.424297
2309.000000	5.403406
2308.000000	5.382959
2307.000000	5.405851
2306.000000	5.395405
2305.000000	5.400517
2304.000000	5.395072
2303.000000	5.377070
2302.000000	5.394294
2301.000000	5.421853
2300.000000	5.431520
2299.000000	5.437521
2298.000000	5.457857
2297.000000	5.475637
2296.000000	5.478304
2295.000000	5.497973
2294.000000	5.530199
2293.000000	5.548756
2292.000000	5.547312
2291.000000	5.557424
2290.000000	5.593095
2289.000000	5.603763
2288.000000	5.598762
2287.000000	5.608541
2286.000000	5.611986
2285.000000	5.612653
2284.000000	5.622987
2283.000000	5.598540
2282.000000	5.607985
2281.000000	5.611208
2280.000000	5.592650
2279.000000	5.594650
2278.000000	5.597317
2277.000000	5.580760
2276.000000	5.565980
2275.000000	5.559424
2274.000000	5.556868
2273.000000	5.560869
2272.000000	5.565425
2271.000000	5.572203
2270.000000	5.574870
2269.000000	5.574426
2268.000000	5.586983
2267.000000	5.629543
2266.000000	5.636989
2265.000000	5.648546
2264.000000	5.687106
2263.000000	5.748668
2262.000000	5.764337
2261.000000	5.808564
2260.000000	5.858570
2259.000000	5.906576
2258.000000	5.951247
2257.000000	6.026701
2256.000000	6.092042
2255.000000	6.144714
2254.000000	6.223279
2253.000000	6.320068
2252.000000	6.366185
2251.000000	6.419080
2250.000000	6.462307
2249.000000	6.532537
2248.000000	6.614547
2247.000000	6.661108
2246.000000	6.736672
2245.000000	6.791679
2244.000000	6.831683
2243.000000	6.900024
2242.000000	6.929917
2241.000000	6.956587
2240.000000	7.035262
2239.000000	7.043819
2238.000000	7.088602
2237.000000	7.108271
2236.000000	7.145720
2235.000000	7.165166
2234.000000	7.198281
2233.000000	7.235175
2232.000000	7.236397
2231.000000	7.249510
2230.000000	7.261622
2229.000000	7.274512
2228.000000	7.298182
2227.000000	7.282069
2226.000000	7.297404
2225.000000	7.292181
2224.000000	7.294293
2223.000000	7.322963
2222.000000	7.293292
2221.000000	7.266512
2220.000000	7.282847
2219.000000	7.259177
2218.000000	7.228174
2217.000000	7.252732
2216.000000	7.222729
2215.000000	7.204060
2214.000000	7.199393
2213.000000	7.201948
2212.000000	7.162611
2211.000000	7.172278
2210.000000	7.153721
2209.000000	7.136830
2208.000000	7.142830
2207.000000	7.120828
2206.000000	7.126495
2205.000000	7.107049
2204.000000	7.108160
2203.000000	7.112160
2202.000000	7.098825
2201.000000	7.087935
2200.000000	7.097047
2199.000000	7.095269
2198.000000	7.081268
2197.000000	7.052376
2196.000000	7.098159
2195.000000	7.073711
2194.000000	7.062154
2193.000000	7.064821
2192.000000	7.045930
2191.000000	7.074489
2190.000000	7.048042
2189.000000	7.035151
2188.000000	7.040596
2187.000000	7.025706
2186.000000	7.033929
2185.000000	7.030040
2184.000000	7.031373
2183.000000	6.996258
2182.000000	7.012482
2181.000000	6.998036
2180.000000	6.980367
2179.000000	7.007926
2178.000000	6.991702
2177.000000	6.989479
2176.000000	6.990146
2175.000000	6.985923
2174.000000	6.989146
2173.000000	6.976922
2172.000000	6.981034
2171.000000	6.980923
2170.000000	6.984590
2169.000000	6.974922
2168.000000	6.991813
2167.000000	6.993591
2166.000000	6.997147
2165.000000	7.015927
2164.000000	7.011815
2163.000000	7.007259
2162.000000	7.005592
2161.000000	7.027928
2160.000000	7.038930
2159.000000	7.055598
2158.000000	7.064710
2157.000000	7.066488
2156.000000	7.077712
2155.000000	7.096714
2154.000000	7.138052
2153.000000	7.169167
2152.000000	7.159055
2151.000000	7.172501
2150.000000	7.206616
2149.000000	7.208727
2148.000000	7.238064
2147.000000	7.242175
2146.000000	7.268401
2145.000000	7.286514
2144.000000	7.288292
2143.000000	7.319851
2142.000000	7.352966
2141.000000	7.374080
2140.000000	7.368301
2139.000000	7.382081
2138.000000	7.392082
2137.000000	7.421196
2136.000000	7.423863
2135.000000	7.443532
2134.000000	7.472202
2133.000000	7.486426
2132.000000	7.498761
2131.000000	7.513096
2130.000000	7.519652
2129.000000	7.516541
2128.000000	7.534320
2127.000000	7.544544
2126.000000	7.545211
2125.000000	7.550767
2124.000000	7.566324
2123.000000	7.572769
2122.000000	7.549656
2121.000000	7.568880
2120.000000	7.578992
2119.000000	7.564546
2118.000000	7.553878
2117.000000	7.559323
2116.000000	7.550656
2115.000000	7.550878
2114.000000	7.551211
2113.000000	7.557768
2112.000000	7.550211
2111.000000	7.538654
2110.000000	7.559768
2109.000000	7.557768
2108.000000	7.542432
2107.000000	7.526208
2106.000000	7.529764
2105.000000	7.515763
2104.000000	7.516652
2103.000000	7.513318
2102.000000	7.490538
2101.000000	7.475091
2100.000000	7.498983
2099.000000	7.496983
2098.000000	7.466979
2097.000000	7.461868
2096.000000	7.453644
2095.000000	7.457311
2094.000000	7.461090
2093.000000	7.447533
2092.000000	7.440310
2091.000000	7.443421
2090.000000	7.440976
2089.000000	7.420196
2088.000000	7.419085
2087.000000	7.423752
2086.000000	7.422863
2085.000000	7.419529
2084.000000	7.410084
2083.000000	7.395193
2082.000000	7.378525
2081.000000	7.377524
2080.000000	7.364301
2079.000000	7.339409
2078.000000	7.331630
2077.000000	7.322185
2076.000000	7.310294
2075.000000	7.302182
2074.000000	7.287847
2073.000000	7.265956
2072.000000	7.242398
2071.000000	7.224062
2070.000000	7.215617
2069.000000	7.210283
2068.000000	7.181391
2067.000000	7.142830
2066.000000	7.130051
2065.000000	7.122050
2064.000000	7.103493
2063.000000	7.078156
2062.000000	7.068489
2061.000000	7.057821
2060.000000	7.025484
2059.000000	7.029262
2058.000000	7.012704
2057.000000	6.999480
2056.000000	6.998258
2055.000000	6.998814
2054.000000	6.995369
2053.000000	6.993146
2052.000000	7.018038
2051.000000	7.046153
2050.000000	7.046375
2049.000000	7.070044
2048.000000	7.107715
2047.000000	7.139163
2046.000000	7.156054
2045.000000	7.189169
2044.000000	7.224173
2043.000000	7.253732
2042.000000	7.288847
2041.000000	7.336631
2040.000000	7.370190
2039.000000	7.394415
2038.000000	7.418529
2037.000000	7.453756
2036.000000	7.495983
2035.000000	7.523430
2034.000000	7.554656
2033.000000	7.586326
2032.000000	7.615997
2031.000000	7.638777
2030.000000	7.661113
2029.000000	7.687560
2028.000000	7.708674
2027.000000	7.723231
2026.000000	7.751123
2025.000000	7.756013
2024.000000	7.752012
2023.000000	7.782238
2022.000000	7.784905
2021.000000	7.792239
2020.000000	7.816242
2019.000000	7.822798
2018.000000	7.839800
2017.000000	7.853802
2016.000000	7.849468
2015.000000	7.853802
2014.000000	7.838689
2013.000000	7.826688
2012.000000	7.840578
2011.000000	7.843467
2010.000000	7.820576
2009.000000	7.823910
2008.000000	7.823465
2007.000000	7.823910
2006.000000	7.804796
2005.000000	7.780238
2004.000000	7.793684
2003.000000	7.782905
2002.000000	7.736455
2001.000000	7.719786
2000.000000	7.717231
1999.000000	7.697006
1998.000000	7.690783
1997.000000	7.657890
1996.000000	7.631221
1995.000000	7.620219
1994.000000	7.616219
1993.000000	7.555879
1992.000000	7.526653
1991.000000	7.507762
1990.000000	7.478314
1989.000000	7.452644
1988.000000	7.417307
1987.000000	7.401305
1986.000000	7.377302
1985.000000	7.345521
1984.000000	7.328963
1983.000000	7.290292
1982.000000	7.261511
1981.000000	7.214839
1980.000000	7.210394
1979.000000	7.169945
1978.000000	7.118717
1977.000000	7.116605
1976.000000	7.098936
1975.000000	7.059376
1974.000000	7.039374
1973.000000	7.027039
1972.000000	6.984368
1971.000000	6.957476
1970.000000	6.921805
1969.000000	6.897135
1968.000000	6.877911
1967.000000	6.875244
1966.000000	6.829905
1965.000000	6.812792
1964.000000	6.804236
1963.000000	6.779677
1962.000000	6.749118
1961.000000	6.744006
1960.000000	6.697112
1959.000000	6.681221
1958.000000	6.679332
1957.000000	6.663664
1956.000000	6.634549
1955.000000	6.633105
1954.000000	6.582876
1953.000000	6.556207
1952.000000	6.567541
1951.000000	6.547095
1950.000000	6.523981
1949.000000	6.500645
1948.000000	6.477864
1947.000000	6.465196
1946.000000	6.455306
1945.000000	6.425636
1944.000000	6.434193
1943.000000	6.419191
1942.000000	6.407412
1941.000000	6.371852
1940.000000	6.409523
1939.000000	6.367518
1938.000000	6.403633
1937.000000	6.394521
1936.000000	6.397188
1935.000000	6.378408
1934.000000	6.371074
1933.000000	6.387965
1932.000000	6.385187
1931.000000	6.396633
1930.000000	6.434748
1929.000000	6.448416
1928.000000	6.462196
1927.000000	6.462529
1926.000000	6.515424
1925.000000	6.535649
1924.000000	6.567986
1923.000000	6.564097
1922.000000	6.619770
1921.000000	6.668331
1920.000000	6.700446
1919.000000	6.733338
1918.000000	6.799457
1917.000000	6.836795
1916.000000	6.886356
1915.000000	6.911804
1914.000000	6.976589
1913.000000	7.043152
1912.000000	7.121495
1911.000000	7.175390
1910.000000	7.222062
1909.000000	7.281736
1908.000000	7.383081
1907.000000	7.448644
1906.000000	7.528097
1905.000000	7.642111
1904.000000	7.733566
1903.000000	7.848690
1902.000000	7.932033
1901.000000	8.047491
1900.000000	8.161504
1899.000000	8.286186
1898.000000	8.442315
1897.000000	8.565107
1896.000000	8.706790
1895.000000	8.821359
1894.000000	8.943151
1893.000000	9.105614
1892.000000	9.257854
1891.000000	9.471990
1890.000000	9.640010
1889.000000	9.820920
1888.000000	10.010497
1887.000000	10.219188
1886.000000	10.427435
1885.000000	10.663351
1884.000000	10.939939
1883.000000	11.213526
1882.000000	11.504004
1881.000000	11.791482
1880.000000	12.098407
1879.000000	12.389774
1878.000000	12.658694
1877.000000	12.959729
1876.000000	13.250318
1875.000000	13.541574
1874.000000	13.847832
1873.000000	14.144200
1872.000000	14.454792
1871.000000	14.747826
1870.000000	15.024969
1869.000000	15.304557
1868.000000	15.574477
1867.000000	15.749053
1866.000000	15.926630
1865.000000	16.060312
1864.000000	16.176325
1863.000000	16.251445
1862.000000	16.354235
1861.000000	16.462470
1860.000000	16.592818
1859.000000	16.717166
1858.000000	16.838291
1857.000000	16.884408
1856.000000	16.936747
1855.000000	16.996087
1854.000000	17.034758
1853.000000	17.075208
1852.000000	17.087653
1851.000000	17.100988
1850.000000	17.070096
1849.000000	17.052427
1848.000000	17.068096
1847.000000	17.112767
1846.000000	17.136548
1845.000000	17.106322
1844.000000	17.042870
1843.000000	16.978307
1842.000000	16.947859
1841.000000	16.975640
1840.000000	16.987086
1839.000000	16.967639
1838.000000	16.928968
1837.000000	16.903299
1836.000000	16.902521
1835.000000	16.885185
1834.000000	16.825290
1833.000000	16.753837
1832.000000	16.694163
1831.000000	16.633267
1830.000000	16.590818
1829.000000	16.571482
1828.000000	16.526366
1827.000000	16.465359
1826.000000	16.417909
1825.000000	16.395351
1824.000000	16.333455
1823.000000	16.250445
1822.000000	16.214663
1821.000000	16.196994
1820.000000	16.185549
1819.000000	16.196328
1818.000000	16.163435
1817.000000	16.123875
1816.000000	16.102428
1815.000000	16.083314
1814.000000	16.063201
1813.000000	16.049755
1812.000000	16.036753
1811.000000	16.018529
1810.000000	16.011973
1809.000000	15.974635
1808.000000	15.931297
1807.000000	15.895293
1806.000000	15.872401
1805.000000	15.841064
1804.000000	15.794170
1803.000000	15.759721
1802.000000	15.722161
1801.000000	15.679045
1800.000000	15.635596
1799.000000	15.603925
1798.000000	15.569255
1797.000000	15.527139
1796.000000	15.480022
1795.000000	15.436684
1794.000000	15.402457
1793.000000	15.380122
1792.000000	15.345340
1791.000000	15.304668
1790.000000	15.259774
1789.000000	15.214991
1788.000000	15.184765
1787.000000	15.144316
1786.000000	15.073641
1785.000000	15.038304
1784.000000	15.004189
1783.000000	14.951183
1782.000000	14.901844
1781.000000	14.836281
1780.000000	14.782608
1779.000000	14.741381
1778.000000	14.696153
1777.000000	14.626478
1776.000000	14.565694
1775.000000	14.508798
1774.000000	14.434123
1773.000000	14.373004
1772.000000	14.294884
1771.000000	14.197095
1770.000000	14.116419
1769.000000	14.043077
1768.000000	13.959401
1767.000000	13.888615
1766.000000	13.823274
1765.000000	13.759600
1764.000000	13.715817
1763.000000	13.678813
1762.000000	13.642920
1761.000000	13.663255
1760.000000	13.693259
1759.000000	13.712150
1758.000000	13.747154
1757.000000	13.785714
1756.000000	13.815606
1755.000000	13.859056
1754.000000	13.904617
1753.000000	13.924063
1752.000000	13.935509
1751.000000	13.936509
1750.000000	13.937509
1749.000000	13.914840
1748.000000	13.892060
1747.000000	13.854055
1746.000000	13.820051
1745.000000	13.780713
1744.000000	13.704705
1743.000000	13.622250
1742.000000	13.523461
1741.000000	13.414560
1740.000000	13.287989
1739.000000	13.171865
1738.000000	13.032071
1737.000000	12.898166
1736.000000	12.783375
1735.000000	12.701921
1734.000000	12.620356
1733.000000	12.563905
1732.000000	12.545903
1731.000000	12.545681
1730.000000	12.577351
1729.000000	12.614244
1728.000000	12.664139
1727.000000	12.711478
1726.000000	12.770929
1725.000000	12.815823
1724.000000	12.874497
1723.000000	12.915724
1722.000000	12.950061
1721.000000	12.986065
1720.000000	13.013180
1719.000000	13.046184
1718.000000	13.078409
1717.000000	13.106635
1716.000000	13.152085
1715.000000	13.217981
1714.000000	13.268320
1713.000000	13.331328
1712.000000	13.366665
1711.000000	13.432451
1710.000000	13.469233
1709.000000	13.491235
1708.000000	13.520239
1707.000000	13.531796
1706.000000	13.516016
1705.000000	13.483012
1704.000000	13.460121
1703.000000	13.426894
1702.000000	13.383778
1701.000000	13.348997
1700.000000	13.276210
1699.000000	13.203313
1698.000000	13.106635
1697.000000	13.036516
1696.000000	12.983065
1695.000000	12.950617
1694.000000	12.931059
1693.000000	12.942616
1692.000000	12.957395
1691.000000	13.054296
1690.000000	13.159197
1689.000000	13.245540
1688.000000	13.328216
1687.000000	13.414893
1686.000000	13.453453
1685.000000	13.500792
1684.000000	13.547131
1683.000000	13.621806
1682.000000	13.759155
1681.000000	13.939176
1680.000000	14.197317
1679.000000	14.529578
1678.000000	14.855949
1677.000000	15.240550
1676.000000	15.598814
1675.000000	15.945743
1674.000000	16.276781
1673.000000	16.548702
1672.000000	16.774395
1671.000000	17.003533
1670.000000	17.197555
1669.000000	17.390911
1668.000000	17.533372
1667.000000	17.676500
1666.000000	17.787735
1665.000000	17.884413
1664.000000	17.965756
1663.000000	18.051766
1662.000000	18.115662
1661.000000	18.200116
1660.000000	18.257012
1659.000000	18.303239
1658.000000	18.326686
1657.000000	18.387582
1656.000000	18.379581
1655.000000	18.389138
1654.000000	18.427476
1653.000000	18.411141
1652.000000	18.415586
1651.000000	18.393361
1650.000000	18.384693
1649.000000	18.359690
1648.000000	18.336688
1647.000000	18.278014
1646.000000	18.241121
1645.000000	18.199672
1644.000000	18.180669
1643.000000	18.145888
1642.000000	18.093437
1641.000000	18.026874
1640.000000	18.011205
1639.000000	17.946198
1638.000000	17.924640
1637.000000	17.851964
1636.000000	17.796847
1635.000000	17.729728
1634.000000	17.686612
1633.000000	17.623716
1632.000000	17.567598
1631.000000	17.494367
1630.000000	17.438139
1629.000000	17.372464
1628.000000	17.305457
1627.000000	17.250339
1626.000000	17.175219
1625.000000	17.114323
1624.000000	17.027646
1623.000000	16.965417
1622.000000	16.893297
1621.000000	16.856515
1620.000000	16.782951
1619.000000	16.736946
1618.000000	16.664604
1617.000000	16.615376
1616.000000	16.566704
1615.000000	16.489473
1614.000000	16.428021
1613.000000	16.367903
1612.000000	16.314675
1611.000000	16.255334
1610.000000	16.201106
1609.000000	16.145988
1608.000000	16.093538
1607.000000	16.054978
1606.000000	15.980858
1605.000000	15.938742
1604.000000	15.871957
1603.000000	15.804504
1602.000000	15.745275
1601.000000	15.704270
1600.000000	15.653376
1599.000000	15.582256
1598.000000	15.526694
1597.000000	15.477577
1596.000000	15.414903
1595.000000	15.366564
1594.000000	15.327227
1593.000000	15.257107
1592.000000	15.198100
1591.000000	15.189322
1590.000000	15.135426
1589.000000	15.097200
1588.000000	15.056973
1587.000000	15.015079
1586.000000	14.976964
1585.000000	14.926847
1584.000000	14.900955
1583.000000	14.854727
1582.000000	14.810389
1581.000000	14.787053
1580.000000	14.747937
