PE UV       SUBTECH     SPECTRUM    ASCII       PEDS        4.00        
   -1
CICIMAUCR0214-2.Sample.ASC
24/06/13
13:53:14.00
24/06/13
13:53:14.00
Vinicio Soto Monge
C. cupreomarginata. Sex M. Ventral 
250,000000
1
Lambda 1050
1050L1511233
PerkinElmer UV WinLab 6.3.2.0749 / 2.02.05 Lambda 900 UV/VIS/NIR, Aug  7 2015 09:38:08

0
0
3350/servo 860,8/2
0
0
UV/VIS
1
1
1
DoubleDePol,CommonBeamDepol,RBeamAtt,SBeamAtt,60mm sphere, WB InGaAs Detector
0
0
0
0
Program
Program
3350/servo 860,8/2
3350/0,2 860,8/0,2
3350/0,2 860,8/0,2
0
15.00
 
 
 
0
 
860,8
319,2
860,8
Front
100
on
S:100 R:100
0
0
0
0
 
0
 
 
 
0
 
 
0
0
0
0
0
 
 
 
 
0
0


0
0
#HDR
-1
-1
#GR
nm
%R
1.0
0.0
2500,000000
-1,000000
2251
8
58,794000
3,707200
#DATA
2482.000000	6.390690
2481.000000	6.442801
2480.000000	6.402838
2479.000000	6.403973
2478.000000	6.380017
2477.000000	6.396139
2476.000000	6.378882
2475.000000	6.427361
2474.000000	6.364804
2473.000000	6.403973
2472.000000	6.424409
2471.000000	6.398410
2470.000000	6.408855
2469.000000	6.382402
2468.000000	6.352769
2467.000000	6.397047
2466.000000	6.382742
2465.000000	6.369118
2464.000000	6.392279
2463.000000	6.382629
2462.000000	6.407038
2461.000000	6.407265
2460.000000	6.426566
2459.000000	6.450068
2458.000000	6.445299
2457.000000	6.503088
2456.000000	6.512852
2455.000000	6.539646
2454.000000	6.567234
2453.000000	6.571662
2452.000000	6.606403
2451.000000	6.612875
2450.000000	6.684174
2449.000000	6.708016
2448.000000	6.725613
2447.000000	6.740373
2446.000000	6.788852
2445.000000	6.805995
2444.000000	6.833470
2443.000000	6.869233
2442.000000	6.927703
2441.000000	6.940873
2440.000000	6.976182
2439.000000	6.995823
2438.000000	7.038739
2437.000000	7.069393
2436.000000	7.104929
2435.000000	7.126387
2434.000000	7.156246
2433.000000	7.194507
2432.000000	7.232881
2431.000000	7.248549
2430.000000	7.256950
2429.000000	7.282155
2428.000000	7.303726
2427.000000	7.328250
2426.000000	7.353568
2425.000000	7.375139
2424.000000	7.386833
2423.000000	7.414081
2422.000000	7.459040
2421.000000	7.488105
2420.000000	7.479476
2419.000000	7.506497
2418.000000	7.518986
2417.000000	7.520462
2416.000000	7.568146
2415.000000	7.586198
2414.000000	7.605044
2413.000000	7.593804
2412.000000	7.609018
2411.000000	7.634904
2410.000000	7.657724
2409.000000	7.682815
2408.000000	7.677138
2407.000000	7.691443
2406.000000	7.698482
2405.000000	7.739582
2404.000000	7.762061
2403.000000	7.764218
2402.000000	7.787379
2401.000000	7.801344
2400.000000	7.803728
2399.000000	7.822461
2398.000000	7.855045
2397.000000	7.871394
2396.000000	7.898415
2395.000000	7.917489
2394.000000	7.941331
2393.000000	7.953025
2392.000000	7.971076
2391.000000	7.982657
2390.000000	7.989128
2389.000000	7.997870
2388.000000	8.022961
2387.000000	8.029092
2386.000000	8.036131
2385.000000	8.063493
2384.000000	8.058043
2383.000000	8.046576
2382.000000	8.046122
2381.000000	8.065763
2380.000000	8.060427
2379.000000	8.049301
2378.000000	8.061903
2377.000000	8.068261
2376.000000	8.073257
2375.000000	8.054637
2374.000000	8.040445
2373.000000	8.052934
2372.000000	8.061336
2371.000000	8.029773
2370.000000	8.007861
2369.000000	8.005250
2368.000000	7.996054
2367.000000	7.976980
2366.000000	7.960177
2365.000000	7.937016
2364.000000	7.905795
2363.000000	7.883883
2362.000000	7.863560
2361.000000	7.850050
2360.000000	7.818260
2359.000000	7.799300
2358.000000	7.783973
2357.000000	7.759450
2356.000000	7.748551
2355.000000	7.722211
2354.000000	7.721643
2353.000000	7.714150
2352.000000	7.702115
2351.000000	7.698937
2350.000000	7.721189
2349.000000	7.739014
2348.000000	7.723800
2347.000000	7.734245
2346.000000	7.770576
2345.000000	7.802252
2344.000000	7.813719
2343.000000	7.829614
2342.000000	7.853456
2341.000000	7.873892
2340.000000	7.909541
2339.000000	7.930999
2338.000000	7.937811
2337.000000	7.945191
2336.000000	7.962675
2335.000000	7.973915
2334.000000	7.959950
2333.000000	7.963243
2332.000000	7.959496
2331.000000	7.948256
2330.000000	7.929977
2329.000000	7.909201
2328.000000	7.891035
2327.000000	7.881839
2326.000000	7.858905
2325.000000	7.833360
2324.000000	7.787606
2323.000000	7.761153
2322.000000	7.729364
2321.000000	7.708700
2320.000000	7.665104
2319.000000	7.616625
2318.000000	7.569622
2317.000000	7.529885
2316.000000	7.501615
2315.000000	7.438604
2314.000000	7.399662
2313.000000	7.353454
2312.000000	7.303386
2311.000000	7.261946
2310.000000	7.222550
2309.000000	7.192804
2308.000000	7.166691
2307.000000	7.141941
2306.000000	7.126841
2305.000000	7.119461
2304.000000	7.130588
2303.000000	7.158403
2302.000000	7.168054
2301.000000	7.171460
2300.000000	7.204839
2299.000000	7.235947
2298.000000	7.287605
2297.000000	7.336197
2296.000000	7.382859
2295.000000	7.401706
2294.000000	7.431338
2293.000000	7.482428
2292.000000	7.513309
2291.000000	7.539535
2290.000000	7.575299
2289.000000	7.577796
2288.000000	7.583019
2287.000000	7.610494
2286.000000	7.611516
2285.000000	7.607883
2284.000000	7.584949
2283.000000	7.574504
2282.000000	7.569962
2281.000000	7.564399
2280.000000	7.532837
2279.000000	7.522732
2278.000000	7.496847
2277.000000	7.460403
2276.000000	7.447800
2275.000000	7.428840
2274.000000	7.433495
2273.000000	7.401819
2272.000000	7.412832
2271.000000	7.414989
2270.000000	7.412718
2269.000000	7.417941
2268.000000	7.436561
2267.000000	7.471983
2266.000000	7.497414
2265.000000	7.567578
2264.000000	7.610267
2263.000000	7.696212
2262.000000	7.777842
2261.000000	7.863220
2260.000000	7.964605
2259.000000	8.089719
2258.000000	8.216536
2257.000000	8.337222
2256.000000	8.468126
2255.000000	8.610611
2254.000000	8.736065
2253.000000	8.905571
2252.000000	9.062929
2251.000000	9.199169
2250.000000	9.314065
2249.000000	9.445991
2248.000000	9.583139
2247.000000	9.697127
2246.000000	9.820878
2245.000000	9.925897
2244.000000	10.039771
2243.000000	10.147060
2242.000000	10.210980
2241.000000	10.299990
2240.000000	10.376852
2239.000000	10.453260
2238.000000	10.513092
2237.000000	10.604033
2236.000000	10.633665
2235.000000	10.695995
2234.000000	10.751399
2233.000000	10.777966
2232.000000	10.812367
2231.000000	10.830419
2230.000000	10.873675
2229.000000	10.899220
2228.000000	10.900809
2227.000000	10.922040
2226.000000	10.914093
2225.000000	10.946336
2224.000000	10.909779
2223.000000	10.900923
2222.000000	10.898425
2221.000000	10.884574
2220.000000	10.906032
2219.000000	10.889797
2218.000000	10.840523
2217.000000	10.811232
2216.000000	10.792158
2215.000000	10.773538
2214.000000	10.751626
2213.000000	10.743566
2212.000000	10.710527
2211.000000	10.688388
2210.000000	10.647630
2209.000000	10.638093
2208.000000	10.651603
2207.000000	10.591771
2206.000000	10.580531
2205.000000	10.580304
2204.000000	10.564637
2203.000000	10.535345
2202.000000	10.533074
2201.000000	10.526944
2200.000000	10.518656
2199.000000	10.503669
2198.000000	10.510254
2197.000000	10.490159
2196.000000	10.469382
2195.000000	10.482325
2194.000000	10.491180
2193.000000	10.473923
2192.000000	10.471085
2191.000000	10.478238
2190.000000	10.448151
2189.000000	10.466317
2188.000000	10.443723
2187.000000	10.441566
2186.000000	10.433846
2185.000000	10.412502
2184.000000	10.401262
2183.000000	10.392633
2182.000000	10.394677
2181.000000	10.369473
2180.000000	10.368224
2179.000000	10.338705
2178.000000	10.324627
2177.000000	10.327011
2176.000000	10.304531
2175.000000	10.328033
2174.000000	10.300785
2173.000000	10.294881
2172.000000	10.281484
2171.000000	10.305780
2170.000000	10.298968
2169.000000	10.329168
2168.000000	10.346085
2167.000000	10.325762
2166.000000	10.324173
2165.000000	10.341657
2164.000000	10.346993
2163.000000	10.362093
2162.000000	10.382529
2161.000000	10.386503
2160.000000	10.417838
2159.000000	10.421244
2158.000000	10.462229
2157.000000	10.469155
2156.000000	10.492770
2155.000000	10.519564
2154.000000	10.545336
2153.000000	10.567816
2152.000000	10.598810
2151.000000	10.618565
2150.000000	10.663979
2149.000000	10.705872
2148.000000	10.723697
2147.000000	10.741863
2146.000000	10.790909
2145.000000	10.820201
2144.000000	10.842453
2143.000000	10.872540
2142.000000	10.888548
2141.000000	10.920791
2140.000000	10.942930
2139.000000	10.975855
2138.000000	10.996405
2137.000000	10.997881
2136.000000	11.018203
2135.000000	11.045792
2134.000000	11.084166
2133.000000	11.099493
2132.000000	11.091319
2131.000000	11.098244
2130.000000	11.127536
2129.000000	11.146723
2128.000000	11.147177
2127.000000	11.152400
2126.000000	11.148540
2125.000000	11.155806
2124.000000	11.149221
2123.000000	11.164207
2122.000000	11.148086
2121.000000	11.143090
2120.000000	11.140592
2119.000000	11.128444
2118.000000	11.136732
2117.000000	11.133667
2116.000000	11.103126
2115.000000	11.085529
2114.000000	11.083485
2113.000000	11.078149
2112.000000	11.056350
2111.000000	11.032735
2110.000000	11.020020
2109.000000	11.005147
2108.000000	10.968475
2107.000000	10.962118
2106.000000	10.952581
2105.000000	10.934188
2104.000000	10.912049
2103.000000	10.890591
2102.000000	10.863684
2101.000000	10.838934
2100.000000	10.837571
2099.000000	10.828375
2098.000000	10.791590
2097.000000	10.761844
2096.000000	10.739932
2095.000000	10.726308
2094.000000	10.729828
2093.000000	10.702921
2092.000000	10.680554
2091.000000	10.659324
2090.000000	10.640931
2089.000000	10.643656
2088.000000	10.619473
2087.000000	10.594042
2086.000000	10.595404
2085.000000	10.581213
2084.000000	10.550786
2083.000000	10.533415
2082.000000	10.518996
2081.000000	10.479146
2080.000000	10.454850
2079.000000	10.441453
2078.000000	10.416021
2077.000000	10.393769
2076.000000	10.358914
2075.000000	10.330985
2074.000000	10.305553
2073.000000	10.264000
2072.000000	10.220516
2071.000000	10.181347
2070.000000	10.154667
2069.000000	10.129917
2068.000000	10.099717
2067.000000	10.065884
2066.000000	10.031143
2065.000000	9.986978
2064.000000	9.944630
2063.000000	9.924762
2062.000000	9.904893
2061.000000	9.870833
2060.000000	9.837908
2059.000000	9.829166
2058.000000	9.813158
2057.000000	9.802827
2056.000000	9.789884
2055.000000	9.787500
2054.000000	9.790679
2053.000000	9.797150
2052.000000	9.826442
2051.000000	9.848581
2050.000000	9.885820
2049.000000	9.930665
2048.000000	9.961660
2047.000000	9.996855
2046.000000	10.047264
2045.000000	10.108799
2044.000000	10.166929
2043.000000	10.215975
2042.000000	10.307256
2041.000000	10.350512
2040.000000	10.400808
2039.000000	10.454396
2038.000000	10.521040
2037.000000	10.585867
2036.000000	10.620836
2035.000000	10.666930
2034.000000	10.699401
2033.000000	10.730623
2032.000000	10.763547
2031.000000	10.801127
2030.000000	10.829397
2029.000000	10.879806
2028.000000	10.899220
2027.000000	10.906940
2026.000000	10.923516
2025.000000	10.953830
2024.000000	10.974152
2023.000000	10.974606
2022.000000	11.013435
2021.000000	11.007417
2020.000000	11.002081
2019.000000	11.012640
2018.000000	11.021155
2017.000000	11.019906
2016.000000	11.023426
2015.000000	11.018884
2014.000000	11.009234
2013.000000	11.012754
2012.000000	10.988457
2011.000000	10.987776
2010.000000	10.954965
2009.000000	10.935664
2008.000000	10.918180
2007.000000	10.904897
2006.000000	10.877876
2005.000000	10.856758
2004.000000	10.822358
2003.000000	10.790455
2002.000000	10.743452
2001.000000	10.713252
2000.000000	10.688502
1999.000000	10.664319
1998.000000	10.594382
1997.000000	10.556576
1996.000000	10.527965
1995.000000	10.480622
1994.000000	10.441339
1993.000000	10.379350
1992.000000	10.329849
1991.000000	10.280462
1990.000000	10.250035
1989.000000	10.184413
1988.000000	10.118109
1987.000000	10.072128
1986.000000	10.010252
1985.000000	9.956437
1984.000000	9.890815
1983.000000	9.837114
1982.000000	9.781709
1981.000000	9.728008
1980.000000	9.695197
1979.000000	9.610274
1978.000000	9.567131
1977.000000	9.502871
1976.000000	9.480278
1975.000000	9.415223
1974.000000	9.349260
1973.000000	9.301008
1972.000000	9.265699
1971.000000	9.225054
1970.000000	9.150576
1969.000000	9.097443
1968.000000	9.074282
1967.000000	9.048850
1966.000000	8.984363
1965.000000	8.918627
1964.000000	8.915448
1963.000000	8.852891
1962.000000	8.778754
1961.000000	8.789199
1960.000000	8.748214
1959.000000	8.684635
1958.000000	8.653867
1957.000000	8.611179
1956.000000	8.576551
1955.000000	8.524212
1954.000000	8.493217
1953.000000	8.475619
1952.000000	8.431114
1951.000000	8.398303
1950.000000	8.368898
1949.000000	8.342558
1948.000000	8.307249
1947.000000	8.271600
1946.000000	8.235496
1945.000000	8.229138
1944.000000	8.189515
1943.000000	8.155001
1942.000000	8.165332
1941.000000	8.170441
1940.000000	8.134224
1939.000000	8.157839
1938.000000	8.112993
1937.000000	8.143874
1936.000000	8.119919
1935.000000	8.155114
1934.000000	8.155909
1933.000000	8.169420
1932.000000	8.153979
1931.000000	8.186109
1930.000000	8.215060
1929.000000	8.266264
1928.000000	8.267967
1927.000000	8.317013
1926.000000	8.363675
1925.000000	8.386155
1924.000000	8.420215
1923.000000	8.477095
1922.000000	8.562586
1921.000000	8.623213
1920.000000	8.667718
1919.000000	8.721533
1918.000000	8.826438
1917.000000	8.923169
1916.000000	8.999463
1915.000000	9.079504
1914.000000	9.209387
1913.000000	9.309637
1912.000000	9.416926
1911.000000	9.548739
1910.000000	9.647059
1909.000000	9.779666
1908.000000	9.922377
1907.000000	10.046015
1906.000000	10.190430
1905.000000	10.371289
1904.000000	10.552262
1903.000000	10.724832
1902.000000	10.913866
1901.000000	11.102332
1900.000000	11.317932
1899.000000	11.548632
1898.000000	11.778537
1897.000000	12.030241
1896.000000	12.290233
1895.000000	12.540915
1894.000000	12.818050
1893.000000	13.076453
1892.000000	13.376522
1891.000000	13.729044
1890.000000	14.076229
1889.000000	14.470077
1888.000000	14.844170
1887.000000	15.243808
1886.000000	15.680345
1885.000000	16.149465
1884.000000	16.636751
1883.000000	17.185799
1882.000000	17.771405
1881.000000	18.296952
1880.000000	18.863371
1879.000000	19.423545
1878.000000	19.957834
1877.000000	20.497232
1876.000000	21.012334
1875.000000	21.503253
1874.000000	21.993831
1873.000000	22.489178
1872.000000	22.965678
1871.000000	23.379735
1870.000000	23.799809
1869.000000	24.201945
1868.000000	24.588754
1867.000000	24.905285
1866.000000	25.194682
1865.000000	25.419819
1864.000000	25.643367
1863.000000	25.826837
1862.000000	25.995548
1861.000000	26.186852
1860.000000	26.360445
1859.000000	26.528588
1858.000000	26.672208
1857.000000	26.775637
1856.000000	26.862944
1855.000000	26.934130
1854.000000	26.998049
1853.000000	27.069575
1852.000000	27.078204
1851.000000	27.090806
1850.000000	27.144394
1849.000000	27.141442
1848.000000	27.140761
1847.000000	27.153136
1846.000000	27.138831
1845.000000	27.109199
1844.000000	27.060152
1843.000000	27.025751
1842.000000	27.025184
1841.000000	27.049934
1840.000000	27.018372
1839.000000	26.982495
1838.000000	26.941509
1837.000000	26.910628
1836.000000	26.882586
1835.000000	26.842962
1834.000000	26.788693
1833.000000	26.724206
1832.000000	26.657449
1831.000000	26.599433
1830.000000	26.543234
1829.000000	26.471367
1828.000000	26.400409
1827.000000	26.318664
1826.000000	26.246684
1825.000000	26.205017
1824.000000	26.124749
1823.000000	26.069685
1822.000000	26.043459
1821.000000	26.014622
1820.000000	25.970116
1819.000000	25.949680
1818.000000	25.900066
1817.000000	25.857151
1816.000000	25.851701
1815.000000	25.861578
1814.000000	25.843527
1813.000000	25.807991
1812.000000	25.789939
1811.000000	25.767573
1810.000000	25.725338
1809.000000	25.675043
1808.000000	25.628721
1807.000000	25.579902
1806.000000	25.535510
1805.000000	25.478743
1804.000000	25.405741
1803.000000	25.352835
1802.000000	25.306967
1801.000000	25.263484
1800.000000	25.219092
1799.000000	25.145295
1798.000000	25.075018
1797.000000	25.014845
1796.000000	24.958873
1795.000000	24.907215
1794.000000	24.856239
1793.000000	24.808555
1792.000000	24.739299
1791.000000	24.669249
1790.000000	24.609303
1789.000000	24.551855
1788.000000	24.505420
1787.000000	24.440366
1786.000000	24.353399
1785.000000	24.285165
1784.000000	24.221586
1783.000000	24.140183
1782.000000	24.056168
1781.000000	23.975332
1780.000000	23.893929
1779.000000	23.811844
1778.000000	23.725104
1777.000000	23.636775
1776.000000	23.545608
1775.000000	23.442065
1774.000000	23.328077
1773.000000	23.210003
1772.000000	23.106119
1771.000000	22.995992
1770.000000	22.878485
1769.000000	22.752235
1768.000000	22.625305
1767.000000	22.493379
1766.000000	22.383478
1765.000000	22.299577
1764.000000	22.239291
1763.000000	22.190017
1762.000000	22.165040
1761.000000	22.179345
1760.000000	22.201143
1759.000000	22.245762
1758.000000	22.309227
1757.000000	22.381208
1756.000000	22.446262
1755.000000	22.501213
1754.000000	22.541971
1753.000000	22.581821
1752.000000	22.600100
1751.000000	22.620991
1750.000000	22.607821
1749.000000	22.589201
1748.000000	22.541176
1747.000000	22.476462
1746.000000	22.414700
1745.000000	22.327506
1744.000000	22.202279
1743.000000	22.074327
1742.000000	21.910725
1741.000000	21.714198
1740.000000	21.526641
1739.000000	21.311949
1738.000000	21.091126
1737.000000	20.898233
1736.000000	20.722483
1735.000000	20.565352
1734.000000	20.456928
1733.000000	20.402205
1732.000000	20.382223
1731.000000	20.390284
1730.000000	20.451932
1729.000000	20.534130
1728.000000	20.617124
1727.000000	20.733836
1726.000000	20.855885
1725.000000	20.928773
1724.000000	21.004500
1723.000000	21.084087
1722.000000	21.119396
1721.000000	21.177071
1720.000000	21.232589
1719.000000	21.282317
1718.000000	21.341240
1717.000000	21.387903
1716.000000	21.471804
1715.000000	21.539811
1714.000000	21.639380
1713.000000	21.738948
1712.000000	21.817968
1711.000000	21.905956
1710.000000	21.956479
1709.000000	21.989631
1708.000000	22.022782
1707.000000	21.996897
1706.000000	21.963404
1705.000000	21.941379
1704.000000	21.881206
1703.000000	21.811610
1702.000000	21.728276
1701.000000	21.619852
1700.000000	21.497690
1699.000000	21.339651
1698.000000	21.168329
1697.000000	21.023233
1696.000000	20.922756
1695.000000	20.822392
1694.000000	20.800367
1693.000000	20.848618
1692.000000	20.929114
1691.000000	21.067170
1690.000000	21.230205
1689.000000	21.399483
1688.000000	21.516650
1687.000000	21.624053
1686.000000	21.702391
1685.000000	21.757227
1684.000000	21.834317
1683.000000	21.982932
1682.000000	22.174009
1681.000000	22.505868
1680.000000	22.928439
1679.000000	23.423673
1678.000000	23.959210
1677.000000	24.523699
1676.000000	25.069228
1675.000000	25.545274
1674.000000	25.975566
1673.000000	26.395300
1672.000000	26.689579
1671.000000	26.989988
1670.000000	27.238286
1669.000000	27.509745
1668.000000	27.703092
1667.000000	27.893602
1666.000000	28.062313
1665.000000	28.182999
1664.000000	28.309589
1663.000000	28.424825
1662.000000	28.523599
1661.000000	28.579231
1660.000000	28.663586
1659.000000	28.731706
1658.000000	28.775417
1657.000000	28.839904
1656.000000	28.862497
1655.000000	28.856253
1654.000000	28.850690
1653.000000	28.861929
1652.000000	28.887474
1651.000000	28.847738
1650.000000	28.808455
1649.000000	28.776893
1648.000000	28.732615
1647.000000	28.700485
1646.000000	28.645875
1645.000000	28.583318
1644.000000	28.505434
1643.000000	28.443785
1642.000000	28.401210
1641.000000	28.343195
1640.000000	28.265765
1639.000000	28.181069
1638.000000	28.133725
1637.000000	28.057090
1636.000000	27.985905
1635.000000	27.889515
1634.000000	27.812993
1633.000000	27.725459
1632.000000	27.654954
1631.000000	27.536312
1630.000000	27.463991
1629.000000	27.371347
1628.000000	27.277455
1627.000000	27.179249
1626.000000	27.084902
1625.000000	26.992600
1624.000000	26.904384
1623.000000	26.785401
1622.000000	26.717054
1621.000000	26.638602
1620.000000	26.533811
1619.000000	26.429587
1618.000000	26.362602
1617.000000	26.264736
1616.000000	26.179472
1615.000000	26.113509
1614.000000	26.018482
1613.000000	25.922659
1612.000000	25.835579
1611.000000	25.756219
1610.000000	25.672659
1609.000000	25.577063
1608.000000	25.500088
1607.000000	25.414710
1606.000000	25.323316
1605.000000	25.237030
1604.000000	25.168002
1603.000000	25.062983
1602.000000	24.960236
1601.000000	24.878378
1600.000000	24.803559
1599.000000	24.725221
1598.000000	24.636665
1597.000000	24.525062
1596.000000	24.461369
1595.000000	24.388594
1594.000000	24.305034
1593.000000	24.229193
1592.000000	24.122472
