PE UV       SUBTECH     SPECTRUM    ASCII       PEDS        4.00        
   -1
CICIMAUCR0212-3.ASC
24/06/06
17:34:18.00
24/06/06
17:34:18.00
Vinicio Soto Monge
C. resplendens. Sex F. Dorsal
250,000000
1
Lambda 1050
1050L1511233
PerkinElmer UV WinLab 6.3.2.0749 / 2.02.05 Lambda 900 UV/VIS/NIR, Aug  7 2015 09:38:08

0
0
3350/servo 860,8/2
0
0
UV/VIS
1
1
1
DoubleDePol,CommonBeamDepol,RBeamAtt,SBeamAtt,60mm sphere, WB InGaAs Detector
0
0
0
0
Program
Program
3350/servo 860,8/2
3350/0,2 860,8/0,2
3350/0,2 860,8/0,2
0
15.00
 
 
 
0
 
860,8
319,2
860,8
Front
100
on
S:100 R:100
0
0
0
0
 
0
 
 
 
0
 
 
0
0
0
0
0
 
 
 
 
0
0


0
0
#HDR
-1
-1
#GR
nm
%R
1.0
0.0
2500,000000
-1,000000
2251
8
89,566500
5,313500
#DATA
250.000000	2232.000000	6.032100
251.000000	2231.000000	6.007133
252.000000	2230.000000	6.004300
253.000000	2229.000000	5.978200
254.000000	2228.000000	5.990933
255.000000	2227.000000	5.979767
256.000000	2226.000000	5.976300
257.000000	2225.000000	5.946033
258.000000	2224.000000	5.935367
259.000000	2223.000000	5.908100
260.000000	2222.000000	5.876633
261.000000	2221.000000	5.884900
262.000000	2220.000000	5.873367
263.000000	2219.000000	5.829933
264.000000	2218.000000	5.801133
265.000000	2217.000000	5.790100
266.000000	2216.000000	5.766567
267.000000	2215.000000	5.765933
268.000000	2214.000000	5.736800
269.000000	2213.000000	5.711400
270.000000	2212.000000	5.695167
271.000000	2211.000000	5.699733
272.000000	2210.000000	5.674400
273.000000	2209.000000	5.663400
274.000000	2208.000000	5.662033
275.000000	2207.000000	5.643233
276.000000	2206.000000	5.632700
277.000000	2205.000000	5.613933
278.000000	2204.000000	5.579333
279.000000	2203.000000	5.561167
280.000000	2202.000000	5.549633
281.000000	2201.000000	5.540800
282.000000	2200.000000	5.520767
283.000000	2199.000000	5.532567
284.000000	2198.000000	5.519800
285.000000	2197.000000	5.496333
286.000000	2196.000000	5.489033
287.000000	2195.000000	5.478533
288.000000	2194.000000	5.449700
289.000000	2193.000000	5.449833
290.000000	2192.000000	5.466333
291.000000	2191.000000	5.451500
292.000000	2190.000000	5.427433
293.000000	2189.000000	5.409033
294.000000	2188.000000	5.407667
295.000000	2187.000000	5.404133
296.000000	2186.000000	5.378600
297.000000	2185.000000	5.383633
298.000000	2184.000000	5.382200
299.000000	2183.000000	5.377133
300.000000	2182.000000	5.373033
301.000000	2181.000000	5.371467
302.000000	2180.000000	5.350333
303.000000	2179.000000	5.342700
304.000000	2178.000000	5.313967
305.000000	2177.000000	5.301367
306.000000	2176.000000	5.318967
307.000000	2175.000000	5.316667
308.000000	2174.000000	5.318800
309.000000	2173.000000	5.326267
310.000000	2172.000000	5.321733
311.000000	2171.000000	5.330400
312.000000	2170.000000	5.318433
313.000000	2169.000000	5.290033
314.000000	2168.000000	5.287167
315.000000	2167.000000	5.286333
316.000000	2166.000000	5.585900
317.000000	2165.000000	5.768833
318.000000	2164.000000	5.606800
319.000000	2163.000000	5.661467
320.000000	2162.000000	5.613300
321.000000	2161.000000	5.632867
322.000000	2160.000000	5.674600
323.000000	2159.000000	5.654867
324.000000	2158.000000	5.695900
325.000000	2157.000000	5.701500
326.000000	2156.000000	5.539433
327.000000	2155.000000	5.580633
328.000000	2154.000000	5.609433
329.000000	2153.000000	5.550100
330.000000	2152.000000	5.498500
331.000000	2151.000000	5.522000
332.000000	2150.000000	5.482167
333.000000	2149.000000	5.496133
334.000000	2148.000000	5.551267
335.000000	2147.000000	5.546033
336.000000	2146.000000	5.557000
337.000000	2145.000000	5.660667
338.000000	2144.000000	5.662400
339.000000	2143.000000	5.622800
340.000000	2142.000000	5.657100
341.000000	2141.000000	5.668500
342.000000	2140.000000	5.673800
343.000000	2139.000000	5.670667
344.000000	2138.000000	5.703033
345.000000	2137.000000	5.760167
346.000000	2136.000000	5.798400
347.000000	2135.000000	5.756933
348.000000	2134.000000	5.702633
349.000000	2133.000000	5.719867
350.000000	2132.000000	5.850200
351.000000	2131.000000	5.917767
352.000000	2130.000000	5.866333
353.000000	2129.000000	5.926233
354.000000	2128.000000	5.923900
355.000000	2127.000000	5.956700
356.000000	2126.000000	6.027033
357.000000	2125.000000	6.055667
358.000000	2124.000000	6.085567
359.000000	2123.000000	6.144200
360.000000	2122.000000	6.225700
361.000000	2121.000000	6.285833
362.000000	2120.000000	6.340867
363.000000	2119.000000	6.376000
364.000000	2118.000000	6.415367
365.000000	2117.000000	6.520733
366.000000	2116.000000	6.601267
367.000000	2115.000000	6.631700
368.000000	2114.000000	6.677233
369.000000	2113.000000	6.721967
370.000000	2112.000000	6.844800
371.000000	2111.000000	6.952467
372.000000	2110.000000	7.011900
373.000000	2109.000000	7.025967
374.000000	2108.000000	7.117567
375.000000	2107.000000	7.292000
376.000000	2106.000000	7.545933
377.000000	2105.000000	7.746067
378.000000	2104.000000	7.913033
379.000000	2103.000000	8.100767
380.000000	2102.000000	8.293700
381.000000	2101.000000	8.498067
382.000000	2100.000000	8.732167
383.000000	2099.000000	8.953400
384.000000	2098.000000	9.202200
385.000000	2097.000000	9.482367
386.000000	2096.000000	9.762033
387.000000	2095.000000	10.067400
388.000000	2094.000000	10.365633
389.000000	2093.000000	10.671333
390.000000	2092.000000	11.021100
391.000000	2091.000000	11.358333
392.000000	2090.000000	11.731033
393.000000	2089.000000	12.080433
394.000000	2088.000000	12.448533
395.000000	2087.000000	12.829700
396.000000	2086.000000	13.227467
397.000000	2085.000000	13.633267
398.000000	2084.000000	14.011467
399.000000	2083.000000	14.398900
400.000000	2082.000000	14.794233
401.000000	2081.000000	15.206700
402.000000	2080.000000	15.592900
403.000000	2079.000000	15.988400
404.000000	2078.000000	16.359267
405.000000	2077.000000	16.750767
406.000000	2076.000000	17.132533
407.000000	2075.000000	17.483400
408.000000	2074.000000	17.861533
409.000000	2073.000000	18.203367
410.000000	2072.000000	18.539200
411.000000	2071.000000	18.882300
412.000000	2070.000000	19.206600
413.000000	2069.000000	19.534033
414.000000	2068.000000	19.830267
415.000000	2067.000000	20.110567
416.000000	2066.000000	20.380333
417.000000	2065.000000	20.642933
418.000000	2064.000000	20.916767
419.000000	2063.000000	21.133033
420.000000	2062.000000	21.356967
421.000000	2061.000000	21.611067
422.000000	2060.000000	21.793867
423.000000	2059.000000	21.977767
424.000000	2058.000000	22.145967
425.000000	2057.000000	22.320700
426.000000	2056.000000	22.478567
427.000000	2055.000000	22.615500
428.000000	2054.000000	22.736067
429.000000	2053.000000	22.858500
430.000000	2052.000000	22.955033
431.000000	2051.000000	23.028333
432.000000	2050.000000	23.113167
433.000000	2049.000000	23.202733
434.000000	2048.000000	23.267700
435.000000	2047.000000	23.282233
436.000000	2046.000000	23.305500
437.000000	2045.000000	23.338633
438.000000	2044.000000	23.366967
439.000000	2043.000000	23.366067
440.000000	2042.000000	23.378033
441.000000	2041.000000	23.375067
442.000000	2040.000000	23.367600
443.000000	2039.000000	23.338967
444.000000	2038.000000	23.327300
445.000000	2037.000000	23.306200
446.000000	2036.000000	23.303267
447.000000	2035.000000	23.298867
448.000000	2034.000000	23.304300
449.000000	2033.000000	23.325433
450.000000	2032.000000	23.338733
451.000000	2031.000000	23.369633
452.000000	2030.000000	23.444433
453.000000	2029.000000	23.523867
454.000000	2028.000000	23.605700
455.000000	2027.000000	23.725100
456.000000	2026.000000	23.875800
457.000000	2025.000000	24.009700
458.000000	2024.000000	24.170933
459.000000	2023.000000	24.364133
460.000000	2022.000000	24.573667
461.000000	2021.000000	24.777333
462.000000	2020.000000	25.031033
463.000000	2019.000000	25.257167
464.000000	2018.000000	25.517067
465.000000	2017.000000	25.801800
466.000000	2016.000000	26.067133
467.000000	2015.000000	26.355300
468.000000	2014.000000	26.637833
469.000000	2013.000000	26.923700
470.000000	2012.000000	27.222933
471.000000	2011.000000	27.495633
472.000000	2010.000000	27.799533
473.000000	2009.000000	28.076900
474.000000	2008.000000	28.365300
475.000000	2007.000000	28.668467
476.000000	2006.000000	28.939367
477.000000	2005.000000	29.224433
478.000000	2004.000000	29.486033
479.000000	2003.000000	29.752833
480.000000	2002.000000	30.013800
481.000000	2001.000000	30.289033
482.000000	2000.000000	30.537067
483.000000	1999.000000	30.775100
484.000000	1998.000000	31.009133
485.000000	1997.000000	31.271300
486.000000	1996.000000	31.528100
487.000000	1995.000000	31.809733
488.000000	1994.000000	32.055833
489.000000	1993.000000	32.402600
490.000000	1992.000000	32.721267
491.000000	1991.000000	33.114833
492.000000	1990.000000	33.509767
493.000000	1989.000000	33.934500
494.000000	1988.000000	34.408867
495.000000	1987.000000	34.915033
496.000000	1986.000000	35.473967
497.000000	1985.000000	36.069867
498.000000	1984.000000	36.724400
499.000000	1983.000000	37.446533
500.000000	1982.000000	38.199400
501.000000	1981.000000	39.019067
502.000000	1980.000000	39.939500
503.000000	1979.000000	40.883467
504.000000	1978.000000	41.896567
505.000000	1977.000000	43.020733
506.000000	1976.000000	44.114200
507.000000	1975.000000	45.307600
508.000000	1974.000000	46.571633
509.000000	1973.000000	47.885233
510.000000	1972.000000	49.236667
511.000000	1971.000000	50.621133
512.000000	1970.000000	52.047967
513.000000	1969.000000	53.497267
514.000000	1968.000000	54.957967
515.000000	1967.000000	56.414567
516.000000	1966.000000	57.870367
517.000000	1965.000000	59.295067
518.000000	1964.000000	60.700700
519.000000	1963.000000	62.078900
520.000000	1962.000000	63.454900
521.000000	1961.000000	64.789933
522.000000	1960.000000	66.071500
523.000000	1959.000000	67.346933
524.000000	1958.000000	68.570967
525.000000	1957.000000	69.722567
526.000000	1956.000000	70.819300
527.000000	1955.000000	71.904367
528.000000	1954.000000	72.938800
529.000000	1953.000000	73.931600
530.000000	1952.000000	74.887100
531.000000	1951.000000	75.804900
532.000000	1950.000000	76.683800
533.000000	1949.000000	77.540233
534.000000	1948.000000	78.328800
535.000000	1947.000000	79.109333
536.000000	1946.000000	79.817033
537.000000	1945.000000	80.512567
538.000000	1944.000000	81.154300
539.000000	1943.000000	81.773667
540.000000	1942.000000	82.369400
541.000000	1941.000000	82.912367
542.000000	1940.000000	83.474000
543.000000	1939.000000	83.962200
544.000000	1938.000000	84.438267
545.000000	1937.000000	84.897100
546.000000	1936.000000	85.328733
547.000000	1935.000000	85.745600
548.000000	1934.000000	86.139967
549.000000	1933.000000	86.547500
550.000000	1932.000000	86.913367
551.000000	1931.000000	87.271600
552.000000	1930.000000	87.618333
553.000000	1929.000000	87.919433
554.000000	1928.000000	88.203133
555.000000	1927.000000	88.490300
556.000000	1926.000000	88.739767
557.000000	1925.000000	88.981433
558.000000	1924.000000	89.197700
559.000000	1923.000000	89.399067
560.000000	1922.000000	89.599633
561.000000	1921.000000	89.750433
562.000000	1920.000000	89.905600
563.000000	1919.000000	90.059000
564.000000	1918.000000	90.181233
565.000000	1917.000000	90.293567
566.000000	1916.000000	90.379167
567.000000	1915.000000	90.467100
568.000000	1914.000000	90.528533
569.000000	1913.000000	90.583633
570.000000	1912.000000	90.625633
571.000000	1911.000000	90.662933
572.000000	1910.000000	90.678967
573.000000	1909.000000	90.661667
574.000000	1908.000000	90.633233
575.000000	1907.000000	90.589700
576.000000	1906.000000	90.525867
577.000000	1905.000000	90.441367
578.000000	1904.000000	90.307267
579.000000	1903.000000	90.176700
580.000000	1902.000000	90.031933
581.000000	1901.000000	89.831733
582.000000	1900.000000	89.643400
583.000000	1899.000000	89.367467
584.000000	1898.000000	89.094100
585.000000	1897.000000	88.813267
586.000000	1896.000000	88.503033
587.000000	1895.000000	88.157000
588.000000	1894.000000	87.785300
589.000000	1893.000000	87.391033
590.000000	1892.000000	86.949367
591.000000	1891.000000	86.470900
592.000000	1890.000000	85.978967
593.000000	1889.000000	85.452600
594.000000	1888.000000	84.895300
595.000000	1887.000000	84.312333
596.000000	1886.000000	83.705700
597.000000	1885.000000	83.063733
598.000000	1884.000000	82.393533
599.000000	1883.000000	81.699600
600.000000	1882.000000	80.974133
601.000000	1881.000000	80.239733
602.000000	1880.000000	79.444567
603.000000	1879.000000	78.637833
604.000000	1878.000000	77.805167
605.000000	1877.000000	76.951833
606.000000	1876.000000	76.087667
607.000000	1875.000000	75.209267
608.000000	1874.000000	74.318900
609.000000	1873.000000	73.411400
610.000000	1872.000000	72.509267
611.000000	1871.000000	71.567667
612.000000	1870.000000	70.631967
613.000000	1869.000000	69.721800
614.000000	1868.000000	68.806400
615.000000	1867.000000	67.923467
616.000000	1866.000000	67.072400
617.000000	1865.000000	66.250567
618.000000	1864.000000	65.421500
619.000000	1863.000000	64.655933
620.000000	1862.000000	63.978567
621.000000	1861.000000	63.326333
622.000000	1860.000000	62.742733
623.000000	1859.000000	62.228200
624.000000	1858.000000	61.782367
625.000000	1857.000000	61.419133
626.000000	1856.000000	61.124767
627.000000	1855.000000	60.909500
628.000000	1854.000000	60.772267
629.000000	1853.000000	60.730333
630.000000	1852.000000	60.752200
631.000000	1851.000000	60.863533
632.000000	1850.000000	61.065833
633.000000	1849.000000	61.328200
634.000000	1848.000000	61.687900
635.000000	1847.000000	62.086633
636.000000	1846.000000	62.538500
637.000000	1845.000000	63.062767
638.000000	1844.000000	63.612767
639.000000	1843.000000	64.207100
640.000000	1842.000000	64.811200
641.000000	1841.000000	65.460633
642.000000	1840.000000	66.116633
643.000000	1839.000000	66.754233
644.000000	1838.000000	67.390467
645.000000	1837.000000	68.006600
646.000000	1836.000000	68.619500
647.000000	1835.000000	69.214567
648.000000	1834.000000	69.763800
649.000000	1833.000000	70.298733
650.000000	1832.000000	70.802333
651.000000	1831.000000	71.284167
652.000000	1830.000000	71.749000
653.000000	1829.000000	72.172933
654.000000	1828.000000	72.596267
655.000000	1827.000000	72.986500
656.000000	1826.000000	73.331933
657.000000	1825.000000	73.646867
658.000000	1824.000000	73.970633
659.000000	1823.000000	74.282933
660.000000	1822.000000	74.526333
661.000000	1821.000000	74.767267
662.000000	1820.000000	75.015467
663.000000	1819.000000	75.220400
664.000000	1818.000000	75.363567
665.000000	1817.000000	75.489767
666.000000	1816.000000	75.659367
667.000000	1815.000000	75.787900
668.000000	1814.000000	75.901567
669.000000	1813.000000	76.015867
670.000000	1812.000000	76.092267
671.000000	1811.000000	76.160033
672.000000	1810.000000	76.255700
673.000000	1809.000000	76.346100
674.000000	1808.000000	76.395667
675.000000	1807.000000	76.481700
676.000000	1806.000000	76.544000
677.000000	1805.000000	76.609600
678.000000	1804.000000	76.700733
679.000000	1803.000000	76.783733
680.000000	1802.000000	76.867167
681.000000	1801.000000	76.947100
682.000000	1800.000000	77.025733
683.000000	1799.000000	77.109033
684.000000	1798.000000	77.237033
685.000000	1797.000000	77.368633
686.000000	1796.000000	77.497667
687.000000	1795.000000	77.605933
688.000000	1794.000000	77.768967
689.000000	1793.000000	77.950300
690.000000	1792.000000	78.140467
691.000000	1791.000000	78.320933
692.000000	1790.000000	78.530700
693.000000	1789.000000	78.761900
694.000000	1788.000000	79.044200
695.000000	1787.000000	79.326733
696.000000	1786.000000	79.586933
697.000000	1785.000000	79.849267
698.000000	1784.000000	80.154900
699.000000	1783.000000	80.496400
700.000000	1782.000000	80.859733
701.000000	1781.000000	81.182133
702.000000	1780.000000	81.530033
703.000000	1779.000000	81.886233
704.000000	1778.000000	82.271300
705.000000	1777.000000	82.673567
706.000000	1776.000000	83.011367
707.000000	1775.000000	83.371967
708.000000	1774.000000	83.758700
709.000000	1773.000000	84.123367
710.000000	1772.000000	84.533067
711.000000	1771.000000	84.925567
712.000000	1770.000000	85.227767
713.000000	1769.000000	85.602600
714.000000	1768.000000	85.963900
715.000000	1767.000000	86.275833
716.000000	1766.000000	86.595600
717.000000	1765.000000	86.837767
718.000000	1764.000000	87.111100
719.000000	1763.000000	87.456100
720.000000	1762.000000	87.719133
721.000000	1761.000000	87.912033
722.000000	1760.000000	88.118000
723.000000	1759.000000	88.405633
724.000000	1758.000000	88.531567
725.000000	1757.000000	88.782700
726.000000	1756.000000	88.925900
727.000000	1755.000000	89.073233
728.000000	1754.000000	89.215167
729.000000	1753.000000	89.316667
730.000000	1752.000000	89.355933
731.000000	1751.000000	89.473500
732.000000	1750.000000	89.550567
733.000000	1749.000000	89.608367
734.000000	1748.000000	89.670600
735.000000	1747.000000	89.646767
736.000000	1746.000000	89.743867
737.000000	1745.000000	89.765367
738.000000	1744.000000	89.768167
739.000000	1743.000000	89.835500
740.000000	1742.000000	89.911500
741.000000	1741.000000	89.960667
742.000000	1740.000000	90.030933
743.000000	1739.000000	89.976733
744.000000	1738.000000	90.031300
745.000000	1737.000000	90.048467
746.000000	1736.000000	90.109767
747.000000	1735.000000	90.163767
748.000000	1734.000000	90.224267
749.000000	1733.000000	90.176467
750.000000	1732.000000	90.228167
751.000000	1731.000000	90.228300
752.000000	1730.000000	90.233733
753.000000	1729.000000	90.286233
754.000000	1728.000000	90.343300
755.000000	1727.000000	90.226600
756.000000	1726.000000	90.315167
757.000000	1725.000000	90.352567
758.000000	1724.000000	90.285700
759.000000	1723.000000	90.354767
760.000000	1722.000000	90.346633
761.000000	1721.000000	90.351200
762.000000	1720.000000	90.317833
763.000000	1719.000000	90.282133
764.000000	1718.000000	90.233200
765.000000	1717.000000	90.184267
766.000000	1716.000000	90.127633
767.000000	1715.000000	90.091000
768.000000	1714.000000	89.975833
769.000000	1713.000000	89.841433
770.000000	1712.000000	89.791067
771.000000	1711.000000	89.676333
772.000000	1710.000000	89.656800
773.000000	1709.000000	89.514667
774.000000	1708.000000	89.478933
775.000000	1707.000000	89.322333
776.000000	1706.000000	89.228300
777.000000	1705.000000	89.165733
778.000000	1704.000000	88.992633
779.000000	1703.000000	88.932133
780.000000	1702.000000	88.782867
781.000000	1701.000000	88.679967
782.000000	1700.000000	88.558300
783.000000	1699.000000	88.434833
784.000000	1698.000000	88.340300
785.000000	1697.000000	88.193800
786.000000	1696.000000	88.117000
787.000000	1695.000000	88.153367
788.000000	1694.000000	87.888367
789.000000	1693.000000	87.872700
790.000000	1692.000000	87.706033
791.000000	1691.000000	87.557667
792.000000	1690.000000	87.549933
793.000000	1689.000000	87.272867
794.000000	1688.000000	87.123933
795.000000	1687.000000	86.931933
796.000000	1686.000000	86.898200
797.000000	1685.000000	86.704500
798.000000	1684.000000	86.500933
799.000000	1683.000000	86.436533
800.000000	1682.000000	86.209600
801.000000	1681.000000	86.206767
802.000000	1680.000000	86.001533
803.000000	1679.000000	85.671300
804.000000	1678.000000	85.400800
805.000000	1677.000000	85.290467
806.000000	1676.000000	85.066400
807.000000	1675.000000	84.746067
808.000000	1674.000000	84.597467
809.000000	1673.000000	84.304567
810.000000	1672.000000	84.283733
811.000000	1671.000000	83.899200
812.000000	1670.000000	83.642633
813.000000	1669.000000	83.431133
814.000000	1668.000000	83.184700
815.000000	1667.000000	82.898300
816.000000	1666.000000	82.817067
817.000000	1665.000000	82.682400
818.000000	1664.000000	82.379833
819.000000	1663.000000	82.120800
820.000000	1662.000000	81.890867
821.000000	1661.000000	81.682600
822.000000	1660.000000	81.453700
823.000000	1659.000000	81.370567
824.000000	1658.000000	81.253667
825.000000	1657.000000	80.898433
826.000000	1656.000000	80.663800
827.000000	1655.000000	80.429700
828.000000	1654.000000	80.408533
829.000000	1653.000000	80.188967
830.000000	1652.000000	80.004333
831.000000	1651.000000	79.804133
832.000000	1650.000000	79.673867
833.000000	1649.000000	79.376767
834.000000	1648.000000	79.270000
835.000000	1647.000000	79.135500
836.000000	1646.000000	78.868067
837.000000	1645.000000	78.817767
