PE UV       SUBTECH     SPECTRUM    ASCII       PEDS        4.00        
   -1
CICIMAUCR0239-3.Sample.ASC
24/06/20
12:23:16.00
24/06/20
12:23:16.00
Vinicio Soto Monge
C. cupreomarginata. Sex M. Dorsal.
250,000000
1
Lambda 1050
1050L1511233
PerkinElmer UV WinLab 6.3.2.0749 / 2.02.05 Lambda 900 UV/VIS/NIR, Aug  7 2015 09:38:08

0
0
3350/servo 860,8/2
0
0
UV/VIS
1
1
1
DoubleDePol,CommonBeamDepol,RBeamAtt,SBeamAtt,60mm sphere, WB InGaAs Detector
0
0
0
0
Program
Program
3350/servo 860,8/2
3350/0,2 860,8/0,2
3350/0,2 860,8/0,2
0
15.00
 
 
 
0
 
860,8
319,2
860,8
Front
100
on
S:100 R:100
0
0
0
0
 
0
 
 
 
0
 
 
0
0
0
0
0
 
 
 
 
0
0


0
0
#HDR
-1
-1
#GR
nm
%R
1.0
0.0
2500,000000
-1,000000
2251
8
71,550600
5,249000
#DATA
250.000000	5.843300
251.000000	5.832767
252.000000	5.819500
253.000000	5.799700
254.000000	5.809033
255.000000	5.779067
256.000000	5.792733
257.000000	5.801867
258.000000	5.762867
259.000000	5.743367
260.000000	5.715633
261.000000	5.678500
262.000000	5.694200
263.000000	5.645033
264.000000	5.628167
265.000000	5.604733
266.000000	5.610767
267.000000	5.564133
268.000000	5.542500
269.000000	5.538800
270.000000	5.532967
271.000000	5.531767
272.000000	5.484367
273.000000	5.473933
274.000000	5.480200
275.000000	5.466633
276.000000	5.459967
277.000000	5.419933
278.000000	5.430500
279.000000	5.418400
280.000000	5.388267
281.000000	5.397833
282.000000	5.394833
283.000000	5.372200
284.000000	5.381033
285.000000	5.345300
286.000000	5.308800
287.000000	5.304200
288.000000	5.318600
289.000000	5.291667
290.000000	5.294067
291.000000	5.276433
292.000000	5.260367
293.000000	5.265367
294.000000	5.259767
295.000000	5.239567
296.000000	5.243033
297.000000	5.253800
298.000000	5.255433
299.000000	5.219167
300.000000	5.212300
301.000000	5.212433
302.000000	5.203233
303.000000	5.201033
304.000000	5.226867
305.000000	5.231133
306.000000	5.219533
307.000000	5.220500
308.000000	5.190467
309.000000	5.184633
310.000000	5.191933
311.000000	5.205300
312.000000	5.207167
313.000000	5.210433
314.000000	5.189433
315.000000	5.179900
316.000000	5.409233
317.000000	5.796500
318.000000	6.064133
319.000000	5.930867
320.000000	5.616167
321.000000	5.841767
322.000000	5.886367
323.000000	5.793700
324.000000	5.719000
325.000000	5.673833
326.000000	5.678933
327.000000	5.654700
328.000000	5.712633
329.000000	5.664600
330.000000	5.666133
331.000000	5.514667
332.000000	5.416267
333.000000	5.455933
334.000000	5.439367
335.000000	5.469900
336.000000	5.540167
337.000000	5.555033
338.000000	5.489033
339.000000	5.475267
340.000000	5.418767
341.000000	5.370500
342.000000	5.409900
343.000000	5.467700
344.000000	5.461167
345.000000	5.478200
346.000000	5.468400
347.000000	5.434000
348.000000	5.421900
349.000000	5.411833
350.000000	5.468833
351.000000	5.476567
352.000000	5.520233
353.000000	5.569100
354.000000	5.533967
355.000000	5.602300
356.000000	5.658700
357.000000	5.628867
358.000000	5.592233
359.000000	5.587433
360.000000	5.610067
361.000000	5.635333
362.000000	5.644267
363.000000	5.642700
364.000000	5.629700
365.000000	5.689833
366.000000	5.744500
367.000000	5.746700
368.000000	5.720000
369.000000	5.692467
370.000000	5.744167
371.000000	5.732667
372.000000	5.721933
373.000000	5.603567
374.000000	5.550433
375.000000	5.818300
376.000000	5.961600
377.000000	5.981767
378.000000	6.027633
379.000000	6.054567
380.000000	6.085033
381.000000	6.123433
382.000000	6.169567
383.000000	6.205433
384.000000	6.243167
385.000000	6.287200
386.000000	6.335733
387.000000	6.372467
388.000000	6.420367
389.000000	6.452467
390.000000	6.496867
391.000000	6.564967
392.000000	6.626267
393.000000	6.683100
394.000000	6.729133
395.000000	6.776567
396.000000	6.843900
397.000000	6.897000
398.000000	6.965633
399.000000	7.041733
400.000000	7.126000
401.000000	7.200700
402.000000	7.279633
403.000000	7.372067
404.000000	7.464767
405.000000	7.547933
406.000000	7.652467
407.000000	7.757500
408.000000	7.861433
409.000000	7.965567
410.000000	8.069967
411.000000	8.175567
412.000000	8.298833
413.000000	8.434200
414.000000	8.572867
415.000000	8.702700
416.000000	8.849067
417.000000	9.002767
418.000000	9.149900
419.000000	9.295500
420.000000	9.440467
421.000000	9.601633
422.000000	9.777333
423.000000	9.940267
424.000000	10.101500
425.000000	10.265400
426.000000	10.432600
427.000000	10.595833
428.000000	10.774300
429.000000	10.959800
430.000000	11.124467
431.000000	11.304567
432.000000	11.497400
433.000000	11.690900
434.000000	11.884467
435.000000	12.068100
436.000000	12.256733
437.000000	12.441467
438.000000	12.626267
439.000000	12.804100
440.000000	12.999867
441.000000	13.168767
442.000000	13.351133
443.000000	13.541300
444.000000	13.712900
445.000000	13.898733
446.000000	14.055533
447.000000	14.232133
448.000000	14.384000
449.000000	14.570000
450.000000	14.737533
451.000000	14.905600
452.000000	15.071767
453.000000	15.216133
454.000000	15.385633
455.000000	15.544200
456.000000	15.679233
457.000000	15.818367
458.000000	15.954733
459.000000	16.107100
460.000000	16.243433
461.000000	16.381333
462.000000	16.518633
463.000000	16.659633
464.000000	16.779567
465.000000	16.917100
466.000000	17.039700
467.000000	17.177700
468.000000	17.318933
469.000000	17.454633
470.000000	17.612333
471.000000	17.749767
472.000000	17.917067
473.000000	18.079867
474.000000	18.255033
475.000000	18.429967
476.000000	18.618233
477.000000	18.805333
478.000000	19.018333
479.000000	19.239267
480.000000	19.450200
481.000000	19.686900
482.000000	19.933667
483.000000	20.178233
484.000000	20.444467
485.000000	20.720333
486.000000	21.010367
487.000000	21.301933
488.000000	21.598167
489.000000	21.935767
490.000000	22.270567
491.000000	22.624000
492.000000	22.976933
493.000000	23.350700
494.000000	23.720400
495.000000	24.098533
496.000000	24.447467
497.000000	24.826333
498.000000	25.215533
499.000000	25.586767
500.000000	25.998467
501.000000	26.393367
502.000000	26.826367
503.000000	27.240367
504.000000	27.684767
505.000000	28.136067
506.000000	28.582300
507.000000	29.062200
508.000000	29.555100
509.000000	30.055733
510.000000	30.591333
511.000000	31.134600
512.000000	31.679833
513.000000	32.254667
514.000000	32.829367
515.000000	33.432800
516.000000	33.998800
517.000000	34.603933
518.000000	35.194767
519.000000	35.803967
520.000000	36.389000
521.000000	36.996333
522.000000	37.611933
523.000000	38.233867
524.000000	38.878933
525.000000	39.512033
526.000000	40.163100
527.000000	40.834100
528.000000	41.516733
529.000000	42.203600
530.000000	42.932433
531.000000	43.685700
532.000000	44.470233
533.000000	45.284000
534.000000	46.103933
535.000000	46.934133
536.000000	47.779667
537.000000	48.611600
538.000000	49.433267
539.000000	50.259067
540.000000	51.071800
541.000000	51.864100
542.000000	52.643033
543.000000	53.377300
544.000000	54.065767
545.000000	54.736667
546.000000	55.362033
547.000000	55.953267
548.000000	56.493300
549.000000	56.993367
550.000000	57.457933
551.000000	57.887933
552.000000	58.315300
553.000000	58.678567
554.000000	59.027267
555.000000	59.338233
556.000000	59.599700
557.000000	59.823667
558.000000	60.007167
559.000000	60.204000
560.000000	60.432033
561.000000	60.586300
562.000000	60.713667
563.000000	60.829200
564.000000	60.950700
565.000000	61.048567
566.000000	61.142300
567.000000	61.252233
568.000000	61.361400
569.000000	61.438133
570.000000	61.516233
571.000000	61.585000
572.000000	61.613133
573.000000	61.632733
574.000000	61.632300
575.000000	61.611800
576.000000	61.570200
577.000000	61.496833
578.000000	61.411500
579.000000	61.328400
580.000000	61.248200
581.000000	61.157133
582.000000	61.055967
583.000000	60.986167
584.000000	60.921733
585.000000	60.843067
586.000000	60.778200
587.000000	60.748633
588.000000	60.703500
589.000000	60.677633
590.000000	60.615167
591.000000	60.569233
592.000000	60.517067
593.000000	60.422633
594.000000	60.322067
595.000000	60.193267
596.000000	60.059533
597.000000	59.902100
598.000000	59.697967
599.000000	59.488800
600.000000	59.217633
601.000000	58.957400
602.000000	58.706233
603.000000	58.398067
604.000000	58.098467
605.000000	57.809233
606.000000	57.500900
607.000000	57.182400
608.000000	56.875400
609.000000	56.548400
610.000000	56.202733
611.000000	55.856333
612.000000	55.498000
613.000000	55.110833
614.000000	54.710400
615.000000	54.301400
616.000000	53.864367
617.000000	53.400967
618.000000	52.935500
619.000000	52.432200
620.000000	51.937733
621.000000	51.421667
622.000000	50.861967
623.000000	50.300000
624.000000	49.749967
625.000000	49.190233
626.000000	48.629167
627.000000	48.088800
628.000000	47.571167
629.000000	47.062933
630.000000	46.589100
631.000000	46.139167
632.000000	45.724100
633.000000	45.354567
634.000000	44.983600
635.000000	44.655600
636.000000	44.380867
637.000000	44.131867
638.000000	43.935300
639.000000	43.765700
640.000000	43.633533
641.000000	43.550700
642.000000	43.501433
643.000000	43.502867
644.000000	43.537100
645.000000	43.588900
646.000000	43.666033
647.000000	43.777967
648.000000	43.909333
649.000000	44.026867
650.000000	44.177100
651.000000	44.334733
652.000000	44.466667
653.000000	44.611367
654.000000	44.755433
655.000000	44.874600
656.000000	44.989833
657.000000	45.103200
658.000000	45.199800
659.000000	45.281567
660.000000	45.361233
661.000000	45.434000
662.000000	45.495567
663.000000	45.541200
664.000000	45.576200
665.000000	45.622867
666.000000	45.664133
667.000000	45.698400
668.000000	45.720567
669.000000	45.749700
670.000000	45.772367
671.000000	45.781533
672.000000	45.776100
673.000000	45.753433
674.000000	45.723333
675.000000	45.685433
676.000000	45.639333
677.000000	45.588033
678.000000	45.551467
679.000000	45.485467
680.000000	45.402400
681.000000	45.313733
682.000000	45.248567
683.000000	45.169000
684.000000	45.076400
685.000000	44.988200
686.000000	44.948400
687.000000	44.928967
688.000000	44.906133
689.000000	44.881967
690.000000	44.884800
691.000000	44.906800
692.000000	44.926033
693.000000	45.000900
694.000000	45.081533
695.000000	45.165033
696.000000	45.306600
697.000000	45.435133
698.000000	45.562867
699.000000	45.729900
700.000000	45.898900
701.000000	46.062567
702.000000	46.226867
703.000000	46.392233
704.000000	46.588233
705.000000	46.792233
706.000000	46.977433
707.000000	47.145167
708.000000	47.360300
709.000000	47.552300
710.000000	47.741867
711.000000	47.960900
712.000000	48.189700
713.000000	48.422900
714.000000	48.675800
715.000000	48.908400
716.000000	49.175467
717.000000	49.460367
718.000000	49.729667
719.000000	49.978067
720.000000	50.227633
721.000000	50.511067
722.000000	50.786367
723.000000	51.020633
724.000000	51.293133
725.000000	51.532567
726.000000	51.785933
727.000000	52.019600
728.000000	52.241967
729.000000	52.408300
730.000000	52.610767
731.000000	52.818800
732.000000	52.993200
733.000000	53.179800
734.000000	53.316100
735.000000	53.468633
736.000000	53.644900
737.000000	53.701333
738.000000	53.811400
739.000000	53.957000
740.000000	54.079567
741.000000	54.148600
742.000000	54.234933
743.000000	54.328400
744.000000	54.475800
745.000000	54.522633
746.000000	54.633000
747.000000	54.641100
748.000000	54.779767
749.000000	54.862800
750.000000	54.936967
751.000000	54.986900
752.000000	55.090167
753.000000	55.195167
754.000000	55.333800
755.000000	55.455300
756.000000	55.519167
757.000000	55.649267
758.000000	55.846400
759.000000	56.044567
760.000000	56.093733
761.000000	56.354000
762.000000	56.569267
763.000000	56.757900
764.000000	56.887333
765.000000	57.164567
766.000000	57.399333
767.000000	57.545800
768.000000	57.725167
769.000000	57.910533
770.000000	58.145533
771.000000	58.299367
772.000000	58.499067
773.000000	58.739000
774.000000	58.912267
775.000000	59.076533
776.000000	59.337633
777.000000	59.535233
778.000000	59.702367
779.000000	59.929100
780.000000	60.159267
781.000000	60.372200
782.000000	60.653900
783.000000	60.728400
784.000000	60.999033
785.000000	61.246933
786.000000	61.421100
787.000000	61.645567
788.000000	61.803600
789.000000	62.020533
790.000000	62.123533
791.000000	62.319400
792.000000	62.662500
793.000000	62.820533
794.000000	63.087600
795.000000	63.247400
796.000000	63.425800
797.000000	63.548700
798.000000	63.842600
799.000000	64.031367
800.000000	64.234833
801.000000	64.445300
802.000000	64.591967
803.000000	64.836067
804.000000	64.982733
805.000000	65.208267
806.000000	65.338133
807.000000	65.388600
808.000000	65.490933
809.000000	65.701933
810.000000	65.862533
811.000000	66.046300
812.000000	66.188367
813.000000	66.452300
814.000000	66.421867
815.000000	66.557267
816.000000	66.849700
817.000000	66.823300
818.000000	67.075767
819.000000	67.191033
820.000000	67.328600
821.000000	67.422200
822.000000	67.602133
823.000000	67.768033
824.000000	67.831133
825.000000	67.880067
826.000000	67.971033
827.000000	68.208433
828.000000	68.302400
829.000000	68.245733
830.000000	68.419867
831.000000	68.684833
832.000000	68.723200
833.000000	68.828300
834.000000	68.902367
835.000000	68.868133
836.000000	69.069767
837.000000	69.105367
838.000000	69.282233
839.000000	69.207233
840.000000	69.596000
841.000000	69.619933
842.000000	69.715700
843.000000	69.692300
844.000000	69.811500
845.000000	69.692433
846.000000	70.012300
847.000000	69.849600
848.000000	70.133567
849.000000	70.151600
850.000000	70.247000
851.000000	70.424333
852.000000	70.284933
853.000000	70.314833
854.000000	70.312967
855.000000	70.108200
856.000000	70.857200
857.000000	70.753933
858.000000	70.573111
859.000000	70.609483
860.000000	70.636515
861.000000	70.684497
862.000000	70.720832
863.000000	70.756171
864.000000	70.784919
865.000000	70.822568
866.000000	70.856205
867.000000	70.869084
868.000000	70.863987
869.000000	70.878736
870.000000	70.918956
871.000000	70.995538
872.000000	71.133529
873.000000	71.284253
874.000000	71.415300
875.000000	71.492635
876.000000	71.576847
877.000000	71.643403
878.000000	71.686317
879.000000	71.722183
880.000000	71.750565
881.000000	71.770589
882.000000	71.781265
883.000000	71.786132
884.000000	71.798077
885.000000	71.812876
886.000000	71.806441
887.000000	71.804342
888.000000	71.802870
889.000000	71.790746
890.000000	71.770350
891.000000	71.760218
892.000000	71.741192
893.000000	71.714143
894.000000	71.690273
895.000000	71.664120
896.000000	71.625033
897.000000	71.584495
898.000000	71.555199
899.000000	71.519772
900.000000	71.481544
901.000000	71.433410
902.000000	71.403228
903.000000	71.370668
904.000000	71.344209
905.000000	71.319520
906.000000	71.294095
907.000000	71.274156
908.000000	71.252353
909.000000	71.244760
910.000000	71.244219
911.000000	71.235822
912.000000	71.240792
913.000000	71.233169
914.000000	71.225085
915.000000	71.226145
916.000000	71.235571
917.000000	71.228550
918.000000	71.203501
919.000000	71.198827
920.000000	71.193613
921.000000	71.177990
922.000000	71.166922
923.000000	71.156153
924.000000	71.145832
925.000000	71.131817
926.000000	71.097512
927.000000	71.075649
928.000000	71.064047
929.000000	71.046861
930.000000	71.013602
931.000000	70.988946
932.000000	70.964575
933.000000	70.933924
934.000000	70.889488
935.000000	70.849874
936.000000	70.812049
937.000000	70.780821
938.000000	70.746949
939.000000	70.698348
940.000000	70.645972
941.000000	70.603936
942.000000	70.568515
943.000000	70.529917
944.000000	70.474760
945.000000	70.424858
946.000000	70.371547
947.000000	70.313994
948.000000	70.261464
949.000000	70.210222
950.000000	70.148582
951.000000	70.078217
952.000000	70.017995
953.000000	69.950808
954.000000	69.880634
955.000000	69.800904
956.000000	69.722680
957.000000	69.655717
958.000000	69.572747
959.000000	69.493465
960.000000	69.403065
961.000000	69.315400
962.000000	69.243582
963.000000	69.161728
964.000000	69.078550
965.000000	68.995363
966.000000	68.915846
967.000000	68.849152
968.000000	68.778596
969.000000	68.698648
970.000000	68.625802
971.000000	68.560635
972.000000	68.481739
973.000000	68.399231
974.000000	68.324374
975.000000	68.248896
976.000000	68.163615
977.000000	68.086049
978.000000	68.008136
979.000000	67.920174
980.000000	67.827470
981.000000	67.744364
982.000000	67.661402
983.000000	67.561984
984.000000	67.466118
985.000000	67.391213
986.000000	67.303405
987.000000	67.206814
988.000000	67.114110
989.000000	67.030230
990.000000	66.943248
991.000000	66.859890
992.000000	66.778171
993.000000	66.703741
994.000000	66.625101
995.000000	66.543134
996.000000	66.457158
997.000000	66.380287
998.000000	66.305639
999.000000	66.232606
1000.000000	66.153459
1001.000000	66.076152
1002.000000	66.008279
1003.000000	65.929589
1004.000000	65.855732
1005.000000	65.777375
1006.000000	65.694067
1007.000000	65.618359
1008.000000	65.538928
1009.000000	65.467213
1010.000000	65.394220
1011.000000	65.327328
1012.000000	65.272217
1013.000000	65.237801
1014.000000	65.183299
1015.000000	65.152540
1016.000000	65.118150
1017.000000	65.091398
1018.000000	65.072124
1019.000000	65.057660
1020.000000	65.046434
1021.000000	65.038952
1022.000000	65.032282
1023.000000	65.036877
1024.000000	65.044358
1025.000000	65.049686
1026.000000	65.037506
1027.000000	65.047127
1028.000000	65.052998
1029.000000	65.049874
1030.000000	65.047192
1031.000000	65.056484
1032.000000	65.046444
1033.000000	65.046765
1034.000000	65.046145
1035.000000	65.041573
1036.000000	65.043368
1037.000000	65.027434
1038.000000	65.010108
1039.000000	65.003204
1040.000000	64.987141
1041.000000	64.972529
1042.000000	64.956954
1043.000000	64.940169
1044.000000	64.920557
1045.000000	64.905702
1046.000000	64.882720
1047.000000	64.870515
1048.000000	64.854467
1049.000000	64.839250
1050.000000	64.817570
1051.000000	64.816786
1052.000000	64.792274
1053.000000	64.785152
1054.000000	64.766922
1055.000000	64.769203
1056.000000	64.748942
1057.000000	64.741372
1058.000000	64.719233
1059.000000	64.701275
1060.000000	64.687990
1061.000000	64.670064
1062.000000	64.650825
1063.000000	64.626096
1064.000000	64.598185
1065.000000	64.572451
1066.000000	64.553667
1067.000000	64.532092
1068.000000	64.502544
1069.000000	64.487738
1070.000000	64.455953
1071.000000	64.436499
1072.000000	64.424516
1073.000000	64.393017
1074.000000	64.370398
1075.000000	64.349587
1076.000000	64.323559
1077.000000	64.311876
1078.000000	64.288071
1079.000000	64.278803
1080.000000	64.246553
1081.000000	64.235026
1082.000000	64.223258
1083.000000	64.200650
1084.000000	64.179353
1085.000000	64.161051
1086.000000	64.147791
1087.000000	64.140562
1088.000000	64.120204
1089.000000	64.110041
1090.000000	64.082100
1091.000000	64.072060
1092.000000	64.042518
1093.000000	64.025262
1094.000000	64.009769
1095.000000	63.985116
1096.000000	63.962390
1097.000000	63.948683
1098.000000	63.916124
1099.000000	63.892608
1100.000000	63.872497
1101.000000	63.847346
1102.000000	63.816790
1103.000000	63.783761
1104.000000	63.753975
1105.000000	63.732269
1106.000000	63.701360
1107.000000	63.669772
1108.000000	63.651941
1109.000000	63.622221
1110.000000	63.590200
1111.000000	63.568129
1112.000000	63.535754
1113.000000	63.522444
1114.000000	63.488266
1115.000000	63.455900
1116.000000	63.430496
1117.000000	63.388907
1118.000000	63.330008
1119.000000	63.277754
1120.000000	63.212991
1121.000000	63.137695
1122.000000	63.058571
1123.000000	62.967445
1124.000000	62.850110
1125.000000	62.725837
1126.000000	62.577956
1127.000000	62.423203
1128.000000	62.217889
1129.000000	61.983184
1130.000000	61.711324
1131.000000	61.416065
1132.000000	61.071751
1133.000000	60.749818
1134.000000	60.394919
1135.000000	59.993417
1136.000000	59.593495
1137.000000	59.196606
1138.000000	58.825349
1139.000000	58.469290
1140.000000	58.121545
1141.000000	57.783165
1142.000000	57.459587
1143.000000	57.161240
1144.000000	56.912296
1145.000000	56.693008
1146.000000	56.510312
1147.000000	56.386361
1148.000000	56.266585
1149.000000	56.167133
1150.000000	56.068630
1151.000000	55.970971
1152.000000	55.835493
1153.000000	55.669288
1154.000000	55.464418
1155.000000	55.232537
1156.000000	54.975355
1157.000000	54.687890
1158.000000	54.382067
1159.000000	54.069921
1160.000000	53.759647
1161.000000	53.440129
1162.000000	53.110340
1163.000000	52.774869
1164.000000	52.457311
1165.000000	52.140980
1166.000000	51.833620
1167.000000	51.522147
