PE UV       SUBTECH     SPECTRUM    ASCII       PEDS        4.00        
   -1
CICIMAUCR0215-3.Sample.ASC
24/06/13
11:59:15.00
24/06/13
11:59:15.00
Vinicio Soto Monge
C. cupreomarginata. Sex M. Dorsal
a
250.000000
1
Lambda 1050
1050L1511233
PerkinElmer UV WinLab 6.3.2.0749 / 2.02.05 Lambda 900 UV/VIS/NIR. Aug  7 2015 09:38:08

0
0
3350/servo 860.8/2
0
0
UV/VIS
1
1
1
DoubleDePol.CommonBeamDepol.RBeamAtt.SBeamAtt.60mm sphere. WB InGaAs Detector
0
0
0
0
Program
Program
3350/servo 860.8/2
3350/0.2 860.8/0.2
3350/0.2 860.8/0.2
0
15.00
 
 
 
0
 
860.8
319.2
860.8
Front
100
on
S:100 R:100
0
0
0
0
 
0
 
 
 
0
 
 
0
0
0
0
0
 
 
 
 
0
0


0
0
#HDR
-1
-1
#GR
nm
%R
1.0
0.0
2500.000000
-1.000000
2251
8
67.988100
5.466400

250.000000	6.631200	6.460100
251.000000	6.662950	6.441300
252.000000	6.588300	6.439000
253.000000	6.576350	6.410800
254.000000	6.571300	6.404200
255.000000	6.559250	6.375500
256.000000	6.542000	6.381800
257.000000	6.497950	6.332900
258.000000	6.488000	6.337900
259.000000	6.466500	6.286900
260.000000	6.449750	6.257000
261.000000	6.436450	6.242200
262.000000	6.392850	6.227700
263.000000	6.354900	6.187300
264.000000	6.316400	6.156500
265.000000	6.273050	6.127900
266.000000	6.249700	6.084800
267.000000	6.232800	6.034300
268.000000	6.189200	6.052400
269.000000	6.161950	6.058700
270.000000	6.159100	6.014100
271.000000	6.152800	5.954000
272.000000	6.088550	5.947500
273.000000	6.093200	5.978600
274.000000	6.099000	5.943800
275.000000	6.083850	5.923200
276.000000	6.096250	5.933800
277.000000	6.082950	5.908900
278.000000	6.045200	5.902400
279.000000	6.040800	5.905900
280.000000	6.052950	5.882600
281.000000	6.085800	5.876800
282.000000	6.065600	5.876700
283.000000	6.044550	5.865600
284.000000	6.018200	5.862200
285.000000	6.016900	5.847000
286.000000	5.976500	5.847700
287.000000	6.028600	5.851100
288.000000	6.040750	5.846900
289.000000	6.035150	5.825200
290.000000	6.016000	5.825500
291.000000	5.969500	5.843700
292.000000	5.960850	5.856700
293.000000	6.006950	5.812200
294.000000	6.017200	5.799000
295.000000	5.974150	5.823500
296.000000	5.980400	5.855000
297.000000	5.994050	5.850800
298.000000	5.963300	5.833300
299.000000	5.976000	5.837000
300.000000	6.005850	5.817900
301.000000	5.963250	5.803900
302.000000	5.932000	5.781500
303.000000	5.956950	5.775100
304.000000	5.958500	5.804000
305.000000	5.922050	5.793200
306.000000	5.933000	5.795500
307.000000	5.978400	5.810800
308.000000	5.945450	5.786100
309.000000	5.904950	5.744400
310.000000	5.905500	5.747100
311.000000	5.912500	5.747600
312.000000	5.865950	5.764400
313.000000	5.856800	5.775900
314.000000	5.890400	5.766000
315.000000	5.903750	5.768400
316.000000	5.980500	5.638000
317.000000	5.967500	5.466400
318.000000	5.979000	5.658900
319.000000	5.978000	5.834600
320.000000	5.884100	5.760200
321.000000	5.933650	5.739500
322.000000	5.868900	5.727600
323.000000	5.874150	5.751600
324.000000	5.819750	5.854600
325.000000	5.863700	5.832600
326.000000	5.874200	5.624400
327.000000	5.973400	5.615500
328.000000	5.961200	5.762900
329.000000	5.815800	5.746300
330.000000	6.011550	5.641900
331.000000	5.959200	5.682700
332.000000	5.878000	5.658200
333.000000	5.870150	5.706300
334.000000	5.813950	5.775200
335.000000	5.947300	5.775200
336.000000	6.016900	5.683300
337.000000	5.981150	5.665300
338.000000	5.881300	5.703800
339.000000	5.874350	5.718500
340.000000	5.924700	5.702900
341.000000	5.971300	5.705900
342.000000	5.993050	5.785600
343.000000	5.896900	5.795100
344.000000	5.808500	5.799300
345.000000	5.839150	5.755400
346.000000	5.895150	5.732500
347.000000	5.933900	5.769900
348.000000	5.970550	5.775600
349.000000	5.890300	5.809400
350.000000	5.876300	5.803500
351.000000	5.914600	5.776300
352.000000	5.950000	5.784600
353.000000	6.007100	5.760000
354.000000	5.939100	5.846000
355.000000	6.004500	5.917300
356.000000	6.001600	5.917400
357.000000	5.945000	5.858100
358.000000	5.995450	5.872400
359.000000	6.152550	5.904700
360.000000	6.102200	5.919100
361.000000	6.033800	5.969400
362.000000	6.096000	5.996900
363.000000	6.149000	5.938400
364.000000	6.088100	5.906900
365.000000	6.118550	5.943000
366.000000	6.190250	6.055800
367.000000	6.152250	6.045700
368.000000	6.159400	6.017100
369.000000	6.172950	6.078400
370.000000	6.138450	6.162000
371.000000	6.293550	6.080400
372.000000	6.333150	6.083300
373.000000	6.305300	6.158000
374.000000	6.246500	6.193000
375.000000	6.289300	6.148700
376.000000	6.338800	6.138300
377.000000	6.335250	6.178700
378.000000	6.353950	6.205000
379.000000	6.397450	6.232100
380.000000	6.448050	6.247000
381.000000	6.490350	6.288200
382.000000	6.490300	6.322300
383.000000	6.528400	6.352300
384.000000	6.581800	6.396500
385.000000	6.649600	6.467800
386.000000	6.690450	6.530800
387.000000	6.738350	6.580200
388.000000	6.795700	6.639800
389.000000	6.874050	6.717600
390.000000	6.944650	6.802700
391.000000	7.021050	6.871800
392.000000	7.122850	6.963100
393.000000	7.241750	7.073300
394.000000	7.351400	7.187700
395.000000	7.472050	7.324100
396.000000	7.602300	7.430700
397.000000	7.749400	7.579000
398.000000	7.891500	7.702100
399.000000	8.056850	7.883200
400.000000	8.246850	8.045500
401.000000	8.474300	8.221700
402.000000	8.667450	8.395600
403.000000	8.885350	8.621700
404.000000	9.114200	8.838200
405.000000	9.380050	9.051400
406.000000	9.609950	9.282200
407.000000	9.886100	9.531800
408.000000	10.161700	9.793500
409.000000	10.430600	10.062400
410.000000	10.705000	10.319000
411.000000	10.981400	10.616200
412.000000	11.282250	10.870000
413.000000	11.601350	11.122300
414.000000	11.908850	11.412500
415.000000	12.181750	11.713400
416.000000	12.478850	11.975200
417.000000	12.800450	12.261500
418.000000	13.102100	12.539000
419.000000	13.389400	12.776600
420.000000	13.668850	13.074500
421.000000	13.969700	13.354500
422.000000	14.234450	13.621700
423.000000	14.556250	13.863100
424.000000	14.845050	14.145300
425.000000	15.057150	14.408900
426.000000	15.332900	14.652700
427.000000	15.580350	14.883000
428.000000	15.822500	15.132700
429.000000	16.061900	15.347200
430.000000	16.290450	15.591100
431.000000	16.513800	15.819100
432.000000	16.792050	16.024400
433.000000	16.995150	16.224000
434.000000	17.198200	16.437300
435.000000	17.438050	16.647300
436.000000	17.639750	16.851400
437.000000	17.840300	17.023400
438.000000	18.038900	17.212400
439.000000	18.258750	17.395200
440.000000	18.449800	17.599700
441.000000	18.635550	17.780000
442.000000	18.814750	17.942600
443.000000	18.975850	18.093600
444.000000	19.145850	18.257900
445.000000	19.254000	18.346600
446.000000	19.376150	18.452000
447.000000	19.457950	18.554100
448.000000	19.550800	18.637800
449.000000	19.640600	18.736900
450.000000	19.703600	18.781700
451.000000	19.745800	18.840600
452.000000	19.749600	18.907800
453.000000	19.786350	18.914900
454.000000	19.779150	18.907800
455.000000	19.752500	18.915800
456.000000	19.744700	18.856600
457.000000	19.621900	18.832300
458.000000	19.535400	18.776600
459.000000	19.433750	18.719300
460.000000	19.317350	18.638800
461.000000	19.219100	18.557400
462.000000	19.070800	18.436300
463.000000	18.950450	18.404300
464.000000	18.829600	18.292300
465.000000	18.736300	18.228000
466.000000	18.685600	18.189500
467.000000	18.628300	18.166000
468.000000	18.609700	18.153600
469.000000	18.640450	18.203100
470.000000	18.697500	18.255500
471.000000	18.839250	18.356900
472.000000	19.008000	18.532700
473.000000	19.207400	18.729900
474.000000	19.496100	18.956900
475.000000	19.821200	19.221600
476.000000	20.189400	19.524800
477.000000	20.594100	19.880700
478.000000	21.040050	20.253000
479.000000	21.475800	20.651800
480.000000	21.945650	21.067300
481.000000	22.451650	21.500200
482.000000	22.948750	21.955300
483.000000	23.453650	22.463200
484.000000	23.910500	22.880000
485.000000	24.384200	23.279600
486.000000	24.858550	23.737500
487.000000	25.261950	24.139400
488.000000	25.717650	24.521700
489.000000	26.084650	24.901300
490.000000	26.523500	25.273400
491.000000	26.859900	25.647400
492.000000	27.283500	26.007100
493.000000	27.633900	26.347500
494.000000	27.949350	26.634900
495.000000	28.275450	26.970100
496.000000	28.611900	27.280100
497.000000	28.894300	27.584700
498.000000	29.183400	27.881900
499.000000	29.489100	28.154900
500.000000	29.742250	28.386500
501.000000	29.964350	28.673300
502.000000	30.188850	28.936800
503.000000	30.494400	29.169800
504.000000	30.679700	29.448900
505.000000	30.925800	29.710700
506.000000	31.186000	29.965800
507.000000	31.463000	30.268700
508.000000	31.745450	30.547100
509.000000	32.049800	30.861800
510.000000	32.399350	31.195700
511.000000	32.769150	31.549200
512.000000	33.203100	31.963000
513.000000	33.611700	32.387200
514.000000	34.084700	32.852900
515.000000	34.568750	33.341400
516.000000	35.131450	33.816200
517.000000	35.683700	34.343100
518.000000	36.215300	34.861400
519.000000	36.848700	35.410300
520.000000	37.467100	36.020500
521.000000	38.083100	36.613900
522.000000	38.751000	37.221100
523.000000	39.429550	37.858500
524.000000	40.016000	38.480300
525.000000	40.655350	39.087600
526.000000	41.299800	39.701500
527.000000	41.902750	40.297800
528.000000	42.463450	40.862400
529.000000	43.069650	41.451800
530.000000	43.635100	42.009200
531.000000	44.181100	42.594000
532.000000	44.749600	43.158800
533.000000	45.358250	43.735200
534.000000	45.907950	44.295700
535.000000	46.521550	44.872500
536.000000	47.123850	45.462100
537.000000	47.787650	46.089000
538.000000	48.478100	46.711000
539.000000	49.167350	47.335800
540.000000	49.919200	48.003000
541.000000	50.689650	48.703100
542.000000	51.479000	49.427300
543.000000	52.327250	50.166900
544.000000	53.095400	50.873700
545.000000	53.890100	51.598600
546.000000	54.696750	52.321700
547.000000	55.481750	53.026200
548.000000	56.173300	53.705700
549.000000	56.889200	54.352900
550.000000	57.609600	55.009300
551.000000	58.332750	55.627100
552.000000	58.951100	56.214700
553.000000	59.578600	56.810500
554.000000	60.212550	57.319700
555.000000	60.727800	57.784800
556.000000	61.152650	58.186500
557.000000	61.520200	58.565900
558.000000	61.795750	58.842600
559.000000	61.934800	59.049100
560.000000	62.066800	59.116000
561.000000	62.128150	59.211000
562.000000	62.080850	59.241200
563.000000	61.985950	59.227500
564.000000	61.869950	59.188500
565.000000	61.805400	59.149700
566.000000	61.707850	59.071200
567.000000	61.637400	58.974400
568.000000	61.579350	58.938100
569.000000	61.557050	58.908100
570.000000	61.619750	58.902100
571.000000	61.688400	58.944600
572.000000	61.785100	58.992000
573.000000	61.881050	59.050100
574.000000	62.049400	59.165500
575.000000	62.195650	59.262500
576.000000	62.406850	59.393800
577.000000	62.554300	59.499200
578.000000	62.647600	59.593100
579.000000	62.694050	59.682400
580.000000	62.709950	59.694200
581.000000	62.676700	59.692900
582.000000	62.573300	59.664100
583.000000	62.361950	59.563800
584.000000	62.169150	59.410700
585.000000	61.906700	59.239900
586.000000	61.739700	59.074000
587.000000	61.549950	58.918000
588.000000	61.340950	58.723100
589.000000	61.152700	58.558400
590.000000	61.064600	58.438100
591.000000	60.976650	58.356800
592.000000	60.942050	58.281300
593.000000	60.991650	58.261100
594.000000	61.023450	58.255000
595.000000	61.064500	58.287900
596.000000	61.219100	58.329600
597.000000	61.387950	58.411200
598.000000	61.527600	58.516900
599.000000	61.641950	58.555000
600.000000	61.774100	58.633200
601.000000	61.887750	58.680400
602.000000	61.942050	58.692800
603.000000	61.893700	58.713000
604.000000	61.793400	58.650000
605.000000	61.660100	58.505100
606.000000	61.438350	58.305400
607.000000	61.158900	58.102200
608.000000	60.830650	57.806400
609.000000	60.441350	57.447600
610.000000	60.026600	57.077100
611.000000	59.540350	56.670300
612.000000	59.045300	56.210900
613.000000	58.561500	55.745800
614.000000	58.016900	55.279200
615.000000	57.511950	54.812700
616.000000	57.022050	54.332300
617.000000	56.605450	53.867100
618.000000	56.155050	53.456600
619.000000	55.687400	53.041400
620.000000	55.298500	52.632600
621.000000	54.892200	52.210900
622.000000	54.476650	51.797200
623.000000	54.048800	51.391300
624.000000	53.598450	50.975200
625.000000	53.101400	50.572600
626.000000	52.594250	50.157700
627.000000	52.072050	49.718800
628.000000	51.498250	49.282500
629.000000	50.924450	48.818100
630.000000	50.302700	48.303000
631.000000	49.695550	47.824400
632.000000	49.084850	47.331800
633.000000	48.468900	46.827400
634.000000	47.912450	46.373600
635.000000	47.369700	45.942400
636.000000	46.862100	45.502700
637.000000	46.435500	45.091600
638.000000	46.097150	44.778200
639.000000	45.840600	44.509000
640.000000	45.616000	44.281600
641.000000	45.424800	44.119300
642.000000	45.304250	43.996500
643.000000	45.248300	43.991400
644.000000	45.252050	43.995600
645.000000	45.286050	44.034900
646.000000	45.310300	44.114800
647.000000	45.360000	44.181200
648.000000	45.470650	44.296800
649.000000	45.613200	44.396000
650.000000	45.707900	44.539000
651.000000	45.861550	44.726000
652.000000	46.109450	44.892600
653.000000	46.398150	45.067400
654.000000	46.635050	45.289100
655.000000	46.860850	45.564700
656.000000	47.215250	45.821600
657.000000	47.528900	46.078000
658.000000	47.864750	46.390700
659.000000	48.206250	46.711400
660.000000	48.520900	46.971200
661.000000	48.865350	47.216600
662.000000	49.209350	47.516100
663.000000	49.531800	47.806700
664.000000	49.836950	48.064700
665.000000	50.130700	48.313000
666.000000	50.416300	48.574000
667.000000	50.681600	48.842800
668.000000	50.980050	49.060800
669.000000	51.198900	49.306700
670.000000	51.419100	49.536900
671.000000	51.685300	49.730500
672.000000	51.968750	49.951800
673.000000	52.211650	50.184000
674.000000	52.435600	50.402300
675.000000	52.693600	50.604900
676.000000	52.923150	50.776500
677.000000	53.069700	50.944900
678.000000	53.259750	51.104500
679.000000	53.421400	51.255900
680.000000	53.563150	51.432300
681.000000	53.717600	51.585200
682.000000	53.845050	51.699400
683.000000	54.007000	51.846300
684.000000	54.147150	51.995200
685.000000	54.220600	52.129900
686.000000	54.349750	52.276100
687.000000	54.494200	52.407400
688.000000	54.648700	52.541100
689.000000	54.738350	52.594000
690.000000	54.821550	52.698100
691.000000	54.899300	52.763000
692.000000	54.993950	52.904800
693.000000	55.130100	53.044000
694.000000	55.276150	53.155600
695.000000	55.399900	53.272600
696.000000	55.462300	53.434600
697.000000	55.587150	53.539300
698.000000	55.750500	53.596600
699.000000	55.729050	53.690700
700.000000	55.857350	53.840800
701.000000	55.984750	53.939200
702.000000	56.031650	54.023300
703.000000	56.086850	54.158000
704.000000	56.152800	54.209500
705.000000	56.321900	54.254600
706.000000	56.294050	54.342300
707.000000	56.381500	54.451600
708.000000	56.524250	54.507100
709.000000	56.606950	54.603900
710.000000	56.703550	54.792500
711.000000	56.824400	54.898600
712.000000	56.871200	54.919900
713.000000	56.968800	55.035400
714.000000	57.140050	55.240300
715.000000	57.292050	55.369500
716.000000	57.432350	55.517100
717.000000	57.564800	55.668000
718.000000	57.712750	55.815800
719.000000	57.979500	55.970500
720.000000	58.169550	56.134900
721.000000	58.381350	56.342200
722.000000	58.461450	56.562300
723.000000	58.740300	56.600600
724.000000	58.960450	56.817100
725.000000	59.096250	57.031000
726.000000	59.271250	57.238600
727.000000	59.482450	57.345700
728.000000	59.655550	57.561400
729.000000	59.827250	57.757100
730.000000	60.119250	57.905700
731.000000	60.298450	58.044300
732.000000	60.430500	58.224800
733.000000	60.527600	58.408100
734.000000	60.677750	58.508700
735.000000	60.883600	58.685400
736.000000	60.906900	58.835400
737.000000	61.148550	58.969400
738.000000	61.132750	58.999100
739.000000	61.326200	59.140900
740.000000	61.474550	59.287400
741.000000	61.530800	59.324300
742.000000	61.636900	59.484300
743.000000	61.731950	59.528600
744.000000	61.729550	59.724400
745.000000	61.820900	59.704300
746.000000	61.918000	59.762900
747.000000	61.898000	59.845600
748.000000	61.910650	59.976500
749.000000	61.951000	60.027200
750.000000	61.974950	60.058400
751.000000	61.959750	60.143800
752.000000	62.155050	60.274400
753.000000	62.220050	60.312700
754.000000	62.314850	60.329500
755.000000	62.505200	60.490700
756.000000	62.545750	60.578000
757.000000	62.465500	60.606100
758.000000	62.662150	60.686100
759.000000	62.645250	60.723700
760.000000	62.633550	60.889200
761.000000	62.752400	61.023200
762.000000	62.909450	60.970800
763.000000	63.022450	61.118600
764.000000	63.237050	61.139900
765.000000	63.264850	61.423000
766.000000	63.380400	61.412800
767.000000	63.383350	61.504800
768.000000	63.480150	61.682800
769.000000	63.670100	61.819500
770.000000	63.781250	62.031200
771.000000	64.026900	62.081900
772.000000	63.938050	62.161800
773.000000	63.963900	62.327600
774.000000	64.278600	62.370700
775.000000	64.356450	62.467100
776.000000	64.449500	62.468100
777.000000	64.667250	62.857800
778.000000	64.736150	62.797800
779.000000	64.907900	62.909700
780.000000	64.890100	63.071500
781.000000	64.979700	63.247900
782.000000	65.169100	63.451300
783.000000	65.227450	63.487100
784.000000	65.695250	63.770200
785.000000	65.644150	63.709200
786.000000	65.709800	64.016300
787.000000	65.841350	64.140900
788.000000	66.039600	64.242200
789.000000	66.041650	64.354500
790.000000	66.303850	64.338700
791.000000	66.528650	64.657400
792.000000	66.728400	64.674800
793.000000	66.583300	64.799700
794.000000	66.825150	64.986200
795.000000	66.915650	65.076400
796.000000	66.967250	65.329300
797.000000	67.360200	65.399000
798.000000	67.210200	65.528400
799.000000	67.387900	65.491400
800.000000	67.538000	65.775600
801.000000	67.905150	65.752900
802.000000	67.797200	65.864900
803.000000	67.831800	66.006200
804.000000	68.012700	66.245300
805.000000	68.305300	66.402300
806.000000	68.136100	66.305500
807.000000	68.478400	66.557000
808.000000	68.529800	66.560500
809.000000	68.542350	66.710300
810.000000	68.446150	66.701700
811.000000	68.761650	67.045600
812.000000	68.913350	67.087900
813.000000	68.787750	67.050500
814.000000	69.047100	67.137200
815.000000	69.015100	67.136900
816.000000	68.805800	67.279800
817.000000	69.064350	67.148700
818.000000	68.851050	67.247100
819.000000	69.075550	67.416700
820.000000	68.962350	67.669500
821.000000	69.094900	67.389700
822.000000	69.272300	67.398900
823.000000	69.182350	67.454600
824.000000	69.260750	67.342800
825.000000	69.099750	67.601200
826.000000	69.160400	67.429300
827.000000	69.178450	67.521100
828.000000	69.236850	67.398000
829.000000	69.429650	67.197100
830.000000	69.167200	67.485700
831.000000	69.371750	67.539100
832.000000	69.599150	67.648900
833.000000	69.323850	67.776100
834.000000	69.212650	67.454600
835.000000	69.328450	67.636300
836.000000	69.249950	67.717500
837.000000	69.310100	67.575100
838.000000	69.374600	67.685200
839.000000	69.479100	67.901500
840.000000	69.342300	67.641000
841.000000	69.276500	67.508200
842.000000	69.092550	67.725500
843.000000	69.143250	67.732900
844.000000	69.474900	67.707300
845.000000	69.283250	67.480500
846.000000	68.891150	67.772900
847.000000	69.060750	67.988100
848.000000	68.903200	67.458200
849.000000	69.311700	67.697200
850.000000	69.017350	67.592100
851.000000	68.514550	67.986800
852.000000	68.750600	67.501600
853.000000	69.234300	67.359000
854.000000	68.928500	67.178400
855.000000	69.037800	67.317100
856.000000	69.269900	67.280500
857.000000	68.098150	66.619300
858.000000	68.801950	67.072300
859.000000	68.701974	66.984908
860.000000	68.593111	66.876399
861.000000	68.516089	66.775627
862.000000	68.378572	66.668164
863.000000	68.257024	66.557669
864.000000	68.111013	66.440275
865.000000	67.983682	66.319954
866.000000	67.875523	66.207055
867.000000	67.738843	66.080044
868.000000	67.598426	65.930139
869.000000	67.445752	65.798319
870.000000	67.320310	65.658659
871.000000	67.150192	65.536561
872.000000	67.005597	65.427948
873.000000	66.851352	65.390002
874.000000	66.712629	65.405891
875.000000	66.556939	65.400560
876.000000	66.396890	65.329894
877.000000	66.264425	65.277730
878.000000	66.122010	65.222430
879.000000	65.970745	65.161172
880.000000	65.855806	65.071794
881.000000	65.718325	64.982207
