PE UV       SUBTECH     SPECTRUM    ASCII       PEDS        4.00        
   -1
CICIMAUCR0250-3.Sample.ASC
24/05/27
16:50:50.00
24/05/27
16:50:50.00
Vinicio Soto Monge
C. resplendens, M
250,000000
1
Lambda 1050
1050L1511233
PerkinElmer UV WinLab 6.3.2.0749 / 2.02.05 Lambda 900 UV/VIS/NIR, Aug  7 2015 09:38:08

0
0
3350/servo 860,8/2
0
0
UV/VIS
1
1
1
DoubleDePol,CommonBeamDepol,RBeamAtt,SBeamAtt,60mm sphere, WB InGaAs Detector
0
0
0
0
Program
Program
3350/servo 860,8/2
3350/0,2 860,8/0,2
3350/0,2 860,8/0,2
0
15.00
 
 
 
0
 
860,8
319,2
860,8
Front
100
on
S:100 R:100
0
0
0
0
 
0
 
 
 
0
 
 
0
0
0
0
0
 
 
 
 
0
0


0
0
#HDR
-1
-1
#GR
nm
%R
1.0
0.0
2500,000000
-1,000000
2251
8
89,705100
5,547200
#DATA
250.000000	6.313633
251.000000	6.282600
252.000000	6.254233
253.000000	6.267733
254.000000	6.254267
255.000000	6.236000
256.000000	6.220900
257.000000	6.196033
258.000000	6.175533
259.000000	6.175000
260.000000	6.155100
261.000000	6.134067
262.000000	6.105400
263.000000	6.092167
264.000000	6.084467
265.000000	6.039767
266.000000	6.009900
267.000000	6.002400
268.000000	5.974100
269.000000	5.948900
270.000000	5.957433
271.000000	5.947800
272.000000	5.923100
273.000000	5.917300
274.000000	5.901500
275.000000	5.908000
276.000000	5.899600
277.000000	5.874367
278.000000	5.875367
279.000000	5.867300
280.000000	5.870533
281.000000	5.854667
282.000000	5.849167
283.000000	5.836400
284.000000	5.813300
285.000000	5.812200
286.000000	5.808267
287.000000	5.776067
288.000000	5.788800
289.000000	5.784700
290.000000	5.761433
291.000000	5.772533
292.000000	5.759700
293.000000	5.739667
294.000000	5.733433
295.000000	5.733467
296.000000	5.724000
297.000000	5.712400
298.000000	5.708500
299.000000	5.679767
300.000000	5.684467
301.000000	5.701367
302.000000	5.683067
303.000000	5.673067
304.000000	5.656567
305.000000	5.640567
306.000000	5.647700
307.000000	5.653200
308.000000	5.643233
309.000000	5.630867
310.000000	5.636600
311.000000	5.655967
312.000000	5.638333
313.000000	5.610100
314.000000	5.621067
315.000000	5.636600
316.000000	5.724900
317.000000	5.837400
318.000000	5.841233
319.000000	5.873000
320.000000	5.908400
321.000000	5.823667
322.000000	5.797833
323.000000	5.854767
324.000000	5.827500
325.000000	5.810067
326.000000	5.749567
327.000000	5.699733
328.000000	5.716933
329.000000	5.801667
330.000000	5.840133
331.000000	5.761133
332.000000	5.769500
333.000000	5.756267
334.000000	5.711167
335.000000	5.727833
336.000000	5.725667
337.000000	5.790500
338.000000	5.813033
339.000000	5.785267
340.000000	5.828700
341.000000	5.809833
342.000000	5.831767
343.000000	5.853067
344.000000	5.779800
345.000000	5.744400
346.000000	5.769433
347.000000	5.849467
348.000000	5.906100
349.000000	5.883467
350.000000	5.880200
351.000000	5.833333
352.000000	5.864667
353.000000	5.904767
354.000000	5.929733
355.000000	6.007700
356.000000	6.021133
357.000000	6.027733
358.000000	6.057767
359.000000	6.128067
360.000000	6.153567
361.000000	6.168500
362.000000	6.205600
363.000000	6.225100
364.000000	6.257267
365.000000	6.284300
366.000000	6.356900
367.000000	6.415267
368.000000	6.378267
369.000000	6.395833
370.000000	6.472467
371.000000	6.485867
372.000000	6.455133
373.000000	6.449367
374.000000	6.537300
375.000000	6.621800
376.000000	6.664100
377.000000	6.706100
378.000000	6.747200
379.000000	6.792167
380.000000	6.850700
381.000000	6.908500
382.000000	6.969467
383.000000	7.032933
384.000000	7.105033
385.000000	7.185700
386.000000	7.255633
387.000000	7.325467
388.000000	7.409133
389.000000	7.503967
390.000000	7.598933
391.000000	7.707867
392.000000	7.821900
393.000000	7.937300
394.000000	8.058233
395.000000	8.185500
396.000000	8.333700
397.000000	8.478867
398.000000	8.646867
399.000000	8.820900
400.000000	9.024233
401.000000	9.222700
402.000000	9.436667
403.000000	9.686633
404.000000	9.926467
405.000000	10.200233
406.000000	10.469367
407.000000	10.744867
408.000000	11.061000
409.000000	11.380700
410.000000	11.711333
411.000000	12.068733
412.000000	12.433900
413.000000	12.806767
414.000000	13.192500
415.000000	13.596067
416.000000	14.009800
417.000000	14.432967
418.000000	14.847433
419.000000	15.267133
420.000000	15.706633
421.000000	16.132200
422.000000	16.576567
423.000000	17.000667
424.000000	17.452500
425.000000	17.887067
426.000000	18.341967
427.000000	18.763467
428.000000	19.169467
429.000000	19.592567
430.000000	20.020700
431.000000	20.402167
432.000000	20.810100
433.000000	21.221233
434.000000	21.593667
435.000000	21.987133
436.000000	22.329600
437.000000	22.677400
438.000000	23.041000
439.000000	23.370033
440.000000	23.689767
441.000000	24.006700
442.000000	24.298033
443.000000	24.619367
444.000000	24.871600
445.000000	25.126333
446.000000	25.356667
447.000000	25.619333
448.000000	25.832833
449.000000	26.037133
450.000000	26.244733
451.000000	26.422000
452.000000	26.599267
453.000000	26.751200
454.000000	26.880600
455.000000	27.007267
456.000000	27.122367
457.000000	27.214800
458.000000	27.326567
459.000000	27.393667
460.000000	27.442933
461.000000	27.512733
462.000000	27.541233
463.000000	27.548567
464.000000	27.587767
465.000000	27.598367
466.000000	27.584000
467.000000	27.578467
468.000000	27.554633
469.000000	27.547900
470.000000	27.502000
471.000000	27.468167
472.000000	27.442833
473.000000	27.412200
474.000000	27.390133
475.000000	27.360700
476.000000	27.345600
477.000000	27.344433
478.000000	27.355333
479.000000	27.379267
480.000000	27.401600
481.000000	27.465667
482.000000	27.539933
483.000000	27.643667
484.000000	27.752900
485.000000	27.908767
486.000000	28.079333
487.000000	28.261733
488.000000	28.458567
489.000000	28.696533
490.000000	28.981100
491.000000	29.276467
492.000000	29.577600
493.000000	29.941700
494.000000	30.274633
495.000000	30.662700
496.000000	31.079867
497.000000	31.494633
498.000000	31.934500
499.000000	32.416133
500.000000	32.890900
501.000000	33.381767
502.000000	33.904133
503.000000	34.426100
504.000000	34.927067
505.000000	35.480100
506.000000	36.036133
507.000000	36.607867
508.000000	37.198467
509.000000	37.827567
510.000000	38.489533
511.000000	39.187067
512.000000	39.932200
513.000000	40.709367
514.000000	41.533333
515.000000	42.374300
516.000000	43.246133
517.000000	44.186500
518.000000	45.157167
519.000000	46.161700
520.000000	47.224433
521.000000	48.305233
522.000000	49.444267
523.000000	50.602133
524.000000	51.797200
525.000000	53.012267
526.000000	54.227967
527.000000	55.466067
528.000000	56.697567
529.000000	57.942300
530.000000	59.204133
531.000000	60.453767
532.000000	61.687967
533.000000	62.915200
534.000000	64.117233
535.000000	65.288033
536.000000	66.425800
537.000000	67.509200
538.000000	68.558133
539.000000	69.557700
540.000000	70.547033
541.000000	71.480167
542.000000	72.400400
543.000000	73.269867
544.000000	74.099200
545.000000	74.900467
546.000000	75.637033
547.000000	76.364600
548.000000	77.034433
549.000000	77.683567
550.000000	78.344633
551.000000	78.940767
552.000000	79.504733
553.000000	80.058767
554.000000	80.620600
555.000000	81.126267
556.000000	81.583600
557.000000	82.049200
558.000000	82.478033
559.000000	82.886367
560.000000	83.293767
561.000000	83.665100
562.000000	84.017533
563.000000	84.374800
564.000000	84.703900
565.000000	85.042733
566.000000	85.328933
567.000000	85.637333
568.000000	85.922300
569.000000	86.183267
570.000000	86.441533
571.000000	86.710300
572.000000	86.943667
573.000000	87.191100
574.000000	87.407933
575.000000	87.609000
576.000000	87.774300
577.000000	87.962367
578.000000	88.121600
579.000000	88.255667
580.000000	88.389700
581.000000	88.468400
582.000000	88.584033
583.000000	88.624867
584.000000	88.651167
585.000000	88.680333
586.000000	88.710433
587.000000	88.695067
588.000000	88.644933
589.000000	88.629367
590.000000	88.573533
591.000000	88.482000
592.000000	88.388867
593.000000	88.277800
594.000000	88.152600
595.000000	88.004533
596.000000	87.827600
597.000000	87.657867
598.000000	87.440067
599.000000	87.225133
600.000000	87.006400
601.000000	86.744533
602.000000	86.486233
603.000000	86.196567
604.000000	85.882300
605.000000	85.548967
606.000000	85.190167
607.000000	84.819100
608.000000	84.376067
609.000000	83.918867
610.000000	83.449667
611.000000	82.914500
612.000000	82.321067
613.000000	81.691067
614.000000	81.039567
615.000000	80.342533
616.000000	79.612467
617.000000	78.862533
618.000000	78.041400
619.000000	77.204233
620.000000	76.363433
621.000000	75.471633
622.000000	74.541400
623.000000	73.575200
624.000000	72.586600
625.000000	71.553733
626.000000	70.504800
627.000000	69.441633
628.000000	68.329367
629.000000	67.188367
630.000000	66.032633
631.000000	64.862833
632.000000	63.716567
633.000000	62.560067
634.000000	61.445033
635.000000	60.386500
636.000000	59.372433
637.000000	58.437167
638.000000	57.579900
639.000000	56.797600
640.000000	56.132467
641.000000	55.582933
642.000000	55.147233
643.000000	54.845367
644.000000	54.665433
645.000000	54.599467
646.000000	54.649567
647.000000	54.831133
648.000000	55.137567
649.000000	55.524333
650.000000	56.032733
651.000000	56.639400
652.000000	57.343300
653.000000	58.140367
654.000000	58.961967
655.000000	59.794067
656.000000	60.647467
657.000000	61.559233
658.000000	62.459800
659.000000	63.330333
660.000000	64.224900
661.000000	65.141167
662.000000	66.034900
663.000000	66.887800
664.000000	67.704433
665.000000	68.508867
666.000000	69.279767
667.000000	70.054700
668.000000	70.780100
669.000000	71.451500
670.000000	72.102367
671.000000	72.753700
672.000000	73.384667
673.000000	73.985300
674.000000	74.555867
675.000000	75.083667
676.000000	75.568200
677.000000	76.033467
678.000000	76.477433
679.000000	76.895800
680.000000	77.255467
681.000000	77.592467
682.000000	77.886267
683.000000	78.173600
684.000000	78.447533
685.000000	78.676100
686.000000	78.832000
687.000000	79.032767
688.000000	79.174100
689.000000	79.285467
690.000000	79.406000
691.000000	79.526833
692.000000	79.596500
693.000000	79.644033
694.000000	79.696967
695.000000	79.729433
696.000000	79.782933
697.000000	79.862733
698.000000	79.944833
699.000000	80.001067
700.000000	80.053133
701.000000	80.140733
702.000000	80.253233
703.000000	80.407933
704.000000	80.557100
705.000000	80.761700
706.000000	80.932933
707.000000	81.149100
708.000000	81.423300
709.000000	81.673467
710.000000	81.967200
711.000000	82.292700
712.000000	82.606133
713.000000	82.987400
714.000000	83.329267
715.000000	83.690033
716.000000	84.149633
717.000000	84.479767
718.000000	84.862400
719.000000	85.267467
720.000000	85.661867
721.000000	86.053267
722.000000	86.450400
723.000000	86.838967
724.000000	87.227533
725.000000	87.609200
726.000000	87.916367
727.000000	88.302433
728.000000	88.666067
729.000000	88.936200
730.000000	89.218267
731.000000	89.521333
732.000000	89.822033
733.000000	90.059533
734.000000	90.324067
735.000000	90.527967
736.000000	90.760767
737.000000	90.898233
738.000000	91.127833
739.000000	91.333433
740.000000	91.477233
741.000000	91.639900
742.000000	91.788800
743.000000	91.866200
744.000000	91.904167
745.000000	92.086400
746.000000	92.129833
747.000000	92.249600
748.000000	92.308767
749.000000	92.378000
750.000000	92.424467
751.000000	92.511600
752.000000	92.580833
753.000000	92.564000
754.000000	92.665833
755.000000	92.778800
756.000000	92.745700
757.000000	92.729833
758.000000	92.693467
759.000000	92.695433
760.000000	92.752533
761.000000	92.765033
762.000000	92.756133
763.000000	92.810600
764.000000	92.700067
765.000000	92.545433
766.000000	92.507900
767.000000	92.429233
768.000000	92.294233
769.000000	92.259000
770.000000	92.175200
771.000000	91.974833
772.000000	91.867200
773.000000	91.727033
774.000000	91.599600
775.000000	91.518067
776.000000	91.334933
777.000000	91.105433
778.000000	90.976967
779.000000	90.992500
780.000000	90.790767
781.000000	90.620533
782.000000	90.499300
783.000000	90.420433
784.000000	90.204867
785.000000	90.132567
786.000000	90.006900
787.000000	89.999433
788.000000	89.899933
789.000000	89.861767
790.000000	89.603033
791.000000	89.610633
792.000000	89.330967
793.000000	89.160833
794.000000	89.067333
795.000000	89.011967
796.000000	88.805200
797.000000	88.602367
798.000000	88.439400
799.000000	88.111700
800.000000	87.849900
801.000000	87.411067
802.000000	87.191467
803.000000	86.937333
804.000000	86.625500
805.000000	86.149400
806.000000	85.819267
807.000000	85.510733
808.000000	85.049467
809.000000	84.667600
810.000000	84.160667
811.000000	83.780933
812.000000	83.374233
813.000000	82.852800
814.000000	82.507167
815.000000	82.078033
816.000000	81.696600
817.000000	81.255200
818.000000	80.831700
819.000000	80.525700
820.000000	79.997467
821.000000	79.579900
822.000000	79.231567
823.000000	78.922433
824.000000	78.496733
825.000000	78.202900
826.000000	78.004800
827.000000	77.767200
828.000000	77.393633
829.000000	77.318400
830.000000	76.932033
831.000000	76.684933
832.000000	76.407800
833.000000	76.443033
834.000000	76.156833
835.000000	76.113667
836.000000	75.951500
837.000000	75.875367
838.000000	75.651100
839.000000	75.580367
840.000000	75.645233
841.000000	75.489533
842.000000	75.299833
843.000000	75.318467
844.000000	75.065467
845.000000	74.928367
846.000000	75.189700
847.000000	75.123600
848.000000	74.912200
849.000000	74.645433
850.000000	74.694500
851.000000	74.732867
852.000000	74.521700
853.000000	74.533767
854.000000	74.422967
855.000000	74.088167
856.000000	73.874300
857.000000	73.716100
858.000000	73.892855
859.000000	73.755406
860.000000	73.622171
861.000000	73.494317
862.000000	73.354490
863.000000	73.210248
864.000000	73.082895
865.000000	72.947733
866.000000	72.817140
867.000000	72.666516
868.000000	72.561034
869.000000	72.452730
870.000000	72.396215
871.000000	72.389938
872.000000	72.426724
873.000000	72.483397
874.000000	72.562123
875.000000	72.600428
876.000000	72.604150
877.000000	72.591445
878.000000	72.567280
879.000000	72.539779
880.000000	72.497015
881.000000	72.461718
882.000000	72.405638
883.000000	72.369554
884.000000	72.312037
885.000000	72.260231
886.000000	72.209406
887.000000	72.147123
888.000000	72.083993
889.000000	72.020842
890.000000	71.966018
891.000000	71.900150
892.000000	71.820158
893.000000	71.742779
894.000000	71.641683
895.000000	71.553372
896.000000	71.451465
897.000000	71.339758
898.000000	71.217599
899.000000	71.093474
900.000000	70.967645
901.000000	70.833000
902.000000	70.697285
903.000000	70.561265
904.000000	70.426948
905.000000	70.290694
906.000000	70.166467
907.000000	70.033113
908.000000	69.897892
909.000000	69.767717
910.000000	69.647269
911.000000	69.524637
912.000000	69.412171
913.000000	69.285514
914.000000	69.150003
915.000000	69.027993
916.000000	68.913705
917.000000	68.790324
918.000000	68.674370
919.000000	68.552519
920.000000	68.428629
921.000000	68.303934
922.000000	68.178187
923.000000	68.043659
924.000000	67.906432
925.000000	67.775496
926.000000	67.645170
927.000000	67.521854
928.000000	67.395939
929.000000	67.246246
930.000000	67.112761
931.000000	66.978656
932.000000	66.837662
933.000000	66.697399
934.000000	66.550235
935.000000	66.408649
936.000000	66.270224
937.000000	66.118958
938.000000	65.978021
939.000000	65.840545
940.000000	65.702303
941.000000	65.557593
942.000000	65.411287
943.000000	65.271533
944.000000	65.123804
945.000000	64.968059
946.000000	64.812961
947.000000	64.656207
948.000000	64.500819
949.000000	64.345653
950.000000	64.187650
951.000000	64.025482
952.000000	63.862829
953.000000	63.703408
954.000000	63.551584
955.000000	63.400817
956.000000	63.253623
957.000000	63.101672
958.000000	62.946804
959.000000	62.800694
960.000000	62.659691
961.000000	62.516293
962.000000	62.374550
963.000000	62.240299
964.000000	62.107798
965.000000	61.986179
966.000000	61.863662
967.000000	61.735284
968.000000	61.621718
969.000000	61.507633
970.000000	61.395987
971.000000	61.284331
972.000000	61.162203
973.000000	61.059346
974.000000	60.953659
975.000000	60.848773
976.000000	60.738858
977.000000	60.628262
978.000000	60.534104
979.000000	60.437079
980.000000	60.335512
981.000000	60.241699
982.000000	60.154912
983.000000	60.063992
984.000000	59.973549
985.000000	59.892433
986.000000	59.806173
987.000000	59.728102
988.000000	59.649984
989.000000	59.577016
990.000000	59.509074
991.000000	59.449009
992.000000	59.383495
993.000000	59.326496
994.000000	59.275935
995.000000	59.222563
996.000000	59.175059
997.000000	59.136105
998.000000	59.085840
999.000000	59.053111
1000.000000	59.023245
1001.000000	58.993850
1002.000000	58.967159
1003.000000	58.932912
1004.000000	58.901187
1005.000000	58.882272
1006.000000	58.844256
1007.000000	58.820048
1008.000000	58.804613
1009.000000	58.797635
1010.000000	58.771739
1011.000000	58.769564
1012.000000	58.768197
1013.000000	58.781997
1014.000000	58.784462
1015.000000	58.814084
1016.000000	58.835662
1017.000000	58.857355
1018.000000	58.888524
1019.000000	58.925674
1020.000000	58.965981
1021.000000	59.006228
1022.000000	59.046938
1023.000000	59.096721
1024.000000	59.145324
1025.000000	59.188164
1026.000000	59.235509
1027.000000	59.287707
1028.000000	59.333503
1029.000000	59.379549
1030.000000	59.411659
1031.000000	59.461095
1032.000000	59.494721
1033.000000	59.539430
1034.000000	59.579760
1035.000000	59.629844
1036.000000	59.658651
1037.000000	59.704663
1038.000000	59.743590
1039.000000	59.777918
1040.000000	59.817855
1041.000000	59.858711
1042.000000	59.889628
1043.000000	59.934946
1044.000000	59.974391
1045.000000	60.018669
1046.000000	60.059221
1047.000000	60.102990
1048.000000	60.148384
1049.000000	60.193606
1050.000000	60.239023
1051.000000	60.293829
1052.000000	60.354523
1053.000000	60.405476
1054.000000	60.464543
1055.000000	60.521983
1056.000000	60.580021
1057.000000	60.640169
1058.000000	60.706167
1059.000000	60.757117
1060.000000	60.810053
1061.000000	60.874171
1062.000000	60.926316
1063.000000	60.971652
1064.000000	61.029210
1065.000000	61.077402
1066.000000	61.128949
1067.000000	61.171275
1068.000000	61.225035
1069.000000	61.276591
1070.000000	61.322432
1071.000000	61.374929
1072.000000	61.417881
1073.000000	61.459075
1074.000000	61.510061
1075.000000	61.561528
1076.000000	61.609478
1077.000000	61.643954
1078.000000	61.700395
1079.000000	61.746345
1080.000000	61.788812
1081.000000	61.842818
1082.000000	61.875482
1083.000000	61.931945
1084.000000	61.972713
1085.000000	62.017533
1086.000000	62.055824
1087.000000	62.109361
1088.000000	62.153754
1089.000000	62.187987
1090.000000	62.230722
1091.000000	62.263680
1092.000000	62.294747
1093.000000	62.341991
1094.000000	62.363999
1095.000000	62.404634
1096.000000	62.416659
1097.000000	62.444706
1098.000000	62.468668
1099.000000	62.489075
1100.000000	62.500103
1101.000000	62.513417
1102.000000	62.553474
1103.000000	62.548098
1104.000000	62.559265
1105.000000	62.566307
1106.000000	62.575017
1107.000000	62.588569
1108.000000	62.598541
1109.000000	62.611640
1110.000000	62.620266
1111.000000	62.625245
1112.000000	62.627470
1113.000000	62.633649
1114.000000	62.636194
1115.000000	62.634788
1116.000000	62.641624
1117.000000	62.629225
1118.000000	62.601536
1119.000000	62.575738
1120.000000	62.520416
1121.000000	62.475414
1122.000000	62.412899
1123.000000	62.320385
1124.000000	62.230894
1125.000000	62.123595
1126.000000	61.991135
1127.000000	61.830695
1128.000000	61.643165
1129.000000	61.396673
1130.000000	61.120204
1131.000000	60.818444
1132.000000	60.475933
1133.000000	60.147615
1134.000000	59.759738
1135.000000	59.339803
1136.000000	58.930857
1137.000000	58.538897
1138.000000	58.155175
1139.000000	57.799085
1140.000000	57.453508
1141.000000	57.110903
1142.000000	56.785259
1143.000000	56.494736
1144.000000	56.258382
1145.000000	56.052852
1146.000000	55.903321
1147.000000	55.807078
1148.000000	55.738065
1149.000000	55.688743
1150.000000	55.625761
1151.000000	55.553258
1152.000000	55.456192
1153.000000	55.326813
1154.000000	55.133741
1155.000000	54.908511
1156.000000	54.642287
1157.000000	54.354485
1158.000000	54.034787
1159.000000	53.707571
1160.000000	53.365779
1161.000000	53.034712
1162.000000	52.670172
1163.000000	52.322024
1164.000000	51.979948
1165.000000	51.643343
1166.000000	51.312486
1167.000000	50.977695
