PE UV       SUBTECH     SPECTRUM    ASCII       PEDS        4.00        
   -1
CICIMAUCR0240-3.Sample.ASC
24/06/20
12:39:27.00
24/06/20
12:39:27.00
Vinicio Soto Monge
C. resplendens. Sex M. Dorsal.
250,000000
1
Lambda 1050
1050L1511233
PerkinElmer UV WinLab 6.3.2.0749 / 2.02.05 Lambda 900 UV/VIS/NIR, Aug  7 2015 09:38:08

0
0
3350/servo 860,8/2
0
0
UV/VIS
1
1
1
DoubleDePol,CommonBeamDepol,RBeamAtt,SBeamAtt,60mm sphere, WB InGaAs Detector
0
0
0
0
Program
Program
3350/servo 860,8/2
3350/0,2 860,8/0,2
3350/0,2 860,8/0,2
0
15.00
 
 
 
0
 
860,8
319,2
860,8
Front
100
on
S:100 R:100
0
0
0
0
 
0
 
 
 
0
 
 
0
0
0
0
0
 
 
 
 
0
0


0
0
#HDR
-1
-1
#GR
nm
%R
1.0
0.0
2500,000000
-1,000000
2251
8
89,336400
5,668900
#DATA
250.000000	6.160467
251.000000	6.148000
252.000000	6.158867
253.000000	6.141067
254.000000	6.129500
255.000000	6.108367
256.000000	6.114267
257.000000	6.089167
258.000000	6.090733
259.000000	6.070600
260.000000	6.065067
261.000000	6.044567
262.000000	6.009000
263.000000	5.998333
264.000000	5.983867
265.000000	5.929900
266.000000	5.895733
267.000000	5.875233
268.000000	5.872700
269.000000	5.864467
270.000000	5.828600
271.000000	5.808600
272.000000	5.791800
273.000000	5.796833
274.000000	5.804467
275.000000	5.774433
276.000000	5.739867
277.000000	5.737967
278.000000	5.734800
279.000000	5.742300
280.000000	5.735867
281.000000	5.720300
282.000000	5.709100
283.000000	5.693767
284.000000	5.695133
285.000000	5.686900
286.000000	5.663367
287.000000	5.661800
288.000000	5.665267
289.000000	5.660900
290.000000	5.661767
291.000000	5.666133
292.000000	5.638900
293.000000	5.668600
294.000000	5.678833
295.000000	5.669567
296.000000	5.671933
297.000000	5.651267
298.000000	5.641733
299.000000	5.648267
300.000000	5.667733
301.000000	5.655367
302.000000	5.649767
303.000000	5.631433
304.000000	5.646800
305.000000	5.653767
306.000000	5.630000
307.000000	5.631333
308.000000	5.652900
309.000000	5.623367
310.000000	5.626500
311.000000	5.638167
312.000000	5.633867
313.000000	5.629967
314.000000	5.647633
315.000000	5.647067
316.000000	6.075833
317.000000	6.556233
318.000000	6.280567
319.000000	6.111600
320.000000	6.238633
321.000000	6.303933
322.000000	6.119433
323.000000	6.041833
324.000000	6.086267
325.000000	5.923700
326.000000	5.984800
327.000000	6.035200
328.000000	5.843833
329.000000	5.751667
330.000000	5.821500
331.000000	5.766233
332.000000	5.891967
333.000000	6.000233
334.000000	5.898367
335.000000	5.958267
336.000000	6.001100
337.000000	5.840033
338.000000	5.904533
339.000000	6.027600
340.000000	6.002700
341.000000	5.943433
342.000000	5.955600
343.000000	6.046667
344.000000	6.034867
345.000000	6.034300
346.000000	6.100200
347.000000	6.059867
348.000000	6.073600
349.000000	6.147100
350.000000	6.071767
351.000000	5.994400
352.000000	5.979633
353.000000	6.095633
354.000000	6.143367
355.000000	6.086667
356.000000	6.218400
357.000000	6.305867
358.000000	6.211367
359.000000	6.252800
360.000000	6.330400
361.000000	6.302933
362.000000	6.268633
363.000000	6.327133
364.000000	6.373733
365.000000	6.397033
366.000000	6.386667
367.000000	6.363267
368.000000	6.405933
369.000000	6.485567
370.000000	6.477167
371.000000	6.403800
372.000000	6.423933
373.000000	6.419500
374.000000	6.353667
375.000000	6.525733
376.000000	6.666633
377.000000	6.703133
378.000000	6.736033
379.000000	6.767067
380.000000	6.809733
381.000000	6.843367
382.000000	6.881100
383.000000	6.921833
384.000000	6.966633
385.000000	7.018800
386.000000	7.058433
387.000000	7.109533
388.000000	7.160867
389.000000	7.236733
390.000000	7.303367
391.000000	7.360333
392.000000	7.442667
393.000000	7.516100
394.000000	7.587967
395.000000	7.682067
396.000000	7.788700
397.000000	7.894400
398.000000	8.002633
399.000000	8.119600
400.000000	8.244067
401.000000	8.386067
402.000000	8.546933
403.000000	8.710033
404.000000	8.876100
405.000000	9.064867
406.000000	9.267067
407.000000	9.470033
408.000000	9.701000
409.000000	9.940367
410.000000	10.204233
411.000000	10.484233
412.000000	10.779400
413.000000	11.105200
414.000000	11.460133
415.000000	11.803100
416.000000	12.182133
417.000000	12.572400
418.000000	12.993800
419.000000	13.419500
420.000000	13.875467
421.000000	14.317800
422.000000	14.809867
423.000000	15.308400
424.000000	15.801033
425.000000	16.328467
426.000000	16.851033
427.000000	17.364000
428.000000	17.879067
429.000000	18.406267
430.000000	18.928333
431.000000	19.456933
432.000000	19.968633
433.000000	20.482067
434.000000	21.001400
435.000000	21.492667
436.000000	21.953400
437.000000	22.438967
438.000000	22.896633
439.000000	23.339933
440.000000	23.761067
441.000000	24.180633
442.000000	24.550967
443.000000	24.941967
444.000000	25.301367
445.000000	25.661867
446.000000	25.973733
447.000000	26.273267
448.000000	26.594567
449.000000	26.859433
450.000000	27.130333
451.000000	27.388667
452.000000	27.627933
453.000000	27.859733
454.000000	28.091200
455.000000	28.273267
456.000000	28.494100
457.000000	28.649867
458.000000	28.813367
459.000000	28.976267
460.000000	29.121967
461.000000	29.250100
462.000000	29.361067
463.000000	29.489500
464.000000	29.592233
465.000000	29.690133
466.000000	29.784400
467.000000	29.853933
468.000000	29.932767
469.000000	29.977800
470.000000	30.038733
471.000000	30.080533
472.000000	30.138400
473.000000	30.164833
474.000000	30.195700
475.000000	30.227033
476.000000	30.252367
477.000000	30.269233
478.000000	30.274967
479.000000	30.289367
480.000000	30.298600
481.000000	30.303967
482.000000	30.317700
483.000000	30.319900
484.000000	30.318133
485.000000	30.339667
486.000000	30.348100
487.000000	30.385133
488.000000	30.425633
489.000000	30.469333
490.000000	30.546033
491.000000	30.646600
492.000000	30.749233
493.000000	30.880433
494.000000	31.064467
495.000000	31.269733
496.000000	31.511067
497.000000	31.820600
498.000000	32.172500
499.000000	32.533567
500.000000	32.954200
501.000000	33.430733
502.000000	33.940867
503.000000	34.484100
504.000000	35.050767
505.000000	35.626333
506.000000	36.201733
507.000000	36.794933
508.000000	37.374167
509.000000	37.964200
510.000000	38.522733
511.000000	39.106967
512.000000	39.674533
513.000000	40.252900
514.000000	40.822800
515.000000	41.392333
516.000000	41.954400
517.000000	42.524400
518.000000	43.113733
519.000000	43.720933
520.000000	44.331967
521.000000	44.998133
522.000000	45.693433
523.000000	46.442800
524.000000	47.229700
525.000000	48.047933
526.000000	48.910833
527.000000	49.803133
528.000000	50.737100
529.000000	51.749600
530.000000	52.828367
531.000000	53.921033
532.000000	55.064667
533.000000	56.237967
534.000000	57.460867
535.000000	58.710467
536.000000	59.960500
537.000000	61.240900
538.000000	62.536700
539.000000	63.826267
540.000000	65.126833
541.000000	66.447200
542.000000	67.772233
543.000000	69.061500
544.000000	70.312900
545.000000	71.520500
546.000000	72.691200
547.000000	73.774233
548.000000	74.828833
549.000000	75.779733
550.000000	76.690167
551.000000	77.555267
552.000000	78.372767
553.000000	79.117533
554.000000	79.789367
555.000000	80.419267
556.000000	81.004000
557.000000	81.540767
558.000000	82.037733
559.000000	82.503767
560.000000	82.967600
561.000000	83.397833
562.000000	83.774400
563.000000	84.162100
564.000000	84.483467
565.000000	84.793500
566.000000	85.112367
567.000000	85.414567
568.000000	85.679167
569.000000	85.978267
570.000000	86.257700
571.000000	86.518233
572.000000	86.771433
573.000000	87.058900
574.000000	87.306800
575.000000	87.544100
576.000000	87.794467
577.000000	88.059767
578.000000	88.278400
579.000000	88.498633
580.000000	88.696300
581.000000	88.897667
582.000000	89.047800
583.000000	89.182267
584.000000	89.317033
585.000000	89.417133
586.000000	89.512400
587.000000	89.566200
588.000000	89.578000
589.000000	89.580833
590.000000	89.588433
591.000000	89.584067
592.000000	89.531500
593.000000	89.430900
594.000000	89.337767
595.000000	89.228900
596.000000	89.120400
597.000000	89.016033
598.000000	88.880133
599.000000	88.731033
600.000000	88.580200
601.000000	88.460467
602.000000	88.295500
603.000000	88.139200
604.000000	87.991667
605.000000	87.828733
606.000000	87.674167
607.000000	87.499067
608.000000	87.305267
609.000000	87.093367
610.000000	86.867767
611.000000	86.605067
612.000000	86.328933
613.000000	86.003500
614.000000	85.653933
615.000000	85.295167
616.000000	84.885767
617.000000	84.439200
618.000000	83.966700
619.000000	83.460433
620.000000	82.923733
621.000000	82.373800
622.000000	81.815800
623.000000	81.208733
624.000000	80.554800
625.000000	79.927733
626.000000	79.326533
627.000000	78.692367
628.000000	78.026933
629.000000	77.381833
630.000000	76.708967
631.000000	76.029033
632.000000	75.343767
633.000000	74.638267
634.000000	73.908767
635.000000	73.172667
636.000000	72.403967
637.000000	71.603233
638.000000	70.808200
639.000000	69.979567
640.000000	69.113500
641.000000	68.216300
642.000000	67.315000
643.000000	66.409867
644.000000	65.481800
645.000000	64.578133
646.000000	63.712000
647.000000	62.848467
648.000000	62.047933
649.000000	61.330333
650.000000	60.670700
651.000000	60.076467
652.000000	59.585467
653.000000	59.185467
654.000000	58.881700
655.000000	58.679833
656.000000	58.606833
657.000000	58.654167
658.000000	58.778967
659.000000	58.981500
660.000000	59.287967
661.000000	59.652333
662.000000	60.070967
663.000000	60.592100
664.000000	61.181667
665.000000	61.810533
666.000000	62.460200
667.000000	63.151367
668.000000	63.858767
669.000000	64.608933
670.000000	65.392967
671.000000	66.189833
672.000000	66.977267
673.000000	67.780633
674.000000	68.561967
675.000000	69.334200
676.000000	70.121467
677.000000	70.867000
678.000000	71.590300
679.000000	72.288300
680.000000	72.931800
681.000000	73.568600
682.000000	74.138133
683.000000	74.640533
684.000000	75.135633
685.000000	75.533333
686.000000	75.877633
687.000000	76.206467
688.000000	76.455400
689.000000	76.677567
690.000000	76.911800
691.000000	77.093300
692.000000	77.244967
693.000000	77.345233
694.000000	77.473367
695.000000	77.572133
696.000000	77.660967
697.000000	77.763033
698.000000	77.822900
699.000000	77.853000
700.000000	77.932467
701.000000	78.025167
702.000000	78.048333
703.000000	78.049400
704.000000	78.142400
705.000000	78.106767
706.000000	78.111900
707.000000	78.146167
708.000000	78.116333
709.000000	78.095467
710.000000	78.086933
711.000000	78.062467
712.000000	78.051700
713.000000	78.043967
714.000000	78.099433
715.000000	78.121800
716.000000	78.163100
717.000000	78.185633
718.000000	78.232700
719.000000	78.316467
720.000000	78.440933
721.000000	78.613433
722.000000	78.720200
723.000000	78.835800
724.000000	78.962033
725.000000	79.197533
726.000000	79.390733
727.000000	79.524167
728.000000	79.708133
729.000000	79.915000
730.000000	80.128033
731.000000	80.382633
732.000000	80.586333
733.000000	80.845700
734.000000	81.054067
735.000000	81.380200
736.000000	81.707600
737.000000	81.976200
738.000000	82.311833
739.000000	82.679300
740.000000	83.014500
741.000000	83.372233
742.000000	83.748867
743.000000	84.110833
744.000000	84.469833
745.000000	84.819933
746.000000	85.134333
747.000000	85.378000
748.000000	85.546967
749.000000	85.856500
750.000000	86.071833
751.000000	86.260700
752.000000	86.401067
753.000000	86.520500
754.000000	86.691833
755.000000	86.788667
756.000000	86.895033
757.000000	86.938300
758.000000	87.035867
759.000000	87.202600
760.000000	87.169233
761.000000	87.277000
762.000000	87.395000
763.000000	87.435533
764.000000	87.443100
765.000000	87.448133
766.000000	87.526300
767.000000	87.490000
768.000000	87.567900
769.000000	87.598433
770.000000	87.561233
771.000000	87.585433
772.000000	87.540000
773.000000	87.577000
774.000000	87.643633
775.000000	87.656500
776.000000	87.575533
777.000000	87.551233
778.000000	87.625200
779.000000	87.614267
780.000000	87.696867
781.000000	87.730600
782.000000	87.782433
783.000000	87.738300
784.000000	87.683967
785.000000	87.817333
786.000000	87.740733
787.000000	87.769667
788.000000	87.707767
789.000000	87.633667
790.000000	87.663067
791.000000	87.506167
792.000000	87.416000
793.000000	87.349633
794.000000	87.293533
795.000000	87.160433
796.000000	87.007700
797.000000	86.993633
798.000000	86.742900
799.000000	86.832100
800.000000	86.593967
801.000000	86.376000
802.000000	86.260033
803.000000	86.192133
804.000000	86.058533
805.000000	86.034700
806.000000	85.866233
807.000000	85.618133
808.000000	85.682500
809.000000	85.457067
810.000000	85.376967
811.000000	85.350467
812.000000	85.204000
813.000000	85.059600
814.000000	85.112767
815.000000	85.087000
816.000000	84.882967
817.000000	84.852167
818.000000	84.793267
819.000000	84.886400
820.000000	84.876133
821.000000	84.748367
822.000000	84.730300
823.000000	84.776767
824.000000	84.659600
825.000000	84.560433
826.000000	84.387333
827.000000	84.495033
828.000000	84.259000
829.000000	84.195000
830.000000	84.046500
831.000000	83.772533
832.000000	83.688633
833.000000	83.544767
834.000000	83.287433
835.000000	83.147967
836.000000	83.015433
837.000000	82.763700
838.000000	82.448933
839.000000	82.365567
840.000000	81.894967
841.000000	81.784533
842.000000	81.458733
843.000000	81.120500
844.000000	80.834300
845.000000	80.526167
846.000000	80.324400
847.000000	80.074633
848.000000	79.925500
849.000000	79.607000
850.000000	79.168567
851.000000	78.990300
852.000000	78.494733
853.000000	78.469800
854.000000	77.881467
855.000000	77.715400
856.000000	77.432000
857.000000	76.493067
858.000000	77.213489
859.000000	76.977024
860.000000	76.726126
861.000000	76.477287
862.000000	76.238201
863.000000	75.999056
864.000000	75.770796
865.000000	75.534257
866.000000	75.315253
867.000000	75.045890
868.000000	74.803826
869.000000	74.588262
870.000000	74.407781
871.000000	74.334403
872.000000	74.355463
873.000000	74.372823
874.000000	74.355782
875.000000	74.319360
876.000000	74.264341
877.000000	74.186962
878.000000	74.104019
879.000000	74.019994
880.000000	73.928051
881.000000	73.828808
882.000000	73.739812
883.000000	73.639589
884.000000	73.551406
885.000000	73.472148
886.000000	73.384733
887.000000	73.288578
888.000000	73.186159
889.000000	73.082771
890.000000	72.991798
891.000000	72.899773
892.000000	72.811676
893.000000	72.720890
894.000000	72.607366
895.000000	72.505691
896.000000	72.385143
897.000000	72.253315
898.000000	72.128317
899.000000	72.002074
900.000000	71.879733
901.000000	71.747975
902.000000	71.603981
903.000000	71.461879
904.000000	71.327424
905.000000	71.186901
906.000000	71.049900
907.000000	70.907130
908.000000	70.765796
909.000000	70.623429
910.000000	70.492461
911.000000	70.359574
912.000000	70.220207
913.000000	70.099611
914.000000	69.976038
915.000000	69.853117
916.000000	69.740455
917.000000	69.625843
918.000000	69.516651
919.000000	69.412572
920.000000	69.311248
921.000000	69.210797
922.000000	69.113385
923.000000	69.028390
924.000000	68.941500
925.000000	68.844682
926.000000	68.749596
927.000000	68.664905
928.000000	68.592970
929.000000	68.511415
930.000000	68.426325
931.000000	68.357144
932.000000	68.294079
933.000000	68.218880
934.000000	68.152762
935.000000	68.096439
936.000000	68.037301
937.000000	67.984702
938.000000	67.937707
939.000000	67.882928
940.000000	67.820657
941.000000	67.777958
942.000000	67.722730
943.000000	67.650918
944.000000	67.583535
945.000000	67.517064
946.000000	67.443622
947.000000	67.364794
948.000000	67.294458
949.000000	67.215157
950.000000	67.132178
951.000000	67.061508
952.000000	66.982243
953.000000	66.896494
954.000000	66.828401
955.000000	66.762338
956.000000	66.692261
957.000000	66.631161
958.000000	66.558952
959.000000	66.483543
960.000000	66.423263
961.000000	66.354807
962.000000	66.286978
963.000000	66.220858
964.000000	66.157038
965.000000	66.089426
966.000000	66.017473
967.000000	65.960152
968.000000	65.898876
969.000000	65.834975
970.000000	65.769683
971.000000	65.717321
972.000000	65.659062
973.000000	65.605791
974.000000	65.559206
975.000000	65.517602
976.000000	65.485979
977.000000	65.450537
978.000000	65.421328
979.000000	65.394905
980.000000	65.369433
981.000000	65.340767
982.000000	65.327929
983.000000	65.304490
984.000000	65.286708
985.000000	65.270507
986.000000	65.263700
987.000000	65.258285
988.000000	65.251571
989.000000	65.255500
990.000000	65.256754
991.000000	65.271379
992.000000	65.287816
993.000000	65.308175
994.000000	65.323584
995.000000	65.350596
996.000000	65.373679
997.000000	65.404082
998.000000	65.434458
999.000000	65.469571
1000.000000	65.509386
1001.000000	65.546824
1002.000000	65.594242
1003.000000	65.621814
1004.000000	65.662861
1005.000000	65.701517
1006.000000	65.744193
1007.000000	65.773149
1008.000000	65.791503
1009.000000	65.840970
1010.000000	65.878954
1011.000000	65.909672
1012.000000	65.944864
1013.000000	65.981856
1014.000000	66.020277
1015.000000	66.060259
1016.000000	66.103706
1017.000000	66.132206
1018.000000	66.184406
1019.000000	66.229074
1020.000000	66.277678
1021.000000	66.329402
1022.000000	66.373680
1023.000000	66.417187
1024.000000	66.458717
1025.000000	66.499782
1026.000000	66.545974
1027.000000	66.602792
1028.000000	66.604998
1029.000000	66.661830
1030.000000	66.713109
1031.000000	66.738190
1032.000000	66.767192
1033.000000	66.805374
1034.000000	66.839434
1035.000000	66.865236
1036.000000	66.897853
1037.000000	66.921472
1038.000000	66.953285
1039.000000	66.984380
1040.000000	67.016963
1041.000000	67.055287
1042.000000	67.097336
1043.000000	67.136400
1044.000000	67.173045
1045.000000	67.211210
1046.000000	67.253763
1047.000000	67.304575
1048.000000	67.344549
1049.000000	67.407921
1050.000000	67.460997
1051.000000	67.522395
1052.000000	67.580766
1053.000000	67.653663
1054.000000	67.717747
1055.000000	67.779293
1056.000000	67.855106
1057.000000	67.925423
1058.000000	67.993675
1059.000000	68.065261
1060.000000	68.137406
1061.000000	68.213861
1062.000000	68.277226
1063.000000	68.348182
1064.000000	68.407699
1065.000000	68.478964
1066.000000	68.545236
1067.000000	68.609298
1068.000000	68.657015
1069.000000	68.736864
1070.000000	68.794302
1071.000000	68.843385
1072.000000	68.907816
1073.000000	68.963724
1074.000000	69.012235
1075.000000	69.069572
1076.000000	69.122309
1077.000000	69.179266
1078.000000	69.222674
1079.000000	69.258708
1080.000000	69.303097
1081.000000	69.341970
1082.000000	69.382388
1083.000000	69.420566
1084.000000	69.443805
1085.000000	69.485029
1086.000000	69.505541
1087.000000	69.530309
1088.000000	69.550961
1089.000000	69.589374
1090.000000	69.607947
1091.000000	69.632112
1092.000000	69.645951
1093.000000	69.654244
1094.000000	69.669550
1095.000000	69.678709
1096.000000	69.684559
1097.000000	69.690667
1098.000000	69.700213
1099.000000	69.711718
1100.000000	69.702242
1101.000000	69.719362
1102.000000	69.713040
1103.000000	69.720063
1104.000000	69.722693
1105.000000	69.719558
1106.000000	69.716961
1107.000000	69.720235
1108.000000	69.731319
1109.000000	69.725722
1110.000000	69.728865
1111.000000	69.732603
1112.000000	69.735789
1113.000000	69.735122
1114.000000	69.739026
1115.000000	69.742994
1116.000000	69.745380
1117.000000	69.743852
1118.000000	69.722857
1119.000000	69.705439
1120.000000	69.675061
1121.000000	69.644492
1122.000000	69.596138
1123.000000	69.555303
1124.000000	69.475619
1125.000000	69.388906
1126.000000	69.277862
1127.000000	69.151129
1128.000000	69.002061
1129.000000	68.819140
1130.000000	68.596145
1131.000000	68.352648
1132.000000	68.108506
1133.000000	67.861861
1134.000000	67.594194
1135.000000	67.258007
1136.000000	66.925650
1137.000000	66.610986
1138.000000	66.326747
1139.000000	66.045333
1140.000000	65.782098
1141.000000	65.522172
1142.000000	65.279514
1143.000000	65.056521
1144.000000	64.876561
1145.000000	64.724981
1146.000000	64.572722
1147.000000	64.432106
1148.000000	64.331341
1149.000000	64.225901
1150.000000	64.108291
1151.000000	64.002380
1152.000000	63.873353
1153.000000	63.712186
1154.000000	63.542010
1155.000000	63.340387
1156.000000	63.128759
1157.000000	62.905155
1158.000000	62.673050
1159.000000	62.422445
1160.000000	62.178531
1161.000000	61.931344
1162.000000	61.672330
1163.000000	61.423115
1164.000000	61.178267
1165.000000	60.957023
1166.000000	60.730122
