PE UV       SUBTECH     SPECTRUM    ASCII       PEDS        4.00        
   -1
CICIMAUCR0252-3.ASC
24/06/26
10:58:31.00
24/06/26
10:58:31.00
Vinicio Soto Monge
C. resplendens. Sex F.Dorsal.
250,000000
1
Lambda 1050
1050L1511233
PerkinElmer UV WinLab 6.3.2.0749 / 2.02.05 Lambda 900 UV/VIS/NIR, Aug  7 2015 09:38:08

0
0
3350/servo 860,8/2
0
0
UV/VIS
1
1
1
DoubleDePol,CommonBeamDepol,RBeamAtt,SBeamAtt,60mm sphere, WB InGaAs Detector
0
0
0
0
Program
Program
3350/servo 860,8/2
3350/0,2 860,8/0,2
3350/0,2 860,8/0,2
0
15.00
 
 
 
0
 
860,8
319,2
860,8
Front
100
on
S:100 R:100
0
0
0
0
 
0
 
 
 
0
 
 
0
0
0
0
0
 
 
 
 
0
0


0
0
#HDR
-1
-1
#GR
nm
%R
1.0
0.0
2500,000000
-1,000000
2251
8
89,717500
5,501300
#DATA
250.000000	2232.000000	6.075867
251.000000	2231.000000	6.051433
252.000000	2230.000000	6.042067
253.000000	2229.000000	6.014533
254.000000	2228.000000	6.021567
255.000000	2227.000000	6.027633
256.000000	2226.000000	5.981433
257.000000	2225.000000	5.996700
258.000000	2224.000000	5.975433
259.000000	2223.000000	5.963833
260.000000	2222.000000	5.945167
261.000000	2221.000000	5.907000
262.000000	2220.000000	5.890733
263.000000	2219.000000	5.844133
264.000000	2218.000000	5.814367
265.000000	2217.000000	5.797467
266.000000	2216.000000	5.796733
267.000000	2215.000000	5.766100
268.000000	2214.000000	5.753667
269.000000	2213.000000	5.761600
270.000000	2212.000000	5.751733
271.000000	2211.000000	5.734700
272.000000	2210.000000	5.719367
273.000000	2209.000000	5.678267
274.000000	2208.000000	5.679367
275.000000	2207.000000	5.681467
276.000000	2206.000000	5.662333
277.000000	2205.000000	5.640633
278.000000	2204.000000	5.643533
279.000000	2203.000000	5.621067
280.000000	2202.000000	5.622267
281.000000	2201.000000	5.619600
282.000000	2200.000000	5.642233
283.000000	2199.000000	5.642467
284.000000	2198.000000	5.618433
285.000000	2197.000000	5.604833
286.000000	2196.000000	5.593233
287.000000	2195.000000	5.581467
288.000000	2194.000000	5.599467
289.000000	2193.000000	5.602600
290.000000	2192.000000	5.599100
291.000000	2191.000000	5.577833
292.000000	2190.000000	5.592333
293.000000	2189.000000	5.566733
294.000000	2188.000000	5.548467
295.000000	2187.000000	5.576500
296.000000	2186.000000	5.576833
297.000000	2185.000000	5.579733
298.000000	2184.000000	5.558867
299.000000	2183.000000	5.529367
300.000000	2182.000000	5.537633
301.000000	2181.000000	5.550367
302.000000	2180.000000	5.560600
303.000000	2179.000000	5.550800
304.000000	2178.000000	5.528733
305.000000	2177.000000	5.526233
306.000000	2176.000000	5.539900
307.000000	2175.000000	5.521567
308.000000	2174.000000	5.539067
309.000000	2173.000000	5.539800
310.000000	2172.000000	5.539433
311.000000	2171.000000	5.532367
312.000000	2170.000000	5.524633
313.000000	2169.000000	5.534300
314.000000	2168.000000	5.520567
315.000000	2167.000000	5.534767
316.000000	2166.000000	6.049833
317.000000	2165.000000	6.497233
318.000000	2164.000000	6.432667
319.000000	2163.000000	6.308933
320.000000	2162.000000	5.994867
321.000000	2161.000000	6.201033
322.000000	2160.000000	6.096167
323.000000	2159.000000	5.928233
324.000000	2158.000000	6.049967
325.000000	2157.000000	6.018067
326.000000	2156.000000	6.074933
327.000000	2155.000000	6.047367
328.000000	2154.000000	6.019667
329.000000	2153.000000	5.945967
330.000000	2152.000000	5.776200
331.000000	2151.000000	5.749600
332.000000	2150.000000	5.670600
333.000000	2149.000000	5.681133
334.000000	2148.000000	5.705100
335.000000	2147.000000	5.725033
336.000000	2146.000000	5.743467
337.000000	2145.000000	5.787800
338.000000	2144.000000	5.811333
339.000000	2143.000000	5.670100
340.000000	2142.000000	5.699800
341.000000	2141.000000	5.585700
342.000000	2140.000000	5.642200
343.000000	2139.000000	5.831200
344.000000	2138.000000	5.842067
345.000000	2137.000000	5.841400
346.000000	2136.000000	5.768900
347.000000	2135.000000	5.834133
348.000000	2134.000000	5.798400
349.000000	2133.000000	5.845100
350.000000	2132.000000	5.870267
351.000000	2131.000000	5.863500
352.000000	2130.000000	5.997533
353.000000	2129.000000	6.011167
354.000000	2128.000000	5.998567
355.000000	2127.000000	5.951300
356.000000	2126.000000	5.929233
357.000000	2125.000000	5.977200
358.000000	2124.000000	6.044433
359.000000	2123.000000	6.038567
360.000000	2122.000000	6.037533
361.000000	2121.000000	6.043133
362.000000	2120.000000	6.076367
363.000000	2119.000000	6.073300
364.000000	2118.000000	6.094267
365.000000	2117.000000	6.150600
366.000000	2116.000000	6.208833
367.000000	2115.000000	6.213400
368.000000	2114.000000	6.313900
369.000000	2113.000000	6.243333
370.000000	2112.000000	6.160533
371.000000	2111.000000	6.196067
372.000000	2110.000000	6.178133
373.000000	2109.000000	6.088833
374.000000	2108.000000	6.159667
375.000000	2107.000000	6.409567
376.000000	2106.000000	6.509467
377.000000	2105.000000	6.517767
378.000000	2104.000000	6.561433
379.000000	2103.000000	6.598033
380.000000	2102.000000	6.647567
381.000000	2101.000000	6.685933
382.000000	2100.000000	6.727600
383.000000	2099.000000	6.782167
384.000000	2098.000000	6.822567
385.000000	2097.000000	6.877233
386.000000	2096.000000	6.921000
387.000000	2095.000000	6.964567
388.000000	2094.000000	7.018167
389.000000	2093.000000	7.076500
390.000000	2092.000000	7.149900
391.000000	2091.000000	7.216867
392.000000	2090.000000	7.282267
393.000000	2089.000000	7.344000
394.000000	2088.000000	7.427667
395.000000	2087.000000	7.515367
396.000000	2086.000000	7.600533
397.000000	2085.000000	7.692600
398.000000	2084.000000	7.802533
399.000000	2083.000000	7.912400
400.000000	2082.000000	8.025033
401.000000	2081.000000	8.175600
402.000000	2080.000000	8.312300
403.000000	2079.000000	8.471267
404.000000	2078.000000	8.649667
405.000000	2077.000000	8.841133
406.000000	2076.000000	9.030533
407.000000	2075.000000	9.257667
408.000000	2074.000000	9.493267
409.000000	2073.000000	9.742833
410.000000	2072.000000	10.009200
411.000000	2071.000000	10.300333
412.000000	2070.000000	10.638433
413.000000	2069.000000	10.988700
414.000000	2068.000000	11.352167
415.000000	2067.000000	11.738067
416.000000	2066.000000	12.134833
417.000000	2065.000000	12.555100
418.000000	2064.000000	12.980200
419.000000	2063.000000	13.437533
420.000000	2062.000000	13.900700
421.000000	2061.000000	14.394567
422.000000	2060.000000	14.889300
423.000000	2059.000000	15.385867
424.000000	2058.000000	15.884833
425.000000	2057.000000	16.403067
426.000000	2056.000000	16.883933
427.000000	2055.000000	17.375667
428.000000	2054.000000	17.855067
429.000000	2053.000000	18.356667
430.000000	2052.000000	18.813400
431.000000	2051.000000	19.274000
432.000000	2050.000000	19.726667
433.000000	2049.000000	20.156867
434.000000	2048.000000	20.575633
435.000000	2047.000000	21.000867
436.000000	2046.000000	21.383800
437.000000	2045.000000	21.765733
438.000000	2044.000000	22.102600
439.000000	2043.000000	22.455933
440.000000	2042.000000	22.796433
441.000000	2041.000000	23.114033
442.000000	2040.000000	23.412633
443.000000	2039.000000	23.719700
444.000000	2038.000000	23.981433
445.000000	2037.000000	24.252067
446.000000	2036.000000	24.515667
447.000000	2035.000000	24.730000
448.000000	2034.000000	24.952900
449.000000	2033.000000	25.170667
450.000000	2032.000000	25.369567
451.000000	2031.000000	25.563767
452.000000	2030.000000	25.732900
453.000000	2029.000000	25.898833
454.000000	2028.000000	26.025633
455.000000	2027.000000	26.194367
456.000000	2026.000000	26.313767
457.000000	2025.000000	26.457100
458.000000	2024.000000	26.571533
459.000000	2023.000000	26.678167
460.000000	2022.000000	26.784467
461.000000	2021.000000	26.863767
462.000000	2020.000000	26.938633
463.000000	2019.000000	27.008967
464.000000	2018.000000	27.074833
465.000000	2017.000000	27.128600
466.000000	2016.000000	27.185733
467.000000	2015.000000	27.207133
468.000000	2014.000000	27.224033
469.000000	2013.000000	27.233833
470.000000	2012.000000	27.251533
471.000000	2011.000000	27.220967
472.000000	2010.000000	27.197500
473.000000	2009.000000	27.157000
474.000000	2008.000000	27.116267
475.000000	2007.000000	27.064933
476.000000	2006.000000	27.032500
477.000000	2005.000000	27.012733
478.000000	2004.000000	27.003567
479.000000	2003.000000	27.011500
480.000000	2002.000000	27.065000
481.000000	2001.000000	27.125467
482.000000	2000.000000	27.248800
483.000000	1999.000000	27.425900
484.000000	1998.000000	27.658233
485.000000	1997.000000	27.917833
486.000000	1996.000000	28.249167
487.000000	1995.000000	28.630233
488.000000	1994.000000	29.073600
489.000000	1993.000000	29.554133
490.000000	1992.000000	30.104633
491.000000	1991.000000	30.695633
492.000000	1990.000000	31.278167
493.000000	1989.000000	31.882500
494.000000	1988.000000	32.452667
495.000000	1987.000000	33.022467
496.000000	1986.000000	33.613433
497.000000	1985.000000	34.163167
498.000000	1984.000000	34.685333
499.000000	1983.000000	35.180700
500.000000	1982.000000	35.665200
501.000000	1981.000000	36.145667
502.000000	1980.000000	36.594567
503.000000	1979.000000	37.054700
504.000000	1978.000000	37.511833
505.000000	1977.000000	37.971933
506.000000	1976.000000	38.429600
507.000000	1975.000000	38.940200
508.000000	1974.000000	39.446600
509.000000	1973.000000	40.051400
510.000000	1972.000000	40.677033
511.000000	1971.000000	41.376700
512.000000	1970.000000	42.187267
513.000000	1969.000000	43.059900
514.000000	1968.000000	44.018033
515.000000	1967.000000	45.055667
516.000000	1966.000000	46.163367
517.000000	1965.000000	47.378967
518.000000	1964.000000	48.656167
519.000000	1963.000000	49.996867
520.000000	1962.000000	51.408433
521.000000	1961.000000	52.876633
522.000000	1960.000000	54.401367
523.000000	1959.000000	55.952000
524.000000	1958.000000	57.521500
525.000000	1957.000000	59.067667
526.000000	1956.000000	60.592533
527.000000	1955.000000	62.096000
528.000000	1954.000000	63.581333
529.000000	1953.000000	65.025400
530.000000	1952.000000	66.408267
531.000000	1951.000000	67.708867
532.000000	1950.000000	69.004633
533.000000	1949.000000	70.216200
534.000000	1948.000000	71.364333
535.000000	1947.000000	72.450800
536.000000	1946.000000	73.453267
537.000000	1945.000000	74.409500
538.000000	1944.000000	75.300733
539.000000	1943.000000	76.157200
540.000000	1942.000000	76.974833
541.000000	1941.000000	77.756367
542.000000	1940.000000	78.503900
543.000000	1939.000000	79.205400
544.000000	1938.000000	79.887467
545.000000	1937.000000	80.510733
546.000000	1936.000000	81.114533
547.000000	1935.000000	81.695733
548.000000	1934.000000	82.213600
549.000000	1933.000000	82.729867
550.000000	1932.000000	83.210267
551.000000	1931.000000	83.675900
552.000000	1930.000000	84.112533
553.000000	1929.000000	84.522133
554.000000	1928.000000	84.905333
555.000000	1927.000000	85.279300
556.000000	1926.000000	85.647600
557.000000	1925.000000	86.010333
558.000000	1924.000000	86.324067
559.000000	1923.000000	86.635300
560.000000	1922.000000	86.954033
561.000000	1921.000000	87.250633
562.000000	1920.000000	87.508267
563.000000	1919.000000	87.747467
564.000000	1918.000000	87.965867
565.000000	1917.000000	88.168833
566.000000	1916.000000	88.346500
567.000000	1915.000000	88.498267
568.000000	1914.000000	88.633033
569.000000	1913.000000	88.749933
570.000000	1912.000000	88.860700
571.000000	1911.000000	88.956733
572.000000	1910.000000	89.043300
573.000000	1909.000000	89.118067
574.000000	1908.000000	89.201733
575.000000	1907.000000	89.270100
576.000000	1906.000000	89.312333
577.000000	1905.000000	89.362167
578.000000	1904.000000	89.401100
579.000000	1903.000000	89.453467
580.000000	1902.000000	89.486467
581.000000	1901.000000	89.485767
582.000000	1900.000000	89.488167
583.000000	1899.000000	89.490267
584.000000	1898.000000	89.458700
585.000000	1897.000000	89.396967
586.000000	1896.000000	89.278867
587.000000	1895.000000	89.154400
588.000000	1894.000000	89.015933
589.000000	1893.000000	88.863067
590.000000	1892.000000	88.668033
591.000000	1891.000000	88.439033
592.000000	1890.000000	88.179400
593.000000	1889.000000	87.936700
594.000000	1888.000000	87.660033
595.000000	1887.000000	87.363000
596.000000	1886.000000	87.024700
597.000000	1885.000000	86.680100
598.000000	1884.000000	86.346933
599.000000	1883.000000	85.992900
600.000000	1882.000000	85.635333
601.000000	1881.000000	85.255800
602.000000	1880.000000	84.864000
603.000000	1879.000000	84.446867
604.000000	1878.000000	83.963467
605.000000	1877.000000	83.480300
606.000000	1876.000000	82.992600
607.000000	1875.000000	82.452200
608.000000	1874.000000	81.916467
609.000000	1873.000000	81.338200
610.000000	1872.000000	80.732733
611.000000	1871.000000	80.120033
612.000000	1870.000000	79.479500
613.000000	1869.000000	78.805033
614.000000	1868.000000	78.134133
615.000000	1867.000000	77.445567
616.000000	1866.000000	76.718100
617.000000	1865.000000	75.986933
618.000000	1864.000000	75.197133
619.000000	1863.000000	74.362100
620.000000	1862.000000	73.500767
621.000000	1861.000000	72.597800
622.000000	1860.000000	71.641267
623.000000	1859.000000	70.652533
624.000000	1858.000000	69.648600
625.000000	1857.000000	68.611500
626.000000	1856.000000	67.552967
627.000000	1855.000000	66.496000
628.000000	1854.000000	65.457400
629.000000	1853.000000	64.392500
630.000000	1852.000000	63.340933
631.000000	1851.000000	62.304133
632.000000	1850.000000	61.286967
633.000000	1849.000000	60.298033
634.000000	1848.000000	59.356533
635.000000	1847.000000	58.465767
636.000000	1846.000000	57.639567
637.000000	1845.000000	56.862900
638.000000	1844.000000	56.161433
639.000000	1843.000000	55.534967
640.000000	1842.000000	54.966133
641.000000	1841.000000	54.506233
642.000000	1840.000000	54.168967
643.000000	1839.000000	53.948733
644.000000	1838.000000	53.837900
645.000000	1837.000000	53.862767
646.000000	1836.000000	54.026133
647.000000	1835.000000	54.292767
648.000000	1834.000000	54.659533
649.000000	1833.000000	55.127567
650.000000	1832.000000	55.678800
651.000000	1831.000000	56.258533
652.000000	1830.000000	56.878567
653.000000	1829.000000	57.510300
654.000000	1828.000000	58.133333
655.000000	1827.000000	58.771433
656.000000	1826.000000	59.376933
657.000000	1825.000000	59.946033
658.000000	1824.000000	60.515533
659.000000	1823.000000	61.077800
660.000000	1822.000000	61.652900
661.000000	1821.000000	62.243667
662.000000	1820.000000	62.804500
663.000000	1819.000000	63.393433
664.000000	1818.000000	63.982100
665.000000	1817.000000	64.572767
666.000000	1816.000000	65.182300
667.000000	1815.000000	65.720267
668.000000	1814.000000	66.248900
669.000000	1813.000000	66.755967
670.000000	1812.000000	67.219733
671.000000	1811.000000	67.617933
672.000000	1810.000000	67.976833
673.000000	1809.000000	68.333200
674.000000	1808.000000	68.634667
675.000000	1807.000000	68.877400
676.000000	1806.000000	69.052533
677.000000	1805.000000	69.236533
678.000000	1804.000000	69.402767
679.000000	1803.000000	69.567200
680.000000	1802.000000	69.759567
681.000000	1801.000000	69.905300
682.000000	1800.000000	70.082667
683.000000	1799.000000	70.284067
684.000000	1798.000000	70.440033
685.000000	1797.000000	70.680600
686.000000	1796.000000	70.855400
687.000000	1795.000000	71.028167
688.000000	1794.000000	71.183633
689.000000	1793.000000	71.336533
690.000000	1792.000000	71.456267
691.000000	1791.000000	71.514933
692.000000	1790.000000	71.606800
693.000000	1789.000000	71.616433
694.000000	1788.000000	71.624533
695.000000	1787.000000	71.608033
696.000000	1786.000000	71.576600
697.000000	1785.000000	71.612700
698.000000	1784.000000	71.565400
699.000000	1783.000000	71.562333
700.000000	1782.000000	71.509567
701.000000	1781.000000	71.518800
702.000000	1780.000000	71.484600
703.000000	1779.000000	71.526467
704.000000	1778.000000	71.569133
705.000000	1777.000000	71.611067
706.000000	1776.000000	71.605067
707.000000	1775.000000	71.633100
708.000000	1774.000000	71.724567
709.000000	1773.000000	71.782033
710.000000	1772.000000	71.813933
711.000000	1771.000000	71.873933
712.000000	1770.000000	71.921800
713.000000	1769.000000	72.013567
714.000000	1768.000000	72.115500
715.000000	1767.000000	72.234833
716.000000	1766.000000	72.389767
717.000000	1765.000000	72.617133
718.000000	1764.000000	72.795467
719.000000	1763.000000	73.072833
720.000000	1762.000000	73.364900
721.000000	1761.000000	73.700200
722.000000	1760.000000	74.040867
723.000000	1759.000000	74.404433
724.000000	1758.000000	74.864333
725.000000	1757.000000	75.204067
726.000000	1756.000000	75.566733
727.000000	1755.000000	75.969800
728.000000	1754.000000	76.365367
729.000000	1753.000000	76.707700
730.000000	1752.000000	77.028400
731.000000	1751.000000	77.390900
732.000000	1750.000000	77.774700
733.000000	1749.000000	78.105067
734.000000	1748.000000	78.380600
735.000000	1747.000000	78.706000
736.000000	1746.000000	79.040733
737.000000	1745.000000	79.287433
738.000000	1744.000000	79.626800
739.000000	1743.000000	79.962800
740.000000	1742.000000	80.275267
741.000000	1741.000000	80.618200
742.000000	1740.000000	80.900700
743.000000	1739.000000	81.204367
744.000000	1738.000000	81.487367
745.000000	1737.000000	81.803867
746.000000	1736.000000	82.104033
747.000000	1735.000000	82.395967
748.000000	1734.000000	82.699667
749.000000	1733.000000	82.977767
750.000000	1732.000000	83.275333
751.000000	1731.000000	83.608033
752.000000	1730.000000	83.839700
753.000000	1729.000000	84.099100
754.000000	1728.000000	84.401667
755.000000	1727.000000	84.621533
756.000000	1726.000000	84.785200
757.000000	1725.000000	85.028300
758.000000	1724.000000	85.298133
759.000000	1723.000000	85.545267
760.000000	1722.000000	85.726633
761.000000	1721.000000	85.878333
762.000000	1720.000000	86.026267
763.000000	1719.000000	86.203033
764.000000	1718.000000	86.296167
765.000000	1717.000000	86.302900
766.000000	1716.000000	86.363567
767.000000	1715.000000	86.372067
768.000000	1714.000000	86.339933
769.000000	1713.000000	86.379067
770.000000	1712.000000	86.354667
771.000000	1711.000000	86.258033
772.000000	1710.000000	86.143233
773.000000	1709.000000	86.026333
774.000000	1708.000000	85.858833
775.000000	1707.000000	85.801433
776.000000	1706.000000	85.648467
777.000000	1705.000000	85.459200
778.000000	1704.000000	85.389800
779.000000	1703.000000	85.312667
780.000000	1702.000000	84.993500
781.000000	1701.000000	84.907100
782.000000	1700.000000	84.734600
783.000000	1699.000000	84.576133
784.000000	1698.000000	84.438933
785.000000	1697.000000	84.494267
786.000000	1696.000000	84.256633
787.000000	1695.000000	84.130733
788.000000	1694.000000	84.089433
789.000000	1693.000000	84.105500
790.000000	1692.000000	84.079733
791.000000	1691.000000	84.086467
792.000000	1690.000000	84.011833
793.000000	1689.000000	83.978133
794.000000	1688.000000	84.129533
795.000000	1687.000000	84.123500
796.000000	1686.000000	84.184367
797.000000	1685.000000	84.204533
798.000000	1684.000000	84.292267
799.000000	1683.000000	84.444033
800.000000	1682.000000	84.444200
801.000000	1681.000000	84.448300
802.000000	1680.000000	84.529200
803.000000	1679.000000	84.507933
804.000000	1678.000000	84.582133
805.000000	1677.000000	84.497533
806.000000	1676.000000	84.411567
807.000000	1675.000000	84.348367
808.000000	1674.000000	84.307333
809.000000	1673.000000	84.238633
810.000000	1672.000000	84.208167
811.000000	1671.000000	84.028933
812.000000	1670.000000	83.930600
813.000000	1669.000000	83.800900
814.000000	1668.000000	83.646167
815.000000	1667.000000	83.582900
816.000000	1666.000000	83.307233
817.000000	1665.000000	83.306833
818.000000	1664.000000	83.115433
819.000000	1663.000000	82.790667
820.000000	1662.000000	82.754067
821.000000	1661.000000	82.541800
822.000000	1660.000000	82.359733
823.000000	1659.000000	82.202467
824.000000	1658.000000	82.107933
825.000000	1657.000000	81.808867
826.000000	1656.000000	81.821500
827.000000	1655.000000	81.743700
828.000000	1654.000000	81.511133
829.000000	1653.000000	81.428900
830.000000	1652.000000	81.410067
831.000000	1651.000000	81.261700
832.000000	1650.000000	81.080700
833.000000	1649.000000	81.039067
834.000000	1648.000000	80.916000
835.000000	1647.000000	80.871567
836.000000	1646.000000	80.678433
837.000000	1645.000000	80.623300
838.000000	1644.000000	80.727667
