PE UV       SUBTECH     SPECTRUM    ASCII       PEDS        4.00        
   -1
CICIMAUCR0257-3.Sample.ASC
24/07/01
10:08:09.00
24/07/01
10:08:09.00
Vinicio Soto Monge
C. resplendens. Sex F. Dorsal.
250,000000
1
Lambda 1050
1050L1511233
PerkinElmer UV WinLab 6.3.2.0749 / 2.02.05 Lambda 900 UV/VIS/NIR, Aug  7 2015 09:38:08

0
0
3350/servo 860,8/2
0
0
UV/VIS
1
1
1
DoubleDePol,CommonBeamDepol,RBeamAtt,SBeamAtt,60mm sphere, WB InGaAs Detector
0
0
0
0
Program
Program
3350/servo 860,8/2
3350/0,2 860,8/0,2
3350/0,2 860,8/0,2
0
15.00
 
 
 
0
 
860,8
319,2
860,8
Front
100
on
S:100 R:100
0
0
0
0
 
0
 
 
 
0
 
 
0
0
0
0
0
 
 
 
 
0
0


0
0
#HDR
-1
-1
#GR
nm
%R
1.0
0.0
2500,000000
-1,000000
2251
8
90,810900
5,926100
#DATA
250.000000	6.558800
251.000000	6.536267
252.000000	6.519467
253.000000	6.529700
254.000000	6.493300
255.000000	6.477167
256.000000	6.457067
257.000000	6.452200
258.000000	6.441667
259.000000	6.427900
260.000000	6.411300
261.000000	6.397533
262.000000	6.361300
263.000000	6.313300
264.000000	6.286533
265.000000	6.258033
266.000000	6.229833
267.000000	6.236200
268.000000	6.211667
269.000000	6.198767
270.000000	6.186733
271.000000	6.179200
272.000000	6.159467
273.000000	6.153167
274.000000	6.140067
275.000000	6.120733
276.000000	6.107567
277.000000	6.089600
278.000000	6.072167
279.000000	6.069067
280.000000	6.063133
281.000000	6.062100
282.000000	6.065667
283.000000	6.029467
284.000000	6.022700
285.000000	6.038200
286.000000	6.023733
287.000000	6.004600
288.000000	6.005733
289.000000	6.012333
290.000000	6.005533
291.000000	5.995000
292.000000	5.986700
293.000000	5.966467
294.000000	5.973067
295.000000	5.966067
296.000000	5.980067
297.000000	5.959633
298.000000	5.944900
299.000000	5.943433
300.000000	5.957700
301.000000	5.946267
302.000000	5.939333
303.000000	5.942867
304.000000	5.916200
305.000000	5.940700
306.000000	5.951433
307.000000	5.923533
308.000000	5.919400
309.000000	5.910267
310.000000	5.880500
311.000000	5.888933
312.000000	5.903333
313.000000	5.894367
314.000000	5.899333
315.000000	5.883133
316.000000	6.214967
317.000000	6.784500
318.000000	6.887233
319.000000	6.595300
320.000000	6.307167
321.000000	6.283967
322.000000	6.369400
323.000000	6.317100
324.000000	6.248333
325.000000	6.099100
326.000000	6.153800
327.000000	6.342333
328.000000	6.292900
329.000000	6.235133
330.000000	6.206833
331.000000	6.088967
332.000000	6.007100
333.000000	6.123000
334.000000	6.398300
335.000000	6.407133
336.000000	6.160967
337.000000	6.167033
338.000000	6.233800
339.000000	6.163733
340.000000	6.120167
341.000000	6.088067
342.000000	6.172300
343.000000	6.149433
344.000000	6.151367
345.000000	6.204967
346.000000	6.207967
347.000000	6.256433
348.000000	6.285333
349.000000	6.357733
350.000000	6.346433
351.000000	6.323667
352.000000	6.400900
353.000000	6.395267
354.000000	6.265967
355.000000	6.319433
356.000000	6.398667
357.000000	6.444800
358.000000	6.521467
359.000000	6.549633
360.000000	6.636467
361.000000	6.643300
362.000000	6.572200
363.000000	6.572600
364.000000	6.599333
365.000000	6.538367
366.000000	6.564133
367.000000	6.666667
368.000000	6.757567
369.000000	6.683300
370.000000	6.602467
371.000000	6.623800
372.000000	6.599233
373.000000	6.621800
374.000000	6.739833
375.000000	6.958733
376.000000	7.058200
377.000000	7.101833
378.000000	7.163667
379.000000	7.212967
380.000000	7.268733
381.000000	7.343500
382.000000	7.413467
383.000000	7.485000
384.000000	7.578500
385.000000	7.676067
386.000000	7.780767
387.000000	7.887233
388.000000	7.997700
389.000000	8.115933
390.000000	8.256800
391.000000	8.396400
392.000000	8.536567
393.000000	8.695267
394.000000	8.878067
395.000000	9.060600
396.000000	9.248667
397.000000	9.467667
398.000000	9.703000
399.000000	9.939267
400.000000	10.186233
401.000000	10.477767
402.000000	10.764067
403.000000	11.074933
404.000000	11.403233
405.000000	11.753967
406.000000	12.112333
407.000000	12.479700
408.000000	12.867667
409.000000	13.281433
410.000000	13.698067
411.000000	14.152500
412.000000	14.607067
413.000000	15.096367
414.000000	15.555000
415.000000	16.053367
416.000000	16.555133
417.000000	17.040433
418.000000	17.544567
419.000000	18.035967
420.000000	18.548767
421.000000	19.064267
422.000000	19.546033
423.000000	20.025333
424.000000	20.502033
425.000000	20.979333
426.000000	21.406867
427.000000	21.860933
428.000000	22.279867
429.000000	22.694867
430.000000	23.101100
431.000000	23.497633
432.000000	23.873400
433.000000	24.258733
434.000000	24.636300
435.000000	24.955167
436.000000	25.316367
437.000000	25.623833
438.000000	25.904367
439.000000	26.227700
440.000000	26.511633
441.000000	26.792100
442.000000	27.063700
443.000000	27.314300
444.000000	27.556633
445.000000	27.774533
446.000000	27.987533
447.000000	28.178867
448.000000	28.377600
449.000000	28.518733
450.000000	28.672867
451.000000	28.805167
452.000000	28.915867
453.000000	29.043933
454.000000	29.153200
455.000000	29.242567
456.000000	29.308433
457.000000	29.365700
458.000000	29.394867
459.000000	29.438800
460.000000	29.469167
461.000000	29.475033
462.000000	29.468600
463.000000	29.442133
464.000000	29.406633
465.000000	29.371733
466.000000	29.336033
467.000000	29.270300
468.000000	29.212867
469.000000	29.152800
470.000000	29.061767
471.000000	28.993000
472.000000	28.917667
473.000000	28.867667
474.000000	28.779533
475.000000	28.746700
476.000000	28.712933
477.000000	28.712767
478.000000	28.760667
479.000000	28.836867
480.000000	28.925767
481.000000	29.073000
482.000000	29.253433
483.000000	29.498433
484.000000	29.806800
485.000000	30.160367
486.000000	30.563933
487.000000	30.997833
488.000000	31.494467
489.000000	32.035933
490.000000	32.622967
491.000000	33.204100
492.000000	33.811800
493.000000	34.456133
494.000000	35.058267
495.000000	35.621733
496.000000	36.182967
497.000000	36.730467
498.000000	37.254933
499.000000	37.745500
500.000000	38.220100
501.000000	38.637533
502.000000	39.066867
503.000000	39.490733
504.000000	39.883833
505.000000	40.295067
506.000000	40.683233
507.000000	41.090400
508.000000	41.541433
509.000000	41.999533
510.000000	42.468000
511.000000	43.018700
512.000000	43.563733
513.000000	44.206533
514.000000	44.897067
515.000000	45.626967
516.000000	46.449100
517.000000	47.346567
518.000000	48.291667
519.000000	49.344567
520.000000	50.452900
521.000000	51.637167
522.000000	52.868967
523.000000	54.186500
524.000000	55.533400
525.000000	56.919633
526.000000	58.310633
527.000000	59.708067
528.000000	61.090100
529.000000	62.480300
530.000000	63.864900
531.000000	65.217767
532.000000	66.568100
533.000000	67.892900
534.000000	69.142233
535.000000	70.343400
536.000000	71.512267
537.000000	72.588533
538.000000	73.628900
539.000000	74.604400
540.000000	75.585567
541.000000	76.492733
542.000000	77.342967
543.000000	78.132867
544.000000	78.872700
545.000000	79.589867
546.000000	80.230033
547.000000	80.848333
548.000000	81.431300
549.000000	82.015200
550.000000	82.529100
551.000000	83.051867
552.000000	83.563867
553.000000	84.054833
554.000000	84.515867
555.000000	84.958700
556.000000	85.393400
557.000000	85.824800
558.000000	86.243933
559.000000	86.644833
560.000000	87.052400
561.000000	87.384033
562.000000	87.749333
563.000000	88.084933
564.000000	88.377333
565.000000	88.620867
566.000000	88.893367
567.000000	89.142167
568.000000	89.344500
569.000000	89.507533
570.000000	89.669633
571.000000	89.832800
572.000000	89.961133
573.000000	90.062133
574.000000	90.169133
575.000000	90.255033
576.000000	90.319433
577.000000	90.391800
578.000000	90.448333
579.000000	90.461067
580.000000	90.494600
581.000000	90.507167
582.000000	90.517200
583.000000	90.523400
584.000000	90.483900
585.000000	90.418600
586.000000	90.343033
587.000000	90.275500
588.000000	90.197600
589.000000	90.087233
590.000000	89.977233
591.000000	89.831933
592.000000	89.655733
593.000000	89.454167
594.000000	89.265900
595.000000	89.038667
596.000000	88.817933
597.000000	88.547967
598.000000	88.220400
599.000000	87.902700
600.000000	87.553300
601.000000	87.170900
602.000000	86.775400
603.000000	86.350467
604.000000	85.934667
605.000000	85.516867
606.000000	85.087800
607.000000	84.614367
608.000000	84.170967
609.000000	83.729133
610.000000	83.267433
611.000000	82.820033
612.000000	82.348633
613.000000	81.840333
614.000000	81.357733
615.000000	80.851833
616.000000	80.311967
617.000000	79.737800
618.000000	79.101833
619.000000	78.455300
620.000000	77.793267
621.000000	77.108667
622.000000	76.394600
623.000000	75.668933
624.000000	74.922133
625.000000	74.181533
626.000000	73.468433
627.000000	72.758933
628.000000	72.062033
629.000000	71.343133
630.000000	70.647867
631.000000	69.962833
632.000000	69.239700
633.000000	68.501233
634.000000	67.754900
635.000000	66.988067
636.000000	66.206500
637.000000	65.427800
638.000000	64.643800
639.000000	63.877267
640.000000	63.124233
641.000000	62.394133
642.000000	61.709900
643.000000	61.075267
644.000000	60.494600
645.000000	59.968667
646.000000	59.525167
647.000000	59.185800
648.000000	58.915800
649.000000	58.709333
650.000000	58.601133
651.000000	58.560500
652.000000	58.585333
653.000000	58.704500
654.000000	58.900200
655.000000	59.130067
656.000000	59.440500
657.000000	59.823667
658.000000	60.257967
659.000000	60.750767
660.000000	61.319433
661.000000	61.959633
662.000000	62.617867
663.000000	63.346633
664.000000	64.112900
665.000000	64.882800
666.000000	65.650033
667.000000	66.417867
668.000000	67.199500
669.000000	67.977133
670.000000	68.742867
671.000000	69.504367
672.000000	70.205700
673.000000	70.865167
674.000000	71.530567
675.000000	72.139633
676.000000	72.726667
677.000000	73.287333
678.000000	73.751933
679.000000	74.220067
680.000000	74.664500
681.000000	75.082367
682.000000	75.532767
683.000000	75.938867
684.000000	76.359933
685.000000	76.750633
686.000000	77.118133
687.000000	77.480867
688.000000	77.784567
689.000000	78.126367
690.000000	78.453867
691.000000	78.743700
692.000000	78.963233
693.000000	79.211700
694.000000	79.440467
695.000000	79.650767
696.000000	79.789833
697.000000	79.963633
698.000000	80.104333
699.000000	80.297900
700.000000	80.438667
701.000000	80.569367
702.000000	80.735267
703.000000	80.865433
704.000000	81.031667
705.000000	81.164667
706.000000	81.314000
707.000000	81.440000
708.000000	81.586600
709.000000	81.753000
710.000000	81.865467
711.000000	81.943400
712.000000	82.029567
713.000000	82.140267
714.000000	82.169267
715.000000	82.234267
716.000000	82.275933
717.000000	82.349533
718.000000	82.360833
719.000000	82.452500
720.000000	82.506700
721.000000	82.513067
722.000000	82.573567
723.000000	82.664333
724.000000	82.728000
725.000000	82.790533
726.000000	82.891000
727.000000	82.994467
728.000000	83.101500
729.000000	83.269667
730.000000	83.435400
731.000000	83.536867
732.000000	83.742167
733.000000	83.954233
734.000000	84.131367
735.000000	84.354533
736.000000	84.577467
737.000000	84.763633
738.000000	84.991933
739.000000	85.247100
740.000000	85.525167
741.000000	85.720500
742.000000	86.010300
743.000000	86.230133
744.000000	86.394533
745.000000	86.619500
746.000000	86.821000
747.000000	86.967100
748.000000	87.155300
749.000000	87.287100
750.000000	87.331333
751.000000	87.378867
752.000000	87.529733
753.000000	87.514500
754.000000	87.519967
755.000000	87.621633
756.000000	87.575367
757.000000	87.560033
758.000000	87.503633
759.000000	87.418600
760.000000	87.417000
761.000000	87.448033
762.000000	87.454933
763.000000	87.391933
764.000000	87.344367
765.000000	87.219267
766.000000	87.209100
767.000000	87.174267
768.000000	87.257833
769.000000	87.265933
770.000000	87.257400
771.000000	87.361533
772.000000	87.417133
773.000000	87.409200
774.000000	87.485833
775.000000	87.580867
776.000000	87.614600
777.000000	87.683267
778.000000	87.741433
779.000000	87.788400
780.000000	87.786633
781.000000	87.863333
782.000000	87.978533
783.000000	87.992467
784.000000	87.988467
785.000000	88.037200
786.000000	88.074433
787.000000	87.980133
788.000000	88.042800
789.000000	87.952567
790.000000	87.846300
791.000000	87.701733
792.000000	87.799433
793.000000	87.642500
794.000000	87.477967
795.000000	87.251867
796.000000	87.076667
797.000000	87.021833
798.000000	86.657033
799.000000	86.578167
800.000000	86.324967
801.000000	86.005567
802.000000	85.912900
803.000000	85.725567
804.000000	85.502100
805.000000	85.160833
806.000000	84.967300
807.000000	84.799567
808.000000	84.682033
809.000000	84.536167
810.000000	84.305067
811.000000	84.158033
812.000000	84.049733
813.000000	83.962933
814.000000	83.697400
815.000000	83.663333
816.000000	83.525900
817.000000	83.552367
818.000000	83.217333
819.000000	83.127233
820.000000	83.156367
821.000000	83.046967
822.000000	83.029067
823.000000	82.697500
824.000000	82.691667
825.000000	82.546200
826.000000	82.464700
827.000000	82.282067
828.000000	82.078533
829.000000	81.907100
830.000000	81.527033
831.000000	81.499967
832.000000	81.220933
833.000000	80.876167
834.000000	80.914067
835.000000	80.376033
836.000000	79.962267
837.000000	79.733867
838.000000	79.608000
839.000000	79.273167
840.000000	79.068867
841.000000	78.717533
842.000000	78.271900
843.000000	78.214300
844.000000	77.685800
845.000000	77.619633
846.000000	77.313733
847.000000	77.041500
848.000000	76.491000
849.000000	76.140033
850.000000	76.170400
851.000000	75.628533
852.000000	75.310733
853.000000	75.367333
854.000000	74.799900
855.000000	74.800267
856.000000	74.597267
857.000000	74.037067
858.000000	74.478200
859.000000	74.218729
860.000000	73.956593
861.000000	73.697978
862.000000	73.444524
863.000000	73.175046
864.000000	72.918027
865.000000	72.659849
866.000000	72.406662
867.000000	72.150787
868.000000	71.910958
869.000000	71.616548
870.000000	71.354474
871.000000	71.132843
872.000000	71.004727
873.000000	70.984550
874.000000	70.985255
875.000000	70.942762
876.000000	70.874601
877.000000	70.759162
878.000000	70.665891
879.000000	70.531619
880.000000	70.381924
881.000000	70.231751
882.000000	70.079937
883.000000	69.917123
884.000000	69.757263
885.000000	69.597427
886.000000	69.432136
887.000000	69.267070
888.000000	69.096151
889.000000	68.918978
890.000000	68.744586
891.000000	68.561472
892.000000	68.389452
893.000000	68.215401
894.000000	68.022765
895.000000	67.825899
896.000000	67.645057
897.000000	67.454162
898.000000	67.259588
899.000000	67.059923
900.000000	66.865786
901.000000	66.675517
902.000000	66.486958
903.000000	66.301038
904.000000	66.125983
905.000000	65.947500
906.000000	65.764522
907.000000	65.601326
908.000000	65.450569
909.000000	65.296801
910.000000	65.160043
911.000000	65.028200
912.000000	64.893017
913.000000	64.774795
914.000000	64.667469
915.000000	64.551124
916.000000	64.431294
917.000000	64.308515
918.000000	64.189186
919.000000	64.073190
920.000000	63.965319
921.000000	63.844182
922.000000	63.714750
923.000000	63.598965
924.000000	63.489659
925.000000	63.382489
926.000000	63.270449
927.000000	63.165991
928.000000	63.066065
929.000000	62.973061
930.000000	62.877641
931.000000	62.779532
932.000000	62.687443
933.000000	62.602754
934.000000	62.522042
935.000000	62.443171
936.000000	62.362380
937.000000	62.285181
938.000000	62.218582
939.000000	62.152498
940.000000	62.086846
941.000000	62.023078
942.000000	61.975982
943.000000	61.926859
944.000000	61.870231
945.000000	61.826307
946.000000	61.791481
947.000000	61.744908
948.000000	61.702872
949.000000	61.665166
950.000000	61.632938
951.000000	61.609192
952.000000	61.577890
953.000000	61.539333
954.000000	61.506209
955.000000	61.469968
956.000000	61.437163
957.000000	61.414250
958.000000	61.374820
959.000000	61.324296
960.000000	61.278450
961.000000	61.245550
962.000000	61.208348
963.000000	61.179863
964.000000	61.144550
965.000000	61.113076
966.000000	61.097438
967.000000	61.089774
968.000000	61.074897
969.000000	61.046036
970.000000	61.024306
971.000000	61.020483
972.000000	61.010024
973.000000	60.989352
974.000000	60.966626
975.000000	60.957688
976.000000	60.937538
977.000000	60.925380
978.000000	60.906999
979.000000	60.895194
980.000000	60.887034
981.000000	60.881995
982.000000	60.861662
983.000000	60.842486
984.000000	60.839933
985.000000	60.836046
986.000000	60.819624
987.000000	60.816892
988.000000	60.813990
989.000000	60.822928
990.000000	60.822230
991.000000	60.826905
992.000000	60.828310
993.000000	60.835086
994.000000	60.844985
995.000000	60.855282
996.000000	60.870369
997.000000	60.884186
998.000000	60.905833
999.000000	60.916628
1000.000000	60.928806
1001.000000	60.950656
1002.000000	60.970315
1003.000000	60.990899
1004.000000	61.003154
1005.000000	61.017134
1006.000000	61.036052
1007.000000	61.053393
1008.000000	61.065869
1009.000000	61.075675
1010.000000	61.108686
1011.000000	61.141172
1012.000000	61.170681
1013.000000	61.207021
1014.000000	61.252049
1015.000000	61.314868
1016.000000	61.383783
1017.000000	61.449732
1018.000000	61.517651
1019.000000	61.597115
1020.000000	61.664396
1021.000000	61.750433
1022.000000	61.832021
1023.000000	61.904400
1024.000000	61.991154
1025.000000	62.070389
1026.000000	62.147776
1027.000000	62.227078
1028.000000	62.307593
1029.000000	62.371153
1030.000000	62.443059
1031.000000	62.510103
1032.000000	62.580906
1033.000000	62.647555
1034.000000	62.711577
1035.000000	62.766281
1036.000000	62.821853
1037.000000	62.880203
1038.000000	62.945563
1039.000000	62.994133
1040.000000	63.035168
1041.000000	63.093175
1042.000000	63.156339
1043.000000	63.195947
1044.000000	63.239393
1045.000000	63.293105
1046.000000	63.355862
1047.000000	63.419201
1048.000000	63.467284
1049.000000	63.526273
1050.000000	63.590174
1051.000000	63.651405
1052.000000	63.707418
1053.000000	63.790246
1054.000000	63.851891
1055.000000	63.923925
1056.000000	63.993602
1057.000000	64.071063
1058.000000	64.145926
1059.000000	64.208610
1060.000000	64.287689
1061.000000	64.351652
1062.000000	64.427391
1063.000000	64.488626
1064.000000	64.553111
1065.000000	64.617095
1066.000000	64.672651
1067.000000	64.753280
1068.000000	64.812859
1069.000000	64.886372
1070.000000	64.945641
1071.000000	65.007475
1072.000000	65.062417
1073.000000	65.126921
1074.000000	65.199907
1075.000000	65.255624
1076.000000	65.317549
1077.000000	65.375788
1078.000000	65.439098
1079.000000	65.501222
1080.000000	65.574130
1081.000000	65.625360
1082.000000	65.705725
1083.000000	65.739494
1084.000000	65.825341
1085.000000	65.882263
1086.000000	65.943958
1087.000000	66.002021
1088.000000	66.065651
1089.000000	66.108351
1090.000000	66.158722
1091.000000	66.207849
1092.000000	66.254657
1093.000000	66.305593
1094.000000	66.335391
1095.000000	66.380672
1096.000000	66.406381
1097.000000	66.457353
1098.000000	66.481994
1099.000000	66.503005
1100.000000	66.528963
1101.000000	66.543582
1102.000000	66.570967
1103.000000	66.587961
1104.000000	66.588957
1105.000000	66.606554
1106.000000	66.617777
1107.000000	66.619624
1108.000000	66.639949
1109.000000	66.644597
1110.000000	66.657435
1111.000000	66.668597
1112.000000	66.661329
1113.000000	66.677066
1114.000000	66.676080
1115.000000	66.681127
1116.000000	66.683875
1117.000000	66.677034
1118.000000	66.656464
1119.000000	66.632911
1120.000000	66.592057
1121.000000	66.537000
1122.000000	66.487788
1123.000000	66.418861
1124.000000	66.327082
1125.000000	66.235277
1126.000000	66.108587
1127.000000	65.970537
1128.000000	65.786520
1129.000000	65.567283
1130.000000	65.300946
1131.000000	65.010185
1132.000000	64.689583
1133.000000	64.385973
1134.000000	64.022555
1135.000000	63.613900
1136.000000	63.208039
1137.000000	62.803408
1138.000000	62.415502
1139.000000	62.052968
1140.000000	61.687028
1141.000000	61.339626
1142.000000	60.998924
1143.000000	60.692248
1144.000000	60.445408
1145.000000	60.250294
1146.000000	60.118387
1147.000000	60.042042
1148.000000	60.008275
1149.000000	60.012395
1150.000000	60.001427
1151.000000	59.975266
1152.000000	59.926796
1153.000000	59.822662
1154.000000	59.669943
1155.000000	59.455280
1156.000000	59.195903
1157.000000	58.888816
1158.000000	58.547361
1159.000000	58.188839
1160.000000	57.818010
1161.000000	57.434934
1162.000000	57.048490
1163.000000	56.646280
1164.000000	56.250035
1165.000000	55.860726
1166.000000	55.480270
