PE UV       SUBTECH     SPECTRUM    ASCII       PEDS        4.00        
   -1
CICIMAUCR0232-3.Sample.ASC
24/06/13
17:20:27.00
24/06/13
17:20:27.00
Vinicio Soto Monge
C. resplendens. Sex M. Dorsal.
250,000000
1
Lambda 1050
1050L1511233
PerkinElmer UV WinLab 6.3.2.0749 / 2.02.05 Lambda 900 UV/VIS/NIR, Aug  7 2015 09:38:08

0
0
3350/servo 860,8/2
0
0
UV/VIS
1
1
1
DoubleDePol,CommonBeamDepol,RBeamAtt,SBeamAtt,60mm sphere, WB InGaAs Detector
0
0
0
0
Program
Program
3350/servo 860,8/2
3350/0,2 860,8/0,2
3350/0,2 860,8/0,2
0
15.00
 
 
 
0
 
860,8
319,2
860,8
Front
100
on
S:100 R:100
0
0
0
0
 
0
 
 
 
0
 
 
0
0
0
0
0
 
 
 
 
0
0


0
0
#HDR
-1
-1
#GR
nm
%R
1.0
0.0
2500,000000
-1,000000
2251
8
94,018800
5,873500
#DATA
250.000000	2232.000000	6.354400
251.000000	2231.000000	6.346733
252.000000	2230.000000	6.331600
253.000000	2229.000000	6.297467
254.000000	2228.000000	6.280100
255.000000	2227.000000	6.299600
256.000000	2226.000000	6.288133
257.000000	2225.000000	6.271200
258.000000	2224.000000	6.276000
259.000000	2223.000000	6.246200
260.000000	2222.000000	6.218367
261.000000	2221.000000	6.195833
262.000000	2220.000000	6.189467
263.000000	2219.000000	6.184567
264.000000	2218.000000	6.159133
265.000000	2217.000000	6.128767
266.000000	2216.000000	6.094967
267.000000	2215.000000	6.074500
268.000000	2214.000000	6.057600
269.000000	2213.000000	6.042800
270.000000	2212.000000	6.045333
271.000000	2211.000000	6.025367
272.000000	2210.000000	6.014700
273.000000	2209.000000	5.983800
274.000000	2208.000000	5.991967
275.000000	2207.000000	5.966333
276.000000	2206.000000	5.959733
277.000000	2205.000000	5.973333
278.000000	2204.000000	5.957400
279.000000	2203.000000	5.959833
280.000000	2202.000000	5.941300
281.000000	2201.000000	5.953600
282.000000	2200.000000	5.951100
283.000000	2199.000000	5.934567
284.000000	2198.000000	5.944200
285.000000	2197.000000	5.944700
286.000000	2196.000000	5.948500
287.000000	2195.000000	5.934633
288.000000	2194.000000	5.922500
289.000000	2193.000000	5.947867
290.000000	2192.000000	5.920400
291.000000	2191.000000	5.916700
292.000000	2190.000000	5.906300
293.000000	2189.000000	5.908367
294.000000	2188.000000	5.893200
295.000000	2187.000000	5.906100
296.000000	2186.000000	5.918200
297.000000	2185.000000	5.909000
298.000000	2184.000000	5.867567
299.000000	2183.000000	5.882933
300.000000	2182.000000	5.873767
301.000000	2181.000000	5.871400
302.000000	2180.000000	5.896800
303.000000	2179.000000	5.895067
304.000000	2178.000000	5.882267
305.000000	2177.000000	5.874167
306.000000	2176.000000	5.872167
307.000000	2175.000000	5.866967
308.000000	2174.000000	5.854667
309.000000	2173.000000	5.837067
310.000000	2172.000000	5.840533
311.000000	2171.000000	5.855000
312.000000	2170.000000	5.847500
313.000000	2169.000000	5.837333
314.000000	2168.000000	5.854900
315.000000	2167.000000	5.864533
316.000000	2166.000000	6.185800
317.000000	2165.000000	6.617267
318.000000	2164.000000	6.812900
319.000000	2163.000000	6.987267
320.000000	2162.000000	6.763433
321.000000	2161.000000	6.458433
322.000000	2160.000000	6.299567
323.000000	2159.000000	6.169333
324.000000	2158.000000	6.257700
325.000000	2157.000000	6.486700
326.000000	2156.000000	6.366567
327.000000	2155.000000	6.178333
328.000000	2154.000000	6.124533
329.000000	2153.000000	6.147167
330.000000	2152.000000	6.078567
331.000000	2151.000000	6.243467
332.000000	2150.000000	6.266633
333.000000	2149.000000	6.194800
334.000000	2148.000000	6.163133
335.000000	2147.000000	6.014867
336.000000	2146.000000	5.970500
337.000000	2145.000000	6.018800
338.000000	2144.000000	6.056300
339.000000	2143.000000	6.095267
340.000000	2142.000000	6.109800
341.000000	2141.000000	6.019200
342.000000	2140.000000	6.011633
343.000000	2139.000000	6.013033
344.000000	2138.000000	6.019567
345.000000	2137.000000	6.031933
346.000000	2136.000000	5.983200
347.000000	2135.000000	5.955833
348.000000	2134.000000	5.977700
349.000000	2133.000000	6.051133
350.000000	2132.000000	6.061367
351.000000	2131.000000	6.021567
352.000000	2130.000000	6.003167
353.000000	2129.000000	6.077667
354.000000	2128.000000	6.045867
355.000000	2127.000000	6.007300
356.000000	2126.000000	6.082667
357.000000	2125.000000	6.185000
358.000000	2124.000000	6.216767
359.000000	2123.000000	6.195567
360.000000	2122.000000	6.200000
361.000000	2121.000000	6.197867
362.000000	2120.000000	6.285333
363.000000	2119.000000	6.295567
364.000000	2118.000000	6.276333
365.000000	2117.000000	6.332100
366.000000	2116.000000	6.334267
367.000000	2115.000000	6.380467
368.000000	2114.000000	6.351200
369.000000	2113.000000	6.447433
370.000000	2112.000000	6.448800
371.000000	2111.000000	6.378933
372.000000	2110.000000	6.353133
373.000000	2109.000000	6.371400
374.000000	2108.000000	6.321433
375.000000	2107.000000	6.455767
376.000000	2106.000000	6.657367
377.000000	2105.000000	6.752233
378.000000	2104.000000	6.807067
379.000000	2103.000000	6.860500
380.000000	2102.000000	6.921467
381.000000	2101.000000	6.974200
382.000000	2100.000000	7.037000
383.000000	2099.000000	7.099367
384.000000	2098.000000	7.166200
385.000000	2097.000000	7.245000
386.000000	2096.000000	7.315233
387.000000	2095.000000	7.393267
388.000000	2094.000000	7.473733
389.000000	2093.000000	7.567067
390.000000	2092.000000	7.655400
391.000000	2091.000000	7.761500
392.000000	2090.000000	7.869333
393.000000	2089.000000	7.963433
394.000000	2088.000000	8.092533
395.000000	2087.000000	8.232567
396.000000	2086.000000	8.356933
397.000000	2085.000000	8.521367
398.000000	2084.000000	8.673100
399.000000	2083.000000	8.842567
400.000000	2082.000000	9.044333
401.000000	2081.000000	9.253067
402.000000	2080.000000	9.472833
403.000000	2079.000000	9.702267
404.000000	2078.000000	9.979100
405.000000	2077.000000	10.255333
406.000000	2076.000000	10.560067
407.000000	2075.000000	10.885433
408.000000	2074.000000	11.209233
409.000000	2073.000000	11.583133
410.000000	2072.000000	11.965367
411.000000	2071.000000	12.377900
412.000000	2070.000000	12.826867
413.000000	2069.000000	13.285567
414.000000	2068.000000	13.757033
415.000000	2067.000000	14.271267
416.000000	2066.000000	14.774467
417.000000	2065.000000	15.280700
418.000000	2064.000000	15.827767
419.000000	2063.000000	16.380867
420.000000	2062.000000	16.937067
421.000000	2061.000000	17.520933
422.000000	2060.000000	18.085800
423.000000	2059.000000	18.647933
424.000000	2058.000000	19.200033
425.000000	2057.000000	19.761933
426.000000	2056.000000	20.295233
427.000000	2055.000000	20.823333
428.000000	2054.000000	21.332033
429.000000	2053.000000	21.844300
430.000000	2052.000000	22.356100
431.000000	2051.000000	22.809500
432.000000	2050.000000	23.281567
433.000000	2049.000000	23.730200
434.000000	2048.000000	24.157567
435.000000	2047.000000	24.570333
436.000000	2046.000000	24.962467
437.000000	2045.000000	25.334400
438.000000	2044.000000	25.701500
439.000000	2043.000000	26.049833
440.000000	2042.000000	26.373367
441.000000	2041.000000	26.701867
442.000000	2040.000000	27.018467
443.000000	2039.000000	27.307533
444.000000	2038.000000	27.603700
445.000000	2037.000000	27.862533
446.000000	2036.000000	28.096467
447.000000	2035.000000	28.346133
448.000000	2034.000000	28.561200
449.000000	2033.000000	28.764700
450.000000	2032.000000	28.957433
451.000000	2031.000000	29.144500
452.000000	2030.000000	29.321300
453.000000	2029.000000	29.486967
454.000000	2028.000000	29.627200
455.000000	2027.000000	29.753333
456.000000	2026.000000	29.883733
457.000000	2025.000000	29.960033
458.000000	2024.000000	30.075500
459.000000	2023.000000	30.127300
460.000000	2022.000000	30.207667
461.000000	2021.000000	30.259367
462.000000	2020.000000	30.269467
463.000000	2019.000000	30.299300
464.000000	2018.000000	30.302567
465.000000	2017.000000	30.290967
466.000000	2016.000000	30.238767
467.000000	2015.000000	30.197167
468.000000	2014.000000	30.149467
469.000000	2013.000000	30.085233
470.000000	2012.000000	30.016533
471.000000	2011.000000	29.946133
472.000000	2010.000000	29.839833
473.000000	2009.000000	29.775167
474.000000	2008.000000	29.698533
475.000000	2007.000000	29.632867
476.000000	2006.000000	29.586967
477.000000	2005.000000	29.567533
478.000000	2004.000000	29.552900
479.000000	2003.000000	29.566867
480.000000	2002.000000	29.629833
481.000000	2001.000000	29.726867
482.000000	2000.000000	29.860433
483.000000	1999.000000	30.031233
484.000000	1998.000000	30.250800
485.000000	1997.000000	30.514467
486.000000	1996.000000	30.807100
487.000000	1995.000000	31.122967
488.000000	1994.000000	31.502933
489.000000	1993.000000	31.923933
490.000000	1992.000000	32.385033
491.000000	1991.000000	32.865533
492.000000	1990.000000	33.339400
493.000000	1989.000000	33.855500
494.000000	1988.000000	34.348167
495.000000	1987.000000	34.863367
496.000000	1986.000000	35.355100
497.000000	1985.000000	35.818900
498.000000	1984.000000	36.256267
499.000000	1983.000000	36.645900
500.000000	1982.000000	37.011733
501.000000	1981.000000	37.321467
502.000000	1980.000000	37.621133
503.000000	1979.000000	37.872100
504.000000	1978.000000	38.097300
505.000000	1977.000000	38.290200
506.000000	1976.000000	38.477300
507.000000	1975.000000	38.621267
508.000000	1974.000000	38.775667
509.000000	1973.000000	38.906700
510.000000	1972.000000	39.068933
511.000000	1971.000000	39.290767
512.000000	1970.000000	39.504100
513.000000	1969.000000	39.777900
514.000000	1968.000000	40.158667
515.000000	1967.000000	40.597800
516.000000	1966.000000	41.133967
517.000000	1965.000000	41.753267
518.000000	1964.000000	42.483033
519.000000	1963.000000	43.324100
520.000000	1962.000000	44.292233
521.000000	1961.000000	45.348533
522.000000	1960.000000	46.518333
523.000000	1959.000000	47.757967
524.000000	1958.000000	49.100633
525.000000	1957.000000	50.493067
526.000000	1956.000000	51.906000
527.000000	1955.000000	53.370367
528.000000	1954.000000	54.846033
529.000000	1953.000000	56.329800
530.000000	1952.000000	57.805700
531.000000	1951.000000	59.250467
532.000000	1950.000000	60.687333
533.000000	1949.000000	62.072800
534.000000	1948.000000	63.393533
535.000000	1947.000000	64.681567
536.000000	1946.000000	65.876767
537.000000	1945.000000	67.029433
538.000000	1944.000000	68.118200
539.000000	1943.000000	69.144900
540.000000	1942.000000	70.097700
541.000000	1941.000000	71.051900
542.000000	1940.000000	71.939600
543.000000	1939.000000	72.758333
544.000000	1938.000000	73.505033
545.000000	1937.000000	74.231800
546.000000	1936.000000	74.915867
547.000000	1935.000000	75.574400
548.000000	1934.000000	76.181767
549.000000	1933.000000	76.802500
550.000000	1932.000000	77.414600
551.000000	1931.000000	78.009833
552.000000	1930.000000	78.607567
553.000000	1929.000000	79.190033
554.000000	1928.000000	79.759467
555.000000	1927.000000	80.288967
556.000000	1926.000000	80.791933
557.000000	1925.000000	81.276500
558.000000	1924.000000	81.737533
559.000000	1923.000000	82.128267
560.000000	1922.000000	82.571233
561.000000	1921.000000	82.929167
562.000000	1920.000000	83.264267
563.000000	1919.000000	83.593733
564.000000	1918.000000	83.908800
565.000000	1917.000000	84.209367
566.000000	1916.000000	84.528867
567.000000	1915.000000	84.814700
568.000000	1914.000000	85.088800
569.000000	1913.000000	85.402567
570.000000	1912.000000	85.654467
571.000000	1911.000000	85.944300
572.000000	1910.000000	86.224533
573.000000	1909.000000	86.491067
574.000000	1908.000000	86.722700
575.000000	1907.000000	86.956533
576.000000	1906.000000	87.139300
577.000000	1905.000000	87.326233
578.000000	1904.000000	87.502233
579.000000	1903.000000	87.649967
580.000000	1902.000000	87.796833
581.000000	1901.000000	87.906567
582.000000	1900.000000	87.972767
583.000000	1899.000000	88.024700
584.000000	1898.000000	88.119667
585.000000	1897.000000	88.222067
586.000000	1896.000000	88.264367
587.000000	1895.000000	88.325733
588.000000	1894.000000	88.379333
589.000000	1893.000000	88.417167
590.000000	1892.000000	88.463167
591.000000	1891.000000	88.499033
592.000000	1890.000000	88.517067
593.000000	1889.000000	88.505200
594.000000	1888.000000	88.475567
595.000000	1887.000000	88.434400
596.000000	1886.000000	88.366433
597.000000	1885.000000	88.267167
598.000000	1884.000000	88.151400
599.000000	1883.000000	87.997033
600.000000	1882.000000	87.809500
601.000000	1881.000000	87.609367
602.000000	1880.000000	87.385067
603.000000	1879.000000	87.158567
604.000000	1878.000000	86.920700
605.000000	1877.000000	86.643567
606.000000	1876.000000	86.367067
607.000000	1875.000000	86.061000
608.000000	1874.000000	85.738333
609.000000	1873.000000	85.403300
610.000000	1872.000000	85.034000
611.000000	1871.000000	84.630367
612.000000	1870.000000	84.178767
613.000000	1869.000000	83.702533
614.000000	1868.000000	83.174500
615.000000	1867.000000	82.599167
616.000000	1866.000000	81.990967
617.000000	1865.000000	81.359400
618.000000	1864.000000	80.681400
619.000000	1863.000000	80.004000
620.000000	1862.000000	79.322733
621.000000	1861.000000	78.627667
622.000000	1860.000000	77.933333
623.000000	1859.000000	77.196367
624.000000	1858.000000	76.490033
625.000000	1857.000000	75.760000
626.000000	1856.000000	74.992067
627.000000	1855.000000	74.205800
628.000000	1854.000000	73.379433
629.000000	1853.000000	72.492200
630.000000	1852.000000	71.539600
631.000000	1851.000000	70.544000
632.000000	1850.000000	69.481567
633.000000	1849.000000	68.372633
634.000000	1848.000000	67.263867
635.000000	1847.000000	66.136700
636.000000	1846.000000	65.013967
637.000000	1845.000000	63.899267
638.000000	1844.000000	62.810000
639.000000	1843.000000	61.797300
640.000000	1842.000000	60.832967
641.000000	1841.000000	59.952033
642.000000	1840.000000	59.163233
643.000000	1839.000000	58.461333
644.000000	1838.000000	57.900800
645.000000	1837.000000	57.460167
646.000000	1836.000000	57.153833
647.000000	1835.000000	56.970800
648.000000	1834.000000	56.948367
649.000000	1833.000000	57.077767
650.000000	1832.000000	57.339900
651.000000	1831.000000	57.740100
652.000000	1830.000000	58.239100
653.000000	1829.000000	58.890067
654.000000	1828.000000	59.649600
655.000000	1827.000000	60.468933
656.000000	1826.000000	61.396800
657.000000	1825.000000	62.393133
658.000000	1824.000000	63.419467
659.000000	1823.000000	64.510767
660.000000	1822.000000	65.636233
661.000000	1821.000000	66.745467
662.000000	1820.000000	67.854467
663.000000	1819.000000	68.968633
664.000000	1818.000000	70.045133
665.000000	1817.000000	71.054767
666.000000	1816.000000	72.010367
667.000000	1815.000000	72.911533
668.000000	1814.000000	73.753967
669.000000	1813.000000	74.545933
670.000000	1812.000000	75.275233
671.000000	1811.000000	75.943967
672.000000	1810.000000	76.549000
673.000000	1809.000000	77.144233
674.000000	1808.000000	77.673067
675.000000	1807.000000	78.147333
676.000000	1806.000000	78.581967
677.000000	1805.000000	78.980167
678.000000	1804.000000	79.332267
679.000000	1803.000000	79.659767
680.000000	1802.000000	79.957933
681.000000	1801.000000	80.200767
682.000000	1800.000000	80.409533
683.000000	1799.000000	80.594067
684.000000	1798.000000	80.718367
685.000000	1797.000000	80.828300
686.000000	1796.000000	80.882900
687.000000	1795.000000	80.882900
688.000000	1794.000000	80.888300
689.000000	1793.000000	80.872967
690.000000	1792.000000	80.811400
691.000000	1791.000000	80.741233
692.000000	1790.000000	80.735167
693.000000	1789.000000	80.643700
694.000000	1788.000000	80.598100
695.000000	1787.000000	80.516567
696.000000	1786.000000	80.437567
697.000000	1785.000000	80.427700
698.000000	1784.000000	80.404667
699.000000	1783.000000	80.334167
700.000000	1782.000000	80.268067
701.000000	1781.000000	80.191233
702.000000	1780.000000	80.129800
703.000000	1779.000000	80.092433
704.000000	1778.000000	80.048900
705.000000	1777.000000	79.961967
706.000000	1776.000000	79.868700
707.000000	1775.000000	79.824733
708.000000	1774.000000	79.806100
709.000000	1773.000000	79.811100
710.000000	1772.000000	79.834800
711.000000	1771.000000	79.882233
712.000000	1770.000000	79.971300
713.000000	1769.000000	80.112467
714.000000	1768.000000	80.232400
715.000000	1767.000000	80.422767
716.000000	1766.000000	80.687667
717.000000	1765.000000	80.966933
718.000000	1764.000000	81.182967
719.000000	1763.000000	81.449833
720.000000	1762.000000	81.752367
721.000000	1761.000000	82.048033
722.000000	1760.000000	82.408400
723.000000	1759.000000	82.711433
724.000000	1758.000000	83.106433
725.000000	1757.000000	83.475300
726.000000	1756.000000	83.884833
727.000000	1755.000000	84.290867
728.000000	1754.000000	84.742900
729.000000	1753.000000	85.135933
730.000000	1752.000000	85.514933
731.000000	1751.000000	86.022300
732.000000	1750.000000	86.461500
733.000000	1749.000000	86.888100
734.000000	1748.000000	87.346300
735.000000	1747.000000	87.765667
736.000000	1746.000000	88.149133
737.000000	1745.000000	88.506400
738.000000	1744.000000	88.950700
739.000000	1743.000000	89.236300
740.000000	1742.000000	89.518400
741.000000	1741.000000	89.824433
742.000000	1740.000000	90.056667
743.000000	1739.000000	90.230133
744.000000	1738.000000	90.469133
745.000000	1737.000000	90.607800
746.000000	1736.000000	90.730200
747.000000	1735.000000	90.893167
748.000000	1734.000000	91.071000
749.000000	1733.000000	91.150533
750.000000	1732.000000	91.267167
751.000000	1731.000000	91.324033
752.000000	1730.000000	91.471933
753.000000	1729.000000	91.603667
754.000000	1728.000000	91.784467
755.000000	1727.000000	91.751233
756.000000	1726.000000	91.911767
757.000000	1725.000000	91.980600
758.000000	1724.000000	92.063433
759.000000	1723.000000	92.128033
760.000000	1722.000000	92.236133
761.000000	1721.000000	92.240633
762.000000	1720.000000	92.396867
763.000000	1719.000000	92.510767
764.000000	1718.000000	92.489367
765.000000	1717.000000	92.569400
766.000000	1716.000000	92.498233
767.000000	1715.000000	92.559167
768.000000	1714.000000	92.594367
769.000000	1713.000000	92.606133
770.000000	1712.000000	92.568700
771.000000	1711.000000	92.522800
772.000000	1710.000000	92.531900
773.000000	1709.000000	92.519467
774.000000	1708.000000	92.517967
775.000000	1707.000000	92.496267
776.000000	1706.000000	92.349500
777.000000	1705.000000	92.236567
778.000000	1704.000000	92.041000
779.000000	1703.000000	91.830500
780.000000	1702.000000	91.692033
781.000000	1701.000000	91.439333
782.000000	1700.000000	91.326367
783.000000	1699.000000	91.149367
784.000000	1698.000000	90.968167
785.000000	1697.000000	90.677433
786.000000	1696.000000	90.638333
787.000000	1695.000000	90.468700
788.000000	1694.000000	90.300133
789.000000	1693.000000	90.233233
790.000000	1692.000000	90.142433
791.000000	1691.000000	90.086100
792.000000	1690.000000	89.940567
793.000000	1689.000000	89.898933
794.000000	1688.000000	89.880600
795.000000	1687.000000	89.775700
796.000000	1686.000000	89.809900
797.000000	1685.000000	89.694467
798.000000	1684.000000	89.774033
799.000000	1683.000000	89.781167
800.000000	1682.000000	89.663933
801.000000	1681.000000	89.666667
802.000000	1680.000000	89.560433
803.000000	1679.000000	89.605100
804.000000	1678.000000	89.563700
805.000000	1677.000000	89.469900
806.000000	1676.000000	89.305367
807.000000	1675.000000	89.288667
808.000000	1674.000000	89.063267
809.000000	1673.000000	89.047533
810.000000	1672.000000	88.783267
811.000000	1671.000000	88.634900
812.000000	1670.000000	88.278933
813.000000	1669.000000	88.168767
814.000000	1668.000000	87.899733
815.000000	1667.000000	87.643067
816.000000	1666.000000	87.370367
817.000000	1665.000000	87.072300
818.000000	1664.000000	86.698033
819.000000	1663.000000	86.329667
820.000000	1662.000000	85.989200
821.000000	1661.000000	85.770967
822.000000	1660.000000	85.488433
823.000000	1659.000000	85.075900
824.000000	1658.000000	84.645900
825.000000	1657.000000	84.396733
826.000000	1656.000000	84.181633
827.000000	1655.000000	83.881267
828.000000	1654.000000	83.583700
829.000000	1653.000000	83.374633
830.000000	1652.000000	83.160633
831.000000	1651.000000	82.630867
832.000000	1650.000000	82.328167
833.000000	1649.000000	82.200433
834.000000	1648.000000	81.966033
835.000000	1647.000000	81.758067
836.000000	1646.000000	81.405100
837.000000	1645.000000	81.051200
