PE UV       SUBTECH     SPECTRUM    ASCII       PEDS        4.00        
   -1
CICIMAUCR0201-3.Sample.ASC
24/05/31
16:20:21.00
24/05/31
16:20:21.00
Vinicio Soto Monge
C. cupreomarginata. Sex F. Dorsal
250,000000
1
Lambda 1050
1050L1511233
PerkinElmer UV WinLab 6.3.2.0749 / 2.02.05 Lambda 900 UV/VIS/NIR, Aug  7 2015 09:38:08

0
0
3350/servo 860,8/2
0
0
UV/VIS
1
1
1
DoubleDePol,CommonBeamDepol,RBeamAtt,SBeamAtt,60mm sphere, WB InGaAs Detector
0
0
0
0
Program
Program
3350/servo 860,8/2
3350/0,2 860,8/0,2
3350/0,2 860,8/0,2
0
15.00
 
 
 
0
 
860,8
319,2
860,8
Front
100
on
S:100 R:100
0
0
0
0
 
0
 
 
 
0
 
 
0
0
0
0
0
 
 
 
 
0
0


0
0
#HDR
-1
-1
#GR
nm
%R
1.0
0.0
2500,000000
-1,000000
2251
8
69,649100
5,880400
#DATA
250.000000	2232.000000	6.720100
251.000000	2231.000000	6.696667
252.000000	2230.000000	6.706233
253.000000	2229.000000	6.680200
254.000000	2228.000000	6.644000
255.000000	2227.000000	6.639900
256.000000	2226.000000	6.601733
257.000000	2225.000000	6.619433
258.000000	2224.000000	6.616100
259.000000	2223.000000	6.559567
260.000000	2222.000000	6.549333
261.000000	2221.000000	6.489500
262.000000	2220.000000	6.476433
263.000000	2219.000000	6.461500
264.000000	2218.000000	6.402567
265.000000	2217.000000	6.390867
266.000000	2216.000000	6.345600
267.000000	2215.000000	6.336833
268.000000	2214.000000	6.304533
269.000000	2213.000000	6.248033
270.000000	2212.000000	6.229200
271.000000	2211.000000	6.227967
272.000000	2210.000000	6.210567
273.000000	2209.000000	6.189267
274.000000	2208.000000	6.161800
275.000000	2207.000000	6.167367
276.000000	2206.000000	6.159367
277.000000	2205.000000	6.161467
278.000000	2204.000000	6.137567
279.000000	2203.000000	6.110567
280.000000	2202.000000	6.076500
281.000000	2201.000000	6.076433
282.000000	2200.000000	6.081067
283.000000	2199.000000	6.083933
284.000000	2198.000000	6.086700
285.000000	2197.000000	6.075000
286.000000	2196.000000	6.070400
287.000000	2195.000000	6.092433
288.000000	2194.000000	6.067100
289.000000	2193.000000	6.061533
290.000000	2192.000000	6.029467
291.000000	2191.000000	6.041133
292.000000	2190.000000	6.039667
293.000000	2189.000000	6.044700
294.000000	2188.000000	6.035033
295.000000	2187.000000	6.024733
296.000000	2186.000000	6.017300
297.000000	2185.000000	6.021400
298.000000	2184.000000	6.001467
299.000000	2183.000000	5.991167
300.000000	2182.000000	5.999733
301.000000	2181.000000	5.981467
302.000000	2180.000000	5.984433
303.000000	2179.000000	5.990100
304.000000	2178.000000	5.984333
305.000000	2177.000000	5.999767
306.000000	2176.000000	5.995467
307.000000	2175.000000	5.984900
308.000000	2174.000000	5.983067
309.000000	2173.000000	5.963300
310.000000	2172.000000	5.948233
311.000000	2171.000000	5.949900
312.000000	2170.000000	5.965400
313.000000	2169.000000	5.967100
314.000000	2168.000000	5.960700
315.000000	2167.000000	5.949367
316.000000	2166.000000	6.403567
317.000000	2165.000000	7.157100
318.000000	2164.000000	7.118433
319.000000	2163.000000	6.715033
320.000000	2162.000000	6.648033
321.000000	2161.000000	6.847767
322.000000	2160.000000	6.932933
323.000000	2159.000000	6.722133
324.000000	2158.000000	6.512067
325.000000	2157.000000	6.308667
326.000000	2156.000000	6.456200
327.000000	2155.000000	6.570333
328.000000	2154.000000	6.376000
329.000000	2153.000000	6.286733
330.000000	2152.000000	6.231133
331.000000	2151.000000	6.257300
332.000000	2150.000000	6.374600
333.000000	2149.000000	6.201867
334.000000	2148.000000	6.042333
335.000000	2147.000000	6.132400
336.000000	2146.000000	6.251333
337.000000	2145.000000	6.246867
338.000000	2144.000000	6.111567
339.000000	2143.000000	6.081433
340.000000	2142.000000	6.042133
341.000000	2141.000000	6.018500
342.000000	2140.000000	6.095433
343.000000	2139.000000	6.251067
344.000000	2138.000000	6.277433
345.000000	2137.000000	6.166800
346.000000	2136.000000	6.176933
347.000000	2135.000000	6.121333
348.000000	2134.000000	6.074900
349.000000	2133.000000	6.184433
350.000000	2132.000000	6.106433
351.000000	2131.000000	6.109500
352.000000	2130.000000	6.060533
353.000000	2129.000000	5.951567
354.000000	2128.000000	6.044033
355.000000	2127.000000	6.069467
356.000000	2126.000000	6.154000
357.000000	2125.000000	6.214433
358.000000	2124.000000	6.147433
359.000000	2123.000000	6.091933
360.000000	2122.000000	6.011967
361.000000	2121.000000	6.019600
362.000000	2120.000000	6.037300
363.000000	2119.000000	6.115733
364.000000	2118.000000	6.078133
365.000000	2117.000000	6.042867
366.000000	2116.000000	6.105733
367.000000	2115.000000	6.103900
368.000000	2114.000000	6.052533
369.000000	2113.000000	5.971000
370.000000	2112.000000	6.000900
371.000000	2111.000000	5.960133
372.000000	2110.000000	5.870867
373.000000	2109.000000	5.838167
374.000000	2108.000000	5.783333
375.000000	2107.000000	5.945100
376.000000	2106.000000	6.168800
377.000000	2105.000000	6.255733
378.000000	2104.000000	6.287900
379.000000	2103.000000	6.298300
380.000000	2102.000000	6.303500
381.000000	2101.000000	6.320200
382.000000	2100.000000	6.339333
383.000000	2099.000000	6.355833
384.000000	2098.000000	6.376467
385.000000	2097.000000	6.417667
386.000000	2096.000000	6.449067
387.000000	2095.000000	6.477367
388.000000	2094.000000	6.500833
389.000000	2093.000000	6.540333
390.000000	2092.000000	6.575900
391.000000	2091.000000	6.626267
392.000000	2090.000000	6.663133
393.000000	2089.000000	6.702833
394.000000	2088.000000	6.757200
395.000000	2087.000000	6.809433
396.000000	2086.000000	6.879200
397.000000	2085.000000	6.937100
398.000000	2084.000000	7.018267
399.000000	2083.000000	7.096833
400.000000	2082.000000	7.173400
401.000000	2081.000000	7.266633
402.000000	2080.000000	7.361000
403.000000	2079.000000	7.466767
404.000000	2078.000000	7.574267
405.000000	2077.000000	7.685000
406.000000	2076.000000	7.825167
407.000000	2075.000000	7.951633
408.000000	2074.000000	8.090200
409.000000	2073.000000	8.239833
410.000000	2072.000000	8.391600
411.000000	2071.000000	8.553867
412.000000	2070.000000	8.723800
413.000000	2069.000000	8.901067
414.000000	2068.000000	9.085333
415.000000	2067.000000	9.268700
416.000000	2066.000000	9.479500
417.000000	2065.000000	9.694833
418.000000	2064.000000	9.902967
419.000000	2063.000000	10.137000
420.000000	2062.000000	10.372700
421.000000	2061.000000	10.602533
422.000000	2060.000000	10.849833
423.000000	2059.000000	11.118933
424.000000	2058.000000	11.380900
425.000000	2057.000000	11.645800
426.000000	2056.000000	11.917333
427.000000	2055.000000	12.195433
428.000000	2054.000000	12.477100
429.000000	2053.000000	12.762500
430.000000	2052.000000	13.048933
431.000000	2051.000000	13.351900
432.000000	2050.000000	13.652267
433.000000	2049.000000	13.942133
434.000000	2048.000000	14.241333
435.000000	2047.000000	14.546667
436.000000	2046.000000	14.837300
437.000000	2045.000000	15.147567
438.000000	2044.000000	15.435467
439.000000	2043.000000	15.746833
440.000000	2042.000000	16.050600
441.000000	2041.000000	16.338767
442.000000	2040.000000	16.630567
443.000000	2039.000000	16.921700
444.000000	2038.000000	17.192433
445.000000	2037.000000	17.467533
446.000000	2036.000000	17.723933
447.000000	2035.000000	17.966467
448.000000	2034.000000	18.197767
449.000000	2033.000000	18.424633
450.000000	2032.000000	18.642400
451.000000	2031.000000	18.860500
452.000000	2030.000000	19.083733
453.000000	2029.000000	19.288500
454.000000	2028.000000	19.479933
455.000000	2027.000000	19.648300
456.000000	2026.000000	19.837067
457.000000	2025.000000	20.002800
458.000000	2024.000000	20.155333
459.000000	2023.000000	20.306833
460.000000	2022.000000	20.444233
461.000000	2021.000000	20.564500
462.000000	2020.000000	20.714067
463.000000	2019.000000	20.820267
464.000000	2018.000000	20.936767
465.000000	2017.000000	21.032367
466.000000	2016.000000	21.129100
467.000000	2015.000000	21.199467
468.000000	2014.000000	21.264033
469.000000	2013.000000	21.338600
470.000000	2012.000000	21.397267
471.000000	2011.000000	21.457100
472.000000	2010.000000	21.513033
473.000000	2009.000000	21.569467
474.000000	2008.000000	21.604467
475.000000	2007.000000	21.648467
476.000000	2006.000000	21.692267
477.000000	2005.000000	21.751133
478.000000	2004.000000	21.811400
479.000000	2003.000000	21.871633
480.000000	2002.000000	21.945767
481.000000	2001.000000	22.025267
482.000000	2000.000000	22.100533
483.000000	1999.000000	22.193633
484.000000	1998.000000	22.276567
485.000000	1997.000000	22.365333
486.000000	1996.000000	22.445333
487.000000	1995.000000	22.542133
488.000000	1994.000000	22.661500
489.000000	1993.000000	22.767400
490.000000	1992.000000	22.906767
491.000000	1991.000000	23.062067
492.000000	1990.000000	23.230900
493.000000	1989.000000	23.410833
494.000000	1988.000000	23.633100
495.000000	1987.000000	23.855433
496.000000	1986.000000	24.139200
497.000000	1985.000000	24.441967
498.000000	1984.000000	24.794100
499.000000	1983.000000	25.194533
500.000000	1982.000000	25.611500
501.000000	1981.000000	26.109300
502.000000	1980.000000	26.650067
503.000000	1979.000000	27.252167
504.000000	1978.000000	27.873367
505.000000	1977.000000	28.537200
506.000000	1976.000000	29.247933
507.000000	1975.000000	29.993267
508.000000	1974.000000	30.782467
509.000000	1973.000000	31.570600
510.000000	1972.000000	32.423600
511.000000	1971.000000	33.241167
512.000000	1970.000000	34.088267
513.000000	1969.000000	34.913100
514.000000	1968.000000	35.725767
515.000000	1967.000000	36.544567
516.000000	1966.000000	37.372900
517.000000	1965.000000	38.143867
518.000000	1964.000000	38.908633
519.000000	1963.000000	39.652233
520.000000	1962.000000	40.394667
521.000000	1961.000000	41.129800
522.000000	1960.000000	41.846233
523.000000	1959.000000	42.559667
524.000000	1958.000000	43.271267
525.000000	1957.000000	43.987733
526.000000	1956.000000	44.704700
527.000000	1955.000000	45.413367
528.000000	1954.000000	46.105667
529.000000	1953.000000	46.813100
530.000000	1952.000000	47.503900
531.000000	1951.000000	48.214300
532.000000	1950.000000	48.956033
533.000000	1949.000000	49.702700
534.000000	1948.000000	50.465267
535.000000	1947.000000	51.217900
536.000000	1946.000000	51.952233
537.000000	1945.000000	52.711900
538.000000	1944.000000	53.478800
539.000000	1943.000000	54.244867
540.000000	1942.000000	54.997900
541.000000	1941.000000	55.763600
542.000000	1940.000000	56.522433
543.000000	1939.000000	57.290133
544.000000	1938.000000	58.044533
545.000000	1937.000000	58.779833
546.000000	1936.000000	59.485000
547.000000	1935.000000	60.185667
548.000000	1934.000000	60.841600
549.000000	1933.000000	61.473900
550.000000	1932.000000	62.114367
551.000000	1931.000000	62.728367
552.000000	1930.000000	63.310800
553.000000	1929.000000	63.862733
554.000000	1928.000000	64.387400
555.000000	1927.000000	64.868633
556.000000	1926.000000	65.299367
557.000000	1925.000000	65.682433
558.000000	1924.000000	65.992800
559.000000	1923.000000	66.302833
560.000000	1922.000000	66.599200
561.000000	1921.000000	66.826400
562.000000	1920.000000	67.028967
563.000000	1919.000000	67.194800
564.000000	1918.000000	67.352600
565.000000	1917.000000	67.465933
566.000000	1916.000000	67.553767
567.000000	1915.000000	67.622033
568.000000	1914.000000	67.677800
569.000000	1913.000000	67.713767
570.000000	1912.000000	67.725900
571.000000	1911.000000	67.702500
572.000000	1910.000000	67.653600
573.000000	1909.000000	67.567433
574.000000	1908.000000	67.470000
575.000000	1907.000000	67.351700
576.000000	1906.000000	67.202867
577.000000	1905.000000	67.036433
578.000000	1904.000000	66.851900
579.000000	1903.000000	66.645600
580.000000	1902.000000	66.437500
581.000000	1901.000000	66.219500
582.000000	1900.000000	66.010867
583.000000	1899.000000	65.786600
584.000000	1898.000000	65.580000
585.000000	1897.000000	65.357933
586.000000	1896.000000	65.172067
587.000000	1895.000000	64.992133
588.000000	1894.000000	64.804433
589.000000	1893.000000	64.642233
590.000000	1892.000000	64.468867
591.000000	1891.000000	64.280100
592.000000	1890.000000	64.078967
593.000000	1889.000000	63.925400
594.000000	1888.000000	63.739933
595.000000	1887.000000	63.540367
596.000000	1886.000000	63.326833
597.000000	1885.000000	63.075633
598.000000	1884.000000	62.838733
599.000000	1883.000000	62.579767
600.000000	1882.000000	62.286733
601.000000	1881.000000	61.957000
602.000000	1880.000000	61.622600
603.000000	1879.000000	61.240167
604.000000	1878.000000	60.848100
605.000000	1877.000000	60.440933
606.000000	1876.000000	59.999800
607.000000	1875.000000	59.547133
608.000000	1874.000000	59.110667
609.000000	1873.000000	58.676233
610.000000	1872.000000	58.254400
611.000000	1871.000000	57.813367
612.000000	1870.000000	57.387833
613.000000	1869.000000	56.977600
614.000000	1868.000000	56.600533
615.000000	1867.000000	56.218300
616.000000	1866.000000	55.873233
617.000000	1865.000000	55.553067
618.000000	1864.000000	55.264267
619.000000	1863.000000	55.001833
620.000000	1862.000000	54.748367
621.000000	1861.000000	54.519267
622.000000	1860.000000	54.287267
623.000000	1859.000000	54.052367
624.000000	1858.000000	53.801267
625.000000	1857.000000	53.530000
626.000000	1856.000000	53.271267
627.000000	1855.000000	52.993733
628.000000	1854.000000	52.680633
629.000000	1853.000000	52.348133
630.000000	1852.000000	51.982200
631.000000	1851.000000	51.621400
632.000000	1850.000000	51.250233
633.000000	1849.000000	50.857300
634.000000	1848.000000	50.484200
635.000000	1847.000000	50.147067
636.000000	1846.000000	49.825100
637.000000	1845.000000	49.556367
638.000000	1844.000000	49.329233
639.000000	1843.000000	49.128300
640.000000	1842.000000	49.006567
641.000000	1841.000000	48.940533
642.000000	1840.000000	48.927033
643.000000	1839.000000	48.983033
644.000000	1838.000000	49.095600
645.000000	1837.000000	49.275733
646.000000	1836.000000	49.510800
647.000000	1835.000000	49.760767
648.000000	1834.000000	50.019200
649.000000	1833.000000	50.330200
650.000000	1832.000000	50.657733
651.000000	1831.000000	50.992867
652.000000	1830.000000	51.300100
653.000000	1829.000000	51.574333
654.000000	1828.000000	51.860833
655.000000	1827.000000	52.133333
656.000000	1826.000000	52.387467
657.000000	1825.000000	52.599833
658.000000	1824.000000	52.795367
659.000000	1823.000000	52.985233
660.000000	1822.000000	53.195967
661.000000	1821.000000	53.355867
662.000000	1820.000000	53.515200
663.000000	1819.000000	53.696500
664.000000	1818.000000	53.853667
665.000000	1817.000000	54.036433
666.000000	1816.000000	54.226367
667.000000	1815.000000	54.389367
668.000000	1814.000000	54.557133
669.000000	1813.000000	54.732733
670.000000	1812.000000	54.912100
671.000000	1811.000000	55.097633
672.000000	1810.000000	55.270967
673.000000	1809.000000	55.438800
674.000000	1808.000000	55.609000
675.000000	1807.000000	55.800933
676.000000	1806.000000	55.962433
677.000000	1805.000000	56.052533
678.000000	1804.000000	56.168067
679.000000	1803.000000	56.301300
680.000000	1802.000000	56.414500
681.000000	1801.000000	56.537200
682.000000	1800.000000	56.616733
683.000000	1799.000000	56.654667
684.000000	1798.000000	56.738567
685.000000	1797.000000	56.819967
686.000000	1796.000000	56.862633
687.000000	1795.000000	56.904433
688.000000	1794.000000	56.935600
689.000000	1793.000000	56.982733
690.000000	1792.000000	57.074433
691.000000	1791.000000	57.121467
692.000000	1790.000000	57.191067
693.000000	1789.000000	57.275400
694.000000	1788.000000	57.334067
695.000000	1787.000000	57.388800
696.000000	1786.000000	57.491200
697.000000	1785.000000	57.585267
698.000000	1784.000000	57.671333
699.000000	1783.000000	57.788233
700.000000	1782.000000	57.857700
701.000000	1781.000000	57.959433
702.000000	1780.000000	58.070000
703.000000	1779.000000	58.201867
704.000000	1778.000000	58.309400
705.000000	1777.000000	58.407333
706.000000	1776.000000	58.532433
707.000000	1775.000000	58.651467
708.000000	1774.000000	58.732167
709.000000	1773.000000	58.798500
710.000000	1772.000000	58.868400
711.000000	1771.000000	58.992367
712.000000	1770.000000	59.132700
713.000000	1769.000000	59.194600
714.000000	1768.000000	59.278733
715.000000	1767.000000	59.385367
716.000000	1766.000000	59.483933
717.000000	1765.000000	59.585933
718.000000	1764.000000	59.709333
719.000000	1763.000000	59.805733
720.000000	1762.000000	59.876333
721.000000	1761.000000	60.037400
722.000000	1760.000000	60.117600
723.000000	1759.000000	60.223033
724.000000	1758.000000	60.350600
725.000000	1757.000000	60.450667
726.000000	1756.000000	60.536000
727.000000	1755.000000	60.652900
728.000000	1754.000000	60.783067
729.000000	1753.000000	60.828400
730.000000	1752.000000	61.004500
731.000000	1751.000000	61.174400
732.000000	1750.000000	61.260800
733.000000	1749.000000	61.336033
734.000000	1748.000000	61.486567
735.000000	1747.000000	61.537767
736.000000	1746.000000	61.654400
737.000000	1745.000000	61.734767
738.000000	1744.000000	61.866067
739.000000	1743.000000	61.958067
740.000000	1742.000000	62.017133
741.000000	1741.000000	62.044000
742.000000	1740.000000	62.176767
743.000000	1739.000000	62.260200
744.000000	1738.000000	62.388000
745.000000	1737.000000	62.475733
746.000000	1736.000000	62.610467
747.000000	1735.000000	62.707833
748.000000	1734.000000	62.845467
749.000000	1733.000000	62.987667
750.000000	1732.000000	63.076667
751.000000	1731.000000	63.143500
752.000000	1730.000000	63.317233
753.000000	1729.000000	63.379733
754.000000	1728.000000	63.461733
755.000000	1727.000000	63.516467
756.000000	1726.000000	63.631100
757.000000	1725.000000	63.700800
758.000000	1724.000000	63.797967
759.000000	1723.000000	63.847667
760.000000	1722.000000	63.899833
761.000000	1721.000000	64.011300
762.000000	1720.000000	64.137033
763.000000	1719.000000	64.106900
764.000000	1718.000000	64.273567
765.000000	1717.000000	64.340067
766.000000	1716.000000	64.430133
767.000000	1715.000000	64.562367
768.000000	1714.000000	64.719833
769.000000	1713.000000	64.825033
770.000000	1712.000000	64.913767
771.000000	1711.000000	65.043933
772.000000	1710.000000	65.108700
773.000000	1709.000000	65.157367
774.000000	1708.000000	65.258167
775.000000	1707.000000	65.324400
776.000000	1706.000000	65.411000
777.000000	1705.000000	65.437400
778.000000	1704.000000	65.592267
779.000000	1703.000000	65.610600
780.000000	1702.000000	65.692867
781.000000	1701.000000	65.813600
782.000000	1700.000000	65.982700
783.000000	1699.000000	65.932433
784.000000	1698.000000	66.055100
785.000000	1697.000000	66.197067
786.000000	1696.000000	66.219267
787.000000	1695.000000	66.468333
788.000000	1694.000000	66.544933
789.000000	1693.000000	66.580033
790.000000	1692.000000	66.667767
791.000000	1691.000000	66.808333
792.000000	1690.000000	66.780133
793.000000	1689.000000	67.016833
794.000000	1688.000000	66.940867
795.000000	1687.000000	67.057533
796.000000	1686.000000	67.167433
797.000000	1685.000000	67.151267
798.000000	1684.000000	67.174633
799.000000	1683.000000	67.261233
800.000000	1682.000000	67.450500
801.000000	1681.000000	67.399000
802.000000	1680.000000	67.523000
803.000000	1679.000000	67.661400
804.000000	1678.000000	67.798600
805.000000	1677.000000	67.834333
806.000000	1676.000000	67.925367
807.000000	1675.000000	68.055867
808.000000	1674.000000	68.131633
809.000000	1673.000000	68.084233
810.000000	1672.000000	68.012067
811.000000	1671.000000	68.093300
812.000000	1670.000000	68.207567
813.000000	1669.000000	68.268400
814.000000	1668.000000	68.236733
815.000000	1667.000000	68.231967
816.000000	1666.000000	68.198100
817.000000	1665.000000	68.239833
818.000000	1664.000000	68.239067
819.000000	1663.000000	68.234533
820.000000	1662.000000	68.279400
821.000000	1661.000000	68.321600
822.000000	1660.000000	68.425767
823.000000	1659.000000	68.439033
824.000000	1658.000000	68.408333
825.000000	1657.000000	68.413800
826.000000	1656.000000	68.429633
827.000000	1655.000000	68.382700
828.000000	1654.000000	68.451133
829.000000	1653.000000	68.325233
830.000000	1652.000000	68.345967
831.000000	1651.000000	68.109400
832.000000	1650.000000	68.120233
833.000000	1649.000000	68.197333
834.000000	1648.000000	68.024667
835.000000	1647.000000	68.070533
836.000000	1646.000000	68.128533
837.000000	1645.000000	67.976567
838.000000	1644.000000	67.962400
