PE UV       SUBTECH     SPECTRUM    ASCII       PEDS        4.00        
   -1
CICIMAUCR0234-3.ASC
24/06/17
14:16:11.00
24/06/17
14:16:11.00
Vinicio Soto Monge
C. resplendens. Sex M. Dorsal. 
250,000000
1
Lambda 1050
1050L1511233
PerkinElmer UV WinLab 6.3.2.0749 / 2.02.05 Lambda 900 UV/VIS/NIR, Aug  7 2015 09:38:08

0
0
3350/servo 860,8/2
0
0
UV/VIS
1
1
1
DoubleDePol,CommonBeamDepol,RBeamAtt,SBeamAtt,60mm sphere, WB InGaAs Detector
0
0
0
0
Program
Program
3350/servo 860,8/2
3350/0,2 860,8/0,2
3350/0,2 860,8/0,2
0
15.00
 
 
 
0
 
860,8
319,2
860,8
Front
100
on
S:100 R:100
0
0
0
0
 
0
 
 
 
0
 
 
0
0
0
0
0
 
 
 
 
0
0


0
0
#HDR
-1
-1
#GR
nm
%R
1.0
0.0
2500,000000
-1,000000
2251
8
91,076400
5,684200
#DATA
250.000000	6.203967
251.000000	6.198600
252.000000	6.199467
253.000000	6.199933
254.000000	6.185200
255.000000	6.172967
256.000000	6.155933
257.000000	6.141800
258.000000	6.132667
259.000000	6.123733
260.000000	6.107533
261.000000	6.056467
262.000000	6.042233
263.000000	6.021533
264.000000	5.992700
265.000000	5.977833
266.000000	5.960100
267.000000	5.937967
268.000000	5.908033
269.000000	5.899867
270.000000	5.875400
271.000000	5.876267
272.000000	5.848833
273.000000	5.827200
274.000000	5.821133
275.000000	5.824067
276.000000	5.815167
277.000000	5.796300
278.000000	5.789533
279.000000	5.783300
280.000000	5.768300
281.000000	5.775933
282.000000	5.736200
283.000000	5.731933
284.000000	5.732533
285.000000	5.689800
286.000000	5.695567
287.000000	5.706633
288.000000	5.692333
289.000000	5.694667
290.000000	5.683867
291.000000	5.652200
292.000000	5.656300
293.000000	5.678800
294.000000	5.643167
295.000000	5.622900
296.000000	5.648733
297.000000	5.647833
298.000000	5.643233
299.000000	5.633167
300.000000	5.611133
301.000000	5.620333
302.000000	5.618367
303.000000	5.591900
304.000000	5.599567
305.000000	5.600500
306.000000	5.591367
307.000000	5.585600
308.000000	5.590100
309.000000	5.583967
310.000000	5.573833
311.000000	5.566167
312.000000	5.566133
313.000000	5.560133
314.000000	5.548633
315.000000	5.552833
316.000000	5.621067
317.000000	5.765933
318.000000	5.772833
319.000000	5.751000
320.000000	5.757067
321.000000	5.648933
322.000000	5.589700
323.000000	5.582367
324.000000	5.639700
325.000000	5.673767
326.000000	5.630433
327.000000	5.628600
328.000000	5.677367
329.000000	5.697367
330.000000	5.567133
331.000000	5.557900
332.000000	5.632800
333.000000	5.663033
334.000000	5.639733
335.000000	5.621333
336.000000	5.603900
337.000000	5.615400
338.000000	5.637333
339.000000	5.640800
340.000000	5.599567
341.000000	5.642900
342.000000	5.681667
343.000000	5.653567
344.000000	5.675833
345.000000	5.650167
346.000000	5.670633
347.000000	5.712133
348.000000	5.703833
349.000000	5.671600
350.000000	5.668367
351.000000	5.737967
352.000000	5.788800
353.000000	5.764067
354.000000	5.781400
355.000000	5.806767
356.000000	5.870067
357.000000	5.925867
358.000000	5.920633
359.000000	5.941500
360.000000	5.942900
361.000000	5.971733
362.000000	6.000633
363.000000	6.019767
364.000000	6.054500
365.000000	6.065433
366.000000	6.037667
367.000000	6.079400
368.000000	6.093233
369.000000	6.103867
370.000000	6.157600
371.000000	6.186100
372.000000	6.207867
373.000000	6.251933
374.000000	6.278500
375.000000	6.283500
376.000000	6.307933
377.000000	6.334600
378.000000	6.364367
379.000000	6.410900
380.000000	6.451700
381.000000	6.490300
382.000000	6.517400
383.000000	6.565433
384.000000	6.618867
385.000000	6.680333
386.000000	6.735467
387.000000	6.778400
388.000000	6.838900
389.000000	6.919033
390.000000	6.983767
391.000000	7.062733
392.000000	7.127367
393.000000	7.202333
394.000000	7.298700
395.000000	7.394767
396.000000	7.498133
397.000000	7.610367
398.000000	7.722033
399.000000	7.866633
400.000000	8.011000
401.000000	8.146167
402.000000	8.314133
403.000000	8.485967
404.000000	8.680900
405.000000	8.880567
406.000000	9.100467
407.000000	9.335600
408.000000	9.563467
409.000000	9.828033
410.000000	10.106200
411.000000	10.412767
412.000000	10.723200
413.000000	11.039800
414.000000	11.379733
415.000000	11.739667
416.000000	12.117900
417.000000	12.492600
418.000000	12.892767
419.000000	13.295500
420.000000	13.717867
421.000000	14.152333
422.000000	14.581867
423.000000	15.046767
424.000000	15.488600
425.000000	15.946533
426.000000	16.402367
427.000000	16.837900
428.000000	17.295767
429.000000	17.749133
430.000000	18.208333
431.000000	18.649100
432.000000	19.095167
433.000000	19.536867
434.000000	19.982700
435.000000	20.399700
436.000000	20.809100
437.000000	21.228100
438.000000	21.607300
439.000000	22.011700
440.000000	22.386133
441.000000	22.755533
442.000000	23.106900
443.000000	23.447400
444.000000	23.794500
445.000000	24.111000
446.000000	24.437900
447.000000	24.725633
448.000000	24.989000
449.000000	25.262900
450.000000	25.490567
451.000000	25.759967
452.000000	25.972300
453.000000	26.178567
454.000000	26.381567
455.000000	26.567200
456.000000	26.755933
457.000000	26.929367
458.000000	27.093800
459.000000	27.226500
460.000000	27.344333
461.000000	27.448267
462.000000	27.578167
463.000000	27.678200
464.000000	27.742367
465.000000	27.812400
466.000000	27.867500
467.000000	27.896933
468.000000	27.925233
469.000000	27.951267
470.000000	27.955467
471.000000	27.927700
472.000000	27.900733
473.000000	27.849867
474.000000	27.783233
475.000000	27.709700
476.000000	27.616300
477.000000	27.509233
478.000000	27.377033
479.000000	27.219333
480.000000	27.081600
481.000000	26.916767
482.000000	26.749600
483.000000	26.567167
484.000000	26.361000
485.000000	26.142100
486.000000	25.928900
487.000000	25.705833
488.000000	25.496200
489.000000	25.341133
490.000000	25.171033
491.000000	25.027667
492.000000	24.930200
493.000000	24.870767
494.000000	24.846100
495.000000	24.888400
496.000000	24.986767
497.000000	25.151367
498.000000	25.386833
499.000000	25.686500
500.000000	26.042967
501.000000	26.460533
502.000000	26.958733
503.000000	27.509467
504.000000	28.086233
505.000000	28.731100
506.000000	29.399100
507.000000	30.073800
508.000000	30.749200
509.000000	31.468567
510.000000	32.151900
511.000000	32.844933
512.000000	33.542967
513.000000	34.228667
514.000000	34.867867
515.000000	35.490600
516.000000	36.096033
517.000000	36.642733
518.000000	37.226900
519.000000	37.778467
520.000000	38.301733
521.000000	38.817600
522.000000	39.305833
523.000000	39.810300
524.000000	40.276167
525.000000	40.749767
526.000000	41.226667
527.000000	41.690267
528.000000	42.171300
529.000000	42.661233
530.000000	43.176333
531.000000	43.695767
532.000000	44.260300
533.000000	44.841300
534.000000	45.450133
535.000000	46.077100
536.000000	46.776100
537.000000	47.495467
538.000000	48.270933
539.000000	49.095267
540.000000	49.978933
541.000000	50.898100
542.000000	51.879367
543.000000	52.940133
544.000000	54.021700
545.000000	55.147033
546.000000	56.296600
547.000000	57.494067
548.000000	58.706733
549.000000	59.955300
550.000000	61.197867
551.000000	62.443667
552.000000	63.703533
553.000000	64.946233
554.000000	66.132000
555.000000	67.303767
556.000000	68.434100
557.000000	69.525167
558.000000	70.589200
559.000000	71.602333
560.000000	72.673567
561.000000	73.604600
562.000000	74.508767
563.000000	75.372400
564.000000	76.191033
565.000000	76.947233
566.000000	77.706200
567.000000	78.394800
568.000000	79.057400
569.000000	79.718600
570.000000	80.322800
571.000000	80.895767
572.000000	81.444933
573.000000	81.964067
574.000000	82.441033
575.000000	82.903433
576.000000	83.354667
577.000000	83.765433
578.000000	84.163767
579.000000	84.531600
580.000000	84.878933
581.000000	85.246000
582.000000	85.578633
583.000000	85.891700
584.000000	86.174733
585.000000	86.447567
586.000000	86.727433
587.000000	86.973967
588.000000	87.202467
589.000000	87.437733
590.000000	87.666733
591.000000	87.855867
592.000000	88.048200
593.000000	88.216667
594.000000	88.375267
595.000000	88.507900
596.000000	88.653367
597.000000	88.770033
598.000000	88.890900
599.000000	88.995733
600.000000	89.066867
601.000000	89.103767
602.000000	89.148467
603.000000	89.172067
604.000000	89.216967
605.000000	89.238300
606.000000	89.210133
607.000000	89.197233
608.000000	89.128367
609.000000	89.055333
610.000000	88.982500
611.000000	88.868100
612.000000	88.732233
613.000000	88.594033
614.000000	88.407000
615.000000	88.197733
616.000000	87.979967
617.000000	87.746733
618.000000	87.487000
619.000000	87.217533
620.000000	86.925833
621.000000	86.598300
622.000000	86.261467
623.000000	85.920767
624.000000	85.593167
625.000000	85.229200
626.000000	84.851300
627.000000	84.495733
628.000000	84.124033
629.000000	83.736367
630.000000	83.338000
631.000000	82.937833
632.000000	82.523567
633.000000	82.075967
634.000000	81.599100
635.000000	81.123100
636.000000	80.614767
637.000000	80.099900
638.000000	79.546233
639.000000	78.945133
640.000000	78.347367
641.000000	77.719500
642.000000	77.066333
643.000000	76.397033
644.000000	75.717633
645.000000	75.026833
646.000000	74.366833
647.000000	73.740200
648.000000	73.113900
649.000000	72.495667
650.000000	71.905067
651.000000	71.332200
652.000000	70.781100
653.000000	70.224300
654.000000	69.643767
655.000000	69.088567
656.000000	68.518700
657.000000	67.951400
658.000000	67.356467
659.000000	66.713367
660.000000	66.048233
661.000000	65.366867
662.000000	64.667267
663.000000	63.956800
664.000000	63.213100
665.000000	62.472200
666.000000	61.738000
667.000000	61.049467
668.000000	60.371233
669.000000	59.715300
670.000000	59.072667
671.000000	58.454867
672.000000	57.920333
673.000000	57.439633
674.000000	56.987867
675.000000	56.603067
676.000000	56.277900
677.000000	56.010900
678.000000	55.807833
679.000000	55.672067
680.000000	55.573800
681.000000	55.564667
682.000000	55.570333
683.000000	55.624633
684.000000	55.755100
685.000000	55.914000
686.000000	56.135667
687.000000	56.399467
688.000000	56.700633
689.000000	57.054167
690.000000	57.487767
691.000000	57.957467
692.000000	58.476567
693.000000	59.079600
694.000000	59.705767
695.000000	60.361733
696.000000	61.065233
697.000000	61.796667
698.000000	62.568133
699.000000	63.423700
700.000000	64.204067
701.000000	65.045633
702.000000	65.887733
703.000000	66.723533
704.000000	67.541167
705.000000	68.331400
706.000000	69.077667
707.000000	69.796100
708.000000	70.473267
709.000000	71.121067
710.000000	71.773833
711.000000	72.382967
712.000000	72.923500
713.000000	73.446933
714.000000	73.997567
715.000000	74.464367
716.000000	74.918733
717.000000	75.352967
718.000000	75.750833
719.000000	76.220200
720.000000	76.617833
721.000000	76.995167
722.000000	77.397200
723.000000	77.809767
724.000000	78.234267
725.000000	78.627733
726.000000	78.940333
727.000000	79.336067
728.000000	79.727900
729.000000	80.031033
730.000000	80.377267
731.000000	80.753133
732.000000	81.055733
733.000000	81.412567
734.000000	81.741133
735.000000	82.069900
736.000000	82.424200
737.000000	82.705633
738.000000	83.026867
739.000000	83.323300
740.000000	83.587100
741.000000	83.800333
742.000000	84.183500
743.000000	84.466800
744.000000	84.752633
745.000000	85.021267
746.000000	85.223967
747.000000	85.590433
748.000000	85.856467
749.000000	85.998300
750.000000	86.276833
751.000000	86.511167
752.000000	86.759267
753.000000	86.937167
754.000000	87.093133
755.000000	87.339300
756.000000	87.462967
757.000000	87.711400
758.000000	87.862667
759.000000	88.004533
760.000000	88.222633
761.000000	88.439600
762.000000	88.504567
763.000000	88.733300
764.000000	88.898233
765.000000	89.085067
766.000000	89.222400
767.000000	89.319400
768.000000	89.455333
769.000000	89.614933
770.000000	89.771600
771.000000	89.836500
772.000000	90.011733
773.000000	90.135200
774.000000	90.337833
775.000000	90.321800
776.000000	90.462233
777.000000	90.561067
778.000000	90.751233
779.000000	90.840000
780.000000	90.931333
781.000000	90.969433
782.000000	91.101300
783.000000	91.168867
784.000000	91.186000
785.000000	91.158867
786.000000	91.346067
787.000000	91.446300
788.000000	91.567100
789.000000	91.522667
790.000000	91.583133
791.000000	91.693633
792.000000	91.644700
793.000000	91.655867
794.000000	91.615967
795.000000	91.588133
796.000000	91.769133
797.000000	91.758333
798.000000	91.756000
799.000000	91.534967
800.000000	91.557333
801.000000	91.550500
802.000000	91.445167
803.000000	91.543433
804.000000	91.511467
805.000000	91.366433
806.000000	91.399500
807.000000	91.324267
808.000000	91.233600
809.000000	91.165667
810.000000	90.986267
811.000000	90.975300
812.000000	90.716367
813.000000	90.689167
814.000000	90.678133
815.000000	90.504067
816.000000	90.252233
817.000000	90.193567
818.000000	89.934000
819.000000	89.943067
820.000000	89.641133
821.000000	89.704600
822.000000	89.528000
823.000000	89.301900
824.000000	89.222700
825.000000	89.097300
826.000000	88.768567
827.000000	88.653233
828.000000	88.560167
829.000000	88.423533
830.000000	88.194600
831.000000	87.953033
832.000000	87.821567
833.000000	87.512300
834.000000	87.373600
835.000000	87.060667
836.000000	86.757933
837.000000	86.505567
838.000000	86.349667
839.000000	85.866800
840.000000	85.574500
841.000000	85.519967
842.000000	85.214400
843.000000	85.073367
844.000000	84.949700
845.000000	84.469533
846.000000	84.121100
847.000000	83.735600
848.000000	83.446333
849.000000	83.343767
850.000000	82.814633
851.000000	82.701600
852.000000	82.642400
853.000000	82.089267
854.000000	81.655933
855.000000	81.335267
856.000000	81.326900
857.000000	79.770933
858.000000	80.811033
859.000000	80.541932
860.000000	80.263564
861.000000	79.977878
862.000000	79.722414
863.000000	79.448863
864.000000	79.196248
865.000000	78.939324
866.000000	78.702430
867.000000	78.447881
868.000000	78.215974
869.000000	77.991763
870.000000	77.865799
871.000000	77.915687
872.000000	78.019967
873.000000	78.101319
874.000000	78.126690
875.000000	78.172210
876.000000	78.205350
877.000000	78.185023
878.000000	78.131671
879.000000	78.081560
880.000000	78.011182
881.000000	77.955796
882.000000	77.898994
883.000000	77.827744
884.000000	77.750771
885.000000	77.690056
886.000000	77.603657
887.000000	77.520321
888.000000	77.425329
889.000000	77.316586
890.000000	77.213267
891.000000	77.134412
892.000000	77.036680
893.000000	76.944912
894.000000	76.850570
895.000000	76.741016
896.000000	76.640810
897.000000	76.535040
898.000000	76.448288
899.000000	76.364074
900.000000	76.268881
901.000000	76.171298
902.000000	76.082531
903.000000	75.998625
904.000000	75.917383
905.000000	75.849338
906.000000	75.766117
907.000000	75.706085
908.000000	75.655245
909.000000	75.600877
910.000000	75.551110
911.000000	75.517143
912.000000	75.472678
913.000000	75.413962
914.000000	75.354656
915.000000	75.309319
916.000000	75.267896
917.000000	75.225511
918.000000	75.159723
919.000000	75.087875
920.000000	75.018665
921.000000	74.951602
922.000000	74.888529
923.000000	74.816983
924.000000	74.738639
925.000000	74.637728
926.000000	74.544369
927.000000	74.454796
928.000000	74.362235
929.000000	74.244609
930.000000	74.130792
931.000000	74.039087
932.000000	73.938485
933.000000	73.815893
934.000000	73.689064
935.000000	73.575595
936.000000	73.469547
937.000000	73.370883
938.000000	73.251162
939.000000	73.125661
940.000000	73.016772
941.000000	72.919460
942.000000	72.802237
943.000000	72.665267
944.000000	72.556385
945.000000	72.442509
946.000000	72.307111
947.000000	72.170075
948.000000	72.039565
949.000000	71.913481
950.000000	71.778128
951.000000	71.628587
952.000000	71.483059
953.000000	71.346832
954.000000	71.210736
955.000000	71.080055
956.000000	70.949420
957.000000	70.801959
958.000000	70.660323
959.000000	70.537888
960.000000	70.403612
961.000000	70.260921
962.000000	70.134636
963.000000	70.005138
964.000000	69.876505
965.000000	69.755384
966.000000	69.632215
967.000000	69.513520
968.000000	69.376566
969.000000	69.245494
970.000000	69.115205
971.000000	68.984832
972.000000	68.848373
973.000000	68.715379
974.000000	68.590426
975.000000	68.450448
976.000000	68.315999
977.000000	68.191119
978.000000	68.063960
979.000000	67.942674
980.000000	67.826678
981.000000	67.708398
982.000000	67.596766
983.000000	67.488393
984.000000	67.392547
985.000000	67.286945
986.000000	67.172417
987.000000	67.062737
988.000000	66.961663
989.000000	66.865577
990.000000	66.753572
991.000000	66.647968
992.000000	66.547247
993.000000	66.445855
994.000000	66.340522
995.000000	66.235583
996.000000	66.134245
997.000000	66.036471
998.000000	65.936583
999.000000	65.847327
1000.000000	65.764345
1001.000000	65.682352
1002.000000	65.591461
1003.000000	65.513003
1004.000000	65.442635
1005.000000	65.371668
1006.000000	65.295917
1007.000000	65.233276
1008.000000	65.175162
1009.000000	65.105591
1010.000000	65.041959
1011.000000	64.984105
1012.000000	64.941258
1013.000000	64.901106
1014.000000	64.853882
1015.000000	64.810567
1016.000000	64.774167
1017.000000	64.730644
1018.000000	64.700700
1019.000000	64.664107
1020.000000	64.631577
1021.000000	64.610001
1022.000000	64.589588
1023.000000	64.573019
1024.000000	64.560494
1025.000000	64.553647
1026.000000	64.545342
1027.000000	64.551477
1028.000000	64.561969
1029.000000	64.565524
1030.000000	64.582954
1031.000000	64.597337
1032.000000	64.607223
1033.000000	64.625716
1034.000000	64.644387
1035.000000	64.658883
1036.000000	64.680263
1037.000000	64.692249
1038.000000	64.685661
1039.000000	64.701299
1040.000000	64.712447
1041.000000	64.710547
1042.000000	64.714063
1043.000000	64.723814
1044.000000	64.718131
1045.000000	64.721657
1046.000000	64.721125
1047.000000	64.734095
1048.000000	64.720779
1049.000000	64.734285
1050.000000	64.746811
1051.000000	64.752303
1052.000000	64.773964
1053.000000	64.790384
1054.000000	64.813428
1055.000000	64.837292
1056.000000	64.854034
1057.000000	64.880386
1058.000000	64.915809
1059.000000	64.935710
1060.000000	64.955322
1061.000000	64.975075
1062.000000	65.002590
1063.000000	65.025237
1064.000000	65.048072
1065.000000	65.063183
1066.000000	65.059354
1067.000000	65.075978
1068.000000	65.093879
1069.000000	65.104027
1070.000000	65.098982
1071.000000	65.121368
1072.000000	65.137756
1073.000000	65.151308
1074.000000	65.168787
1075.000000	65.190324
1076.000000	65.209977
1077.000000	65.224186
1078.000000	65.242402
1079.000000	65.285684
1080.000000	65.302667
1081.000000	65.328600
1082.000000	65.357888
1083.000000	65.382545
1084.000000	65.425840
1085.000000	65.458601
1086.000000	65.491800
1087.000000	65.519897
1088.000000	65.550361
1089.000000	65.579798
1090.000000	65.620321
1091.000000	65.643567
1092.000000	65.661382
1093.000000	65.687810
1094.000000	65.715760
1095.000000	65.736613
1096.000000	65.745730
1097.000000	65.763883
1098.000000	65.771504
1099.000000	65.774995
1100.000000	65.780400
1101.000000	65.785010
1102.000000	65.776624
1103.000000	65.785239
1104.000000	65.775674
1105.000000	65.774927
1106.000000	65.778473
1107.000000	65.770100
1108.000000	65.763502
1109.000000	65.768657
1110.000000	65.759221
1111.000000	65.752295
1112.000000	65.746515
1113.000000	65.738283
1114.000000	65.731735
1115.000000	65.723434
1116.000000	65.716613
1117.000000	65.692659
1118.000000	65.644561
1119.000000	65.597533
1120.000000	65.549429
1121.000000	65.486075
1122.000000	65.401911
1123.000000	65.312994
1124.000000	65.202504
1125.000000	65.092384
1126.000000	64.943224
1127.000000	64.771084
1128.000000	64.552494
1129.000000	64.301008
1130.000000	64.010873
1131.000000	63.689833
1132.000000	63.330003
1133.000000	62.991045
1134.000000	62.575412
1135.000000	62.133606
1136.000000	61.697486
1137.000000	61.283238
1138.000000	60.892018
1139.000000	60.512241
1140.000000	60.138673
1141.000000	59.782291
1142.000000	59.430724
1143.000000	59.122431
1144.000000	58.851661
1145.000000	58.640503
1146.000000	58.479337
1147.000000	58.357895
1148.000000	58.258595
1149.000000	58.178372
1150.000000	58.087058
1151.000000	57.991864
1152.000000	57.863245
1153.000000	57.695727
1154.000000	57.480584
1155.000000	57.230601
1156.000000	56.944148
1157.000000	56.630820
1158.000000	56.296375
1159.000000	55.953039
1160.000000	55.599263
1161.000000	55.238053
1162.000000	54.869682
1163.000000	54.503983
1164.000000	54.147483
1165.000000	53.800529
1166.000000	53.455219
1167.000000	53.128685
