PE UV       SUBTECH     SPECTRUM    ASCII       PEDS        4.00        
   -1
CICIMAUCR0245-3.Sample.ASC
24/06/21
11:59:24.00
24/06/21
11:59:24.00
Vinicio Soto Monge
C. resplendens. Sex M. Dorsal
250,000000
1
Lambda 1050
1050L1511233
PerkinElmer UV WinLab 6.3.2.0749 / 2.02.05 Lambda 900 UV/VIS/NIR, Aug  7 2015 09:38:08

0
0
3350/servo 860,8/2
0
0
UV/VIS
1
1
1
DoubleDePol,CommonBeamDepol,RBeamAtt,SBeamAtt,60mm sphere, WB InGaAs Detector
0
0
0
0
Program
Program
3350/servo 860,8/2
3350/0,2 860,8/0,2
3350/0,2 860,8/0,2
0
15.00
 
 
 
0
 
860,8
319,2
860,8
Front
100
on
S:100 R:100
0
0
0
0
 
0
 
 
 
0
 
 
0
0
0
0
0
 
 
 
 
0
0


0
0
#HDR
-1
-1
#GR
nm
%R
1.0
0.0
2500,000000
-1,000000
2251
8
89,701100
5,421800
#DATA
250.000000	6.431933
251.000000	6.430533
252.000000	6.443133
253.000000	6.408767
254.000000	6.390433
255.000000	6.355833
256.000000	6.349000
257.000000	6.329067
258.000000	6.303400
259.000000	6.304300
260.000000	6.310967
261.000000	6.244433
262.000000	6.237033
263.000000	6.201367
264.000000	6.165400
265.000000	6.137833
266.000000	6.128333
267.000000	6.112900
268.000000	6.081667
269.000000	6.048533
270.000000	6.049633
271.000000	6.053000
272.000000	6.014567
273.000000	6.002167
274.000000	5.987933
275.000000	5.976900
276.000000	5.979033
277.000000	5.941900
278.000000	5.920167
279.000000	5.913833
280.000000	5.899367
281.000000	5.904767
282.000000	5.910900
283.000000	5.892100
284.000000	5.882067
285.000000	5.876367
286.000000	5.875667
287.000000	5.879533
288.000000	5.862833
289.000000	5.842033
290.000000	5.828967
291.000000	5.827500
292.000000	5.816567
293.000000	5.821367
294.000000	5.824800
295.000000	5.796400
296.000000	5.794133
297.000000	5.780300
298.000000	5.791333
299.000000	5.789700
300.000000	5.776300
301.000000	5.753933
302.000000	5.745300
303.000000	5.746633
304.000000	5.728767
305.000000	5.731467
306.000000	5.745200
307.000000	5.746233
308.000000	5.742200
309.000000	5.724167
310.000000	5.718633
311.000000	5.710000
312.000000	5.700533
313.000000	5.694200
314.000000	5.686400
315.000000	5.699267
316.000000	5.787067
317.000000	5.911833
318.000000	5.899100
319.000000	5.917767
320.000000	5.995300
321.000000	5.913900
322.000000	5.835933
323.000000	5.945867
324.000000	5.973200
325.000000	5.928100
326.000000	6.009400
327.000000	6.015633
328.000000	5.903767
329.000000	5.858533
330.000000	5.833533
331.000000	5.792600
332.000000	5.806633
333.000000	5.839800
334.000000	5.764467
335.000000	5.840900
336.000000	5.963567
337.000000	5.862633
338.000000	5.782667
339.000000	5.862167
340.000000	5.903800
341.000000	5.872233
342.000000	5.872667
343.000000	5.883567
344.000000	5.861900
345.000000	5.877867
346.000000	5.892300
347.000000	5.874033
348.000000	5.889967
349.000000	5.967800
350.000000	5.982267
351.000000	6.000433
352.000000	6.020933
353.000000	6.046633
354.000000	6.099667
355.000000	6.099733
356.000000	6.173933
357.000000	6.228100
358.000000	6.230900
359.000000	6.269433
360.000000	6.356333
361.000000	6.387333
362.000000	6.367967
363.000000	6.417233
364.000000	6.489400
365.000000	6.504033
366.000000	6.537100
367.000000	6.587733
368.000000	6.575767
369.000000	6.570700
370.000000	6.598533
371.000000	6.658133
372.000000	6.644967
373.000000	6.665333
374.000000	6.702567
375.000000	6.751867
376.000000	6.895733
377.000000	6.989667
378.000000	7.056133
379.000000	7.105033
380.000000	7.145267
381.000000	7.206300
382.000000	7.293300
383.000000	7.365633
384.000000	7.435367
385.000000	7.508333
386.000000	7.609967
387.000000	7.691600
388.000000	7.780033
389.000000	7.886167
390.000000	7.997667
391.000000	8.116867
392.000000	8.253433
393.000000	8.386000
394.000000	8.521400
395.000000	8.682100
396.000000	8.839600
397.000000	9.019267
398.000000	9.213400
399.000000	9.420400
400.000000	9.649033
401.000000	9.870767
402.000000	10.136933
403.000000	10.424767
404.000000	10.723267
405.000000	11.043067
406.000000	11.367433
407.000000	11.721800
408.000000	12.105000
409.000000	12.486733
410.000000	12.908033
411.000000	13.323600
412.000000	13.785267
413.000000	14.249967
414.000000	14.731133
415.000000	15.222533
416.000000	15.713500
417.000000	16.223367
418.000000	16.711400
419.000000	17.229333
420.000000	17.751233
421.000000	18.236167
422.000000	18.745900
423.000000	19.255000
424.000000	19.763100
425.000000	20.225233
426.000000	20.713200
427.000000	21.176833
428.000000	21.624867
429.000000	22.035867
430.000000	22.483433
431.000000	22.913267
432.000000	23.315900
433.000000	23.694667
434.000000	24.075467
435.000000	24.454167
436.000000	24.803700
437.000000	25.125167
438.000000	25.465733
439.000000	25.787000
440.000000	26.077200
441.000000	26.378833
442.000000	26.643000
443.000000	26.928967
444.000000	27.178667
445.000000	27.398900
446.000000	27.622333
447.000000	27.831700
448.000000	27.989367
449.000000	28.146533
450.000000	28.328233
451.000000	28.469033
452.000000	28.592500
453.000000	28.694533
454.000000	28.757467
455.000000	28.865200
456.000000	28.898467
457.000000	28.924667
458.000000	28.941500
459.000000	28.931800
460.000000	28.898267
461.000000	28.855600
462.000000	28.769900
463.000000	28.699433
464.000000	28.613033
465.000000	28.499533
466.000000	28.360267
467.000000	28.201433
468.000000	28.036767
469.000000	27.852967
470.000000	27.687000
471.000000	27.533000
472.000000	27.362300
473.000000	27.193767
474.000000	27.029100
475.000000	26.898167
476.000000	26.787100
477.000000	26.703867
478.000000	26.653067
479.000000	26.642067
480.000000	26.690367
481.000000	26.781067
482.000000	26.916467
483.000000	27.137667
484.000000	27.424767
485.000000	27.750600
486.000000	28.129433
487.000000	28.561800
488.000000	29.034067
489.000000	29.561933
490.000000	30.122633
491.000000	30.716600
492.000000	31.315933
493.000000	31.898367
494.000000	32.498133
495.000000	33.060300
496.000000	33.639500
497.000000	34.155000
498.000000	34.659767
499.000000	35.150533
500.000000	35.587200
501.000000	36.006500
502.000000	36.387333
503.000000	36.750733
504.000000	37.120867
505.000000	37.437767
506.000000	37.732400
507.000000	38.027633
508.000000	38.295867
509.000000	38.567433
510.000000	38.858133
511.000000	39.169300
512.000000	39.493067
513.000000	39.872300
514.000000	40.285033
515.000000	40.736567
516.000000	41.223600
517.000000	41.761000
518.000000	42.394167
519.000000	43.079933
520.000000	43.858167
521.000000	44.729267
522.000000	45.686867
523.000000	46.714967
524.000000	47.838800
525.000000	49.044167
526.000000	50.275200
527.000000	51.592433
528.000000	52.961100
529.000000	54.372133
530.000000	55.835867
531.000000	57.307133
532.000000	58.806967
533.000000	60.303167
534.000000	61.800067
535.000000	63.255833
536.000000	64.647233
537.000000	66.024300
538.000000	67.340167
539.000000	68.605867
540.000000	69.858500
541.000000	71.018767
542.000000	72.149500
543.000000	73.212167
544.000000	74.207400
545.000000	75.174200
546.000000	76.051500
547.000000	76.905300
548.000000	77.707967
549.000000	78.442300
550.000000	79.135100
551.000000	79.801000
552.000000	80.451100
553.000000	81.053967
554.000000	81.614033
555.000000	82.154067
556.000000	82.622133
557.000000	83.115967
558.000000	83.572933
559.000000	84.031000
560.000000	84.513467
561.000000	84.958400
562.000000	85.350700
563.000000	85.738300
564.000000	86.121933
565.000000	86.497700
566.000000	86.853600
567.000000	87.196667
568.000000	87.516000
569.000000	87.838233
570.000000	88.127767
571.000000	88.420600
572.000000	88.670067
573.000000	88.904800
574.000000	89.124200
575.000000	89.345467
576.000000	89.491033
577.000000	89.635600
578.000000	89.759300
579.000000	89.861633
580.000000	89.928367
581.000000	90.025767
582.000000	90.065967
583.000000	90.105900
584.000000	90.151433
585.000000	90.167200
586.000000	90.175867
587.000000	90.177267
588.000000	90.159267
589.000000	90.122700
590.000000	90.111167
591.000000	90.085600
592.000000	90.029700
593.000000	89.977300
594.000000	89.931200
595.000000	89.836867
596.000000	89.711667
597.000000	89.628300
598.000000	89.499867
599.000000	89.337467
600.000000	89.173967
601.000000	89.013233
602.000000	88.809167
603.000000	88.580333
604.000000	88.375833
605.000000	88.125233
606.000000	87.832667
607.000000	87.537733
608.000000	87.207233
609.000000	86.850567
610.000000	86.461667
611.000000	86.050900
612.000000	85.617700
613.000000	85.167433
614.000000	84.685733
615.000000	84.170133
616.000000	83.643700
617.000000	83.084967
618.000000	82.496967
619.000000	81.879400
620.000000	81.237767
621.000000	80.553933
622.000000	79.835933
623.000000	79.088300
624.000000	78.325267
625.000000	77.535933
626.000000	76.721833
627.000000	75.858100
628.000000	74.968633
629.000000	74.031400
630.000000	73.075367
631.000000	72.082267
632.000000	71.060433
633.000000	70.016833
634.000000	68.914400
635.000000	67.805267
636.000000	66.713533
637.000000	65.607033
638.000000	64.463633
639.000000	63.327467
640.000000	62.223167
641.000000	61.129133
642.000000	60.066900
643.000000	59.054300
644.000000	58.126267
645.000000	57.283533
646.000000	56.551800
647.000000	55.957367
648.000000	55.461533
649.000000	55.096500
650.000000	54.858267
651.000000	54.731733
652.000000	54.730200
653.000000	54.850067
654.000000	55.059333
655.000000	55.354900
656.000000	55.747700
657.000000	56.200533
658.000000	56.670867
659.000000	57.204967
660.000000	57.769800
661.000000	58.351300
662.000000	58.996533
663.000000	59.631400
664.000000	60.271100
665.000000	60.950433
666.000000	61.616800
667.000000	62.270567
668.000000	62.940400
669.000000	63.615767
670.000000	64.264567
671.000000	64.945333
672.000000	65.580533
673.000000	66.150533
674.000000	66.691333
675.000000	67.208033
676.000000	67.675600
677.000000	68.082400
678.000000	68.441967
679.000000	68.784400
680.000000	69.070100
681.000000	69.342267
682.000000	69.633567
683.000000	69.857433
684.000000	70.053067
685.000000	70.263467
686.000000	70.487133
687.000000	70.752867
688.000000	70.947867
689.000000	71.137567
690.000000	71.400867
691.000000	71.626300
692.000000	71.891067
693.000000	72.124367
694.000000	72.314767
695.000000	72.514300
696.000000	72.705700
697.000000	72.850267
698.000000	72.972733
699.000000	73.084533
700.000000	73.166333
701.000000	73.194467
702.000000	73.280700
703.000000	73.351000
704.000000	73.402600
705.000000	73.462633
706.000000	73.569533
707.000000	73.678267
708.000000	73.730333
709.000000	73.773900
710.000000	73.881633
711.000000	74.035333
712.000000	74.155133
713.000000	74.280500
714.000000	74.450400
715.000000	74.630000
716.000000	74.814000
717.000000	75.003967
718.000000	75.246433
719.000000	75.423267
720.000000	75.711367
721.000000	75.983433
722.000000	76.207567
723.000000	76.469400
724.000000	76.724333
725.000000	77.003867
726.000000	77.314167
727.000000	77.650433
728.000000	77.940233
729.000000	78.298133
730.000000	78.659967
731.000000	78.966433
732.000000	79.374667
733.000000	79.728800
734.000000	80.089967
735.000000	80.418333
736.000000	80.796967
737.000000	81.107933
738.000000	81.458167
739.000000	81.807733
740.000000	82.152600
741.000000	82.413967
742.000000	82.744233
743.000000	82.984600
744.000000	83.242500
745.000000	83.439833
746.000000	83.693033
747.000000	83.907367
748.000000	84.149700
749.000000	84.396633
750.000000	84.574133
751.000000	84.813533
752.000000	85.003367
753.000000	85.187200
754.000000	85.418200
755.000000	85.541967
756.000000	85.755000
757.000000	85.889900
758.000000	86.036233
759.000000	86.239267
760.000000	86.338267
761.000000	86.408767
762.000000	86.468167
763.000000	86.541633
764.000000	86.535400
765.000000	86.564000
766.000000	86.511833
767.000000	86.483700
768.000000	86.425167
769.000000	86.288300
770.000000	86.177633
771.000000	86.079867
772.000000	85.904233
773.000000	85.839833
774.000000	85.751967
775.000000	85.432233
776.000000	85.353967
777.000000	85.235000
778.000000	85.086100
779.000000	85.013533
780.000000	84.863900
781.000000	84.741167
782.000000	84.564700
783.000000	84.463467
784.000000	84.332000
785.000000	84.199533
786.000000	84.195200
787.000000	84.011133
788.000000	83.934267
789.000000	84.120667
790.000000	83.886667
791.000000	83.773500
792.000000	83.907100
793.000000	83.882267
794.000000	83.982267
795.000000	83.945200
796.000000	83.899067
797.000000	83.943900
798.000000	83.976067
799.000000	84.023167
800.000000	84.128900
801.000000	84.078167
802.000000	84.024000
803.000000	84.000267
804.000000	84.001867
805.000000	83.882500
806.000000	83.958867
807.000000	83.638933
808.000000	83.555167
809.000000	83.546333
810.000000	83.405333
811.000000	83.162800
812.000000	82.878433
813.000000	82.830367
814.000000	82.556533
815.000000	82.170067
816.000000	82.124533
817.000000	81.861433
818.000000	81.500467
819.000000	81.379733
820.000000	81.046200
821.000000	80.919400
822.000000	80.548933
823.000000	80.403167
824.000000	80.092500
825.000000	79.879367
826.000000	79.664433
827.000000	79.445767
828.000000	79.198367
829.000000	79.060900
830.000000	78.900267
831.000000	78.561533
832.000000	78.281933
833.000000	78.213467
834.000000	77.952133
835.000000	77.704400
836.000000	77.577267
837.000000	77.146833
838.000000	76.913500
839.000000	76.826467
840.000000	76.462667
841.000000	76.212367
842.000000	75.985367
843.000000	75.625733
844.000000	75.366900
845.000000	74.913600
846.000000	74.446700
847.000000	74.200733
848.000000	74.069767
849.000000	73.759600
850.000000	73.455300
851.000000	72.655000
852.000000	72.426200
853.000000	72.183900
854.000000	72.086333
855.000000	71.666333
856.000000	71.182967
857.000000	70.773500
858.000000	71.207600
859.000000	70.932956
860.000000	70.657960
861.000000	70.393789
862.000000	70.130290
863.000000	69.873561
864.000000	69.630872
865.000000	69.389492
866.000000	69.152468
867.000000	68.918635
868.000000	68.691384
869.000000	68.464634
870.000000	68.250257
871.000000	68.066356
872.000000	67.953786
873.000000	67.896706
874.000000	67.846525
875.000000	67.757605
876.000000	67.660945
877.000000	67.554997
878.000000	67.431253
879.000000	67.278455
880.000000	67.130428
881.000000	66.979623
882.000000	66.825370
883.000000	66.661629
884.000000	66.498334
885.000000	66.331294
886.000000	66.164013
887.000000	65.989408
888.000000	65.806295
889.000000	65.633386
890.000000	65.448395
891.000000	65.261341
892.000000	65.071139
893.000000	64.875284
894.000000	64.667690
895.000000	64.463327
896.000000	64.260834
897.000000	64.045502
898.000000	63.823521
899.000000	63.610029
900.000000	63.388952
901.000000	63.170938
902.000000	62.955915
903.000000	62.753819
904.000000	62.558403
905.000000	62.360475
906.000000	62.174675
907.000000	61.997152
908.000000	61.830749
909.000000	61.665050
910.000000	61.512115
911.000000	61.370414
912.000000	61.232026
913.000000	61.105351
914.000000	60.977170
915.000000	60.856454
916.000000	60.739969
917.000000	60.622540
918.000000	60.516813
919.000000	60.414598
920.000000	60.295425
921.000000	60.194983
922.000000	60.092492
923.000000	59.985882
924.000000	59.889824
925.000000	59.808319
926.000000	59.720511
927.000000	59.625320
928.000000	59.530802
929.000000	59.440620
930.000000	59.354793
931.000000	59.254017
932.000000	59.148097
933.000000	59.054072
934.000000	58.956380
935.000000	58.843850
936.000000	58.735353
937.000000	58.628510
938.000000	58.529031
939.000000	58.425259
940.000000	58.302567
941.000000	58.183611
942.000000	58.072005
943.000000	57.951667
944.000000	57.827321
945.000000	57.701205
946.000000	57.569719
947.000000	57.434490
948.000000	57.304901
949.000000	57.164741
950.000000	57.029834
951.000000	56.910103
952.000000	56.779768
953.000000	56.648843
954.000000	56.526424
955.000000	56.400301
956.000000	56.291520
957.000000	56.183718
958.000000	56.067557
959.000000	55.958910
960.000000	55.854814
961.000000	55.762566
962.000000	55.680241
963.000000	55.595146
964.000000	55.512248
965.000000	55.452268
966.000000	55.401027
967.000000	55.344317
968.000000	55.292334
969.000000	55.246739
970.000000	55.207306
971.000000	55.173709
972.000000	55.140077
973.000000	55.111512
974.000000	55.069197
975.000000	55.034869
976.000000	55.011708
977.000000	54.990311
978.000000	54.968736
979.000000	54.930674
980.000000	54.894048
981.000000	54.866242
982.000000	54.825256
983.000000	54.792166
984.000000	54.761397
985.000000	54.735171
986.000000	54.697039
987.000000	54.661873
988.000000	54.632198
989.000000	54.602528
990.000000	54.568832
991.000000	54.539770
992.000000	54.508807
993.000000	54.481944
994.000000	54.447463
995.000000	54.414270
996.000000	54.388156
997.000000	54.367134
998.000000	54.344426
999.000000	54.308426
1000.000000	54.280781
1001.000000	54.260229
1002.000000	54.242194
1003.000000	54.224399
1004.000000	54.197656
1005.000000	54.177944
1006.000000	54.155401
1007.000000	54.146457
1008.000000	54.125200
1009.000000	54.112265
1010.000000	54.118583
1011.000000	54.112070
1012.000000	54.130138
1013.000000	54.155756
1014.000000	54.179069
1015.000000	54.211522
1016.000000	54.252425
1017.000000	54.298574
1018.000000	54.353841
1019.000000	54.418607
1020.000000	54.472214
1021.000000	54.535865
1022.000000	54.592951
1023.000000	54.673220
1024.000000	54.740917
1025.000000	54.819922
1026.000000	54.881944
1027.000000	54.960645
1028.000000	55.022325
1029.000000	55.104793
1030.000000	55.162966
1031.000000	55.231522
1032.000000	55.292410
1033.000000	55.361388
1034.000000	55.428093
1035.000000	55.493156
1036.000000	55.555281
1037.000000	55.611764
1038.000000	55.659994
1039.000000	55.721552
1040.000000	55.775840
1041.000000	55.831836
1042.000000	55.890558
1043.000000	55.945926
1044.000000	55.997593
1045.000000	56.062406
1046.000000	56.127397
1047.000000	56.175004
1048.000000	56.240148
1049.000000	56.308739
1050.000000	56.364367
1051.000000	56.425655
1052.000000	56.500262
1053.000000	56.570948
1054.000000	56.644114
1055.000000	56.703178
1056.000000	56.784616
1057.000000	56.857871
1058.000000	56.920070
1059.000000	56.988494
1060.000000	57.059784
1061.000000	57.134842
1062.000000	57.184366
1063.000000	57.251205
1064.000000	57.311178
1065.000000	57.359188
1066.000000	57.427346
1067.000000	57.474133
1068.000000	57.529780
1069.000000	57.591047
1070.000000	57.636486
1071.000000	57.687872
1072.000000	57.740467
1073.000000	57.798903
1074.000000	57.847252
1075.000000	57.901902
1076.000000	57.936268
1077.000000	57.991982
1078.000000	58.048353
1079.000000	58.097223
1080.000000	58.132404
1081.000000	58.184865
1082.000000	58.240970
1083.000000	58.289150
1084.000000	58.345738
1085.000000	58.372146
1086.000000	58.416860
1087.000000	58.475444
1088.000000	58.517439
1089.000000	58.553944
1090.000000	58.592856
1091.000000	58.625990
1092.000000	58.665899
1093.000000	58.703564
1094.000000	58.722051
1095.000000	58.771163
1096.000000	58.793074
1097.000000	58.810297
1098.000000	58.834567
1099.000000	58.854253
1100.000000	58.878648
1101.000000	58.887642
1102.000000	58.907513
1103.000000	58.923229
1104.000000	58.924978
1105.000000	58.937165
1106.000000	58.952573
1107.000000	58.962087
1108.000000	58.973138
1109.000000	58.979483
1110.000000	58.989443
1111.000000	58.999470
1112.000000	59.006154
1113.000000	59.011236
1114.000000	59.021504
1115.000000	59.021595
1116.000000	59.019794
1117.000000	59.016700
1118.000000	58.990872
1119.000000	58.963342
1120.000000	58.919995
1121.000000	58.871175
1122.000000	58.810106
1123.000000	58.734311
1124.000000	58.630433
1125.000000	58.524826
1126.000000	58.386343
1127.000000	58.229527
1128.000000	58.013970
1129.000000	57.776723
1130.000000	57.493361
1131.000000	57.150187
1132.000000	56.798709
1133.000000	56.432972
1134.000000	56.030277
1135.000000	55.585662
1136.000000	55.148798
1137.000000	54.717019
1138.000000	54.315103
1139.000000	53.914669
1140.000000	53.537173
1141.000000	53.158851
1142.000000	52.799760
1143.000000	52.481316
1144.000000	52.205567
1145.000000	51.977726
1146.000000	51.814545
1147.000000	51.704149
1148.000000	51.627051
1149.000000	51.559911
1150.000000	51.503851
1151.000000	51.412039
1152.000000	51.316539
1153.000000	51.172886
1154.000000	50.966560
1155.000000	50.726281
1156.000000	50.435084
1157.000000	50.121225
1158.000000	49.771099
1159.000000	49.409921
1160.000000	49.050218
1161.000000	48.679093
1162.000000	48.304592
1163.000000	47.921680
1164.000000	47.554203
1165.000000	47.186010
1166.000000	46.816883
