PE UV       SUBTECH     SPECTRUM    ASCII       PEDS        4.00        
   -1
CICIMAUCR0251-3.Sample.ASC
24/05/27
17:05:10.00
24/05/27
17:05:10.00
Vinicio Soto Monge
C. resplendens, F
250,000000
1
Lambda 1050
1050L1511233
PerkinElmer UV WinLab 6.3.2.0749 / 2.02.05 Lambda 900 UV/VIS/NIR, Aug  7 2015 09:38:08

0
0
3350/servo 860,8/2
0
0
UV/VIS
1
1
1
DoubleDePol,CommonBeamDepol,RBeamAtt,SBeamAtt,60mm sphere, WB InGaAs Detector
0
0
0
0
Program
Program
3350/servo 860,8/2
3350/0,2 860,8/0,2
3350/0,2 860,8/0,2
0
15.00
 
 
 
0
 
860,8
319,2
860,8
Front
100
on
S:100 R:100
0
0
0
0
 
0
 
 
 
0
 
 
0
0
0
0
0
 
 
 
 
0
0


0
0
#HDR
-1
-1
#GR
nm
%R
1.0
0.0
2500,000000
-1,000000
2251
8
89,601500
5,208800
#DATA
250.000000	6.765233
251.000000	6.732467
252.000000	6.704500
253.000000	6.689033
254.000000	6.690000
255.000000	6.685633
256.000000	6.647933
257.000000	6.640767
258.000000	6.604300
259.000000	6.605033
260.000000	6.590967
261.000000	6.544367
262.000000	6.516833
263.000000	6.477600
264.000000	6.471033
265.000000	6.440567
266.000000	6.394500
267.000000	6.355767
268.000000	6.351967
269.000000	6.339333
270.000000	6.316267
271.000000	6.311500
272.000000	6.293400
273.000000	6.289967
274.000000	6.287167
275.000000	6.267033
276.000000	6.251300
277.000000	6.245833
278.000000	6.252133
279.000000	6.219800
280.000000	6.225600
281.000000	6.216167
282.000000	6.202800
283.000000	6.203900
284.000000	6.191700
285.000000	6.195033
286.000000	6.191133
287.000000	6.169600
288.000000	6.156633
289.000000	6.147067
290.000000	6.137333
291.000000	6.126567
292.000000	6.115567
293.000000	6.109533
294.000000	6.077800
295.000000	6.064433
296.000000	6.059967
297.000000	6.066233
298.000000	6.053933
299.000000	6.040100
300.000000	6.036133
301.000000	6.040133
302.000000	6.018100
303.000000	5.988267
304.000000	5.990733
305.000000	6.004967
306.000000	5.991233
307.000000	5.984833
308.000000	5.970200
309.000000	5.941967
310.000000	5.939867
311.000000	5.935067
312.000000	5.900400
313.000000	5.888233
314.000000	5.925033
315.000000	5.925733
316.000000	6.212033
317.000000	6.450500
318.000000	6.279967
319.000000	6.359333
320.000000	6.480900
321.000000	6.349200
322.000000	6.182633
323.000000	6.287633
324.000000	6.236967
325.000000	6.080067
326.000000	6.125467
327.000000	5.977500
328.000000	5.887967
329.000000	6.135967
330.000000	6.155833
331.000000	6.020800
332.000000	5.988767
333.000000	6.020767
334.000000	6.052800
335.000000	6.003400
336.000000	5.988867
337.000000	6.077333
338.000000	6.095133
339.000000	6.008867
340.000000	6.008267
341.000000	6.054067
342.000000	6.029567
343.000000	6.064400
344.000000	6.114700
345.000000	6.055967
346.000000	6.040033
347.000000	6.051333
348.000000	5.982367
349.000000	5.983033
350.000000	5.985467
351.000000	6.046967
352.000000	6.128533
353.000000	6.148633
354.000000	6.140367
355.000000	6.198567
356.000000	6.267033
357.000000	6.302867
358.000000	6.337467
359.000000	6.350033
360.000000	6.400733
361.000000	6.421600
362.000000	6.459600
363.000000	6.508933
364.000000	6.567767
365.000000	6.585733
366.000000	6.589900
367.000000	6.588567
368.000000	6.653267
369.000000	6.691300
370.000000	6.686867
371.000000	6.690333
372.000000	6.735933
373.000000	6.727233
374.000000	6.798833
375.000000	7.044967
376.000000	7.141233
377.000000	7.173533
378.000000	7.245667
379.000000	7.317433
380.000000	7.400633
381.000000	7.500867
382.000000	7.594000
383.000000	7.690400
384.000000	7.805967
385.000000	7.938967
386.000000	8.078200
387.000000	8.201833
388.000000	8.344500
389.000000	8.497633
390.000000	8.666400
391.000000	8.850833
392.000000	9.044400
393.000000	9.242167
394.000000	9.478833
395.000000	9.707467
396.000000	9.936133
397.000000	10.182400
398.000000	10.458100
399.000000	10.742400
400.000000	11.045833
401.000000	11.350033
402.000000	11.669400
403.000000	12.019167
404.000000	12.379600
405.000000	12.742000
406.000000	13.124033
407.000000	13.514800
408.000000	13.931300
409.000000	14.339700
410.000000	14.786300
411.000000	15.212800
412.000000	15.659233
413.000000	16.113400
414.000000	16.573600
415.000000	17.035000
416.000000	17.483867
417.000000	17.936967
418.000000	18.400033
419.000000	18.843667
420.000000	19.281867
421.000000	19.726467
422.000000	20.137733
423.000000	20.579367
424.000000	21.001200
425.000000	21.383833
426.000000	21.748600
427.000000	22.093800
428.000000	22.453733
429.000000	22.800967
430.000000	23.106533
431.000000	23.432833
432.000000	23.725833
433.000000	24.004233
434.000000	24.260200
435.000000	24.514800
436.000000	24.765533
437.000000	24.991133
438.000000	25.167333
439.000000	25.377167
440.000000	25.548167
441.000000	25.723733
442.000000	25.838467
443.000000	25.951600
444.000000	26.079100
445.000000	26.182900
446.000000	26.201133
447.000000	26.249667
448.000000	26.288200
449.000000	26.319500
450.000000	26.313667
451.000000	26.296833
452.000000	26.244433
453.000000	26.192000
454.000000	26.133333
455.000000	26.062500
456.000000	25.957367
457.000000	25.855900
458.000000	25.739500
459.000000	25.605733
460.000000	25.495333
461.000000	25.357067
462.000000	25.230333
463.000000	25.101000
464.000000	24.984000
465.000000	24.862300
466.000000	24.754500
467.000000	24.656667
468.000000	24.585367
469.000000	24.511133
470.000000	24.501767
471.000000	24.487600
472.000000	24.518900
473.000000	24.569767
474.000000	24.651600
475.000000	24.788467
476.000000	24.956900
477.000000	25.170300
478.000000	25.421433
479.000000	25.704900
480.000000	26.033167
481.000000	26.380867
482.000000	26.763333
483.000000	27.197500
484.000000	27.620833
485.000000	28.079900
486.000000	28.548667
487.000000	29.003067
488.000000	29.462433
489.000000	29.907033
490.000000	30.357800
491.000000	30.794933
492.000000	31.208467
493.000000	31.556867
494.000000	31.921500
495.000000	32.234067
496.000000	32.523433
497.000000	32.787867
498.000000	32.982867
499.000000	33.199033
500.000000	33.377433
501.000000	33.498667
502.000000	33.660000
503.000000	33.787733
504.000000	33.930100
505.000000	34.085300
506.000000	34.250900
507.000000	34.458767
508.000000	34.659167
509.000000	34.907267
510.000000	35.228233
511.000000	35.566467
512.000000	35.956267
513.000000	36.445300
514.000000	36.982967
515.000000	37.596200
516.000000	38.311233
517.000000	39.059667
518.000000	39.950300
519.000000	40.907067
520.000000	41.949833
521.000000	43.094733
522.000000	44.332600
523.000000	45.637067
524.000000	47.054200
525.000000	48.471933
526.000000	49.980933
527.000000	51.523933
528.000000	53.098967
529.000000	54.707900
530.000000	56.343400
531.000000	57.970633
532.000000	59.599767
533.000000	61.207333
534.000000	62.797667
535.000000	64.315400
536.000000	65.788900
537.000000	67.239167
538.000000	68.583233
539.000000	69.894000
540.000000	71.168333
541.000000	72.394033
542.000000	73.585933
543.000000	74.695000
544.000000	75.778500
545.000000	76.801700
546.000000	77.731167
547.000000	78.694167
548.000000	79.555367
549.000000	80.389033
550.000000	81.187733
551.000000	81.915133
552.000000	82.610067
553.000000	83.272867
554.000000	83.886367
555.000000	84.434533
556.000000	84.949100
557.000000	85.454267
558.000000	85.915067
559.000000	86.358700
560.000000	86.792133
561.000000	87.178767
562.000000	87.526733
563.000000	87.863733
564.000000	88.174167
565.000000	88.486933
566.000000	88.751167
567.000000	89.006900
568.000000	89.234567
569.000000	89.468000
570.000000	89.691033
571.000000	89.863900
572.000000	90.055167
573.000000	90.208867
574.000000	90.354167
575.000000	90.480067
576.000000	90.610900
577.000000	90.704233
578.000000	90.786600
579.000000	90.857633
580.000000	90.915133
581.000000	90.982533
582.000000	90.997300
583.000000	90.977067
584.000000	90.980567
585.000000	90.974933
586.000000	90.952067
587.000000	90.905467
588.000000	90.836867
589.000000	90.752100
590.000000	90.660033
591.000000	90.560100
592.000000	90.447733
593.000000	90.332033
594.000000	90.157900
595.000000	90.003300
596.000000	89.834667
597.000000	89.668867
598.000000	89.444400
599.000000	89.200233
600.000000	88.981667
601.000000	88.708467
602.000000	88.392333
603.000000	88.107867
604.000000	87.799633
605.000000	87.430000
606.000000	87.022700
607.000000	86.624133
608.000000	86.192833
609.000000	85.699133
610.000000	85.200767
611.000000	84.664000
612.000000	84.135667
613.000000	83.588700
614.000000	82.984533
615.000000	82.351533
616.000000	81.728900
617.000000	81.110067
618.000000	80.478067
619.000000	79.804567
620.000000	79.094100
621.000000	78.378700
622.000000	77.576400
623.000000	76.731300
624.000000	75.870533
625.000000	74.975967
626.000000	74.044167
627.000000	73.065467
628.000000	72.054133
629.000000	71.071967
630.000000	70.073767
631.000000	69.054267
632.000000	68.068333
633.000000	67.121933
634.000000	66.204100
635.000000	65.352600
636.000000	64.517867
637.000000	63.673367
638.000000	62.845000
639.000000	62.014867
640.000000	61.132000
641.000000	60.230833
642.000000	59.296233
643.000000	58.324533
644.000000	57.349967
645.000000	56.406600
646.000000	55.540100
647.000000	54.736200
648.000000	54.000333
649.000000	53.398067
650.000000	52.908500
651.000000	52.562100
652.000000	52.406100
653.000000	52.371467
654.000000	52.485367
655.000000	52.748300
656.000000	53.138767
657.000000	53.565800
658.000000	54.069667
659.000000	54.657067
660.000000	55.248267
661.000000	55.893300
662.000000	56.602333
663.000000	57.307300
664.000000	58.002233
665.000000	58.697800
666.000000	59.429267
667.000000	60.185133
668.000000	60.976433
669.000000	61.803300
670.000000	62.637067
671.000000	63.487633
672.000000	64.332767
673.000000	65.196433
674.000000	66.039667
675.000000	66.814100
676.000000	67.553067
677.000000	68.295633
678.000000	68.949267
679.000000	69.580900
680.000000	70.143700
681.000000	70.643000
682.000000	71.092633
683.000000	71.504033
684.000000	71.897200
685.000000	72.245033
686.000000	72.538900
687.000000	72.805433
688.000000	73.047233
689.000000	73.311133
690.000000	73.595067
691.000000	73.810767
692.000000	73.977767
693.000000	74.135767
694.000000	74.308100
695.000000	74.457233
696.000000	74.505867
697.000000	74.514433
698.000000	74.531767
699.000000	74.475433
700.000000	74.352300
701.000000	74.216700
702.000000	74.127667
703.000000	74.040567
704.000000	73.904100
705.000000	73.761700
706.000000	73.653600
707.000000	73.573767
708.000000	73.525533
709.000000	73.519800
710.000000	73.537167
711.000000	73.609967
712.000000	73.700333
713.000000	73.768200
714.000000	73.873700
715.000000	73.973567
716.000000	74.142967
717.000000	74.280967
718.000000	74.434767
719.000000	74.613100
720.000000	74.730100
721.000000	74.834033
722.000000	74.970900
723.000000	75.117567
724.000000	75.275867
725.000000	75.408867
726.000000	75.623433
727.000000	75.818067
728.000000	76.038533
729.000000	76.254667
730.000000	76.496600
731.000000	76.796867
732.000000	77.114733
733.000000	77.528467
734.000000	77.876767
735.000000	78.168333
736.000000	78.533733
737.000000	78.911900
738.000000	79.294500
739.000000	79.639833
740.000000	80.039333
741.000000	80.379533
742.000000	80.768433
743.000000	81.101467
744.000000	81.469167
745.000000	81.733100
746.000000	82.041567
747.000000	82.329600
748.000000	82.468767
749.000000	82.659133
750.000000	82.828300
751.000000	83.020733
752.000000	83.139167
753.000000	83.308967
754.000000	83.384467
755.000000	83.461500
756.000000	83.560100
757.000000	83.687700
758.000000	83.618300
759.000000	83.639233
760.000000	83.611767
761.000000	83.610200
762.000000	83.574700
763.000000	83.540233
764.000000	83.521300
765.000000	83.556400
766.000000	83.550167
767.000000	83.606667
768.000000	83.637833
769.000000	83.696533
770.000000	83.848467
771.000000	83.954300
772.000000	84.039000
773.000000	84.270200
774.000000	84.328633
775.000000	84.583900
776.000000	84.694033
777.000000	84.933400
778.000000	85.057800
779.000000	85.278500
780.000000	85.391567
781.000000	85.523533
782.000000	85.587800
783.000000	85.558967
784.000000	85.641533
785.000000	85.578533
786.000000	85.551267
787.000000	85.282100
788.000000	85.215667
789.000000	85.040933
790.000000	84.854600
791.000000	84.477967
792.000000	84.394900
793.000000	84.138900
794.000000	83.939433
795.000000	83.656367
796.000000	83.364667
797.000000	83.217800
798.000000	82.955600
799.000000	82.584333
800.000000	82.442033
801.000000	82.187767
802.000000	81.939200
803.000000	81.752167
804.000000	81.561833
805.000000	81.301800
806.000000	81.346833
807.000000	81.052233
808.000000	81.034233
809.000000	81.148733
810.000000	81.025067
811.000000	81.041367
812.000000	81.159233
813.000000	81.056233
814.000000	81.301567
815.000000	81.182900
816.000000	81.352800
817.000000	81.600333
818.000000	81.420200
819.000000	81.516400
820.000000	81.571267
821.000000	81.388567
822.000000	81.383733
823.000000	81.184933
824.000000	81.019667
825.000000	80.793800
826.000000	80.524867
827.000000	80.264833
828.000000	79.970567
829.000000	79.704300
830.000000	79.298100
831.000000	78.932233
832.000000	78.617100
833.000000	78.188400
834.000000	77.793333
835.000000	77.485633
836.000000	76.992600
837.000000	76.680367
838.000000	76.542100
839.000000	76.134667
840.000000	75.870800
841.000000	75.683533
842.000000	75.382667
843.000000	75.242800
844.000000	74.650267
845.000000	74.590767
846.000000	74.468467
847.000000	74.274967
848.000000	74.062067
849.000000	73.674367
850.000000	73.620200
851.000000	73.570800
852.000000	73.130100
853.000000	73.051033
854.000000	72.557700
855.000000	72.253367
856.000000	72.718167
857.000000	72.030200
858.000000	72.333911
859.000000	72.184489
860.000000	72.037059
861.000000	71.896756
862.000000	71.778566
863.000000	71.643501
864.000000	71.520329
865.000000	71.399757
866.000000	71.290161
867.000000	71.175919
868.000000	71.074973
869.000000	70.983256
870.000000	70.935587
871.000000	70.927302
872.000000	70.940960
873.000000	70.951718
874.000000	70.953772
875.000000	70.939133
876.000000	70.918734
877.000000	70.895424
878.000000	70.874002
879.000000	70.849034
880.000000	70.821234
881.000000	70.800016
882.000000	70.778429
883.000000	70.770006
884.000000	70.757371
885.000000	70.737184
886.000000	70.718743
887.000000	70.698324
888.000000	70.674344
889.000000	70.638196
890.000000	70.608234
891.000000	70.570726
892.000000	70.524325
893.000000	70.472169
894.000000	70.411368
895.000000	70.341486
896.000000	70.278266
897.000000	70.207483
898.000000	70.135028
899.000000	70.069085
900.000000	69.992462
901.000000	69.910231
902.000000	69.843423
903.000000	69.779696
904.000000	69.713437
905.000000	69.658511
906.000000	69.613494
907.000000	69.574715
908.000000	69.535869
909.000000	69.501386
910.000000	69.468966
911.000000	69.448585
912.000000	69.445395
913.000000	69.436247
914.000000	69.416785
915.000000	69.389901
916.000000	69.376586
917.000000	69.369853
918.000000	69.370218
919.000000	69.357902
920.000000	69.334276
921.000000	69.326617
922.000000	69.314085
923.000000	69.294493
924.000000	69.285527
925.000000	69.277965
926.000000	69.265145
927.000000	69.242298
928.000000	69.228040
929.000000	69.213436
930.000000	69.185354
931.000000	69.150217
932.000000	69.106996
933.000000	69.072165
934.000000	69.019982
935.000000	68.968260
936.000000	68.915128
937.000000	68.854732
938.000000	68.811801
939.000000	68.762128
940.000000	68.695559
941.000000	68.629715
942.000000	68.574824
943.000000	68.510659
944.000000	68.433453
945.000000	68.353274
946.000000	68.283331
947.000000	68.202971
948.000000	68.128047
949.000000	68.045314
950.000000	67.932710
951.000000	67.832060
952.000000	67.743678
953.000000	67.637555
954.000000	67.529889
955.000000	67.417520
956.000000	67.295267
957.000000	67.179351
958.000000	67.074637
959.000000	66.969918
960.000000	66.848934
961.000000	66.723907
962.000000	66.608386
963.000000	66.508649
964.000000	66.416034
965.000000	66.312071
966.000000	66.195913
967.000000	66.098666
968.000000	66.012327
969.000000	65.919389
970.000000	65.822713
971.000000	65.719988
972.000000	65.615668
973.000000	65.523406
974.000000	65.417679
975.000000	65.294879
976.000000	65.184394
977.000000	65.089633
978.000000	64.980082
979.000000	64.867501
980.000000	64.747439
981.000000	64.643253
982.000000	64.529995
983.000000	64.408243
984.000000	64.290015
985.000000	64.174914
986.000000	64.060180
987.000000	63.943803
988.000000	63.829252
989.000000	63.719903
990.000000	63.603133
991.000000	63.477957
992.000000	63.361331
993.000000	63.263251
994.000000	63.148826
995.000000	63.021336
996.000000	62.901831
997.000000	62.783079
998.000000	62.669921
999.000000	62.556627
1000.000000	62.442051
1001.000000	62.332440
1002.000000	62.219217
1003.000000	62.113842
1004.000000	62.016648
1005.000000	61.913206
1006.000000	61.815906
1007.000000	61.718975
1008.000000	61.625032
1009.000000	61.532800
1010.000000	61.437525
1011.000000	61.353630
1012.000000	61.291566
1013.000000	61.241529
1014.000000	61.194990
1015.000000	61.149504
1016.000000	61.116711
1017.000000	61.084998
1018.000000	61.065739
1019.000000	61.044293
1020.000000	61.037878
1021.000000	61.030070
1022.000000	61.013779
1023.000000	61.003229
1024.000000	61.012870
1025.000000	61.011900
1026.000000	61.010801
1027.000000	61.010456
1028.000000	61.006560
1029.000000	60.999061
1030.000000	60.994635
1031.000000	60.990602
1032.000000	60.982000
1033.000000	60.967441
1034.000000	60.964976
1035.000000	60.953717
1036.000000	60.935369
1037.000000	60.921926
1038.000000	60.909118
1039.000000	60.894848
1040.000000	60.866119
1041.000000	60.848264
1042.000000	60.827670
1043.000000	60.810756
1044.000000	60.783851
1045.000000	60.765787
1046.000000	60.763284
1047.000000	60.741498
1048.000000	60.731595
1049.000000	60.731789
1050.000000	60.732722
1051.000000	60.735689
1052.000000	60.743438
1053.000000	60.750713
1054.000000	60.764748
1055.000000	60.775686
1056.000000	60.798495
1057.000000	60.812167
1058.000000	60.832607
1059.000000	60.846400
1060.000000	60.853645
1061.000000	60.865191
1062.000000	60.883163
1063.000000	60.894456
1064.000000	60.908385
1065.000000	60.923320
1066.000000	60.939553
1067.000000	60.958080
1068.000000	60.965126
1069.000000	60.989954
1070.000000	61.009471
1071.000000	61.028479
1072.000000	61.048939
1073.000000	61.067718
1074.000000	61.075232
1075.000000	61.103282
1076.000000	61.132121
1077.000000	61.152819
1078.000000	61.166673
1079.000000	61.205417
1080.000000	61.230086
1081.000000	61.246742
1082.000000	61.280200
1083.000000	61.301311
1084.000000	61.339812
1085.000000	61.371088
1086.000000	61.385014
1087.000000	61.419029
1088.000000	61.438645
1089.000000	61.468810
1090.000000	61.484778
1091.000000	61.508173
1092.000000	61.523341
1093.000000	61.542401
1094.000000	61.547982
1095.000000	61.565279
1096.000000	61.579861
1097.000000	61.577979
1098.000000	61.573895
1099.000000	61.584691
1100.000000	61.586679
1101.000000	61.581276
1102.000000	61.573493
1103.000000	61.572961
1104.000000	61.564595
1105.000000	61.562525
1106.000000	61.555906
1107.000000	61.542821
1108.000000	61.530875
1109.000000	61.526079
1110.000000	61.516131
1111.000000	61.511401
1112.000000	61.495133
1113.000000	61.486876
1114.000000	61.481566
1115.000000	61.458482
1116.000000	61.441487
1117.000000	61.409363
1118.000000	61.364298
1119.000000	61.300950
1120.000000	61.227045
1121.000000	61.136903
1122.000000	61.051203
1123.000000	60.922999
1124.000000	60.787984
1125.000000	60.644130
1126.000000	60.453962
1127.000000	60.226973
1128.000000	59.953803
1129.000000	59.632453
1130.000000	59.247291
1131.000000	58.811025
1132.000000	58.334884
1133.000000	57.868342
1134.000000	57.327588
1135.000000	56.768625
1136.000000	56.210657
1137.000000	55.669103
1138.000000	55.154658
1139.000000	54.665702
1140.000000	54.194235
1141.000000	53.726849
1142.000000	53.296192
1143.000000	52.898876
1144.000000	52.553975
1145.000000	52.278555
1146.000000	52.073451
1147.000000	51.931078
1148.000000	51.814734
1149.000000	51.725377
1150.000000	51.628152
1151.000000	51.501095
1152.000000	51.349705
1153.000000	51.153746
1154.000000	50.892925
1155.000000	50.593895
1156.000000	50.230835
1157.000000	49.856481
1158.000000	49.448145
1159.000000	49.016383
1160.000000	48.578077
1161.000000	48.148971
1162.000000	47.699559
1163.000000	47.267774
1164.000000	46.823305
1165.000000	46.401806
1166.000000	45.993485
