PE UV       SUBTECH     SPECTRUM    ASCII       PEDS        4.00        
   -1
CICIMAUCR0213-3.Sample.ASC
24/06/12
17:14:35.00
24/06/12
17:14:35.00
Vinicio Soto Monge
C. resplendens. Sex M. Dorsal.
250,000000
1
Lambda 1050
1050L1511233
PerkinElmer UV WinLab 6.3.2.0749 / 2.02.05 Lambda 900 UV/VIS/NIR, Aug  7 2015 09:38:08

0
0
3350/servo 860,8/2
0
0
UV/VIS
1
1
1
DoubleDePol,CommonBeamDepol,RBeamAtt,SBeamAtt,60mm sphere, WB InGaAs Detector
0
0
0
0
Program
Program
3350/servo 860,8/2
3350/0,2 860,8/0,2
3350/0,2 860,8/0,2
0
15.00
 
 
 
0
 
860,8
319,2
860,8
Front
100
on
S:100 R:100
0
0
0
0
 
0
 
 
 
0
 
 
0
0
0
0
0
 
 
 
 
0
0


0
0
#HDR
-1
-1
#GR
nm
%R
1.0
0.0
2500,000000
-1,000000
2251
8
90,249400
5,547800
#DATA
250.000000	6.137333
251.000000	6.115600
252.000000	6.128867
253.000000	6.140400
254.000000	6.103033
255.000000	6.095600
256.000000	6.044833
257.000000	6.055067
258.000000	6.041200
259.000000	6.015200
260.000000	5.995900
261.000000	6.026300
262.000000	5.964900
263.000000	5.957700
264.000000	5.926333
265.000000	5.886433
266.000000	5.897433
267.000000	5.865900
268.000000	5.854600
269.000000	5.832733
270.000000	5.819633
271.000000	5.827133
272.000000	5.787633
273.000000	5.789100
274.000000	5.762067
275.000000	5.757333
276.000000	5.727400
277.000000	5.730433
278.000000	5.704000
279.000000	5.696867
280.000000	5.702133
281.000000	5.683700
282.000000	5.699267
283.000000	5.681767
284.000000	5.649600
285.000000	5.655067
286.000000	5.689100
287.000000	5.649500
288.000000	5.626833
289.000000	5.644800
290.000000	5.660167
291.000000	5.620667
292.000000	5.645467
293.000000	5.639767
294.000000	5.612400
295.000000	5.639167
296.000000	5.633433
297.000000	5.635433
298.000000	5.653767
299.000000	5.617567
300.000000	5.651033
301.000000	5.662067
302.000000	5.639300
303.000000	5.611600
304.000000	5.600600
305.000000	5.605400
306.000000	5.595633
307.000000	5.602367
308.000000	5.590600
309.000000	5.626533
310.000000	5.593900
311.000000	5.544367
312.000000	5.557933
313.000000	5.600567
314.000000	5.611167
315.000000	5.596833
316.000000	6.022600
317.000000	6.640767
318.000000	6.555700
319.000000	6.352800
320.000000	6.324800
321.000000	6.441500
322.000000	6.506400
323.000000	6.233233
324.000000	6.533333
325.000000	6.663933
326.000000	6.128200
327.000000	6.250133
328.000000	6.670567
329.000000	6.220467
330.000000	6.272933
331.000000	6.486567
332.000000	5.921933
333.000000	5.833067
334.000000	6.030700
335.000000	6.145167
336.000000	6.236367
337.000000	6.085400
338.000000	5.993800
339.000000	5.962200
340.000000	5.944633
341.000000	5.892633
342.000000	5.945867
343.000000	5.940733
344.000000	5.898133
345.000000	6.071567
346.000000	5.880533
347.000000	5.742133
348.000000	5.869867
349.000000	5.803400
350.000000	5.996500
351.000000	6.201633
352.000000	6.102900
353.000000	6.117433
354.000000	6.172667
355.000000	6.118933
356.000000	6.113267
357.000000	6.254467
358.000000	6.193433
359.000000	6.091333
360.000000	6.018500
361.000000	6.170833
362.000000	6.293100
363.000000	6.249300
364.000000	6.420333
365.000000	6.494400
366.000000	6.425033
367.000000	6.318933
368.000000	6.301800
369.000000	6.456433
370.000000	6.319967
371.000000	6.213667
372.000000	6.091933
373.000000	6.191333
374.000000	6.189833
375.000000	6.627100
376.000000	6.936333
377.000000	6.988267
378.000000	7.062300
379.000000	7.129633
380.000000	7.234600
381.000000	7.328400
382.000000	7.421467
383.000000	7.559367
384.000000	7.723700
385.000000	7.872200
386.000000	7.991000
387.000000	8.116700
388.000000	8.295500
389.000000	8.477000
390.000000	8.683633
391.000000	8.890500
392.000000	9.099767
393.000000	9.338300
394.000000	9.597067
395.000000	9.880967
396.000000	10.164200
397.000000	10.458633
398.000000	10.781567
399.000000	11.110867
400.000000	11.437600
401.000000	11.783400
402.000000	12.167633
403.000000	12.568467
404.000000	13.002633
405.000000	13.419500
406.000000	13.842667
407.000000	14.258067
408.000000	14.670100
409.000000	15.164867
410.000000	15.615333
411.000000	16.041333
412.000000	16.521033
413.000000	16.956200
414.000000	17.431000
415.000000	17.876733
416.000000	18.305267
417.000000	18.712833
418.000000	19.155800
419.000000	19.590467
420.000000	19.967367
421.000000	20.381833
422.000000	20.756433
423.000000	21.123867
424.000000	21.475833
425.000000	21.853467
426.000000	22.153100
427.000000	22.440400
428.000000	22.775433
429.000000	23.079867
430.000000	23.345767
431.000000	23.597033
432.000000	23.861300
433.000000	24.102933
434.000000	24.323933
435.000000	24.533600
436.000000	24.727733
437.000000	24.907700
438.000000	25.097600
439.000000	25.225300
440.000000	25.394433
441.000000	25.519400
442.000000	25.618767
443.000000	25.733767
444.000000	25.822967
445.000000	25.925500
446.000000	25.930400
447.000000	25.967500
448.000000	26.047633
449.000000	26.084567
450.000000	26.058733
451.000000	26.052033
452.000000	25.998833
453.000000	26.049200
454.000000	26.020467
455.000000	26.062200
456.000000	26.051367
457.000000	26.067267
458.000000	26.097833
459.000000	26.154567
460.000000	26.214833
461.000000	26.295800
462.000000	26.387667
463.000000	26.554100
464.000000	26.690100
465.000000	26.923567
466.000000	27.142500
467.000000	27.413567
468.000000	27.717267
469.000000	28.045300
470.000000	28.379033
471.000000	28.778300
472.000000	29.167233
473.000000	29.545333
474.000000	29.917167
475.000000	30.314233
476.000000	30.715700
477.000000	31.085267
478.000000	31.503933
479.000000	31.857567
480.000000	32.202633
481.000000	32.522467
482.000000	32.894100
483.000000	33.203067
484.000000	33.524367
485.000000	33.760900
486.000000	33.999500
487.000000	34.232467
488.000000	34.460233
489.000000	34.650500
490.000000	34.886567
491.000000	35.042367
492.000000	35.255233
493.000000	35.496667
494.000000	35.628467
495.000000	35.805867
496.000000	36.060333
497.000000	36.231067
498.000000	36.429333
499.000000	36.673333
500.000000	36.921900
501.000000	37.145233
502.000000	37.426133
503.000000	37.764233
504.000000	38.100400
505.000000	38.488767
506.000000	38.838400
507.000000	39.270867
508.000000	39.737167
509.000000	40.241167
510.000000	40.747633
511.000000	41.277200
512.000000	41.899733
513.000000	42.498633
514.000000	43.149067
515.000000	43.877100
516.000000	44.630133
517.000000	45.405033
518.000000	46.257300
519.000000	47.124900
520.000000	48.012567
521.000000	48.979800
522.000000	49.995400
523.000000	51.052367
524.000000	52.193867
525.000000	53.340867
526.000000	54.523600
527.000000	55.746433
528.000000	56.981433
529.000000	58.251833
530.000000	59.542933
531.000000	60.875233
532.000000	62.189333
533.000000	63.507233
534.000000	64.823967
535.000000	66.118167
536.000000	67.311967
537.000000	68.565667
538.000000	69.760267
539.000000	70.866100
540.000000	72.002867
541.000000	73.070000
542.000000	74.098967
543.000000	75.078900
544.000000	75.967200
545.000000	76.872367
546.000000	77.718167
547.000000	78.525333
548.000000	79.263200
549.000000	80.003900
550.000000	80.707400
551.000000	81.375267
552.000000	82.056767
553.000000	82.680400
554.000000	83.225033
555.000000	83.794000
556.000000	84.319633
557.000000	84.773067
558.000000	85.194633
559.000000	85.661067
560.000000	86.105800
561.000000	86.482667
562.000000	86.850700
563.000000	87.205333
564.000000	87.536500
565.000000	87.822167
566.000000	88.107733
567.000000	88.322200
568.000000	88.539233
569.000000	88.782267
570.000000	89.025133
571.000000	89.185433
572.000000	89.339433
573.000000	89.539800
574.000000	89.689533
575.000000	89.822733
576.000000	89.954667
577.000000	90.092267
578.000000	90.186133
579.000000	90.272100
580.000000	90.365333
581.000000	90.472733
582.000000	90.522267
583.000000	90.577800
584.000000	90.629033
585.000000	90.649033
586.000000	90.663400
587.000000	90.677133
588.000000	90.703933
589.000000	90.685333
590.000000	90.626467
591.000000	90.582233
592.000000	90.536400
593.000000	90.427300
594.000000	90.334900
595.000000	90.209600
596.000000	90.117467
597.000000	89.972700
598.000000	89.813533
599.000000	89.641667
600.000000	89.469233
601.000000	89.274033
602.000000	89.016100
603.000000	88.754633
604.000000	88.460100
605.000000	88.180067
606.000000	87.860833
607.000000	87.532733
608.000000	87.163867
609.000000	86.726267
610.000000	86.321267
611.000000	85.908567
612.000000	85.465300
613.000000	84.978567
614.000000	84.455500
615.000000	83.848667
616.000000	83.278733
617.000000	82.737267
618.000000	82.184267
619.000000	81.624400
620.000000	81.006633
621.000000	80.328433
622.000000	79.660333
623.000000	79.021900
624.000000	78.303767
625.000000	77.549400
626.000000	76.781667
627.000000	75.967233
628.000000	75.136500
629.000000	74.317933
630.000000	73.432600
631.000000	72.509233
632.000000	71.629367
633.000000	70.717767
634.000000	69.791533
635.000000	68.834667
636.000000	67.877233
637.000000	66.950833
638.000000	66.033400
639.000000	65.118767
640.000000	64.151700
641.000000	63.198967
642.000000	62.293733
643.000000	61.341500
644.000000	60.426800
645.000000	59.594567
646.000000	58.813700
647.000000	58.063900
648.000000	57.389467
649.000000	56.782633
650.000000	56.248067
651.000000	55.844267
652.000000	55.531933
653.000000	55.279033
654.000000	55.144167
655.000000	55.111633
656.000000	55.146200
657.000000	55.268167
658.000000	55.493633
659.000000	55.774467
660.000000	56.090400
661.000000	56.479767
662.000000	56.920900
663.000000	57.434067
664.000000	58.019367
665.000000	58.612367
666.000000	59.179300
667.000000	59.823600
668.000000	60.483767
669.000000	61.181400
670.000000	61.858933
671.000000	62.530200
672.000000	63.166133
673.000000	63.772900
674.000000	64.302300
675.000000	64.832567
676.000000	65.380800
677.000000	65.847033
678.000000	66.243067
679.000000	66.655233
680.000000	67.025000
681.000000	67.454033
682.000000	67.872167
683.000000	68.215500
684.000000	68.517400
685.000000	68.788467
686.000000	69.023200
687.000000	69.274967
688.000000	69.544500
689.000000	69.787700
690.000000	69.936167
691.000000	70.043333
692.000000	70.072367
693.000000	70.151767
694.000000	70.271433
695.000000	70.278533
696.000000	70.325567
697.000000	70.313167
698.000000	70.313067
699.000000	70.333033
700.000000	70.309033
701.000000	70.283133
702.000000	70.209133
703.000000	70.137700
704.000000	70.151667
705.000000	70.090000
706.000000	70.008967
707.000000	69.951867
708.000000	69.886533
709.000000	69.722800
710.000000	69.700967
711.000000	69.613700
712.000000	69.600000
713.000000	69.460533
714.000000	69.371433
715.000000	69.337700
716.000000	69.270500
717.000000	69.261500
718.000000	69.173167
719.000000	69.273800
720.000000	69.337133
721.000000	69.349067
722.000000	69.422433
723.000000	69.571067
724.000000	69.803067
725.000000	69.899000
726.000000	70.105500
727.000000	70.290333
728.000000	70.596933
729.000000	70.865833
730.000000	71.128300
731.000000	71.487133
732.000000	71.867900
733.000000	72.227100
734.000000	72.539933
735.000000	72.990833
736.000000	73.454933
737.000000	73.867867
738.000000	74.386967
739.000000	74.888333
740.000000	75.419333
741.000000	75.865600
742.000000	76.327600
743.000000	76.823800
744.000000	77.342367
745.000000	77.735333
746.000000	78.178800
747.000000	78.561700
748.000000	79.074600
749.000000	79.406500
750.000000	79.704933
751.000000	80.182100
752.000000	80.509133
753.000000	80.818700
754.000000	81.162300
755.000000	81.424933
756.000000	81.689633
757.000000	82.002600
758.000000	82.286500
759.000000	82.515800
760.000000	82.891867
761.000000	83.166400
762.000000	83.200367
763.000000	83.648100
764.000000	83.721767
765.000000	84.059900
766.000000	84.359433
767.000000	84.527433
768.000000	84.702333
769.000000	84.974467
770.000000	85.080600
771.000000	85.289867
772.000000	85.494833
773.000000	85.526700
774.000000	85.848833
775.000000	85.924133
776.000000	85.981400
777.000000	86.255200
778.000000	86.183000
779.000000	86.443033
780.000000	86.395667
781.000000	86.498600
782.000000	86.457067
783.000000	86.456433
784.000000	86.464600
785.000000	86.437300
786.000000	86.375000
787.000000	86.194500
788.000000	86.218667
789.000000	85.964633
790.000000	85.866700
791.000000	85.632933
792.000000	85.656800
793.000000	85.603467
794.000000	85.313333
795.000000	85.265933
796.000000	84.929100
797.000000	85.051200
798.000000	84.890000
799.000000	84.566100
800.000000	84.383100
801.000000	84.549367
802.000000	84.268300
803.000000	84.273133
804.000000	84.286800
805.000000	84.283533
806.000000	84.242533
807.000000	84.023467
808.000000	84.136400
809.000000	84.166367
810.000000	84.029933
811.000000	83.990767
812.000000	83.979700
813.000000	84.218533
814.000000	84.220133
815.000000	84.537500
816.000000	84.275867
817.000000	84.210400
818.000000	83.927333
819.000000	84.117000
820.000000	84.121933
821.000000	84.337167
822.000000	83.986267
823.000000	84.111100
824.000000	84.011600
825.000000	83.776033
826.000000	83.623933
827.000000	83.355733
828.000000	83.262867
829.000000	83.127467
830.000000	82.901500
831.000000	82.759800
832.000000	82.411533
833.000000	82.518433
834.000000	82.193367
835.000000	81.956767
836.000000	81.637500
837.000000	81.147333
838.000000	80.867600
839.000000	80.869567
840.000000	80.629867
841.000000	80.569167
842.000000	79.999700
843.000000	79.629233
844.000000	79.071633
845.000000	79.044267
846.000000	78.647267
847.000000	78.628867
848.000000	78.266367
849.000000	77.825267
850.000000	77.401267
851.000000	77.316000
852.000000	77.350967
853.000000	77.220800
854.000000	76.650533
855.000000	76.295400
856.000000	75.756667
857.000000	75.208533
858.000000	75.753533
859.000000	75.435626
860.000000	75.167056
861.000000	74.873378
862.000000	74.601906
863.000000	74.326089
864.000000	74.037785
865.000000	73.779154
866.000000	73.496025
867.000000	73.219612
868.000000	72.958123
869.000000	72.679949
870.000000	72.418234
871.000000	72.154302
872.000000	71.882072
873.000000	71.593827
874.000000	71.351461
875.000000	71.092499
876.000000	70.834520
877.000000	70.572764
878.000000	70.302580
879.000000	70.039490
880.000000	69.766439
881.000000	69.508729
882.000000	69.260190
883.000000	69.008796
884.000000	68.752818
885.000000	68.499164
886.000000	68.256149
887.000000	68.015735
888.000000	67.776281
889.000000	67.527557
890.000000	67.301921
891.000000	67.066836
892.000000	66.833501
893.000000	66.611782
894.000000	66.388642
895.000000	66.149338
896.000000	65.933391
897.000000	65.748281
898.000000	65.545915
899.000000	65.350460
900.000000	65.165882
901.000000	64.976342
902.000000	64.799538
903.000000	64.626688
904.000000	64.464399
905.000000	64.312541
906.000000	64.161797
907.000000	64.013488
908.000000	63.886598
909.000000	63.747832
910.000000	63.621193
911.000000	63.493874
912.000000	63.370928
913.000000	63.261101
914.000000	63.144212
915.000000	63.023102
916.000000	62.889660
917.000000	62.769117
918.000000	62.655185
919.000000	62.531101
920.000000	62.402666
921.000000	62.265172
922.000000	62.143490
923.000000	62.025228
924.000000	61.902840
925.000000	61.775366
926.000000	61.657688
927.000000	61.539829
928.000000	61.433080
929.000000	61.334428
930.000000	61.223923
931.000000	61.113760
932.000000	61.013310
933.000000	60.912475
934.000000	60.813519
935.000000	60.711758
936.000000	60.610184
937.000000	60.523627
938.000000	60.442035
939.000000	60.353496
940.000000	60.257763
941.000000	60.174930
942.000000	60.103047
943.000000	60.020886
944.000000	59.942163
945.000000	59.867897
946.000000	59.790374
947.000000	59.708302
948.000000	59.626102
949.000000	59.557719
950.000000	59.482835
951.000000	59.403912
952.000000	59.327952
953.000000	59.242507
954.000000	59.166895
955.000000	59.091644
956.000000	59.009956
957.000000	58.927123
958.000000	58.849548
959.000000	58.778160
960.000000	58.693883
961.000000	58.610538
962.000000	58.528601
963.000000	58.453204
964.000000	58.378381
965.000000	58.307846
966.000000	58.239529
967.000000	58.174546
968.000000	58.110593
969.000000	58.042394
970.000000	57.984833
971.000000	57.931559
972.000000	57.874776
973.000000	57.814376
974.000000	57.749172
975.000000	57.707956
976.000000	57.659612
977.000000	57.609761
978.000000	57.571520
979.000000	57.530362
980.000000	57.492668
981.000000	57.449108
982.000000	57.418238
983.000000	57.399517
984.000000	57.370289
985.000000	57.345820
986.000000	57.332540
987.000000	57.325977
988.000000	57.320182
989.000000	57.306959
990.000000	57.306582
991.000000	57.308336
992.000000	57.312040
993.000000	57.316956
994.000000	57.323628
995.000000	57.343249
996.000000	57.359091
997.000000	57.367721
998.000000	57.377659
999.000000	57.397963
1000.000000	57.421759
1001.000000	57.446810
1002.000000	57.471583
1003.000000	57.491662
1004.000000	57.506802
1005.000000	57.539112
1006.000000	57.566948
1007.000000	57.581571
1008.000000	57.611507
1009.000000	57.644606
1010.000000	57.676069
1011.000000	57.721716
1012.000000	57.751943
1013.000000	57.802515
1014.000000	57.845322
1015.000000	57.901286
1016.000000	57.958519
1017.000000	58.021923
1018.000000	58.086040
1019.000000	58.153413
1020.000000	58.216548
1021.000000	58.279315
1022.000000	58.362131
1023.000000	58.430701
1024.000000	58.490582
1025.000000	58.565372
1026.000000	58.639323
1027.000000	58.699133
1028.000000	58.761998
1029.000000	58.831617
1030.000000	58.897562
1031.000000	58.957153
1032.000000	59.013198
1033.000000	59.068834
1034.000000	59.123929
1035.000000	59.170696
1036.000000	59.230892
1037.000000	59.274010
1038.000000	59.334585
1039.000000	59.387395
1040.000000	59.431639
1041.000000	59.477707
1042.000000	59.509533
1043.000000	59.578173
1044.000000	59.631891
1045.000000	59.676986
1046.000000	59.727605
1047.000000	59.769839
1048.000000	59.825879
1049.000000	59.879213
1050.000000	59.927578
1051.000000	59.988717
1052.000000	60.045491
1053.000000	60.115665
1054.000000	60.176959
1055.000000	60.237199
1056.000000	60.307122
1057.000000	60.375332
1058.000000	60.424256
1059.000000	60.494020
1060.000000	60.557224
1061.000000	60.619043
1062.000000	60.680507
1063.000000	60.738039
1064.000000	60.800269
1065.000000	60.863424
1066.000000	60.927565
1067.000000	60.991311
1068.000000	61.032053
1069.000000	61.098953
1070.000000	61.168257
1071.000000	61.231622
1072.000000	61.279438
1073.000000	61.343129
1074.000000	61.396900
1075.000000	61.459887
1076.000000	61.520942
1077.000000	61.560636
1078.000000	61.623363
1079.000000	61.685294
1080.000000	61.726502
1081.000000	61.782427
1082.000000	61.849920
1083.000000	61.885356
1084.000000	61.934576
1085.000000	62.000108
1086.000000	62.042934
1087.000000	62.090601
1088.000000	62.131931
1089.000000	62.169007
1090.000000	62.212180
1091.000000	62.247994
1092.000000	62.279676
1093.000000	62.314409
1094.000000	62.340682
1095.000000	62.379156
1096.000000	62.386002
1097.000000	62.410624
1098.000000	62.427764
1099.000000	62.454312
1100.000000	62.457671
1101.000000	62.475170
1102.000000	62.492736
1103.000000	62.498197
1104.000000	62.505875
1105.000000	62.505466
1106.000000	62.518374
1107.000000	62.528367
1108.000000	62.530548
1109.000000	62.532747
1110.000000	62.529909
1111.000000	62.542074
1112.000000	62.546871
1113.000000	62.550023
1114.000000	62.557161
1115.000000	62.543913
1116.000000	62.552021
1117.000000	62.532491
1118.000000	62.513201
1119.000000	62.475161
1120.000000	62.437094
1121.000000	62.398370
1122.000000	62.328434
1123.000000	62.256468
1124.000000	62.156338
1125.000000	62.057071
1126.000000	61.926458
1127.000000	61.784475
1128.000000	61.587276
1129.000000	61.363242
1130.000000	61.101990
1131.000000	60.809300
1132.000000	60.492104
1133.000000	60.201234
1134.000000	59.821704
1135.000000	59.422058
1136.000000	59.029010
1137.000000	58.663010
1138.000000	58.320224
1139.000000	57.993183
1140.000000	57.681066
1141.000000	57.363444
1142.000000	57.071126
1143.000000	56.816205
1144.000000	56.587721
1145.000000	56.410817
1146.000000	56.264412
1147.000000	56.140471
1148.000000	56.039496
1149.000000	55.947199
1150.000000	55.849232
1151.000000	55.746247
1152.000000	55.621086
1153.000000	55.459749
1154.000000	55.276156
1155.000000	55.050828
1156.000000	54.805948
1157.000000	54.542029
1158.000000	54.269533
1159.000000	53.991927
1160.000000	53.706121
1161.000000	53.419025
1162.000000	53.125504
1163.000000	52.828337
1164.000000	52.548731
1165.000000	52.271397
1166.000000	52.001196
