PE UV       SUBTECH     SPECTRUM    ASCII       PEDS        4.00        
   -1
CICIMAUCR0239-3.Sample.ASC
24/06/20
12:23:16.00
24/06/20
12:23:16.00
Vinicio Soto Monge
C. cupreomarginata. Sex M. Dorsal.
250,000000
1
Lambda 1050
1050L1511233
PerkinElmer UV WinLab 6.3.2.0749 / 2.02.05 Lambda 900 UV/VIS/NIR, Aug  7 2015 09:38:08

0
0
3350/servo 860,8/2
0
0
UV/VIS
1
1
1
DoubleDePol,CommonBeamDepol,RBeamAtt,SBeamAtt,60mm sphere, WB InGaAs Detector
0
0
0
0
Program
Program
3350/servo 860,8/2
3350/0,2 860,8/0,2
3350/0,2 860,8/0,2
0
15.00
 
 
 
0
 
860,8
319,2
860,8
Front
100
on
S:100 R:100
0
0
0
0
 
0
 
 
 
0
 
 
0
0
0
0
0
 
 
 
 
0
0


0
0
#HDR
-1
-1
#GR
nm
%R
1.0
0.0
2500,000000
-1,000000
2251
8
71,550600
5,249000
#DATA
250.000000	2232.000000	5.843300
251.000000	2231.000000	5.832767
252.000000	2230.000000	5.819500
253.000000	2229.000000	5.799700
254.000000	2228.000000	5.809033
255.000000	2227.000000	5.779067
256.000000	2226.000000	5.792733
257.000000	2225.000000	5.801867
258.000000	2224.000000	5.762867
259.000000	2223.000000	5.743367
260.000000	2222.000000	5.715633
261.000000	2221.000000	5.678500
262.000000	2220.000000	5.694200
263.000000	2219.000000	5.645033
264.000000	2218.000000	5.628167
265.000000	2217.000000	5.604733
266.000000	2216.000000	5.610767
267.000000	2215.000000	5.564133
268.000000	2214.000000	5.542500
269.000000	2213.000000	5.538800
270.000000	2212.000000	5.532967
271.000000	2211.000000	5.531767
272.000000	2210.000000	5.484367
273.000000	2209.000000	5.473933
274.000000	2208.000000	5.480200
275.000000	2207.000000	5.466633
276.000000	2206.000000	5.459967
277.000000	2205.000000	5.419933
278.000000	2204.000000	5.430500
279.000000	2203.000000	5.418400
280.000000	2202.000000	5.388267
281.000000	2201.000000	5.397833
282.000000	2200.000000	5.394833
283.000000	2199.000000	5.372200
284.000000	2198.000000	5.381033
285.000000	2197.000000	5.345300
286.000000	2196.000000	5.308800
287.000000	2195.000000	5.304200
288.000000	2194.000000	5.318600
289.000000	2193.000000	5.291667
290.000000	2192.000000	5.294067
291.000000	2191.000000	5.276433
292.000000	2190.000000	5.260367
293.000000	2189.000000	5.265367
294.000000	2188.000000	5.259767
295.000000	2187.000000	5.239567
296.000000	2186.000000	5.243033
297.000000	2185.000000	5.253800
298.000000	2184.000000	5.255433
299.000000	2183.000000	5.219167
300.000000	2182.000000	5.212300
301.000000	2181.000000	5.212433
302.000000	2180.000000	5.203233
303.000000	2179.000000	5.201033
304.000000	2178.000000	5.226867
305.000000	2177.000000	5.231133
306.000000	2176.000000	5.219533
307.000000	2175.000000	5.220500
308.000000	2174.000000	5.190467
309.000000	2173.000000	5.184633
310.000000	2172.000000	5.191933
311.000000	2171.000000	5.205300
312.000000	2170.000000	5.207167
313.000000	2169.000000	5.210433
314.000000	2168.000000	5.189433
315.000000	2167.000000	5.179900
316.000000	2166.000000	5.409233
317.000000	2165.000000	5.796500
318.000000	2164.000000	6.064133
319.000000	2163.000000	5.930867
320.000000	2162.000000	5.616167
321.000000	2161.000000	5.841767
322.000000	2160.000000	5.886367
323.000000	2159.000000	5.793700
324.000000	2158.000000	5.719000
325.000000	2157.000000	5.673833
326.000000	2156.000000	5.678933
327.000000	2155.000000	5.654700
328.000000	2154.000000	5.712633
329.000000	2153.000000	5.664600
330.000000	2152.000000	5.666133
331.000000	2151.000000	5.514667
332.000000	2150.000000	5.416267
333.000000	2149.000000	5.455933
334.000000	2148.000000	5.439367
335.000000	2147.000000	5.469900
336.000000	2146.000000	5.540167
337.000000	2145.000000	5.555033
338.000000	2144.000000	5.489033
339.000000	2143.000000	5.475267
340.000000	2142.000000	5.418767
341.000000	2141.000000	5.370500
342.000000	2140.000000	5.409900
343.000000	2139.000000	5.467700
344.000000	2138.000000	5.461167
345.000000	2137.000000	5.478200
346.000000	2136.000000	5.468400
347.000000	2135.000000	5.434000
348.000000	2134.000000	5.421900
349.000000	2133.000000	5.411833
350.000000	2132.000000	5.468833
351.000000	2131.000000	5.476567
352.000000	2130.000000	5.520233
353.000000	2129.000000	5.569100
354.000000	2128.000000	5.533967
355.000000	2127.000000	5.602300
356.000000	2126.000000	5.658700
357.000000	2125.000000	5.628867
358.000000	2124.000000	5.592233
359.000000	2123.000000	5.587433
360.000000	2122.000000	5.610067
361.000000	2121.000000	5.635333
362.000000	2120.000000	5.644267
363.000000	2119.000000	5.642700
364.000000	2118.000000	5.629700
365.000000	2117.000000	5.689833
366.000000	2116.000000	5.744500
367.000000	2115.000000	5.746700
368.000000	2114.000000	5.720000
369.000000	2113.000000	5.692467
370.000000	2112.000000	5.744167
371.000000	2111.000000	5.732667
372.000000	2110.000000	5.721933
373.000000	2109.000000	5.603567
374.000000	2108.000000	5.550433
375.000000	2107.000000	5.818300
376.000000	2106.000000	5.961600
377.000000	2105.000000	5.981767
378.000000	2104.000000	6.027633
379.000000	2103.000000	6.054567
380.000000	2102.000000	6.085033
381.000000	2101.000000	6.123433
382.000000	2100.000000	6.169567
383.000000	2099.000000	6.205433
384.000000	2098.000000	6.243167
385.000000	2097.000000	6.287200
386.000000	2096.000000	6.335733
387.000000	2095.000000	6.372467
388.000000	2094.000000	6.420367
389.000000	2093.000000	6.452467
390.000000	2092.000000	6.496867
391.000000	2091.000000	6.564967
392.000000	2090.000000	6.626267
393.000000	2089.000000	6.683100
394.000000	2088.000000	6.729133
395.000000	2087.000000	6.776567
396.000000	2086.000000	6.843900
397.000000	2085.000000	6.897000
398.000000	2084.000000	6.965633
399.000000	2083.000000	7.041733
400.000000	2082.000000	7.126000
401.000000	2081.000000	7.200700
402.000000	2080.000000	7.279633
403.000000	2079.000000	7.372067
404.000000	2078.000000	7.464767
405.000000	2077.000000	7.547933
406.000000	2076.000000	7.652467
407.000000	2075.000000	7.757500
408.000000	2074.000000	7.861433
409.000000	2073.000000	7.965567
410.000000	2072.000000	8.069967
411.000000	2071.000000	8.175567
412.000000	2070.000000	8.298833
413.000000	2069.000000	8.434200
414.000000	2068.000000	8.572867
415.000000	2067.000000	8.702700
416.000000	2066.000000	8.849067
417.000000	2065.000000	9.002767
418.000000	2064.000000	9.149900
419.000000	2063.000000	9.295500
420.000000	2062.000000	9.440467
421.000000	2061.000000	9.601633
422.000000	2060.000000	9.777333
423.000000	2059.000000	9.940267
424.000000	2058.000000	10.101500
425.000000	2057.000000	10.265400
426.000000	2056.000000	10.432600
427.000000	2055.000000	10.595833
428.000000	2054.000000	10.774300
429.000000	2053.000000	10.959800
430.000000	2052.000000	11.124467
431.000000	2051.000000	11.304567
432.000000	2050.000000	11.497400
433.000000	2049.000000	11.690900
434.000000	2048.000000	11.884467
435.000000	2047.000000	12.068100
436.000000	2046.000000	12.256733
437.000000	2045.000000	12.441467
438.000000	2044.000000	12.626267
439.000000	2043.000000	12.804100
440.000000	2042.000000	12.999867
441.000000	2041.000000	13.168767
442.000000	2040.000000	13.351133
443.000000	2039.000000	13.541300
444.000000	2038.000000	13.712900
445.000000	2037.000000	13.898733
446.000000	2036.000000	14.055533
447.000000	2035.000000	14.232133
448.000000	2034.000000	14.384000
449.000000	2033.000000	14.570000
450.000000	2032.000000	14.737533
451.000000	2031.000000	14.905600
452.000000	2030.000000	15.071767
453.000000	2029.000000	15.216133
454.000000	2028.000000	15.385633
455.000000	2027.000000	15.544200
456.000000	2026.000000	15.679233
457.000000	2025.000000	15.818367
458.000000	2024.000000	15.954733
459.000000	2023.000000	16.107100
460.000000	2022.000000	16.243433
461.000000	2021.000000	16.381333
462.000000	2020.000000	16.518633
463.000000	2019.000000	16.659633
464.000000	2018.000000	16.779567
465.000000	2017.000000	16.917100
466.000000	2016.000000	17.039700
467.000000	2015.000000	17.177700
468.000000	2014.000000	17.318933
469.000000	2013.000000	17.454633
470.000000	2012.000000	17.612333
471.000000	2011.000000	17.749767
472.000000	2010.000000	17.917067
473.000000	2009.000000	18.079867
474.000000	2008.000000	18.255033
475.000000	2007.000000	18.429967
476.000000	2006.000000	18.618233
477.000000	2005.000000	18.805333
478.000000	2004.000000	19.018333
479.000000	2003.000000	19.239267
480.000000	2002.000000	19.450200
481.000000	2001.000000	19.686900
482.000000	2000.000000	19.933667
483.000000	1999.000000	20.178233
484.000000	1998.000000	20.444467
485.000000	1997.000000	20.720333
486.000000	1996.000000	21.010367
487.000000	1995.000000	21.301933
488.000000	1994.000000	21.598167
489.000000	1993.000000	21.935767
490.000000	1992.000000	22.270567
491.000000	1991.000000	22.624000
492.000000	1990.000000	22.976933
493.000000	1989.000000	23.350700
494.000000	1988.000000	23.720400
495.000000	1987.000000	24.098533
496.000000	1986.000000	24.447467
497.000000	1985.000000	24.826333
498.000000	1984.000000	25.215533
499.000000	1983.000000	25.586767
500.000000	1982.000000	25.998467
501.000000	1981.000000	26.393367
502.000000	1980.000000	26.826367
503.000000	1979.000000	27.240367
504.000000	1978.000000	27.684767
505.000000	1977.000000	28.136067
506.000000	1976.000000	28.582300
507.000000	1975.000000	29.062200
508.000000	1974.000000	29.555100
509.000000	1973.000000	30.055733
510.000000	1972.000000	30.591333
511.000000	1971.000000	31.134600
512.000000	1970.000000	31.679833
513.000000	1969.000000	32.254667
514.000000	1968.000000	32.829367
515.000000	1967.000000	33.432800
516.000000	1966.000000	33.998800
517.000000	1965.000000	34.603933
518.000000	1964.000000	35.194767
519.000000	1963.000000	35.803967
520.000000	1962.000000	36.389000
521.000000	1961.000000	36.996333
522.000000	1960.000000	37.611933
523.000000	1959.000000	38.233867
524.000000	1958.000000	38.878933
525.000000	1957.000000	39.512033
526.000000	1956.000000	40.163100
527.000000	1955.000000	40.834100
528.000000	1954.000000	41.516733
529.000000	1953.000000	42.203600
530.000000	1952.000000	42.932433
531.000000	1951.000000	43.685700
532.000000	1950.000000	44.470233
533.000000	1949.000000	45.284000
534.000000	1948.000000	46.103933
535.000000	1947.000000	46.934133
536.000000	1946.000000	47.779667
537.000000	1945.000000	48.611600
538.000000	1944.000000	49.433267
539.000000	1943.000000	50.259067
540.000000	1942.000000	51.071800
541.000000	1941.000000	51.864100
542.000000	1940.000000	52.643033
543.000000	1939.000000	53.377300
544.000000	1938.000000	54.065767
545.000000	1937.000000	54.736667
546.000000	1936.000000	55.362033
547.000000	1935.000000	55.953267
548.000000	1934.000000	56.493300
549.000000	1933.000000	56.993367
550.000000	1932.000000	57.457933
551.000000	1931.000000	57.887933
552.000000	1930.000000	58.315300
553.000000	1929.000000	58.678567
554.000000	1928.000000	59.027267
555.000000	1927.000000	59.338233
556.000000	1926.000000	59.599700
557.000000	1925.000000	59.823667
558.000000	1924.000000	60.007167
559.000000	1923.000000	60.204000
560.000000	1922.000000	60.432033
561.000000	1921.000000	60.586300
562.000000	1920.000000	60.713667
563.000000	1919.000000	60.829200
564.000000	1918.000000	60.950700
565.000000	1917.000000	61.048567
566.000000	1916.000000	61.142300
567.000000	1915.000000	61.252233
568.000000	1914.000000	61.361400
569.000000	1913.000000	61.438133
570.000000	1912.000000	61.516233
571.000000	1911.000000	61.585000
572.000000	1910.000000	61.613133
573.000000	1909.000000	61.632733
574.000000	1908.000000	61.632300
575.000000	1907.000000	61.611800
576.000000	1906.000000	61.570200
577.000000	1905.000000	61.496833
578.000000	1904.000000	61.411500
579.000000	1903.000000	61.328400
580.000000	1902.000000	61.248200
581.000000	1901.000000	61.157133
582.000000	1900.000000	61.055967
583.000000	1899.000000	60.986167
584.000000	1898.000000	60.921733
585.000000	1897.000000	60.843067
586.000000	1896.000000	60.778200
587.000000	1895.000000	60.748633
588.000000	1894.000000	60.703500
589.000000	1893.000000	60.677633
590.000000	1892.000000	60.615167
591.000000	1891.000000	60.569233
592.000000	1890.000000	60.517067
593.000000	1889.000000	60.422633
594.000000	1888.000000	60.322067
595.000000	1887.000000	60.193267
596.000000	1886.000000	60.059533
597.000000	1885.000000	59.902100
598.000000	1884.000000	59.697967
599.000000	1883.000000	59.488800
600.000000	1882.000000	59.217633
601.000000	1881.000000	58.957400
602.000000	1880.000000	58.706233
603.000000	1879.000000	58.398067
604.000000	1878.000000	58.098467
605.000000	1877.000000	57.809233
606.000000	1876.000000	57.500900
607.000000	1875.000000	57.182400
608.000000	1874.000000	56.875400
609.000000	1873.000000	56.548400
610.000000	1872.000000	56.202733
611.000000	1871.000000	55.856333
612.000000	1870.000000	55.498000
613.000000	1869.000000	55.110833
614.000000	1868.000000	54.710400
615.000000	1867.000000	54.301400
616.000000	1866.000000	53.864367
617.000000	1865.000000	53.400967
618.000000	1864.000000	52.935500
619.000000	1863.000000	52.432200
620.000000	1862.000000	51.937733
621.000000	1861.000000	51.421667
622.000000	1860.000000	50.861967
623.000000	1859.000000	50.300000
624.000000	1858.000000	49.749967
625.000000	1857.000000	49.190233
626.000000	1856.000000	48.629167
627.000000	1855.000000	48.088800
628.000000	1854.000000	47.571167
629.000000	1853.000000	47.062933
630.000000	1852.000000	46.589100
631.000000	1851.000000	46.139167
632.000000	1850.000000	45.724100
633.000000	1849.000000	45.354567
634.000000	1848.000000	44.983600
635.000000	1847.000000	44.655600
636.000000	1846.000000	44.380867
637.000000	1845.000000	44.131867
638.000000	1844.000000	43.935300
639.000000	1843.000000	43.765700
640.000000	1842.000000	43.633533
641.000000	1841.000000	43.550700
642.000000	1840.000000	43.501433
643.000000	1839.000000	43.502867
644.000000	1838.000000	43.537100
645.000000	1837.000000	43.588900
646.000000	1836.000000	43.666033
647.000000	1835.000000	43.777967
648.000000	1834.000000	43.909333
649.000000	1833.000000	44.026867
650.000000	1832.000000	44.177100
651.000000	1831.000000	44.334733
652.000000	1830.000000	44.466667
653.000000	1829.000000	44.611367
654.000000	1828.000000	44.755433
655.000000	1827.000000	44.874600
656.000000	1826.000000	44.989833
657.000000	1825.000000	45.103200
658.000000	1824.000000	45.199800
659.000000	1823.000000	45.281567
660.000000	1822.000000	45.361233
661.000000	1821.000000	45.434000
662.000000	1820.000000	45.495567
663.000000	1819.000000	45.541200
664.000000	1818.000000	45.576200
665.000000	1817.000000	45.622867
666.000000	1816.000000	45.664133
667.000000	1815.000000	45.698400
668.000000	1814.000000	45.720567
669.000000	1813.000000	45.749700
670.000000	1812.000000	45.772367
671.000000	1811.000000	45.781533
672.000000	1810.000000	45.776100
673.000000	1809.000000	45.753433
674.000000	1808.000000	45.723333
675.000000	1807.000000	45.685433
676.000000	1806.000000	45.639333
677.000000	1805.000000	45.588033
678.000000	1804.000000	45.551467
679.000000	1803.000000	45.485467
680.000000	1802.000000	45.402400
681.000000	1801.000000	45.313733
682.000000	1800.000000	45.248567
683.000000	1799.000000	45.169000
684.000000	1798.000000	45.076400
685.000000	1797.000000	44.988200
686.000000	1796.000000	44.948400
687.000000	1795.000000	44.928967
688.000000	1794.000000	44.906133
689.000000	1793.000000	44.881967
690.000000	1792.000000	44.884800
691.000000	1791.000000	44.906800
692.000000	1790.000000	44.926033
693.000000	1789.000000	45.000900
694.000000	1788.000000	45.081533
695.000000	1787.000000	45.165033
696.000000	1786.000000	45.306600
697.000000	1785.000000	45.435133
698.000000	1784.000000	45.562867
699.000000	1783.000000	45.729900
700.000000	1782.000000	45.898900
701.000000	1781.000000	46.062567
702.000000	1780.000000	46.226867
703.000000	1779.000000	46.392233
704.000000	1778.000000	46.588233
705.000000	1777.000000	46.792233
706.000000	1776.000000	46.977433
707.000000	1775.000000	47.145167
708.000000	1774.000000	47.360300
709.000000	1773.000000	47.552300
710.000000	1772.000000	47.741867
711.000000	1771.000000	47.960900
712.000000	1770.000000	48.189700
713.000000	1769.000000	48.422900
714.000000	1768.000000	48.675800
715.000000	1767.000000	48.908400
716.000000	1766.000000	49.175467
717.000000	1765.000000	49.460367
718.000000	1764.000000	49.729667
719.000000	1763.000000	49.978067
720.000000	1762.000000	50.227633
721.000000	1761.000000	50.511067
722.000000	1760.000000	50.786367
723.000000	1759.000000	51.020633
724.000000	1758.000000	51.293133
725.000000	1757.000000	51.532567
726.000000	1756.000000	51.785933
727.000000	1755.000000	52.019600
728.000000	1754.000000	52.241967
729.000000	1753.000000	52.408300
730.000000	1752.000000	52.610767
731.000000	1751.000000	52.818800
732.000000	1750.000000	52.993200
733.000000	1749.000000	53.179800
734.000000	1748.000000	53.316100
735.000000	1747.000000	53.468633
736.000000	1746.000000	53.644900
737.000000	1745.000000	53.701333
738.000000	1744.000000	53.811400
739.000000	1743.000000	53.957000
740.000000	1742.000000	54.079567
741.000000	1741.000000	54.148600
742.000000	1740.000000	54.234933
743.000000	1739.000000	54.328400
744.000000	1738.000000	54.475800
745.000000	1737.000000	54.522633
746.000000	1736.000000	54.633000
747.000000	1735.000000	54.641100
748.000000	1734.000000	54.779767
749.000000	1733.000000	54.862800
750.000000	1732.000000	54.936967
751.000000	1731.000000	54.986900
752.000000	1730.000000	55.090167
753.000000	1729.000000	55.195167
754.000000	1728.000000	55.333800
755.000000	1727.000000	55.455300
756.000000	1726.000000	55.519167
757.000000	1725.000000	55.649267
758.000000	1724.000000	55.846400
759.000000	1723.000000	56.044567
760.000000	1722.000000	56.093733
761.000000	1721.000000	56.354000
762.000000	1720.000000	56.569267
763.000000	1719.000000	56.757900
764.000000	1718.000000	56.887333
765.000000	1717.000000	57.164567
766.000000	1716.000000	57.399333
767.000000	1715.000000	57.545800
768.000000	1714.000000	57.725167
769.000000	1713.000000	57.910533
770.000000	1712.000000	58.145533
771.000000	1711.000000	58.299367
772.000000	1710.000000	58.499067
773.000000	1709.000000	58.739000
774.000000	1708.000000	58.912267
775.000000	1707.000000	59.076533
776.000000	1706.000000	59.337633
777.000000	1705.000000	59.535233
778.000000	1704.000000	59.702367
779.000000	1703.000000	59.929100
780.000000	1702.000000	60.159267
781.000000	1701.000000	60.372200
782.000000	1700.000000	60.653900
783.000000	1699.000000	60.728400
784.000000	1698.000000	60.999033
785.000000	1697.000000	61.246933
786.000000	1696.000000	61.421100
787.000000	1695.000000	61.645567
788.000000	1694.000000	61.803600
789.000000	1693.000000	62.020533
790.000000	1692.000000	62.123533
791.000000	1691.000000	62.319400
792.000000	1690.000000	62.662500
793.000000	1689.000000	62.820533
794.000000	1688.000000	63.087600
795.000000	1687.000000	63.247400
796.000000	1686.000000	63.425800
797.000000	1685.000000	63.548700
798.000000	1684.000000	63.842600
799.000000	1683.000000	64.031367
800.000000	1682.000000	64.234833
801.000000	1681.000000	64.445300
802.000000	1680.000000	64.591967
803.000000	1679.000000	64.836067
804.000000	1678.000000	64.982733
805.000000	1677.000000	65.208267
806.000000	1676.000000	65.338133
807.000000	1675.000000	65.388600
808.000000	1674.000000	65.490933
809.000000	1673.000000	65.701933
810.000000	1672.000000	65.862533
811.000000	1671.000000	66.046300
812.000000	1670.000000	66.188367
813.000000	1669.000000	66.452300
814.000000	1668.000000	66.421867
815.000000	1667.000000	66.557267
816.000000	1666.000000	66.849700
817.000000	1665.000000	66.823300
818.000000	1664.000000	67.075767
819.000000	1663.000000	67.191033
820.000000	1662.000000	67.328600
821.000000	1661.000000	67.422200
822.000000	1660.000000	67.602133
823.000000	1659.000000	67.768033
824.000000	1658.000000	67.831133
825.000000	1657.000000	67.880067
826.000000	1656.000000	67.971033
827.000000	1655.000000	68.208433
828.000000	1654.000000	68.302400
829.000000	1653.000000	68.245733
830.000000	1652.000000	68.419867
831.000000	1651.000000	68.684833
832.000000	1650.000000	68.723200
833.000000	1649.000000	68.828300
834.000000	1648.000000	68.902367
835.000000	1647.000000	68.868133
836.000000	1646.000000	69.069767
837.000000	1645.000000	69.105367
838.000000	1644.000000	69.282233
