PE UV       SUBTECH     SPECTRUM    ASCII       PEDS        4.00        
   -1
CICIMAUCR0254-3.Sample.ASC
24/06/26
14:46:43.00
24/06/26
14:46:43.00
Vinicio Soto Monge
C. resplendens. Sex F. Dorsal.
250,000000
1
Lambda 1050
1050L1511233
PerkinElmer UV WinLab 6.3.2.0749 / 2.02.05 Lambda 900 UV/VIS/NIR, Aug  7 2015 09:38:08

0
0
3350/servo 860,8/2
0
0
UV/VIS
1
1
1
DoubleDePol,CommonBeamDepol,RBeamAtt,SBeamAtt,60mm sphere, WB InGaAs Detector
0
0
0
0
Program
Program
3350/servo 860,8/2
3350/0,2 860,8/0,2
3350/0,2 860,8/0,2
0
15.00
 
 
 
0
 
860,8
319,2
860,8
Front
100
on
S:100 R:100
0
0
0
0
 
0
 
 
 
0
 
 
0
0
0
0
0
 
 
 
 
0
0


0
0
#HDR
-1
-1
#GR
nm
%R
1.0
0.0
2500,000000
-1,000000
2251
8
89,696700
5,956700
#DATA
250.000000	6.722667
251.000000	6.719900
252.000000	6.696267
253.000000	6.661500
254.000000	6.651800
255.000000	6.636267
256.000000	6.631433
257.000000	6.619467
258.000000	6.600133
259.000000	6.566200
260.000000	6.526167
261.000000	6.512933
262.000000	6.485067
263.000000	6.452467
264.000000	6.431833
265.000000	6.423233
266.000000	6.391867
267.000000	6.376133
268.000000	6.342567
269.000000	6.291633
270.000000	6.274500
271.000000	6.277500
272.000000	6.262533
273.000000	6.237233
274.000000	6.225433
275.000000	6.205800
276.000000	6.192267
277.000000	6.166733
278.000000	6.160233
279.000000	6.163233
280.000000	6.143433
281.000000	6.147800
282.000000	6.146967
283.000000	6.140633
284.000000	6.103200
285.000000	6.095267
286.000000	6.110067
287.000000	6.118067
288.000000	6.096667
289.000000	6.097867
290.000000	6.102033
291.000000	6.087200
292.000000	6.077967
293.000000	6.073700
294.000000	6.074067
295.000000	6.065100
296.000000	6.079600
297.000000	6.094067
298.000000	6.079967
299.000000	6.068367
300.000000	6.045967
301.000000	6.049300
302.000000	6.064667
303.000000	6.059233
304.000000	6.058067
305.000000	6.050533
306.000000	6.034200
307.000000	6.031400
308.000000	6.038933
309.000000	6.036433
310.000000	6.020533
311.000000	6.027000
312.000000	6.001033
313.000000	5.988633
314.000000	6.006900
315.000000	6.021833
316.000000	6.571600
317.000000	7.283900
318.000000	7.100267
319.000000	6.845433
320.000000	6.851400
321.000000	6.770833
322.000000	6.699967
323.000000	6.677567
324.000000	6.808367
325.000000	6.960900
326.000000	6.614033
327.000000	6.319167
328.000000	6.188933
329.000000	6.287367
330.000000	6.376800
331.000000	6.274500
332.000000	6.205500
333.000000	6.137067
334.000000	6.210267
335.000000	6.258600
336.000000	6.183233
337.000000	6.168800
338.000000	6.098333
339.000000	6.168967
340.000000	6.232500
341.000000	6.124433
342.000000	6.113900
343.000000	6.170900
344.000000	6.175200
345.000000	6.117633
346.000000	6.112767
347.000000	6.210467
348.000000	6.129167
349.000000	6.032033
350.000000	6.146133
351.000000	6.208500
352.000000	6.158900
353.000000	6.176233
354.000000	6.269367
355.000000	6.336833
356.000000	6.402200
357.000000	6.321067
358.000000	6.301900
359.000000	6.383100
360.000000	6.384800
361.000000	6.410200
362.000000	6.413833
363.000000	6.428300
364.000000	6.470233
365.000000	6.463867
366.000000	6.496233
367.000000	6.461733
368.000000	6.459833
369.000000	6.492100
370.000000	6.538733
371.000000	6.471433
372.000000	6.531167
373.000000	6.490600
374.000000	6.391333
375.000000	6.604933
376.000000	6.815533
377.000000	6.875533
378.000000	6.926800
379.000000	6.965267
380.000000	7.015500
381.000000	7.073667
382.000000	7.121767
383.000000	7.181433
384.000000	7.246833
385.000000	7.321600
386.000000	7.402300
387.000000	7.470500
388.000000	7.543700
389.000000	7.630467
390.000000	7.722167
391.000000	7.805433
392.000000	7.906700
393.000000	8.019067
394.000000	8.133100
395.000000	8.252333
396.000000	8.381500
397.000000	8.526000
398.000000	8.668867
399.000000	8.820867
400.000000	8.993033
401.000000	9.163333
402.000000	9.353600
403.000000	9.574267
404.000000	9.808633
405.000000	10.037100
406.000000	10.299967
407.000000	10.582067
408.000000	10.861833
409.000000	11.178667
410.000000	11.515533
411.000000	11.853233
412.000000	12.226633
413.000000	12.636067
414.000000	13.056533
415.000000	13.494367
416.000000	13.954333
417.000000	14.405867
418.000000	14.883233
419.000000	15.382667
420.000000	15.897700
421.000000	16.407167
422.000000	16.912867
423.000000	17.447900
424.000000	17.990600
425.000000	18.514233
426.000000	19.036267
427.000000	19.548333
428.000000	20.030167
429.000000	20.535400
430.000000	21.043933
431.000000	21.523600
432.000000	21.980767
433.000000	22.423633
434.000000	22.868500
435.000000	23.311933
436.000000	23.719767
437.000000	24.099400
438.000000	24.457700
439.000000	24.834500
440.000000	25.182633
441.000000	25.493033
442.000000	25.797333
443.000000	26.131400
444.000000	26.403433
445.000000	26.679900
446.000000	26.912833
447.000000	27.138000
448.000000	27.342100
449.000000	27.547667
450.000000	27.732033
451.000000	27.918333
452.000000	28.056867
453.000000	28.202233
454.000000	28.327800
455.000000	28.414800
456.000000	28.547733
457.000000	28.631000
458.000000	28.713467
459.000000	28.789333
460.000000	28.824433
461.000000	28.862200
462.000000	28.889067
463.000000	28.888333
464.000000	28.867900
465.000000	28.861000
466.000000	28.834767
467.000000	28.797933
468.000000	28.757900
469.000000	28.701367
470.000000	28.637933
471.000000	28.559333
472.000000	28.465533
473.000000	28.360833
474.000000	28.257367
475.000000	28.167700
476.000000	28.065333
477.000000	27.979167
478.000000	27.899400
479.000000	27.830567
480.000000	27.762400
481.000000	27.719000
482.000000	27.735933
483.000000	27.770300
484.000000	27.824933
485.000000	27.907867
486.000000	28.073867
487.000000	28.263233
488.000000	28.484267
489.000000	28.784900
490.000000	29.124600
491.000000	29.499000
492.000000	29.943333
493.000000	30.415033
494.000000	30.900533
495.000000	31.413033
496.000000	31.940267
497.000000	32.487200
498.000000	32.995033
499.000000	33.482133
500.000000	33.976400
501.000000	34.422567
502.000000	34.847533
503.000000	35.221733
504.000000	35.590100
505.000000	35.924033
506.000000	36.227333
507.000000	36.501900
508.000000	36.739900
509.000000	36.983967
510.000000	37.232433
511.000000	37.493300
512.000000	37.731000
513.000000	38.005900
514.000000	38.302600
515.000000	38.620433
516.000000	38.962867
517.000000	39.378367
518.000000	39.830567
519.000000	40.389000
520.000000	41.005167
521.000000	41.737800
522.000000	42.558267
523.000000	43.462533
524.000000	44.468000
525.000000	45.533433
526.000000	46.671500
527.000000	47.925333
528.000000	49.211467
529.000000	50.569967
530.000000	52.015533
531.000000	53.474100
532.000000	54.991467
533.000000	56.510400
534.000000	58.047433
535.000000	59.571700
536.000000	61.089733
537.000000	62.573000
538.000000	64.007967
539.000000	65.421567
540.000000	66.775567
541.000000	68.072733
542.000000	69.316733
543.000000	70.480967
544.000000	71.564867
545.000000	72.604667
546.000000	73.559267
547.000000	74.444633
548.000000	75.286233
549.000000	76.046567
550.000000	76.768633
551.000000	77.468333
552.000000	78.112467
553.000000	78.761700
554.000000	79.365067
555.000000	79.964867
556.000000	80.539867
557.000000	81.116767
558.000000	81.665833
559.000000	82.218433
560.000000	82.795500
561.000000	83.321233
562.000000	83.803933
563.000000	84.316267
564.000000	84.752600
565.000000	85.150900
566.000000	85.544267
567.000000	85.899233
568.000000	86.225300
569.000000	86.541267
570.000000	86.838567
571.000000	87.071767
572.000000	87.308433
573.000000	87.567967
574.000000	87.801533
575.000000	88.001233
576.000000	88.184367
577.000000	88.353467
578.000000	88.482700
579.000000	88.642167
580.000000	88.769400
581.000000	88.872467
582.000000	88.960800
583.000000	89.054667
584.000000	89.115433
585.000000	89.195000
586.000000	89.228500
587.000000	89.248433
588.000000	89.277267
589.000000	89.280633
590.000000	89.296500
591.000000	89.290900
592.000000	89.277833
593.000000	89.249033
594.000000	89.213933
595.000000	89.176833
596.000000	89.129233
597.000000	89.105900
598.000000	89.041933
599.000000	88.950233
600.000000	88.841500
601.000000	88.714667
602.000000	88.579467
603.000000	88.418533
604.000000	88.246867
605.000000	88.045567
606.000000	87.787467
607.000000	87.498333
608.000000	87.222200
609.000000	86.920300
610.000000	86.563867
611.000000	86.225933
612.000000	85.846633
613.000000	85.451167
614.000000	85.040267
615.000000	84.601100
616.000000	84.132433
617.000000	83.687900
618.000000	83.217433
619.000000	82.742900
620.000000	82.223933
621.000000	81.702767
622.000000	81.164233
623.000000	80.590367
624.000000	79.987600
625.000000	79.352767
626.000000	78.733133
627.000000	78.111133
628.000000	77.431933
629.000000	76.704233
630.000000	75.976633
631.000000	75.250000
632.000000	74.492800
633.000000	73.733300
634.000000	72.951800
635.000000	72.183800
636.000000	71.449633
637.000000	70.721200
638.000000	69.995300
639.000000	69.248000
640.000000	68.512367
641.000000	67.767733
642.000000	66.978800
643.000000	66.181800
644.000000	65.387200
645.000000	64.572033
646.000000	63.753467
647.000000	62.955133
648.000000	62.191400
649.000000	61.445233
650.000000	60.701467
651.000000	60.018600
652.000000	59.405067
653.000000	58.851533
654.000000	58.389167
655.000000	58.033967
656.000000	57.784600
657.000000	57.629300
658.000000	57.558133
659.000000	57.577567
660.000000	57.709333
661.000000	57.893167
662.000000	58.157267
663.000000	58.514367
664.000000	58.971467
665.000000	59.475867
666.000000	59.989267
667.000000	60.572067
668.000000	61.188700
669.000000	61.807800
670.000000	62.480867
671.000000	63.171567
672.000000	63.884800
673.000000	64.598533
674.000000	65.326100
675.000000	66.076433
676.000000	66.796267
677.000000	67.456367
678.000000	68.158600
679.000000	68.876667
680.000000	69.588500
681.000000	70.224867
682.000000	70.836267
683.000000	71.440367
684.000000	71.997733
685.000000	72.502833
686.000000	72.987600
687.000000	73.413267
688.000000	73.794867
689.000000	74.157933
690.000000	74.505533
691.000000	74.781133
692.000000	75.036000
693.000000	75.286100
694.000000	75.509733
695.000000	75.726733
696.000000	75.900267
697.000000	76.054467
698.000000	76.159900
699.000000	76.273500
700.000000	76.380400
701.000000	76.478167
702.000000	76.531967
703.000000	76.619100
704.000000	76.676467
705.000000	76.705733
706.000000	76.731900
707.000000	76.751033
708.000000	76.791333
709.000000	76.833567
710.000000	76.867200
711.000000	76.931400
712.000000	76.984167
713.000000	77.052167
714.000000	77.089900
715.000000	77.173067
716.000000	77.244333
717.000000	77.275900
718.000000	77.414200
719.000000	77.438067
720.000000	77.548800
721.000000	77.628500
722.000000	77.703400
723.000000	77.767900
724.000000	77.838433
725.000000	77.890433
726.000000	77.944833
727.000000	78.001333
728.000000	78.038600
729.000000	78.066833
730.000000	78.114533
731.000000	78.195267
732.000000	78.278667
733.000000	78.420667
734.000000	78.583233
735.000000	78.664933
736.000000	78.771567
737.000000	78.941800
738.000000	79.102700
739.000000	79.309467
740.000000	79.552033
741.000000	79.768900
742.000000	80.077433
743.000000	80.328667
744.000000	80.587533
745.000000	80.859900
746.000000	81.207767
747.000000	81.508567
748.000000	81.842700
749.000000	82.091600
750.000000	82.394300
751.000000	82.735100
752.000000	82.948767
753.000000	83.124900
754.000000	83.369600
755.000000	83.608167
756.000000	83.711000
757.000000	83.855633
758.000000	84.070467
759.000000	84.053500
760.000000	84.105133
761.000000	84.221000
762.000000	84.263700
763.000000	84.277867
764.000000	84.377867
765.000000	84.332367
766.000000	84.369900
767.000000	84.477400
768.000000	84.477300
769.000000	84.603433
770.000000	84.677567
771.000000	84.663733
772.000000	84.879600
773.000000	84.851867
774.000000	84.973333
775.000000	85.101900
776.000000	85.179200
777.000000	85.302267
778.000000	85.373067
779.000000	85.537000
780.000000	85.655467
781.000000	85.916267
782.000000	85.981433
783.000000	86.067867
784.000000	86.220533
785.000000	86.267467
786.000000	86.483100
787.000000	86.572400
788.000000	86.606500
789.000000	86.782700
790.000000	86.772667
791.000000	86.935767
792.000000	86.798600
793.000000	86.918167
794.000000	86.890867
795.000000	86.784900
796.000000	86.828933
797.000000	86.625300
798.000000	86.503800
799.000000	86.290167
800.000000	86.243267
801.000000	85.995633
802.000000	85.871033
803.000000	85.719767
804.000000	85.474767
805.000000	85.329667
806.000000	84.977733
807.000000	84.775467
808.000000	84.613567
809.000000	84.252067
810.000000	84.070667
811.000000	83.848467
812.000000	83.637400
813.000000	83.530633
814.000000	83.250500
815.000000	83.199600
816.000000	82.844400
817.000000	82.853367
818.000000	82.693400
819.000000	82.739867
820.000000	82.653467
821.000000	82.525400
822.000000	82.469667
823.000000	82.487933
824.000000	82.448667
825.000000	82.256233
826.000000	82.285933
827.000000	82.283200
828.000000	82.229800
829.000000	82.085567
830.000000	82.108500
831.000000	81.898700
832.000000	81.703667
833.000000	81.704567
834.000000	81.512133
835.000000	81.347533
836.000000	81.107000
837.000000	80.962200
838.000000	80.711700
839.000000	80.728133
840.000000	80.368000
841.000000	80.000033
842.000000	79.722233
843.000000	79.577467
844.000000	79.370167
845.000000	78.800500
846.000000	78.744267
847.000000	78.613200
848.000000	78.078067
849.000000	77.979467
850.000000	77.518633
851.000000	77.419633
852.000000	77.222500
853.000000	76.708467
854.000000	76.376200
855.000000	76.080567
856.000000	76.280033
857.000000	75.677133
858.000000	76.012578
859.000000	75.793938
860.000000	75.586163
861.000000	75.345822
862.000000	75.127262
863.000000	74.889636
864.000000	74.670519
865.000000	74.448236
866.000000	74.232904
867.000000	73.988881
868.000000	73.755111
869.000000	73.511280
870.000000	73.282147
871.000000	73.084560
872.000000	72.951483
873.000000	72.876575
874.000000	72.807641
875.000000	72.697107
876.000000	72.564808
877.000000	72.434836
878.000000	72.296399
879.000000	72.154410
880.000000	72.000749
881.000000	71.831832
882.000000	71.675684
883.000000	71.527206
884.000000	71.383465
885.000000	71.248563
886.000000	71.115081
887.000000	70.986209
888.000000	70.859831
889.000000	70.741212
890.000000	70.622913
891.000000	70.514112
892.000000	70.398205
893.000000	70.286137
894.000000	70.182359
895.000000	70.070406
896.000000	69.963833
897.000000	69.857617
898.000000	69.741499
899.000000	69.621521
900.000000	69.509246
901.000000	69.399428
902.000000	69.278324
903.000000	69.162335
904.000000	69.044949
905.000000	68.925104
906.000000	68.813568
907.000000	68.704605
908.000000	68.600772
909.000000	68.502301
910.000000	68.406076
911.000000	68.313836
912.000000	68.219879
913.000000	68.128544
914.000000	68.039456
915.000000	67.952847
916.000000	67.872719
917.000000	67.782807
918.000000	67.684332
919.000000	67.588808
920.000000	67.498155
921.000000	67.402575
922.000000	67.307495
923.000000	67.203830
924.000000	67.103329
925.000000	67.010193
926.000000	66.926244
927.000000	66.845749
928.000000	66.753287
929.000000	66.657050
930.000000	66.586005
931.000000	66.520366
932.000000	66.440181
933.000000	66.358323
934.000000	66.279739
935.000000	66.205504
936.000000	66.137222
937.000000	66.052396
938.000000	65.972890
939.000000	65.893542
940.000000	65.811584
941.000000	65.737434
942.000000	65.658053
943.000000	65.580656
944.000000	65.496679
945.000000	65.405172
946.000000	65.314248
947.000000	65.238347
948.000000	65.165318
949.000000	65.081991
950.000000	65.006506
951.000000	64.935100
952.000000	64.852646
953.000000	64.784033
954.000000	64.736031
955.000000	64.676385
956.000000	64.615113
957.000000	64.555375
958.000000	64.497858
959.000000	64.449535
960.000000	64.391928
961.000000	64.338012
962.000000	64.289832
963.000000	64.234707
964.000000	64.182592
965.000000	64.148293
966.000000	64.105552
967.000000	64.066823
968.000000	64.028222
969.000000	63.985678
970.000000	63.948135
971.000000	63.918982
972.000000	63.879383
973.000000	63.840317
974.000000	63.805659
975.000000	63.770078
976.000000	63.736717
977.000000	63.705940
978.000000	63.666219
979.000000	63.627824
980.000000	63.604825
981.000000	63.571367
982.000000	63.524507
983.000000	63.482078
984.000000	63.458483
985.000000	63.428830
986.000000	63.398677
987.000000	63.368674
988.000000	63.349622
989.000000	63.332385
990.000000	63.317487
991.000000	63.306220
992.000000	63.296241
993.000000	63.292543
994.000000	63.290057
995.000000	63.297979
996.000000	63.297440
997.000000	63.308963
998.000000	63.324441
999.000000	63.332859
1000.000000	63.340201
1001.000000	63.355114
1002.000000	63.384498
1003.000000	63.407124
1004.000000	63.424885
1005.000000	63.451861
1006.000000	63.468586
1007.000000	63.494183
1008.000000	63.514685
1009.000000	63.560983
1010.000000	63.601541
1011.000000	63.638197
1012.000000	63.673394
1013.000000	63.718329
1014.000000	63.776337
1015.000000	63.836039
1016.000000	63.892440
1017.000000	63.955369
1018.000000	64.018355
1019.000000	64.080222
1020.000000	64.159017
1021.000000	64.230986
1022.000000	64.298553
1023.000000	64.364106
1024.000000	64.439895
1025.000000	64.504806
1026.000000	64.573191
1027.000000	64.649191
1028.000000	64.706332
1029.000000	64.761349
1030.000000	64.822247
1031.000000	64.888395
1032.000000	64.929490
1033.000000	64.988134
1034.000000	65.035815
1035.000000	65.090790
1036.000000	65.141917
1037.000000	65.194530
1038.000000	65.248361
1039.000000	65.288473
1040.000000	65.326424
1041.000000	65.374423
1042.000000	65.419796
1043.000000	65.466263
1044.000000	65.506095
1045.000000	65.558555
1046.000000	65.598212
1047.000000	65.651466
1048.000000	65.691990
1049.000000	65.745452
1050.000000	65.797848
1051.000000	65.852692
1052.000000	65.897268
1053.000000	65.947683
1054.000000	65.992961
1055.000000	66.055064
1056.000000	66.116529
1057.000000	66.171123
1058.000000	66.218831
1059.000000	66.279325
1060.000000	66.326078
1061.000000	66.387394
1062.000000	66.430967
1063.000000	66.485655
1064.000000	66.528890
1065.000000	66.571292
1066.000000	66.624596
1067.000000	66.657354
1068.000000	66.701331
1069.000000	66.759443
1070.000000	66.806677
1071.000000	66.856881
1072.000000	66.890434
1073.000000	66.933158
1074.000000	66.977919
1075.000000	67.012429
1076.000000	67.058494
1077.000000	67.096372
1078.000000	67.139904
1079.000000	67.179583
1080.000000	67.215127
1081.000000	67.262158
1082.000000	67.290059
1083.000000	67.335573
1084.000000	67.371672
1085.000000	67.402865
1086.000000	67.429810
1087.000000	67.472453
1088.000000	67.508040
1089.000000	67.530015
1090.000000	67.557769
1091.000000	67.575200
1092.000000	67.603570
1093.000000	67.618151
1094.000000	67.637148
1095.000000	67.651302
1096.000000	67.675670
1097.000000	67.686709
1098.000000	67.688972
1099.000000	67.692757
1100.000000	67.692014
1101.000000	67.681996
1102.000000	67.692579
1103.000000	67.695059
1104.000000	67.689762
1105.000000	67.690011
1106.000000	67.687539
1107.000000	67.684395
1108.000000	67.683137
1109.000000	67.674857
1110.000000	67.666300
1111.000000	67.653010
1112.000000	67.646759
1113.000000	67.641173
1114.000000	67.631521
1115.000000	67.618656
1116.000000	67.597540
1117.000000	67.568134
1118.000000	67.521558
1119.000000	67.480977
1120.000000	67.426469
1121.000000	67.366675
1122.000000	67.294278
1123.000000	67.198997
1124.000000	67.091762
1125.000000	66.958247
1126.000000	66.794083
1127.000000	66.613924
1128.000000	66.403323
1129.000000	66.161858
1130.000000	65.872387
1131.000000	65.566712
1132.000000	65.214012
1133.000000	64.870695
1134.000000	64.480580
1135.000000	64.050503
1136.000000	63.625471
1137.000000	63.214929
1138.000000	62.823034
1139.000000	62.452622
1140.000000	62.109692
1141.000000	61.774975
1142.000000	61.454658
1143.000000	61.156121
1144.000000	60.916319
1145.000000	60.687495
1146.000000	60.485773
1147.000000	60.312875
1148.000000	60.149852
1149.000000	59.997030
1150.000000	59.844697
1151.000000	59.683491
1152.000000	59.515472
1153.000000	59.319526
1154.000000	59.088085
1155.000000	58.834078
1156.000000	58.578137
1157.000000	58.314011
1158.000000	58.025891
1159.000000	57.738869
1160.000000	57.458103
1161.000000	57.173574
1162.000000	56.886664
1163.000000	56.607430
1164.000000	56.345274
1165.000000	56.076227
1166.000000	55.820775
