PE UV       SUBTECH     SPECTRUM    ASCII       PEDS        4.00        
   -1
CICIMAUCR0223-3.Sample.ASC
24/06/13
17:08:03.00
24/06/13
17:08:03.00
Vinicio Soto Monge
C. resplendens. Sex M. Dorsal.
250,000000
1
Lambda 1050
1050L1511233
PerkinElmer UV WinLab 6.3.2.0749 / 2.02.05 Lambda 900 UV/VIS/NIR, Aug  7 2015 09:38:08

0
0
3350/servo 860,8/2
0
0
UV/VIS
1
1
1
DoubleDePol,CommonBeamDepol,RBeamAtt,SBeamAtt,60mm sphere, WB InGaAs Detector
0
0
0
0
Program
Program
3350/servo 860,8/2
3350/0,2 860,8/0,2
3350/0,2 860,8/0,2
0
15.00
 
 
 
0
 
860,8
319,2
860,8
Front
100
on
S:100 R:100
0
0
0
0
 
0
 
 
 
0
 
 
0
0
0
0
0
 
 
 
 
0
0


0
0
#HDR
-1
-1
#GR
nm
%R
1.0
0.0
2500,000000
-1,000000
2251
8
86,421400
5,728600
#DATA
250.000000	6.565300
251.000000	6.532467
252.000000	6.545300
253.000000	6.536700
254.000000	6.500967
255.000000	6.493767
256.000000	6.485833
257.000000	6.458733
258.000000	6.421333
259.000000	6.417567
260.000000	6.384433
261.000000	6.373333
262.000000	6.351100
263.000000	6.320833
264.000000	6.266467
265.000000	6.257400
266.000000	6.236967
267.000000	6.235100
268.000000	6.208333
269.000000	6.136367
270.000000	6.138133
271.000000	6.124567
272.000000	6.127600
273.000000	6.108067
274.000000	6.115467
275.000000	6.090467
276.000000	6.055467
277.000000	6.040133
278.000000	6.048567
279.000000	6.038433
280.000000	6.020400
281.000000	6.033333
282.000000	6.048100
283.000000	6.030933
284.000000	6.008333
285.000000	5.994567
286.000000	5.994067
287.000000	5.976533
288.000000	5.984400
289.000000	5.991333
290.000000	5.973633
291.000000	5.993500
292.000000	5.979967
293.000000	5.969500
294.000000	5.971633
295.000000	5.959033
296.000000	5.970400
297.000000	5.945567
298.000000	5.923833
299.000000	5.934733
300.000000	5.933533
301.000000	5.927400
302.000000	5.937867
303.000000	5.915767
304.000000	5.881767
305.000000	5.903000
306.000000	5.921033
307.000000	5.925033
308.000000	5.908233
309.000000	5.886933
310.000000	5.894433
311.000000	5.895867
312.000000	5.878467
313.000000	5.867367
314.000000	5.868367
315.000000	5.864533
316.000000	6.241500
317.000000	6.673033
318.000000	6.713733
319.000000	6.647233
320.000000	6.369233
321.000000	6.320533
322.000000	6.385867
323.000000	6.404800
324.000000	6.422800
325.000000	6.557033
326.000000	6.421600
327.000000	6.313833
328.000000	6.297600
329.000000	6.063767
330.000000	5.996433
331.000000	6.026033
332.000000	6.054733
333.000000	6.099267
334.000000	5.957033
335.000000	5.971000
336.000000	6.054500
337.000000	6.083967
338.000000	6.053833
339.000000	5.955967
340.000000	5.911500
341.000000	5.945167
342.000000	6.048633
343.000000	6.078733
344.000000	5.968267
345.000000	5.876733
346.000000	5.887900
347.000000	5.981267
348.000000	6.010600
349.000000	5.955367
350.000000	5.969733
351.000000	6.032700
352.000000	6.065333
353.000000	6.052067
354.000000	6.010833
355.000000	6.097933
356.000000	6.234867
357.000000	6.180767
358.000000	6.169767
359.000000	6.293933
360.000000	6.313233
361.000000	6.313000
362.000000	6.389200
363.000000	6.403433
364.000000	6.470533
365.000000	6.582400
366.000000	6.560700
367.000000	6.601833
368.000000	6.635133
369.000000	6.655833
370.000000	6.644900
371.000000	6.670333
372.000000	6.819400
373.000000	6.892233
374.000000	6.828167
375.000000	7.160967
376.000000	7.439900
377.000000	7.546767
378.000000	7.677800
379.000000	7.819433
380.000000	7.983733
381.000000	8.166600
382.000000	8.370867
383.000000	8.571733
384.000000	8.812700
385.000000	9.057600
386.000000	9.312933
387.000000	9.582867
388.000000	9.881667
389.000000	10.194000
390.000000	10.519300
391.000000	10.859267
392.000000	11.223333
393.000000	11.599700
394.000000	11.990133
395.000000	12.400900
396.000000	12.819500
397.000000	13.254400
398.000000	13.674400
399.000000	14.104567
400.000000	14.555467
401.000000	15.011233
402.000000	15.464067
403.000000	15.908067
404.000000	16.391700
405.000000	16.856733
406.000000	17.279733
407.000000	17.721000
408.000000	18.136800
409.000000	18.538367
410.000000	18.944233
411.000000	19.337533
412.000000	19.721400
413.000000	20.085667
414.000000	20.439467
415.000000	20.795133
416.000000	21.102433
417.000000	21.397567
418.000000	21.691200
419.000000	21.972533
420.000000	22.238533
421.000000	22.480000
422.000000	22.712433
423.000000	22.929067
424.000000	23.136033
425.000000	23.329500
426.000000	23.499933
427.000000	23.643933
428.000000	23.809400
429.000000	23.928100
430.000000	24.055400
431.000000	24.157567
432.000000	24.244333
433.000000	24.337367
434.000000	24.414300
435.000000	24.452967
436.000000	24.509400
437.000000	24.530600
438.000000	24.576867
439.000000	24.584367
440.000000	24.579267
441.000000	24.557733
442.000000	24.567567
443.000000	24.532233
444.000000	24.517267
445.000000	24.465067
446.000000	24.410200
447.000000	24.362767
448.000000	24.309067
449.000000	24.267767
450.000000	24.240000
451.000000	24.251500
452.000000	24.237100
453.000000	24.234200
454.000000	24.274867
455.000000	24.324667
456.000000	24.381700
457.000000	24.478200
458.000000	24.585033
459.000000	24.751533
460.000000	24.906133
461.000000	25.105667
462.000000	25.344700
463.000000	25.600733
464.000000	25.872933
465.000000	26.137100
466.000000	26.444400
467.000000	26.749033
468.000000	27.060800
469.000000	27.379533
470.000000	27.681367
471.000000	28.003767
472.000000	28.326867
473.000000	28.630933
474.000000	28.932600
475.000000	29.224667
476.000000	29.490933
477.000000	29.775700
478.000000	30.009267
479.000000	30.235600
480.000000	30.447933
481.000000	30.670833
482.000000	30.869767
483.000000	31.074233
484.000000	31.307167
485.000000	31.505067
486.000000	31.735167
487.000000	31.991167
488.000000	32.275000
489.000000	32.627000
490.000000	32.982833
491.000000	33.402033
492.000000	33.906533
493.000000	34.437467
494.000000	35.033500
495.000000	35.688600
496.000000	36.454800
497.000000	37.246300
498.000000	38.167767
499.000000	39.127933
500.000000	40.172500
501.000000	41.272400
502.000000	42.455733
503.000000	43.670233
504.000000	44.929967
505.000000	46.167300
506.000000	47.466600
507.000000	48.757267
508.000000	50.033933
509.000000	51.356567
510.000000	52.618467
511.000000	53.907400
512.000000	55.181133
513.000000	56.460100
514.000000	57.703133
515.000000	58.917667
516.000000	60.096767
517.000000	61.253767
518.000000	62.366733
519.000000	63.459333
520.000000	64.512567
521.000000	65.550600
522.000000	66.551067
523.000000	67.538833
524.000000	68.483400
525.000000	69.405833
526.000000	70.323200
527.000000	71.196000
528.000000	72.071033
529.000000	72.908533
530.000000	73.752467
531.000000	74.555600
532.000000	75.361500
533.000000	76.090133
534.000000	76.821133
535.000000	77.491167
536.000000	78.132367
537.000000	78.734800
538.000000	79.310433
539.000000	79.882367
540.000000	80.416067
541.000000	80.934933
542.000000	81.411433
543.000000	81.891800
544.000000	82.320033
545.000000	82.737833
546.000000	83.127467
547.000000	83.496200
548.000000	83.849000
549.000000	84.157233
550.000000	84.449067
551.000000	84.742933
552.000000	85.027800
553.000000	85.293500
554.000000	85.528433
555.000000	85.738533
556.000000	85.948133
557.000000	86.134000
558.000000	86.327400
559.000000	86.495933
560.000000	86.684933
561.000000	86.843833
562.000000	86.978467
563.000000	87.107567
564.000000	87.186967
565.000000	87.286000
566.000000	87.391033
567.000000	87.466233
568.000000	87.522933
569.000000	87.569833
570.000000	87.593100
571.000000	87.599300
572.000000	87.587367
573.000000	87.543367
574.000000	87.491533
575.000000	87.419000
576.000000	87.333500
577.000000	87.203400
578.000000	87.071633
579.000000	86.926667
580.000000	86.751500
581.000000	86.581567
582.000000	86.384833
583.000000	86.192500
584.000000	85.958800
585.000000	85.726033
586.000000	85.511600
587.000000	85.273633
588.000000	85.014467
589.000000	84.752267
590.000000	84.482867
591.000000	84.180900
592.000000	83.840400
593.000000	83.483033
594.000000	83.095767
595.000000	82.683300
596.000000	82.214267
597.000000	81.746900
598.000000	81.240267
599.000000	80.691233
600.000000	80.130167
601.000000	79.513733
602.000000	78.866600
603.000000	78.198333
604.000000	77.494667
605.000000	76.784967
606.000000	76.041433
607.000000	75.288133
608.000000	74.532400
609.000000	73.726867
610.000000	72.874033
611.000000	72.017933
612.000000	71.137067
613.000000	70.261533
614.000000	69.365700
615.000000	68.444167
616.000000	67.538167
617.000000	66.616333
618.000000	65.705233
619.000000	64.816500
620.000000	63.941767
621.000000	63.116267
622.000000	62.304000
623.000000	61.514533
624.000000	60.760167
625.000000	60.057567
626.000000	59.416567
627.000000	58.810967
628.000000	58.266233
629.000000	57.793467
630.000000	57.409167
631.000000	57.112067
632.000000	56.903800
633.000000	56.807833
634.000000	56.817400
635.000000	56.939400
636.000000	57.186100
637.000000	57.529167
638.000000	57.959400
639.000000	58.485967
640.000000	59.090200
641.000000	59.756367
642.000000	60.493400
643.000000	61.245933
644.000000	62.006533
645.000000	62.799633
646.000000	63.594167
647.000000	64.376500
648.000000	65.144667
649.000000	65.934167
650.000000	66.746433
651.000000	67.536867
652.000000	68.318133
653.000000	69.090733
654.000000	69.838033
655.000000	70.542000
656.000000	71.244300
657.000000	71.902467
658.000000	72.521733
659.000000	73.123233
660.000000	73.661067
661.000000	74.186533
662.000000	74.647267
663.000000	75.056700
664.000000	75.441767
665.000000	75.802600
666.000000	76.109567
667.000000	76.396267
668.000000	76.685300
669.000000	76.965533
670.000000	77.228633
671.000000	77.454433
672.000000	77.705567
673.000000	77.947800
674.000000	78.182700
675.000000	78.409900
676.000000	78.643733
677.000000	78.877667
678.000000	79.079967
679.000000	79.273467
680.000000	79.408900
681.000000	79.551833
682.000000	79.702400
683.000000	79.795200
684.000000	79.903967
685.000000	79.991367
686.000000	80.080167
687.000000	80.132067
688.000000	80.184700
689.000000	80.221467
690.000000	80.190033
691.000000	80.210033
692.000000	80.222967
693.000000	80.198467
694.000000	80.176600
695.000000	80.127233
696.000000	80.084467
697.000000	80.016400
698.000000	79.956800
699.000000	79.934967
700.000000	79.950467
701.000000	79.955167
702.000000	79.980533
703.000000	80.047100
704.000000	80.173767
705.000000	80.315167
706.000000	80.481800
707.000000	80.673433
708.000000	80.909733
709.000000	81.189567
710.000000	81.423533
711.000000	81.710033
712.000000	82.052333
713.000000	82.373100
714.000000	82.727333
715.000000	83.014567
716.000000	83.393400
717.000000	83.749633
718.000000	84.099233
719.000000	84.433567
720.000000	84.678567
721.000000	84.971700
722.000000	85.210667
723.000000	85.393467
724.000000	85.590700
725.000000	85.662300
726.000000	85.793300
727.000000	85.812367
728.000000	85.869067
729.000000	85.829133
730.000000	85.844367
731.000000	85.691767
732.000000	85.719100
733.000000	85.589533
734.000000	85.585167
735.000000	85.536167
736.000000	85.518233
737.000000	85.445867
738.000000	85.505567
739.000000	85.498233
740.000000	85.538500
741.000000	85.570333
742.000000	85.652333
743.000000	85.746500
744.000000	85.867167
745.000000	85.986800
746.000000	86.122233
747.000000	86.235633
748.000000	86.379700
749.000000	86.535833
750.000000	86.680267
751.000000	86.880433
752.000000	87.057467
753.000000	87.204533
754.000000	87.301900
755.000000	87.522967
756.000000	87.645867
757.000000	87.673567
758.000000	87.738967
759.000000	87.799467
760.000000	87.854467
761.000000	87.804300
762.000000	87.733467
763.000000	87.567533
764.000000	87.426767
765.000000	87.271100
766.000000	86.936900
767.000000	86.779667
768.000000	86.531800
769.000000	86.128267
770.000000	85.846467
771.000000	85.489400
772.000000	85.176033
773.000000	84.905733
774.000000	84.440700
775.000000	84.070933
776.000000	83.833500
777.000000	83.505667
778.000000	83.120333
779.000000	82.892500
780.000000	82.747467
781.000000	82.583633
782.000000	82.317233
783.000000	82.286267
784.000000	82.184433
785.000000	82.092967
786.000000	82.000733
787.000000	82.028800
788.000000	81.942200
789.000000	82.045400
790.000000	82.079800
791.000000	82.045267
792.000000	82.229300
793.000000	82.312467
794.000000	82.398900
795.000000	82.321267
796.000000	82.224867
797.000000	82.208533
798.000000	82.214400
799.000000	82.046567
800.000000	82.047067
801.000000	81.775267
802.000000	81.525667
803.000000	81.323800
804.000000	81.112933
805.000000	80.710767
806.000000	80.504533
807.000000	80.111233
808.000000	79.753200
809.000000	79.377967
810.000000	79.058267
811.000000	78.718500
812.000000	78.373900
813.000000	77.993533
814.000000	77.660467
815.000000	77.353367
816.000000	77.116133
817.000000	76.786000
818.000000	76.443333
819.000000	76.214000
820.000000	76.000167
821.000000	75.791533
822.000000	75.480767
823.000000	75.355667
824.000000	75.212033
825.000000	75.107167
826.000000	74.778900
827.000000	74.687033
828.000000	74.587500
829.000000	74.306567
830.000000	74.099800
831.000000	74.009400
832.000000	73.881033
833.000000	73.750167
834.000000	73.495033
835.000000	73.340600
836.000000	73.234667
837.000000	72.948233
838.000000	72.810500
839.000000	72.741433
840.000000	72.595067
841.000000	72.422633
842.000000	72.166167
843.000000	72.020933
844.000000	71.848700
845.000000	71.703100
846.000000	71.635233
847.000000	71.281300
848.000000	71.074967
849.000000	70.946500
850.000000	70.892967
851.000000	70.723033
852.000000	70.518433
853.000000	70.166433
854.000000	69.932400
855.000000	69.990667
856.000000	69.619333
857.000000	69.436633
858.000000	69.682211
859.000000	69.460707
860.000000	69.235184
861.000000	69.002251
862.000000	68.784745
863.000000	68.561420
864.000000	68.340672
865.000000	68.106062
866.000000	67.896924
867.000000	67.664742
868.000000	67.446227
869.000000	67.236092
870.000000	67.070764
871.000000	66.962388
872.000000	66.865012
873.000000	66.743833
874.000000	66.606288
875.000000	66.438311
876.000000	66.270116
877.000000	66.076163
878.000000	65.872296
879.000000	65.668274
880.000000	65.457890
881.000000	65.247067
882.000000	65.034290
883.000000	64.822455
884.000000	64.620653
885.000000	64.414277
886.000000	64.203178
887.000000	63.990903
888.000000	63.779962
889.000000	63.562448
890.000000	63.354875
891.000000	63.150873
892.000000	62.944530
893.000000	62.733862
894.000000	62.537276
895.000000	62.324065
896.000000	62.114385
897.000000	61.917009
898.000000	61.717760
899.000000	61.522667
900.000000	61.330383
901.000000	61.133481
902.000000	60.949651
903.000000	60.761664
904.000000	60.581214
905.000000	60.403973
906.000000	60.240792
907.000000	60.077478
908.000000	59.925939
909.000000	59.773876
910.000000	59.643718
911.000000	59.512098
912.000000	59.367767
913.000000	59.241651
914.000000	59.121209
915.000000	58.994341
916.000000	58.871036
917.000000	58.746780
918.000000	58.632170
919.000000	58.521851
920.000000	58.402935
921.000000	58.286063
922.000000	58.173447
923.000000	58.062973
924.000000	57.961648
925.000000	57.858266
926.000000	57.757461
927.000000	57.665837
928.000000	57.574830
929.000000	57.477756
930.000000	57.384482
931.000000	57.299143
932.000000	57.208216
933.000000	57.130739
934.000000	57.049687
935.000000	56.959747
936.000000	56.878979
937.000000	56.804848
938.000000	56.739989
939.000000	56.674287
940.000000	56.604067
941.000000	56.554609
942.000000	56.505242
943.000000	56.438628
944.000000	56.386280
945.000000	56.350518
946.000000	56.303307
947.000000	56.249927
948.000000	56.210146
949.000000	56.174616
950.000000	56.131354
951.000000	56.096853
952.000000	56.057332
953.000000	56.011054
954.000000	55.985262
955.000000	55.957069
956.000000	55.920850
957.000000	55.896487
958.000000	55.864419
959.000000	55.832668
960.000000	55.808192
961.000000	55.785003
962.000000	55.767652
963.000000	55.754793
964.000000	55.737706
965.000000	55.712753
966.000000	55.696328
967.000000	55.696572
968.000000	55.678765
969.000000	55.670584
970.000000	55.665692
971.000000	55.657303
972.000000	55.650813
973.000000	55.641241
974.000000	55.635280
975.000000	55.622888
976.000000	55.610531
977.000000	55.603976
978.000000	55.603792
979.000000	55.597231
980.000000	55.591655
981.000000	55.582658
982.000000	55.583254
983.000000	55.581395
984.000000	55.580521
985.000000	55.583864
986.000000	55.594739
987.000000	55.594088
988.000000	55.604279
989.000000	55.618954
990.000000	55.634296
991.000000	55.653245
992.000000	55.681126
993.000000	55.698290
994.000000	55.729672
995.000000	55.763007
996.000000	55.793353
997.000000	55.822138
998.000000	55.850842
999.000000	55.900437
1000.000000	55.944310
1001.000000	55.982861
1002.000000	56.030407
1003.000000	56.070171
1004.000000	56.121265
1005.000000	56.168120
1006.000000	56.210118
1007.000000	56.256470
1008.000000	56.306472
1009.000000	56.359341
1010.000000	56.418216
1011.000000	56.470874
1012.000000	56.528413
1013.000000	56.593617
1014.000000	56.652436
1015.000000	56.731830
1016.000000	56.821177
1017.000000	56.880868
1018.000000	56.964322
1019.000000	57.039385
1020.000000	57.123194
1021.000000	57.210590
1022.000000	57.289128
1023.000000	57.373748
1024.000000	57.452681
1025.000000	57.527940
1026.000000	57.602561
1027.000000	57.683012
1028.000000	57.757868
1029.000000	57.811249
1030.000000	57.883811
1031.000000	57.955453
1032.000000	58.018895
1033.000000	58.088063
1034.000000	58.144679
1035.000000	58.206516
1036.000000	58.270211
1037.000000	58.323920
1038.000000	58.377919
1039.000000	58.431008
1040.000000	58.488216
1041.000000	58.550158
1042.000000	58.616808
1043.000000	58.665360
1044.000000	58.707204
1045.000000	58.776806
1046.000000	58.836408
1047.000000	58.895507
1048.000000	58.957143
1049.000000	59.030212
1050.000000	59.095025
1051.000000	59.138626
1052.000000	59.216167
1053.000000	59.294508
1054.000000	59.364357
1055.000000	59.440838
1056.000000	59.496936
1057.000000	59.572609
1058.000000	59.645013
1059.000000	59.709619
1060.000000	59.796259
1061.000000	59.862732
1062.000000	59.916928
1063.000000	59.991449
1064.000000	60.054856
1065.000000	60.113924
1066.000000	60.170940
1067.000000	60.240772
1068.000000	60.305209
1069.000000	60.360286
1070.000000	60.426996
1071.000000	60.482613
1072.000000	60.533938
1073.000000	60.581444
1074.000000	60.651598
1075.000000	60.717730
1076.000000	60.765762
1077.000000	60.815899
1078.000000	60.880391
1079.000000	60.929824
1080.000000	60.977783
1081.000000	61.028438
1082.000000	61.074196
1083.000000	61.131082
1084.000000	61.191898
1085.000000	61.239035
1086.000000	61.286355
1087.000000	61.332716
1088.000000	61.390547
1089.000000	61.427306
1090.000000	61.473466
1091.000000	61.519214
1092.000000	61.547506
1093.000000	61.597318
1094.000000	61.625920
1095.000000	61.662279
1096.000000	61.701105
1097.000000	61.721001
1098.000000	61.753760
1099.000000	61.789017
1100.000000	61.817875
1101.000000	61.830617
1102.000000	61.855237
1103.000000	61.881730
1104.000000	61.902601
1105.000000	61.918997
1106.000000	61.932142
1107.000000	61.953784
1108.000000	61.971415
1109.000000	61.988229
1110.000000	62.002198
1111.000000	62.015073
1112.000000	62.033346
1113.000000	62.039451
1114.000000	62.045652
1115.000000	62.061333
1116.000000	62.072212
1117.000000	62.068012
1118.000000	62.049702
1119.000000	62.037046
1120.000000	62.013458
1121.000000	61.983073
1122.000000	61.934400
1123.000000	61.875487
1124.000000	61.798209
1125.000000	61.718584
1126.000000	61.610809
1127.000000	61.489451
1128.000000	61.321865
1129.000000	61.134762
1130.000000	60.907736
1131.000000	60.659739
1132.000000	60.400314
1133.000000	60.138053
1134.000000	59.825548
1135.000000	59.494654
1136.000000	59.156204
1137.000000	58.835804
1138.000000	58.549345
1139.000000	58.269946
1140.000000	57.993319
1141.000000	57.726982
1142.000000	57.480722
1143.000000	57.266235
1144.000000	57.073489
1145.000000	56.914415
1146.000000	56.808297
1147.000000	56.728951
1148.000000	56.657065
1149.000000	56.598659
1150.000000	56.537866
1151.000000	56.469972
1152.000000	56.377719
1153.000000	56.241604
1154.000000	56.073175
1155.000000	55.893427
1156.000000	55.669681
1157.000000	55.431210
1158.000000	55.167586
1159.000000	54.909831
1160.000000	54.645988
1161.000000	54.366781
1162.000000	54.081458
1163.000000	53.795656
1164.000000	53.522592
1165.000000	53.264485
