PE UV       SUBTECH     SPECTRUM    ASCII       PEDS        4.00        
   -1
CICIMAUCR0214-3.Sample.ASC
24/06/12
17:27:56.00
24/06/12
17:27:56.00
Vinicio Soto Monge
C. cupreomarginata. Sex M. Dorsal.
250,000000
1
Lambda 1050
1050L1511233
PerkinElmer UV WinLab 6.3.2.0749 / 2.02.05 Lambda 900 UV/VIS/NIR, Aug  7 2015 09:38:08

0
0
3350/servo 860,8/2
0
0
UV/VIS
1
1
1
DoubleDePol,CommonBeamDepol,RBeamAtt,SBeamAtt,60mm sphere, WB InGaAs Detector
0
0
0
0
Program
Program
3350/servo 860,8/2
3350/0,2 860,8/0,2
3350/0,2 860,8/0,2
0
15.00
 
 
 
0
 
860,8
319,2
860,8
Front
100
on
S:100 R:100
0
0
0
0
 
0
 
 
 
0
 
 
0
0
0
0
0
 
 
 
 
0
0


0
0
#HDR
-1
-1
#GR
nm
%R
1.0
0.0
2500,000000
-1,000000
2251
8
71,672100
4,948700
#DATA
250.000000	6.692600
251.000000	6.740067
252.000000	6.704767
253.000000	6.704500
254.000000	6.657533
255.000000	6.600267
256.000000	6.611900
257.000000	6.560500
258.000000	6.532667
259.000000	6.529900
260.000000	6.585767
261.000000	6.555600
262.000000	6.566233
263.000000	6.521733
264.000000	6.438633
265.000000	6.361933
266.000000	6.330000
267.000000	6.346000
268.000000	6.334067
269.000000	6.297200
270.000000	6.276700
271.000000	6.296867
272.000000	6.300733
273.000000	6.246533
274.000000	6.235033
275.000000	6.168733
276.000000	6.144667
277.000000	6.121367
278.000000	6.112500
279.000000	6.100400
280.000000	6.134867
281.000000	6.143167
282.000000	6.126667
283.000000	6.084167
284.000000	6.077833
285.000000	6.097167
286.000000	6.064833
287.000000	6.033500
288.000000	6.018967
289.000000	6.036133
290.000000	6.006800
291.000000	6.036133
292.000000	6.057867
293.000000	6.050133
294.000000	6.098333
295.000000	6.072100
296.000000	6.027133
297.000000	6.034300
298.000000	6.008600
299.000000	5.967067
300.000000	5.953733
301.000000	5.989733
302.000000	6.023533
303.000000	6.048733
304.000000	6.041533
305.000000	6.080367
306.000000	6.114167
307.000000	6.044033
308.000000	6.010633
309.000000	6.040900
310.000000	6.001767
311.000000	5.975500
312.000000	5.962000
313.000000	5.928767
314.000000	5.885733
315.000000	5.924933
316.000000	8.058100
317.000000	10.830367
318.000000	10.159400
319.000000	8.729733
320.000000	8.160600
321.000000	7.401367
322.000000	6.319300
323.000000	6.111233
324.000000	6.438333
325.000000	6.442233
326.000000	6.670033
327.000000	7.106033
328.000000	6.853467
329.000000	6.867900
330.000000	6.902067
331.000000	6.739233
332.000000	6.623300
333.000000	6.607300
334.000000	6.510367
335.000000	6.406200
336.000000	6.518833
337.000000	6.336300
338.000000	6.139700
339.000000	6.133500
340.000000	6.034967
341.000000	6.100467
342.000000	6.190167
343.000000	6.267833
344.000000	6.204133
345.000000	6.161967
346.000000	5.896033
347.000000	5.846733
348.000000	6.049733
349.000000	6.107200
350.000000	6.179400
351.000000	6.330533
352.000000	6.328100
353.000000	6.416933
354.000000	6.309667
355.000000	6.200800
356.000000	6.311467
357.000000	6.194400
358.000000	6.334733
359.000000	6.416333
360.000000	6.401700
361.000000	6.422233
362.000000	6.412333
363.000000	6.379333
364.000000	6.246167
365.000000	6.307000
366.000000	6.321500
367.000000	6.251733
368.000000	6.276367
369.000000	6.227567
370.000000	6.322133
371.000000	6.153000
372.000000	5.925967
373.000000	5.859933
374.000000	5.803367
375.000000	6.403233
376.000000	6.553100
377.000000	6.451200
378.000000	6.477133
379.000000	6.494367
380.000000	6.515367
381.000000	6.534333
382.000000	6.545867
383.000000	6.605933
384.000000	6.642700
385.000000	6.677567
386.000000	6.724833
387.000000	6.769567
388.000000	6.818667
389.000000	6.865800
390.000000	6.916100
391.000000	6.964033
392.000000	7.037500
393.000000	7.099300
394.000000	7.167733
395.000000	7.279833
396.000000	7.355833
397.000000	7.463700
398.000000	7.571400
399.000000	7.684133
400.000000	7.807533
401.000000	7.936967
402.000000	8.084567
403.000000	8.250267
404.000000	8.384233
405.000000	8.564633
406.000000	8.743667
407.000000	8.964100
408.000000	9.158767
409.000000	9.379133
410.000000	9.617600
411.000000	9.846200
412.000000	10.101767
413.000000	10.360167
414.000000	10.643933
415.000000	10.922733
416.000000	11.191700
417.000000	11.504867
418.000000	11.843133
419.000000	12.131200
420.000000	12.432567
421.000000	12.741867
422.000000	13.074933
423.000000	13.377933
424.000000	13.695233
425.000000	13.984767
426.000000	14.309733
427.000000	14.609767
428.000000	14.905233
429.000000	15.223400
430.000000	15.495500
431.000000	15.806733
432.000000	16.127033
433.000000	16.416800
434.000000	16.664167
435.000000	16.952700
436.000000	17.238767
437.000000	17.498667
438.000000	17.739733
439.000000	17.938733
440.000000	18.180767
441.000000	18.428800
442.000000	18.611367
443.000000	18.841967
444.000000	19.034633
445.000000	19.205433
446.000000	19.375933
447.000000	19.517600
448.000000	19.716000
449.000000	19.837833
450.000000	19.967567
451.000000	20.060900
452.000000	20.144667
453.000000	20.240367
454.000000	20.293133
455.000000	20.393167
456.000000	20.421833
457.000000	20.446867
458.000000	20.504833
459.000000	20.507133
460.000000	20.542600
461.000000	20.525667
462.000000	20.523033
463.000000	20.487433
464.000000	20.507400
465.000000	20.492700
466.000000	20.498000
467.000000	20.481333
468.000000	20.469533
469.000000	20.503300
470.000000	20.478467
471.000000	20.510933
472.000000	20.548733
473.000000	20.607667
474.000000	20.681233
475.000000	20.773267
476.000000	20.879900
477.000000	20.999633
478.000000	21.128467
479.000000	21.311033
480.000000	21.510933
481.000000	21.741733
482.000000	21.987667
483.000000	22.284867
484.000000	22.569767
485.000000	22.875000
486.000000	23.190433
487.000000	23.550300
488.000000	23.931300
489.000000	24.323400
490.000000	24.707400
491.000000	25.162733
492.000000	25.575667
493.000000	25.936333
494.000000	26.352000
495.000000	26.738367
496.000000	27.177000
497.000000	27.587033
498.000000	27.976033
499.000000	28.351033
500.000000	28.739300
501.000000	29.113000
502.000000	29.468000
503.000000	29.828467
504.000000	30.187433
505.000000	30.543867
506.000000	30.933533
507.000000	31.265233
508.000000	31.597267
509.000000	31.972133
510.000000	32.307300
511.000000	32.626933
512.000000	33.004700
513.000000	33.393267
514.000000	33.757033
515.000000	34.143000
516.000000	34.539500
517.000000	34.933033
518.000000	35.336767
519.000000	35.717467
520.000000	36.109433
521.000000	36.530000
522.000000	36.966267
523.000000	37.401600
524.000000	37.827533
525.000000	38.284733
526.000000	38.775167
527.000000	39.259833
528.000000	39.744633
529.000000	40.251100
530.000000	40.777933
531.000000	41.302067
532.000000	41.861267
533.000000	42.428633
534.000000	43.056733
535.000000	43.645333
536.000000	44.271867
537.000000	44.926500
538.000000	45.576000
539.000000	46.225100
540.000000	46.929933
541.000000	47.652200
542.000000	48.424867
543.000000	49.214700
544.000000	50.012800
545.000000	50.876667
546.000000	51.729767
547.000000	52.614867
548.000000	53.495500
549.000000	54.371133
550.000000	55.242167
551.000000	56.106633
552.000000	56.954967
553.000000	57.737700
554.000000	58.515567
555.000000	59.247533
556.000000	59.932033
557.000000	60.540267
558.000000	61.100067
559.000000	61.657400
560.000000	62.158267
561.000000	62.574933
562.000000	63.011433
563.000000	63.406100
564.000000	63.765367
565.000000	64.100567
566.000000	64.379767
567.000000	64.650800
568.000000	64.903367
569.000000	65.086400
570.000000	65.274833
571.000000	65.365600
572.000000	65.416600
573.000000	65.437567
574.000000	65.423467
575.000000	65.419900
576.000000	65.363133
577.000000	65.329433
578.000000	65.326000
579.000000	65.287367
580.000000	65.229833
581.000000	65.225233
582.000000	65.255600
583.000000	65.264633
584.000000	65.259433
585.000000	65.274067
586.000000	65.296167
587.000000	65.364567
588.000000	65.396600
589.000000	65.445267
590.000000	65.496400
591.000000	65.536467
592.000000	65.577200
593.000000	65.617767
594.000000	65.608400
595.000000	65.610633
596.000000	65.559633
597.000000	65.446900
598.000000	65.352067
599.000000	65.233067
600.000000	65.090133
601.000000	64.915100
602.000000	64.762933
603.000000	64.586467
604.000000	64.392800
605.000000	64.211867
606.000000	64.030433
607.000000	63.879367
608.000000	63.731833
609.000000	63.585800
610.000000	63.454567
611.000000	63.307467
612.000000	63.191733
613.000000	63.095767
614.000000	62.943367
615.000000	62.823500
616.000000	62.700133
617.000000	62.574133
618.000000	62.502267
619.000000	62.397267
620.000000	62.261200
621.000000	62.141233
622.000000	61.988600
623.000000	61.828233
624.000000	61.611400
625.000000	61.348567
626.000000	61.048533
627.000000	60.710100
628.000000	60.303467
629.000000	59.807267
630.000000	59.309967
631.000000	58.797567
632.000000	58.220467
633.000000	57.647900
634.000000	57.045567
635.000000	56.359333
636.000000	55.701167
637.000000	55.118267
638.000000	54.523433
639.000000	53.928900
640.000000	53.369733
641.000000	52.829767
642.000000	52.351800
643.000000	51.918067
644.000000	51.500633
645.000000	51.155733
646.000000	50.824267
647.000000	50.540633
648.000000	50.369467
649.000000	50.222800
650.000000	50.109400
651.000000	50.079533
652.000000	50.041733
653.000000	50.058167
654.000000	50.142733
655.000000	50.255300
656.000000	50.353967
657.000000	50.450567
658.000000	50.635967
659.000000	50.845267
660.000000	51.073000
661.000000	51.312667
662.000000	51.543367
663.000000	51.793967
664.000000	52.085133
665.000000	52.406833
666.000000	52.711133
667.000000	52.981667
668.000000	53.280667
669.000000	53.586833
670.000000	53.860000
671.000000	54.138700
672.000000	54.406867
673.000000	54.666600
674.000000	54.907700
675.000000	55.094700
676.000000	55.233600
677.000000	55.407300
678.000000	55.570100
679.000000	55.695300
680.000000	55.760400
681.000000	55.810167
682.000000	55.890200
683.000000	55.888567
684.000000	55.852767
685.000000	55.894200
686.000000	55.913400
687.000000	55.910467
688.000000	55.896100
689.000000	55.881200
690.000000	55.871733
691.000000	55.894367
692.000000	55.918500
693.000000	55.974567
694.000000	56.105300
695.000000	56.147500
696.000000	56.206967
697.000000	56.296033
698.000000	56.382567
699.000000	56.413867
700.000000	56.519100
701.000000	56.643967
702.000000	56.675600
703.000000	56.779100
704.000000	56.843500
705.000000	56.876633
706.000000	56.921867
707.000000	57.009100
708.000000	57.101600
709.000000	57.148633
710.000000	57.252433
711.000000	57.325767
712.000000	57.367133
713.000000	57.514367
714.000000	57.655700
715.000000	57.730900
716.000000	57.834400
717.000000	58.005333
718.000000	58.195033
719.000000	58.340900
720.000000	58.467700
721.000000	58.540433
722.000000	58.766533
723.000000	58.991767
724.000000	59.152367
725.000000	59.260200
726.000000	59.470233
727.000000	59.570300
728.000000	59.654833
729.000000	59.834667
730.000000	59.987433
731.000000	60.100333
732.000000	60.137767
733.000000	60.328067
734.000000	60.434367
735.000000	60.519733
736.000000	60.645533
737.000000	60.716500
738.000000	60.776500
739.000000	60.937000
740.000000	60.942467
741.000000	61.068933
742.000000	61.164933
743.000000	61.263200
744.000000	61.387400
745.000000	61.497833
746.000000	61.726633
747.000000	61.647667
748.000000	61.807667
749.000000	61.800800
750.000000	61.992267
751.000000	62.008067
752.000000	61.969067
753.000000	62.016467
754.000000	62.096633
755.000000	62.243867
756.000000	62.265900
757.000000	62.237100
758.000000	62.328067
759.000000	62.387067
760.000000	62.457600
761.000000	62.505500
762.000000	62.569833
763.000000	62.773467
764.000000	62.718300
765.000000	62.800167
766.000000	63.007500
767.000000	63.039367
768.000000	63.143433
769.000000	63.315700
770.000000	63.311700
771.000000	63.628233
772.000000	63.648033
773.000000	63.745033
774.000000	63.801833
775.000000	63.756567
776.000000	63.964367
777.000000	64.028467
778.000000	64.150633
779.000000	64.264233
780.000000	64.454700
781.000000	64.434100
782.000000	64.472700
783.000000	64.503433
784.000000	64.688167
785.000000	64.766100
786.000000	64.830300
787.000000	65.039767
788.000000	65.013167
789.000000	65.069000
790.000000	65.298167
791.000000	65.424733
792.000000	65.354300
793.000000	65.511267
794.000000	65.440167
795.000000	65.698633
796.000000	65.703867
797.000000	65.698833
798.000000	66.000100
799.000000	65.932300
800.000000	66.126900
801.000000	66.209433
802.000000	66.159400
803.000000	66.338467
804.000000	66.386667
805.000000	66.613167
806.000000	66.798000
807.000000	66.511033
808.000000	66.508333
809.000000	66.559133
810.000000	66.788400
811.000000	67.026300
812.000000	67.060100
813.000000	67.135033
814.000000	67.147667
815.000000	67.383200
816.000000	67.271133
817.000000	67.517200
818.000000	67.460833
819.000000	67.700967
820.000000	68.024300
821.000000	67.852367
822.000000	67.879967
823.000000	67.931500
824.000000	68.128367
825.000000	68.179833
826.000000	68.185633
827.000000	68.445900
828.000000	68.628433
829.000000	68.868500
830.000000	68.882333
831.000000	68.826200
832.000000	68.891967
833.000000	69.322567
834.000000	69.208700
835.000000	69.321033
836.000000	69.151767
837.000000	69.453533
838.000000	69.649033
839.000000	69.849467
840.000000	69.803367
841.000000	70.186400
842.000000	70.019767
843.000000	70.268700
844.000000	70.555667
845.000000	70.602367
846.000000	70.695667
847.000000	70.810067
848.000000	70.720400
849.000000	70.687867
850.000000	70.857967
851.000000	71.392000
852.000000	71.035100
853.000000	71.386600
854.000000	71.518133
855.000000	71.716500
856.000000	71.502600
857.000000	71.097867
858.000000	71.438989
859.000000	71.480088
860.000000	71.515020
861.000000	71.558463
862.000000	71.630681
863.000000	71.674248
864.000000	71.704740
865.000000	71.770443
866.000000	71.807958
867.000000	71.828970
868.000000	71.866664
869.000000	71.877581
870.000000	71.931815
871.000000	71.947094
872.000000	71.950381
873.000000	71.972464
874.000000	71.999844
875.000000	71.991527
876.000000	72.011253
877.000000	72.022400
878.000000	72.016887
879.000000	72.021841
880.000000	72.033449
881.000000	72.017066
882.000000	72.010513
883.000000	72.006045
884.000000	71.999127
885.000000	71.989028
886.000000	71.983711
887.000000	71.958704
888.000000	71.951512
889.000000	71.935880
890.000000	71.908057
891.000000	71.896267
892.000000	71.861719
893.000000	71.828027
894.000000	71.783969
895.000000	71.733526
896.000000	71.722826
897.000000	71.727584
898.000000	71.718365
899.000000	71.719714
900.000000	71.726264
901.000000	71.723195
902.000000	71.708204
903.000000	71.701831
904.000000	71.688941
905.000000	71.679030
906.000000	71.668353
907.000000	71.661293
908.000000	71.655676
909.000000	71.646212
910.000000	71.648874
911.000000	71.644746
912.000000	71.638677
913.000000	71.640106
914.000000	71.635888
915.000000	71.611736
916.000000	71.596935
917.000000	71.581610
918.000000	71.568268
919.000000	71.552796
920.000000	71.531008
921.000000	71.510684
922.000000	71.478430
923.000000	71.447271
924.000000	71.426371
925.000000	71.390532
926.000000	71.362042
927.000000	71.325166
928.000000	71.285332
929.000000	71.251512
930.000000	71.213369
931.000000	71.178683
932.000000	71.139617
933.000000	71.095355
934.000000	71.052585
935.000000	71.011831
936.000000	70.960536
937.000000	70.905811
938.000000	70.859160
939.000000	70.810405
940.000000	70.755164
941.000000	70.708713
942.000000	70.662895
943.000000	70.600557
944.000000	70.551081
945.000000	70.498773
946.000000	70.432534
947.000000	70.368501
948.000000	70.308253
949.000000	70.259312
950.000000	70.196429
951.000000	70.111835
952.000000	70.037892
953.000000	69.967811
954.000000	69.898052
955.000000	69.822240
956.000000	69.746396
957.000000	69.672899
958.000000	69.587644
959.000000	69.507966
960.000000	69.438145
961.000000	69.358275
962.000000	69.268479
963.000000	69.178800
964.000000	69.100697
965.000000	69.027232
966.000000	68.953066
967.000000	68.870023
968.000000	68.786319
969.000000	68.718302
970.000000	68.648155
971.000000	68.573988
972.000000	68.489681
973.000000	68.417069
974.000000	68.349253
975.000000	68.276124
976.000000	68.209031
977.000000	68.141511
978.000000	68.065561
979.000000	67.995639
980.000000	67.926698
981.000000	67.863022
982.000000	67.803339
983.000000	67.731435
984.000000	67.667776
985.000000	67.612195
986.000000	67.554564
987.000000	67.494637
988.000000	67.447122
989.000000	67.399916
990.000000	67.349122
991.000000	67.315461
992.000000	67.277556
993.000000	67.232488
994.000000	67.181296
995.000000	67.146837
996.000000	67.124276
997.000000	67.091283
998.000000	67.058188
999.000000	67.018727
1000.000000	66.983419
1001.000000	66.960969
1002.000000	66.937895
1003.000000	66.907656
1004.000000	66.870296
1005.000000	66.854310
1006.000000	66.831101
1007.000000	66.798578
1008.000000	66.783130
1009.000000	66.755906
1010.000000	66.734062
1011.000000	66.720895
1012.000000	66.710961
1013.000000	66.699986
1014.000000	66.703109
1015.000000	66.695079
1016.000000	66.691659
1017.000000	66.704242
1018.000000	66.718094
1019.000000	66.718159
1020.000000	66.735597
1021.000000	66.741764
1022.000000	66.750495
1023.000000	66.765670
1024.000000	66.773296
1025.000000	66.797837
1026.000000	66.818397
1027.000000	66.838724
1028.000000	66.844976
1029.000000	66.862381
1030.000000	66.879130
1031.000000	66.892490
1032.000000	66.916469
1033.000000	66.929505
1034.000000	66.939363
1035.000000	66.954966
1036.000000	66.971951
1037.000000	66.980295
1038.000000	67.003914
1039.000000	67.009584
1040.000000	67.022284
1041.000000	67.031597
1042.000000	67.050955
1043.000000	67.070671
1044.000000	67.081934
1045.000000	67.096319
1046.000000	67.120889
1047.000000	67.138676
1048.000000	67.163580
1049.000000	67.177705
1050.000000	67.210863
1051.000000	67.228885
1052.000000	67.258685
1053.000000	67.294786
1054.000000	67.330033
1055.000000	67.359425
1056.000000	67.396694
1057.000000	67.432151
1058.000000	67.485963
1059.000000	67.501541
1060.000000	67.553515
1061.000000	67.588114
1062.000000	67.620931
1063.000000	67.670234
1064.000000	67.699789
1065.000000	67.732951
1066.000000	67.774132
1067.000000	67.810764
1068.000000	67.845024
1069.000000	67.891813
1070.000000	67.927008
1071.000000	67.963932
1072.000000	68.012407
1073.000000	68.029897
1074.000000	68.073360
1075.000000	68.119223
1076.000000	68.158601
1077.000000	68.175190
1078.000000	68.221108
1079.000000	68.245502
1080.000000	68.291573
1081.000000	68.320836
1082.000000	68.361006
1083.000000	68.377713
1084.000000	68.425915
1085.000000	68.461498
1086.000000	68.492949
1087.000000	68.525012
1088.000000	68.542176
1089.000000	68.572073
1090.000000	68.592831
1091.000000	68.625778
1092.000000	68.638761
1093.000000	68.669389
1094.000000	68.687849
1095.000000	68.701627
1096.000000	68.721629
1097.000000	68.732510
1098.000000	68.745636
1099.000000	68.755236
1100.000000	68.755558
1101.000000	68.754959
1102.000000	68.765103
1103.000000	68.769859
1104.000000	68.773331
1105.000000	68.775902
1106.000000	68.769574
1107.000000	68.771196
1108.000000	68.778139
1109.000000	68.783829
1110.000000	68.766968
1111.000000	68.774734
1112.000000	68.765161
1113.000000	68.761298
1114.000000	68.765734
1115.000000	68.763065
1116.000000	68.768906
1117.000000	68.744639
1118.000000	68.715190
1119.000000	68.698878
1120.000000	68.676612
1121.000000	68.628897
1122.000000	68.585993
1123.000000	68.532743
1124.000000	68.444533
1125.000000	68.367973
1126.000000	68.264830
1127.000000	68.156661
1128.000000	68.014872
1129.000000	67.854885
1130.000000	67.656399
1131.000000	67.452197
1132.000000	67.230306
1133.000000	67.028359
1134.000000	66.771325
1135.000000	66.484208
1136.000000	66.202615
1137.000000	65.927372
1138.000000	65.676415
1139.000000	65.436862
1140.000000	65.200201
1141.000000	64.976684
1142.000000	64.779543
1143.000000	64.587920
1144.000000	64.428566
1145.000000	64.298590
1146.000000	64.184635
1147.000000	64.096163
1148.000000	64.031899
1149.000000	63.968309
1150.000000	63.898633
1151.000000	63.826355
1152.000000	63.739091
1153.000000	63.622034
1154.000000	63.479495
1155.000000	63.310467
1156.000000	63.136012
1157.000000	62.933444
1158.000000	62.727729
1159.000000	62.497889
1160.000000	62.269260
1161.000000	62.040887
1162.000000	61.812683
1163.000000	61.576530
1164.000000	61.346376
1165.000000	61.123451
1166.000000	60.910985
