PE UV       SUBTECH     SPECTRUM    ASCII       PEDS        4.00        
   -1
CICIMAUCR0233-3.Sample.ASC
24/06/13
17:34:49.00
24/06/13
17:34:49.00
Vinicio Soto Monge
C. resplendens. Sex F. Dorsal.
250,000000
1
Lambda 1050
1050L1511233
PerkinElmer UV WinLab 6.3.2.0749 / 2.02.05 Lambda 900 UV/VIS/NIR, Aug  7 2015 09:38:08

0
0
3350/servo 860,8/2
0
0
UV/VIS
1
1
1
DoubleDePol,CommonBeamDepol,RBeamAtt,SBeamAtt,60mm sphere, WB InGaAs Detector
0
0
0
0
Program
Program
3350/servo 860,8/2
3350/0,2 860,8/0,2
3350/0,2 860,8/0,2
0
15.00
 
 
 
0
 
860,8
319,2
860,8
Front
100
on
S:100 R:100
0
0
0
0
 
0
 
 
 
0
 
 
0
0
0
0
0
 
 
 
 
0
0


0
0
#HDR
-1
-1
#GR
nm
%R
1.0
0.0
2500,000000
-1,000000
2251
8
88,468100
5,541400
#DATA
250.000000	6.295867
251.000000	6.278700
252.000000	6.259933
253.000000	6.247533
254.000000	6.273767
255.000000	6.230500
256.000000	6.204933
257.000000	6.226067
258.000000	6.192333
259.000000	6.176400
260.000000	6.173500
261.000000	6.146067
262.000000	6.100167
263.000000	6.074600
264.000000	6.032967
265.000000	6.034300
266.000000	6.027533
267.000000	5.986700
268.000000	5.965267
269.000000	5.939333
270.000000	5.919433
271.000000	5.895533
272.000000	5.871433
273.000000	5.857367
274.000000	5.828300
275.000000	5.811500
276.000000	5.799567
277.000000	5.784100
278.000000	5.756733
279.000000	5.742933
280.000000	5.742400
281.000000	5.758767
282.000000	5.751167
283.000000	5.708233
284.000000	5.708767
285.000000	5.706167
286.000000	5.685667
287.000000	5.696533
288.000000	5.695600
289.000000	5.697767
290.000000	5.676733
291.000000	5.659200
292.000000	5.642167
293.000000	5.642033
294.000000	5.659567
295.000000	5.641800
296.000000	5.631967
297.000000	5.609400
298.000000	5.593900
299.000000	5.615167
300.000000	5.610800
301.000000	5.588733
302.000000	5.570567
303.000000	5.580467
304.000000	5.599300
305.000000	5.573067
306.000000	5.561833
307.000000	5.553867
308.000000	5.567033
309.000000	5.573433
310.000000	5.575000
311.000000	5.560167
312.000000	5.549567
313.000000	5.567333
314.000000	5.551733
315.000000	5.542567
316.000000	5.926533
317.000000	6.414433
318.000000	6.402800
319.000000	6.488533
320.000000	6.250833
321.000000	5.836167
322.000000	6.062300
323.000000	6.169100
324.000000	5.938733
325.000000	5.738233
326.000000	5.661333
327.000000	5.686067
328.000000	5.871533
329.000000	5.851467
330.000000	5.772400
331.000000	5.772000
332.000000	5.826533
333.000000	5.899033
334.000000	5.798733
335.000000	5.725600
336.000000	5.685633
337.000000	5.695200
338.000000	5.838800
339.000000	5.965200
340.000000	5.976800
341.000000	5.913333
342.000000	5.914333
343.000000	5.871000
344.000000	5.844100
345.000000	5.909600
346.000000	5.936567
347.000000	5.957633
348.000000	5.917567
349.000000	5.851567
350.000000	5.944133
351.000000	6.047800
352.000000	6.104867
353.000000	6.203833
354.000000	6.255833
355.000000	6.243967
356.000000	6.232667
357.000000	6.299533
358.000000	6.354833
359.000000	6.313833
360.000000	6.341833
361.000000	6.374300
362.000000	6.396533
363.000000	6.438367
364.000000	6.548767
365.000000	6.593533
366.000000	6.642700
367.000000	6.738667
368.000000	6.668433
369.000000	6.682333
370.000000	6.729267
371.000000	6.780900
372.000000	6.830233
373.000000	6.846067
374.000000	6.906900
375.000000	7.092167
376.000000	7.284800
377.000000	7.402300
378.000000	7.503233
379.000000	7.626300
380.000000	7.751933
381.000000	7.884400
382.000000	8.024800
383.000000	8.177067
384.000000	8.342633
385.000000	8.536867
386.000000	8.742100
387.000000	8.949867
388.000000	9.173533
389.000000	9.422200
390.000000	9.669567
391.000000	9.941667
392.000000	10.256900
393.000000	10.567467
394.000000	10.903967
395.000000	11.247667
396.000000	11.585833
397.000000	11.934867
398.000000	12.322667
399.000000	12.725033
400.000000	13.133000
401.000000	13.545300
402.000000	13.960500
403.000000	14.380700
404.000000	14.801800
405.000000	15.236933
406.000000	15.665067
407.000000	16.079800
408.000000	16.481167
409.000000	16.864800
410.000000	17.276033
411.000000	17.660833
412.000000	18.026867
413.000000	18.381400
414.000000	18.731833
415.000000	19.081467
416.000000	19.392267
417.000000	19.685100
418.000000	19.966933
419.000000	20.230433
420.000000	20.492533
421.000000	20.750000
422.000000	21.011600
423.000000	21.230233
424.000000	21.431500
425.000000	21.653233
426.000000	21.825167
427.000000	22.002633
428.000000	22.185233
429.000000	22.340500
430.000000	22.481867
431.000000	22.624933
432.000000	22.765867
433.000000	22.875533
434.000000	22.987300
435.000000	23.059667
436.000000	23.138100
437.000000	23.198267
438.000000	23.229900
439.000000	23.233833
440.000000	23.276500
441.000000	23.269267
442.000000	23.226200
443.000000	23.191000
444.000000	23.114667
445.000000	23.026533
446.000000	22.906567
447.000000	22.767800
448.000000	22.633967
449.000000	22.479400
450.000000	22.314533
451.000000	22.162433
452.000000	22.003967
453.000000	21.869900
454.000000	21.751333
455.000000	21.645133
456.000000	21.562400
457.000000	21.537833
458.000000	21.546000
459.000000	21.578033
460.000000	21.702300
461.000000	21.841233
462.000000	22.020133
463.000000	22.273100
464.000000	22.566067
465.000000	22.922067
466.000000	23.280067
467.000000	23.677867
468.000000	24.092367
469.000000	24.514867
470.000000	24.959500
471.000000	25.403567
472.000000	25.847733
473.000000	26.261100
474.000000	26.663933
475.000000	27.042867
476.000000	27.390433
477.000000	27.692100
478.000000	27.969900
479.000000	28.217233
480.000000	28.424433
481.000000	28.601400
482.000000	28.744933
483.000000	28.853733
484.000000	28.934667
485.000000	28.960100
486.000000	28.958800
487.000000	28.970533
488.000000	28.983833
489.000000	29.012333
490.000000	29.034567
491.000000	29.065567
492.000000	29.135733
493.000000	29.244167
494.000000	29.374700
495.000000	29.544900
496.000000	29.778600
497.000000	30.037100
498.000000	30.370800
499.000000	30.754767
500.000000	31.157067
501.000000	31.619900
502.000000	32.126833
503.000000	32.649000
504.000000	33.217567
505.000000	33.847133
506.000000	34.478700
507.000000	35.130233
508.000000	35.771900
509.000000	36.496933
510.000000	37.208200
511.000000	37.959767
512.000000	38.730467
513.000000	39.520567
514.000000	40.355833
515.000000	41.193167
516.000000	42.075667
517.000000	42.972067
518.000000	43.909500
519.000000	44.861500
520.000000	45.905800
521.000000	46.977033
522.000000	48.078700
523.000000	49.258567
524.000000	50.451167
525.000000	51.667567
526.000000	52.925133
527.000000	54.205067
528.000000	55.477133
529.000000	56.795367
530.000000	58.121600
531.000000	59.469067
532.000000	60.807533
533.000000	62.144067
534.000000	63.458700
535.000000	64.779233
536.000000	66.045267
537.000000	67.286300
538.000000	68.502700
539.000000	69.654933
540.000000	70.769200
541.000000	71.841633
542.000000	72.847000
543.000000	73.817667
544.000000	74.743667
545.000000	75.596167
546.000000	76.391333
547.000000	77.194433
548.000000	77.921967
549.000000	78.643400
550.000000	79.315600
551.000000	79.965667
552.000000	80.563067
553.000000	81.115000
554.000000	81.650933
555.000000	82.164833
556.000000	82.644700
557.000000	83.089867
558.000000	83.550400
559.000000	83.989867
560.000000	84.402267
561.000000	84.818767
562.000000	85.243033
563.000000	85.640733
564.000000	85.980733
565.000000	86.363067
566.000000	86.678133
567.000000	87.008333
568.000000	87.272033
569.000000	87.568067
570.000000	87.812533
571.000000	88.047000
572.000000	88.238233
573.000000	88.439800
574.000000	88.594367
575.000000	88.743767
576.000000	88.894267
577.000000	89.027667
578.000000	89.147567
579.000000	89.281467
580.000000	89.406133
581.000000	89.512267
582.000000	89.612200
583.000000	89.739233
584.000000	89.834300
585.000000	89.901300
586.000000	89.992467
587.000000	90.067667
588.000000	90.118800
589.000000	90.166400
590.000000	90.190833
591.000000	90.182133
592.000000	90.143567
593.000000	90.108367
594.000000	90.055267
595.000000	89.994500
596.000000	89.908200
597.000000	89.782167
598.000000	89.659567
599.000000	89.500700
600.000000	89.312533
601.000000	89.095500
602.000000	88.875267
603.000000	88.637767
604.000000	88.367500
605.000000	88.086067
606.000000	87.761933
607.000000	87.419033
608.000000	87.068967
609.000000	86.676500
610.000000	86.262667
611.000000	85.808633
612.000000	85.298200
613.000000	84.766500
614.000000	84.203867
615.000000	83.627133
616.000000	83.029733
617.000000	82.394900
618.000000	81.732633
619.000000	81.055600
620.000000	80.378733
621.000000	79.668967
622.000000	78.900033
623.000000	78.137300
624.000000	77.353967
625.000000	76.532000
626.000000	75.678900
627.000000	74.775667
628.000000	73.856900
629.000000	72.908133
630.000000	71.906567
631.000000	70.892933
632.000000	69.881833
633.000000	68.854400
634.000000	67.813400
635.000000	66.798667
636.000000	65.813733
637.000000	64.813933
638.000000	63.816467
639.000000	62.838033
640.000000	61.899233
641.000000	60.963567
642.000000	60.036600
643.000000	59.171200
644.000000	58.359133
645.000000	57.616333
646.000000	56.958500
647.000000	56.401067
648.000000	55.923133
649.000000	55.502367
650.000000	55.199067
651.000000	55.007133
652.000000	54.901833
653.000000	54.892600
654.000000	55.003700
655.000000	55.187500
656.000000	55.455967
657.000000	55.803000
658.000000	56.237033
659.000000	56.807167
660.000000	57.403967
661.000000	58.066667
662.000000	58.822033
663.000000	59.591867
664.000000	60.390767
665.000000	61.242667
666.000000	62.113767
667.000000	62.944433
668.000000	63.755633
669.000000	64.578467
670.000000	65.415933
671.000000	66.200767
672.000000	66.894700
673.000000	67.572733
674.000000	68.198667
675.000000	68.769000
676.000000	69.300467
677.000000	69.762600
678.000000	70.161200
679.000000	70.554100
680.000000	70.926133
681.000000	71.266200
682.000000	71.586900
683.000000	71.903000
684.000000	72.156967
685.000000	72.426800
686.000000	72.661100
687.000000	72.883967
688.000000	73.140400
689.000000	73.400700
690.000000	73.692367
691.000000	73.927233
692.000000	74.170100
693.000000	74.386100
694.000000	74.602233
695.000000	74.866900
696.000000	75.093433
697.000000	75.302733
698.000000	75.502467
699.000000	75.690067
700.000000	75.970333
701.000000	76.133433
702.000000	76.321200
703.000000	76.462900
704.000000	76.577733
705.000000	76.665600
706.000000	76.706033
707.000000	76.766100
708.000000	76.783933
709.000000	76.760200
710.000000	76.685233
711.000000	76.592167
712.000000	76.493100
713.000000	76.310300
714.000000	76.180033
715.000000	76.043533
716.000000	75.860500
717.000000	75.648533
718.000000	75.463233
719.000000	75.229367
720.000000	75.026500
721.000000	74.779000
722.000000	74.574467
723.000000	74.368100
724.000000	74.184167
725.000000	73.963800
726.000000	73.803233
727.000000	73.733033
728.000000	73.603633
729.000000	73.470367
730.000000	73.425667
731.000000	73.454300
732.000000	73.518700
733.000000	73.561200
734.000000	73.655033
735.000000	73.887433
736.000000	74.066867
737.000000	74.352133
738.000000	74.642067
739.000000	75.008967
740.000000	75.307300
741.000000	75.766867
742.000000	76.287833
743.000000	76.713867
744.000000	77.199433
745.000000	77.751800
746.000000	78.295567
747.000000	78.854300
748.000000	79.483500
749.000000	80.032367
750.000000	80.586867
751.000000	81.294633
752.000000	81.970600
753.000000	82.413867
754.000000	83.058267
755.000000	83.631233
756.000000	84.142700
757.000000	84.603533
758.000000	85.101100
759.000000	85.520300
760.000000	85.956533
761.000000	86.351633
762.000000	86.751200
763.000000	87.052567
764.000000	87.346800
765.000000	87.638200
766.000000	87.863300
767.000000	88.120300
768.000000	88.292333
769.000000	88.466900
770.000000	88.624267
771.000000	88.797367
772.000000	88.853967
773.000000	89.008867
774.000000	89.121833
775.000000	89.294133
776.000000	89.353433
777.000000	89.386067
778.000000	89.596367
779.000000	89.755567
780.000000	89.750100
781.000000	89.794800
782.000000	90.020267
783.000000	90.052967
784.000000	90.205333
785.000000	90.073433
786.000000	90.402933
787.000000	90.429067
788.000000	90.509800
789.000000	90.689967
790.000000	90.671733
791.000000	90.574067
792.000000	90.832733
793.000000	90.766833
794.000000	90.877267
795.000000	90.850167
796.000000	90.991567
797.000000	90.806933
798.000000	90.907600
799.000000	90.906867
800.000000	90.850867
801.000000	90.805567
802.000000	90.681167
803.000000	90.421533
804.000000	90.388767
805.000000	90.295533
806.000000	90.153567
807.000000	90.063000
808.000000	89.818733
809.000000	89.658533
810.000000	89.512767
811.000000	89.224667
812.000000	89.171600
813.000000	88.930867
814.000000	88.787200
815.000000	88.447867
816.000000	88.490367
817.000000	88.341533
818.000000	88.151267
819.000000	88.137167
820.000000	88.134700
821.000000	87.943667
822.000000	87.809167
823.000000	87.896200
824.000000	87.797267
825.000000	87.707733
826.000000	87.568133
827.000000	87.649467
828.000000	87.635800
829.000000	87.643467
830.000000	87.477533
831.000000	87.511233
832.000000	87.396000
833.000000	87.336733
834.000000	87.344500
835.000000	87.115967
836.000000	87.023300
837.000000	86.967733
838.000000	86.677967
839.000000	86.467533
840.000000	86.190967
841.000000	85.927467
842.000000	85.640267
843.000000	85.325267
844.000000	85.010500
845.000000	84.863267
846.000000	84.400267
847.000000	83.967700
848.000000	83.551367
849.000000	83.192400
850.000000	83.002667
851.000000	82.619400
852.000000	81.978100
853.000000	81.531033
854.000000	81.048533
855.000000	80.618000
856.000000	80.289833
857.000000	78.901967
858.000000	79.936600
859.000000	79.520345
860.000000	79.132234
861.000000	78.726034
862.000000	78.330264
863.000000	77.952574
864.000000	77.571688
865.000000	77.200875
866.000000	76.835251
867.000000	76.462223
868.000000	76.086630
869.000000	75.732055
870.000000	75.439925
871.000000	75.265682
872.000000	75.164825
873.000000	75.071014
874.000000	74.955581
875.000000	74.821715
876.000000	74.654165
877.000000	74.449403
878.000000	74.254063
879.000000	74.035674
880.000000	73.831124
881.000000	73.609774
882.000000	73.406366
883.000000	73.185762
884.000000	72.987420
885.000000	72.781044
886.000000	72.587140
887.000000	72.371267
888.000000	72.164412
889.000000	71.957322
890.000000	71.732866
891.000000	71.510701
892.000000	71.303829
893.000000	71.080505
894.000000	70.831497
895.000000	70.604870
896.000000	70.392518
897.000000	70.157255
898.000000	69.916960
899.000000	69.674816
900.000000	69.429159
901.000000	69.187248
902.000000	68.957922
903.000000	68.714940
904.000000	68.463366
905.000000	68.217070
906.000000	67.977765
907.000000	67.732507
908.000000	67.484973
909.000000	67.247023
910.000000	67.005231
911.000000	66.767785
912.000000	66.526202
913.000000	66.283692
914.000000	66.044908
915.000000	65.801893
916.000000	65.565511
917.000000	65.336160
918.000000	65.105366
919.000000	64.870309
920.000000	64.637241
921.000000	64.404276
922.000000	64.168497
923.000000	63.936290
924.000000	63.718286
925.000000	63.502922
926.000000	63.291339
927.000000	63.072912
928.000000	62.854665
929.000000	62.650634
930.000000	62.439282
931.000000	62.222612
932.000000	62.017142
933.000000	61.807728
934.000000	61.595341
935.000000	61.392250
936.000000	61.188206
937.000000	60.992317
938.000000	60.789456
939.000000	60.597900
940.000000	60.415024
941.000000	60.216728
942.000000	60.027002
943.000000	59.832128
944.000000	59.637350
945.000000	59.450645
946.000000	59.255834
947.000000	59.061469
948.000000	58.876920
949.000000	58.693571
950.000000	58.509221
951.000000	58.327095
952.000000	58.151501
953.000000	57.978387
954.000000	57.806942
955.000000	57.641245
956.000000	57.480106
957.000000	57.326679
958.000000	57.173020
959.000000	57.023045
960.000000	56.882482
961.000000	56.744095
962.000000	56.605959
963.000000	56.469157
964.000000	56.347306
965.000000	56.224318
966.000000	56.103233
967.000000	55.989776
968.000000	55.871598
969.000000	55.761354
970.000000	55.654902
971.000000	55.550484
972.000000	55.444455
973.000000	55.336195
974.000000	55.232940
975.000000	55.136732
976.000000	55.044537
977.000000	54.945209
978.000000	54.849153
979.000000	54.763923
980.000000	54.681652
981.000000	54.598688
982.000000	54.517559
983.000000	54.442731
984.000000	54.378375
985.000000	54.315327
986.000000	54.261830
987.000000	54.202102
988.000000	54.149226
989.000000	54.118311
990.000000	54.079185
991.000000	54.044037
992.000000	54.017035
993.000000	53.985763
994.000000	53.966452
995.000000	53.954617
996.000000	53.938510
997.000000	53.926095
998.000000	53.920347
999.000000	53.928871
1000.000000	53.925712
1001.000000	53.920360
1002.000000	53.935069
1003.000000	53.946144
1004.000000	53.958889
1005.000000	53.969144
1006.000000	53.971437
1007.000000	53.980147
1008.000000	53.998886
1009.000000	54.020880
1010.000000	54.044741
1011.000000	54.074738
1012.000000	54.111377
1013.000000	54.157508
1014.000000	54.202632
1015.000000	54.254835
1016.000000	54.311242
1017.000000	54.368981
1018.000000	54.425163
1019.000000	54.504417
1020.000000	54.575007
1021.000000	54.642673
1022.000000	54.718392
1023.000000	54.789467
1024.000000	54.871886
1025.000000	54.953014
1026.000000	55.026724
1027.000000	55.099704
1028.000000	55.171121
1029.000000	55.239069
1030.000000	55.311514
1031.000000	55.386272
1032.000000	55.459899
1033.000000	55.532332
1034.000000	55.594474
1035.000000	55.672709
1036.000000	55.729568
1037.000000	55.801236
1038.000000	55.871928
1039.000000	55.937509
1040.000000	55.984927
1041.000000	56.043737
1042.000000	56.110043
1043.000000	56.172056
1044.000000	56.233846
1045.000000	56.299057
1046.000000	56.365313
1047.000000	56.417164
1048.000000	56.483499
1049.000000	56.547863
1050.000000	56.609090
1051.000000	56.679639
1052.000000	56.752133
1053.000000	56.823443
1054.000000	56.900121
1055.000000	56.975920
1056.000000	57.034659
1057.000000	57.112596
1058.000000	57.178754
1059.000000	57.254180
1060.000000	57.303272
1061.000000	57.373438
1062.000000	57.436995
1063.000000	57.499220
1064.000000	57.557359
1065.000000	57.635640
1066.000000	57.671987
1067.000000	57.733897
1068.000000	57.793498
1069.000000	57.858314
1070.000000	57.904484
1071.000000	57.953020
1072.000000	58.015817
1073.000000	58.059132
1074.000000	58.113603
1075.000000	58.161715
1076.000000	58.206600
1077.000000	58.260735
1078.000000	58.303609
1079.000000	58.353824
1080.000000	58.390050
1081.000000	58.449081
1082.000000	58.490007
1083.000000	58.535394
1084.000000	58.574964
1085.000000	58.613710
1086.000000	58.654214
1087.000000	58.694387
1088.000000	58.727163
1089.000000	58.750966
1090.000000	58.779731
1091.000000	58.811472
1092.000000	58.839237
1093.000000	58.857704
1094.000000	58.877414
1095.000000	58.904806
1096.000000	58.909579
1097.000000	58.924382
1098.000000	58.929848
1099.000000	58.939480
1100.000000	58.958356
1101.000000	58.950679
1102.000000	58.946904
1103.000000	58.950116
1104.000000	58.945662
1105.000000	58.941795
1106.000000	58.948398
1107.000000	58.940462
1108.000000	58.934069
1109.000000	58.938975
1110.000000	58.933339
1111.000000	58.923092
1112.000000	58.920812
1113.000000	58.910666
1114.000000	58.897364
1115.000000	58.895026
1116.000000	58.870366
1117.000000	58.840060
1118.000000	58.800219
1119.000000	58.752321
1120.000000	58.694683
1121.000000	58.628723
1122.000000	58.542296
1123.000000	58.436073
1124.000000	58.306644
1125.000000	58.171516
1126.000000	58.015863
1127.000000	57.815675
1128.000000	57.565302
1129.000000	57.291923
1130.000000	56.964088
1131.000000	56.589025
1132.000000	56.204964
1133.000000	55.811747
1134.000000	55.342564
1135.000000	54.843232
1136.000000	54.368156
1137.000000	53.901008
1138.000000	53.466794
1139.000000	53.056988
1140.000000	52.649499
1141.000000	52.264911
1142.000000	51.904464
1143.000000	51.579446
1144.000000	51.281805
1145.000000	51.031108
1146.000000	50.808709
1147.000000	50.627328
1148.000000	50.464157
1149.000000	50.306628
1150.000000	50.140805
1151.000000	49.977363
1152.000000	49.784197
1153.000000	49.558014
1154.000000	49.315545
1155.000000	49.048591
1156.000000	48.750609
1157.000000	48.434556
1158.000000	48.120508
1159.000000	47.803836
1160.000000	47.487938
1161.000000	47.163055
1162.000000	46.833364
1163.000000	46.513779
1164.000000	46.215748
1165.000000	45.916440
