PE UV       SUBTECH     SPECTRUM    ASCII       PEDS        4.00        
   -1
CICIMAUCR0251-3.Sample.ASC
24/05/27
17:05:10.00
24/05/27
17:05:10.00
Vinicio Soto Monge
C. resplendens, F
250,000000
1
Lambda 1050
1050L1511233
PerkinElmer UV WinLab 6.3.2.0749 / 2.02.05 Lambda 900 UV/VIS/NIR, Aug  7 2015 09:38:08

0
0
3350/servo 860,8/2
0
0
UV/VIS
1
1
1
DoubleDePol,CommonBeamDepol,RBeamAtt,SBeamAtt,60mm sphere, WB InGaAs Detector
0
0
0
0
Program
Program
3350/servo 860,8/2
3350/0,2 860,8/0,2
3350/0,2 860,8/0,2
0
15.00
 
 
 
0
 
860,8
319,2
860,8
Front
100
on
S:100 R:100
0
0
0
0
 
0
 
 
 
0
 
 
0
0
0
0
0
 
 
 
 
0
0


0
0
#HDR
-1
-1
#GR
nm
%R
1.0
0.0
2500,000000
-1,000000
2251
8
89,601500
5,208800
#DATA
250.000000	2232.000000	6.765233
251.000000	2231.000000	6.732467
252.000000	2230.000000	6.704500
253.000000	2229.000000	6.689033
254.000000	2228.000000	6.690000
255.000000	2227.000000	6.685633
256.000000	2226.000000	6.647933
257.000000	2225.000000	6.640767
258.000000	2224.000000	6.604300
259.000000	2223.000000	6.605033
260.000000	2222.000000	6.590967
261.000000	2221.000000	6.544367
262.000000	2220.000000	6.516833
263.000000	2219.000000	6.477600
264.000000	2218.000000	6.471033
265.000000	2217.000000	6.440567
266.000000	2216.000000	6.394500
267.000000	2215.000000	6.355767
268.000000	2214.000000	6.351967
269.000000	2213.000000	6.339333
270.000000	2212.000000	6.316267
271.000000	2211.000000	6.311500
272.000000	2210.000000	6.293400
273.000000	2209.000000	6.289967
274.000000	2208.000000	6.287167
275.000000	2207.000000	6.267033
276.000000	2206.000000	6.251300
277.000000	2205.000000	6.245833
278.000000	2204.000000	6.252133
279.000000	2203.000000	6.219800
280.000000	2202.000000	6.225600
281.000000	2201.000000	6.216167
282.000000	2200.000000	6.202800
283.000000	2199.000000	6.203900
284.000000	2198.000000	6.191700
285.000000	2197.000000	6.195033
286.000000	2196.000000	6.191133
287.000000	2195.000000	6.169600
288.000000	2194.000000	6.156633
289.000000	2193.000000	6.147067
290.000000	2192.000000	6.137333
291.000000	2191.000000	6.126567
292.000000	2190.000000	6.115567
293.000000	2189.000000	6.109533
294.000000	2188.000000	6.077800
295.000000	2187.000000	6.064433
296.000000	2186.000000	6.059967
297.000000	2185.000000	6.066233
298.000000	2184.000000	6.053933
299.000000	2183.000000	6.040100
300.000000	2182.000000	6.036133
301.000000	2181.000000	6.040133
302.000000	2180.000000	6.018100
303.000000	2179.000000	5.988267
304.000000	2178.000000	5.990733
305.000000	2177.000000	6.004967
306.000000	2176.000000	5.991233
307.000000	2175.000000	5.984833
308.000000	2174.000000	5.970200
309.000000	2173.000000	5.941967
310.000000	2172.000000	5.939867
311.000000	2171.000000	5.935067
312.000000	2170.000000	5.900400
313.000000	2169.000000	5.888233
314.000000	2168.000000	5.925033
315.000000	2167.000000	5.925733
316.000000	2166.000000	6.212033
317.000000	2165.000000	6.450500
318.000000	2164.000000	6.279967
319.000000	2163.000000	6.359333
320.000000	2162.000000	6.480900
321.000000	2161.000000	6.349200
322.000000	2160.000000	6.182633
323.000000	2159.000000	6.287633
324.000000	2158.000000	6.236967
325.000000	2157.000000	6.080067
326.000000	2156.000000	6.125467
327.000000	2155.000000	5.977500
328.000000	2154.000000	5.887967
329.000000	2153.000000	6.135967
330.000000	2152.000000	6.155833
331.000000	2151.000000	6.020800
332.000000	2150.000000	5.988767
333.000000	2149.000000	6.020767
334.000000	2148.000000	6.052800
335.000000	2147.000000	6.003400
336.000000	2146.000000	5.988867
337.000000	2145.000000	6.077333
338.000000	2144.000000	6.095133
339.000000	2143.000000	6.008867
340.000000	2142.000000	6.008267
341.000000	2141.000000	6.054067
342.000000	2140.000000	6.029567
343.000000	2139.000000	6.064400
344.000000	2138.000000	6.114700
345.000000	2137.000000	6.055967
346.000000	2136.000000	6.040033
347.000000	2135.000000	6.051333
348.000000	2134.000000	5.982367
349.000000	2133.000000	5.983033
350.000000	2132.000000	5.985467
351.000000	2131.000000	6.046967
352.000000	2130.000000	6.128533
353.000000	2129.000000	6.148633
354.000000	2128.000000	6.140367
355.000000	2127.000000	6.198567
356.000000	2126.000000	6.267033
357.000000	2125.000000	6.302867
358.000000	2124.000000	6.337467
359.000000	2123.000000	6.350033
360.000000	2122.000000	6.400733
361.000000	2121.000000	6.421600
362.000000	2120.000000	6.459600
363.000000	2119.000000	6.508933
364.000000	2118.000000	6.567767
365.000000	2117.000000	6.585733
366.000000	2116.000000	6.589900
367.000000	2115.000000	6.588567
368.000000	2114.000000	6.653267
369.000000	2113.000000	6.691300
370.000000	2112.000000	6.686867
371.000000	2111.000000	6.690333
372.000000	2110.000000	6.735933
373.000000	2109.000000	6.727233
374.000000	2108.000000	6.798833
375.000000	2107.000000	7.044967
376.000000	2106.000000	7.141233
377.000000	2105.000000	7.173533
378.000000	2104.000000	7.245667
379.000000	2103.000000	7.317433
380.000000	2102.000000	7.400633
381.000000	2101.000000	7.500867
382.000000	2100.000000	7.594000
383.000000	2099.000000	7.690400
384.000000	2098.000000	7.805967
385.000000	2097.000000	7.938967
386.000000	2096.000000	8.078200
387.000000	2095.000000	8.201833
388.000000	2094.000000	8.344500
389.000000	2093.000000	8.497633
390.000000	2092.000000	8.666400
391.000000	2091.000000	8.850833
392.000000	2090.000000	9.044400
393.000000	2089.000000	9.242167
394.000000	2088.000000	9.478833
395.000000	2087.000000	9.707467
396.000000	2086.000000	9.936133
397.000000	2085.000000	10.182400
398.000000	2084.000000	10.458100
399.000000	2083.000000	10.742400
400.000000	2082.000000	11.045833
401.000000	2081.000000	11.350033
402.000000	2080.000000	11.669400
403.000000	2079.000000	12.019167
404.000000	2078.000000	12.379600
405.000000	2077.000000	12.742000
406.000000	2076.000000	13.124033
407.000000	2075.000000	13.514800
408.000000	2074.000000	13.931300
409.000000	2073.000000	14.339700
410.000000	2072.000000	14.786300
411.000000	2071.000000	15.212800
412.000000	2070.000000	15.659233
413.000000	2069.000000	16.113400
414.000000	2068.000000	16.573600
415.000000	2067.000000	17.035000
416.000000	2066.000000	17.483867
417.000000	2065.000000	17.936967
418.000000	2064.000000	18.400033
419.000000	2063.000000	18.843667
420.000000	2062.000000	19.281867
421.000000	2061.000000	19.726467
422.000000	2060.000000	20.137733
423.000000	2059.000000	20.579367
424.000000	2058.000000	21.001200
425.000000	2057.000000	21.383833
426.000000	2056.000000	21.748600
427.000000	2055.000000	22.093800
428.000000	2054.000000	22.453733
429.000000	2053.000000	22.800967
430.000000	2052.000000	23.106533
431.000000	2051.000000	23.432833
432.000000	2050.000000	23.725833
433.000000	2049.000000	24.004233
434.000000	2048.000000	24.260200
435.000000	2047.000000	24.514800
436.000000	2046.000000	24.765533
437.000000	2045.000000	24.991133
438.000000	2044.000000	25.167333
439.000000	2043.000000	25.377167
440.000000	2042.000000	25.548167
441.000000	2041.000000	25.723733
442.000000	2040.000000	25.838467
443.000000	2039.000000	25.951600
444.000000	2038.000000	26.079100
445.000000	2037.000000	26.182900
446.000000	2036.000000	26.201133
447.000000	2035.000000	26.249667
448.000000	2034.000000	26.288200
449.000000	2033.000000	26.319500
450.000000	2032.000000	26.313667
451.000000	2031.000000	26.296833
452.000000	2030.000000	26.244433
453.000000	2029.000000	26.192000
454.000000	2028.000000	26.133333
455.000000	2027.000000	26.062500
456.000000	2026.000000	25.957367
457.000000	2025.000000	25.855900
458.000000	2024.000000	25.739500
459.000000	2023.000000	25.605733
460.000000	2022.000000	25.495333
461.000000	2021.000000	25.357067
462.000000	2020.000000	25.230333
463.000000	2019.000000	25.101000
464.000000	2018.000000	24.984000
465.000000	2017.000000	24.862300
466.000000	2016.000000	24.754500
467.000000	2015.000000	24.656667
468.000000	2014.000000	24.585367
469.000000	2013.000000	24.511133
470.000000	2012.000000	24.501767
471.000000	2011.000000	24.487600
472.000000	2010.000000	24.518900
473.000000	2009.000000	24.569767
474.000000	2008.000000	24.651600
475.000000	2007.000000	24.788467
476.000000	2006.000000	24.956900
477.000000	2005.000000	25.170300
478.000000	2004.000000	25.421433
479.000000	2003.000000	25.704900
480.000000	2002.000000	26.033167
481.000000	2001.000000	26.380867
482.000000	2000.000000	26.763333
483.000000	1999.000000	27.197500
484.000000	1998.000000	27.620833
485.000000	1997.000000	28.079900
486.000000	1996.000000	28.548667
487.000000	1995.000000	29.003067
488.000000	1994.000000	29.462433
489.000000	1993.000000	29.907033
490.000000	1992.000000	30.357800
491.000000	1991.000000	30.794933
492.000000	1990.000000	31.208467
493.000000	1989.000000	31.556867
494.000000	1988.000000	31.921500
495.000000	1987.000000	32.234067
496.000000	1986.000000	32.523433
497.000000	1985.000000	32.787867
498.000000	1984.000000	32.982867
499.000000	1983.000000	33.199033
500.000000	1982.000000	33.377433
501.000000	1981.000000	33.498667
502.000000	1980.000000	33.660000
503.000000	1979.000000	33.787733
504.000000	1978.000000	33.930100
505.000000	1977.000000	34.085300
506.000000	1976.000000	34.250900
507.000000	1975.000000	34.458767
508.000000	1974.000000	34.659167
509.000000	1973.000000	34.907267
510.000000	1972.000000	35.228233
511.000000	1971.000000	35.566467
512.000000	1970.000000	35.956267
513.000000	1969.000000	36.445300
514.000000	1968.000000	36.982967
515.000000	1967.000000	37.596200
516.000000	1966.000000	38.311233
517.000000	1965.000000	39.059667
518.000000	1964.000000	39.950300
519.000000	1963.000000	40.907067
520.000000	1962.000000	41.949833
521.000000	1961.000000	43.094733
522.000000	1960.000000	44.332600
523.000000	1959.000000	45.637067
524.000000	1958.000000	47.054200
525.000000	1957.000000	48.471933
526.000000	1956.000000	49.980933
527.000000	1955.000000	51.523933
528.000000	1954.000000	53.098967
529.000000	1953.000000	54.707900
530.000000	1952.000000	56.343400
531.000000	1951.000000	57.970633
532.000000	1950.000000	59.599767
533.000000	1949.000000	61.207333
534.000000	1948.000000	62.797667
535.000000	1947.000000	64.315400
536.000000	1946.000000	65.788900
537.000000	1945.000000	67.239167
538.000000	1944.000000	68.583233
539.000000	1943.000000	69.894000
540.000000	1942.000000	71.168333
541.000000	1941.000000	72.394033
542.000000	1940.000000	73.585933
543.000000	1939.000000	74.695000
544.000000	1938.000000	75.778500
545.000000	1937.000000	76.801700
546.000000	1936.000000	77.731167
547.000000	1935.000000	78.694167
548.000000	1934.000000	79.555367
549.000000	1933.000000	80.389033
550.000000	1932.000000	81.187733
551.000000	1931.000000	81.915133
552.000000	1930.000000	82.610067
553.000000	1929.000000	83.272867
554.000000	1928.000000	83.886367
555.000000	1927.000000	84.434533
556.000000	1926.000000	84.949100
557.000000	1925.000000	85.454267
558.000000	1924.000000	85.915067
559.000000	1923.000000	86.358700
560.000000	1922.000000	86.792133
561.000000	1921.000000	87.178767
562.000000	1920.000000	87.526733
563.000000	1919.000000	87.863733
564.000000	1918.000000	88.174167
565.000000	1917.000000	88.486933
566.000000	1916.000000	88.751167
567.000000	1915.000000	89.006900
568.000000	1914.000000	89.234567
569.000000	1913.000000	89.468000
570.000000	1912.000000	89.691033
571.000000	1911.000000	89.863900
572.000000	1910.000000	90.055167
573.000000	1909.000000	90.208867
574.000000	1908.000000	90.354167
575.000000	1907.000000	90.480067
576.000000	1906.000000	90.610900
577.000000	1905.000000	90.704233
578.000000	1904.000000	90.786600
579.000000	1903.000000	90.857633
580.000000	1902.000000	90.915133
581.000000	1901.000000	90.982533
582.000000	1900.000000	90.997300
583.000000	1899.000000	90.977067
584.000000	1898.000000	90.980567
585.000000	1897.000000	90.974933
586.000000	1896.000000	90.952067
587.000000	1895.000000	90.905467
588.000000	1894.000000	90.836867
589.000000	1893.000000	90.752100
590.000000	1892.000000	90.660033
591.000000	1891.000000	90.560100
592.000000	1890.000000	90.447733
593.000000	1889.000000	90.332033
594.000000	1888.000000	90.157900
595.000000	1887.000000	90.003300
596.000000	1886.000000	89.834667
597.000000	1885.000000	89.668867
598.000000	1884.000000	89.444400
599.000000	1883.000000	89.200233
600.000000	1882.000000	88.981667
601.000000	1881.000000	88.708467
602.000000	1880.000000	88.392333
603.000000	1879.000000	88.107867
604.000000	1878.000000	87.799633
605.000000	1877.000000	87.430000
606.000000	1876.000000	87.022700
607.000000	1875.000000	86.624133
608.000000	1874.000000	86.192833
609.000000	1873.000000	85.699133
610.000000	1872.000000	85.200767
611.000000	1871.000000	84.664000
612.000000	1870.000000	84.135667
613.000000	1869.000000	83.588700
614.000000	1868.000000	82.984533
615.000000	1867.000000	82.351533
616.000000	1866.000000	81.728900
617.000000	1865.000000	81.110067
618.000000	1864.000000	80.478067
619.000000	1863.000000	79.804567
620.000000	1862.000000	79.094100
621.000000	1861.000000	78.378700
622.000000	1860.000000	77.576400
623.000000	1859.000000	76.731300
624.000000	1858.000000	75.870533
625.000000	1857.000000	74.975967
626.000000	1856.000000	74.044167
627.000000	1855.000000	73.065467
628.000000	1854.000000	72.054133
629.000000	1853.000000	71.071967
630.000000	1852.000000	70.073767
631.000000	1851.000000	69.054267
632.000000	1850.000000	68.068333
633.000000	1849.000000	67.121933
634.000000	1848.000000	66.204100
635.000000	1847.000000	65.352600
636.000000	1846.000000	64.517867
637.000000	1845.000000	63.673367
638.000000	1844.000000	62.845000
639.000000	1843.000000	62.014867
640.000000	1842.000000	61.132000
641.000000	1841.000000	60.230833
642.000000	1840.000000	59.296233
643.000000	1839.000000	58.324533
644.000000	1838.000000	57.349967
645.000000	1837.000000	56.406600
646.000000	1836.000000	55.540100
647.000000	1835.000000	54.736200
648.000000	1834.000000	54.000333
649.000000	1833.000000	53.398067
650.000000	1832.000000	52.908500
651.000000	1831.000000	52.562100
652.000000	1830.000000	52.406100
653.000000	1829.000000	52.371467
654.000000	1828.000000	52.485367
655.000000	1827.000000	52.748300
656.000000	1826.000000	53.138767
657.000000	1825.000000	53.565800
658.000000	1824.000000	54.069667
659.000000	1823.000000	54.657067
660.000000	1822.000000	55.248267
661.000000	1821.000000	55.893300
662.000000	1820.000000	56.602333
663.000000	1819.000000	57.307300
664.000000	1818.000000	58.002233
665.000000	1817.000000	58.697800
666.000000	1816.000000	59.429267
667.000000	1815.000000	60.185133
668.000000	1814.000000	60.976433
669.000000	1813.000000	61.803300
670.000000	1812.000000	62.637067
671.000000	1811.000000	63.487633
672.000000	1810.000000	64.332767
673.000000	1809.000000	65.196433
674.000000	1808.000000	66.039667
675.000000	1807.000000	66.814100
676.000000	1806.000000	67.553067
677.000000	1805.000000	68.295633
678.000000	1804.000000	68.949267
679.000000	1803.000000	69.580900
680.000000	1802.000000	70.143700
681.000000	1801.000000	70.643000
682.000000	1800.000000	71.092633
683.000000	1799.000000	71.504033
684.000000	1798.000000	71.897200
685.000000	1797.000000	72.245033
686.000000	1796.000000	72.538900
687.000000	1795.000000	72.805433
688.000000	1794.000000	73.047233
689.000000	1793.000000	73.311133
690.000000	1792.000000	73.595067
691.000000	1791.000000	73.810767
692.000000	1790.000000	73.977767
693.000000	1789.000000	74.135767
694.000000	1788.000000	74.308100
695.000000	1787.000000	74.457233
696.000000	1786.000000	74.505867
697.000000	1785.000000	74.514433
698.000000	1784.000000	74.531767
699.000000	1783.000000	74.475433
700.000000	1782.000000	74.352300
701.000000	1781.000000	74.216700
702.000000	1780.000000	74.127667
703.000000	1779.000000	74.040567
704.000000	1778.000000	73.904100
705.000000	1777.000000	73.761700
706.000000	1776.000000	73.653600
707.000000	1775.000000	73.573767
708.000000	1774.000000	73.525533
709.000000	1773.000000	73.519800
710.000000	1772.000000	73.537167
711.000000	1771.000000	73.609967
712.000000	1770.000000	73.700333
713.000000	1769.000000	73.768200
714.000000	1768.000000	73.873700
715.000000	1767.000000	73.973567
716.000000	1766.000000	74.142967
717.000000	1765.000000	74.280967
718.000000	1764.000000	74.434767
719.000000	1763.000000	74.613100
720.000000	1762.000000	74.730100
721.000000	1761.000000	74.834033
722.000000	1760.000000	74.970900
723.000000	1759.000000	75.117567
724.000000	1758.000000	75.275867
725.000000	1757.000000	75.408867
726.000000	1756.000000	75.623433
727.000000	1755.000000	75.818067
728.000000	1754.000000	76.038533
729.000000	1753.000000	76.254667
730.000000	1752.000000	76.496600
731.000000	1751.000000	76.796867
732.000000	1750.000000	77.114733
733.000000	1749.000000	77.528467
734.000000	1748.000000	77.876767
735.000000	1747.000000	78.168333
736.000000	1746.000000	78.533733
737.000000	1745.000000	78.911900
738.000000	1744.000000	79.294500
739.000000	1743.000000	79.639833
740.000000	1742.000000	80.039333
741.000000	1741.000000	80.379533
742.000000	1740.000000	80.768433
743.000000	1739.000000	81.101467
744.000000	1738.000000	81.469167
745.000000	1737.000000	81.733100
746.000000	1736.000000	82.041567
747.000000	1735.000000	82.329600
748.000000	1734.000000	82.468767
749.000000	1733.000000	82.659133
750.000000	1732.000000	82.828300
751.000000	1731.000000	83.020733
752.000000	1730.000000	83.139167
753.000000	1729.000000	83.308967
754.000000	1728.000000	83.384467
755.000000	1727.000000	83.461500
756.000000	1726.000000	83.560100
757.000000	1725.000000	83.687700
758.000000	1724.000000	83.618300
759.000000	1723.000000	83.639233
760.000000	1722.000000	83.611767
761.000000	1721.000000	83.610200
762.000000	1720.000000	83.574700
763.000000	1719.000000	83.540233
764.000000	1718.000000	83.521300
765.000000	1717.000000	83.556400
766.000000	1716.000000	83.550167
767.000000	1715.000000	83.606667
768.000000	1714.000000	83.637833
769.000000	1713.000000	83.696533
770.000000	1712.000000	83.848467
771.000000	1711.000000	83.954300
772.000000	1710.000000	84.039000
773.000000	1709.000000	84.270200
774.000000	1708.000000	84.328633
775.000000	1707.000000	84.583900
776.000000	1706.000000	84.694033
777.000000	1705.000000	84.933400
778.000000	1704.000000	85.057800
779.000000	1703.000000	85.278500
780.000000	1702.000000	85.391567
781.000000	1701.000000	85.523533
782.000000	1700.000000	85.587800
783.000000	1699.000000	85.558967
784.000000	1698.000000	85.641533
785.000000	1697.000000	85.578533
786.000000	1696.000000	85.551267
787.000000	1695.000000	85.282100
788.000000	1694.000000	85.215667
789.000000	1693.000000	85.040933
790.000000	1692.000000	84.854600
791.000000	1691.000000	84.477967
792.000000	1690.000000	84.394900
793.000000	1689.000000	84.138900
794.000000	1688.000000	83.939433
795.000000	1687.000000	83.656367
796.000000	1686.000000	83.364667
797.000000	1685.000000	83.217800
798.000000	1684.000000	82.955600
799.000000	1683.000000	82.584333
800.000000	1682.000000	82.442033
801.000000	1681.000000	82.187767
802.000000	1680.000000	81.939200
803.000000	1679.000000	81.752167
804.000000	1678.000000	81.561833
805.000000	1677.000000	81.301800
806.000000	1676.000000	81.346833
807.000000	1675.000000	81.052233
808.000000	1674.000000	81.034233
809.000000	1673.000000	81.148733
810.000000	1672.000000	81.025067
811.000000	1671.000000	81.041367
812.000000	1670.000000	81.159233
813.000000	1669.000000	81.056233
814.000000	1668.000000	81.301567
815.000000	1667.000000	81.182900
816.000000	1666.000000	81.352800
817.000000	1665.000000	81.600333
818.000000	1664.000000	81.420200
819.000000	1663.000000	81.516400
820.000000	1662.000000	81.571267
821.000000	1661.000000	81.388567
822.000000	1660.000000	81.383733
823.000000	1659.000000	81.184933
824.000000	1658.000000	81.019667
825.000000	1657.000000	80.793800
826.000000	1656.000000	80.524867
827.000000	1655.000000	80.264833
828.000000	1654.000000	79.970567
829.000000	1653.000000	79.704300
830.000000	1652.000000	79.298100
831.000000	1651.000000	78.932233
832.000000	1650.000000	78.617100
833.000000	1649.000000	78.188400
834.000000	1648.000000	77.793333
835.000000	1647.000000	77.485633
836.000000	1646.000000	76.992600
837.000000	1645.000000	76.680367
838.000000	1644.000000	76.542100
