PE UV       SUBTECH     SPECTRUM    ASCII       PEDS        4.00        
   -1
CICIMAUCR0244-3.Sample.ASC
24/06/21
11:45:11.00
24/06/21
11:45:11.00
Vinicio Soto Monge
C. cupreomarginata. Sex M. Dorsal
250,000000
1
Lambda 1050
1050L1511233
PerkinElmer UV WinLab 6.3.2.0749 / 2.02.05 Lambda 900 UV/VIS/NIR, Aug  7 2015 09:38:08

0
0
3350/servo 860,8/2
0
0
UV/VIS
1
1
1
DoubleDePol,CommonBeamDepol,RBeamAtt,SBeamAtt,60mm sphere, WB InGaAs Detector
0
0
0
0
Program
Program
3350/servo 860,8/2
3350/0,2 860,8/0,2
3350/0,2 860,8/0,2
0
15.00
 
 
 
0
 
860,8
319,2
860,8
Front
100
on
S:100 R:100
0
0
0
0
 
0
 
 
 
0
 
 
0
0
0
0
0
 
 
 
 
0
0


0
0
#HDR
-1
-1
#GR
nm
%R
1.0
0.0
2500,000000
-1,000000
2251
8
73,398900
5,496100
#DATA
250.000000	6.215067
251.000000	6.208167
252.000000	6.172000
253.000000	6.180900
254.000000	6.156867
255.000000	6.164233
256.000000	6.148800
257.000000	6.106000
258.000000	6.079233
259.000000	6.069667
260.000000	6.067800
261.000000	6.042067
262.000000	6.011200
263.000000	5.973233
264.000000	5.957933
265.000000	5.929933
266.000000	5.913500
267.000000	5.880700
268.000000	5.872033
269.000000	5.863400
270.000000	5.832533
271.000000	5.815200
272.000000	5.783367
273.000000	5.748133
274.000000	5.735100
275.000000	5.734000
276.000000	5.746533
277.000000	5.740033
278.000000	5.706300
279.000000	5.679067
280.000000	5.683900
281.000000	5.659700
282.000000	5.659300
283.000000	5.665933
284.000000	5.646533
285.000000	5.650667
286.000000	5.634600
287.000000	5.609300
288.000000	5.633833
289.000000	5.625933
290.000000	5.597167
291.000000	5.592367
292.000000	5.575633
293.000000	5.570933
294.000000	5.588600
295.000000	5.589000
296.000000	5.571067
297.000000	5.572267
298.000000	5.541267
299.000000	5.535967
300.000000	5.554267
301.000000	5.551767
302.000000	5.541733
303.000000	5.548200
304.000000	5.541267
305.000000	5.526733
306.000000	5.525100
307.000000	5.524167
308.000000	5.531300
309.000000	5.520933
310.000000	5.519367
311.000000	5.529733
312.000000	5.522367
313.000000	5.530933
314.000000	5.554500
315.000000	5.546933
316.000000	6.082000
317.000000	6.609767
318.000000	6.328900
319.000000	6.287367
320.000000	6.135900
321.000000	6.098600
322.000000	6.291433
323.000000	6.038033
324.000000	5.764000
325.000000	5.887033
326.000000	6.166967
327.000000	6.010033
328.000000	5.898267
329.000000	5.939367
330.000000	5.888000
331.000000	5.770167
332.000000	5.901000
333.000000	6.000967
334.000000	5.856200
335.000000	5.737167
336.000000	5.713867
337.000000	5.746567
338.000000	5.696700
339.000000	5.624800
340.000000	5.689300
341.000000	5.641567
342.000000	5.593900
343.000000	5.689033
344.000000	5.726267
345.000000	5.586367
346.000000	5.544867
347.000000	5.648100
348.000000	5.610800
349.000000	5.660133
350.000000	5.752900
351.000000	5.714067
352.000000	5.618367
353.000000	5.604900
354.000000	5.619833
355.000000	5.631433
356.000000	5.650733
357.000000	5.665300
358.000000	5.676233
359.000000	5.684633
360.000000	5.605833
361.000000	5.641100
362.000000	5.712700
363.000000	5.678667
364.000000	5.720700
365.000000	5.682367
366.000000	5.648367
367.000000	5.661067
368.000000	5.561200
369.000000	5.534467
370.000000	5.654867
371.000000	5.648367
372.000000	5.518633
373.000000	5.478500
374.000000	5.421700
375.000000	5.568333
376.000000	5.710233
377.000000	5.741000
378.000000	5.751633
379.000000	5.759867
380.000000	5.763333
381.000000	5.776767
382.000000	5.792300
383.000000	5.803333
384.000000	5.809900
385.000000	5.822700
386.000000	5.843533
387.000000	5.849100
388.000000	5.857467
389.000000	5.879433
390.000000	5.888233
391.000000	5.902000
392.000000	5.917933
393.000000	5.933267
394.000000	5.942900
395.000000	5.953267
396.000000	5.969400
397.000000	6.012600
398.000000	6.027633
399.000000	6.046267
400.000000	6.064867
401.000000	6.093600
402.000000	6.121467
403.000000	6.157667
404.000000	6.196667
405.000000	6.226900
406.000000	6.280233
407.000000	6.322467
408.000000	6.382233
409.000000	6.441333
410.000000	6.517200
411.000000	6.594267
412.000000	6.686600
413.000000	6.772433
414.000000	6.875067
415.000000	6.983900
416.000000	7.107567
417.000000	7.245467
418.000000	7.385467
419.000000	7.555433
420.000000	7.740700
421.000000	7.927700
422.000000	8.134800
423.000000	8.353667
424.000000	8.584967
425.000000	8.836167
426.000000	9.071933
427.000000	9.329867
428.000000	9.605800
429.000000	9.887833
430.000000	10.192467
431.000000	10.485200
432.000000	10.797933
433.000000	11.129867
434.000000	11.466767
435.000000	11.802567
436.000000	12.151667
437.000000	12.496833
438.000000	12.840733
439.000000	13.192533
440.000000	13.554300
441.000000	13.907900
442.000000	14.266933
443.000000	14.600400
444.000000	14.936433
445.000000	15.268500
446.000000	15.599367
447.000000	15.907533
448.000000	16.219867
449.000000	16.512933
450.000000	16.813200
451.000000	17.105733
452.000000	17.381200
453.000000	17.661933
454.000000	17.930167
455.000000	18.201700
456.000000	18.421200
457.000000	18.672867
458.000000	18.910467
459.000000	19.142433
460.000000	19.369233
461.000000	19.569400
462.000000	19.794933
463.000000	20.008467
464.000000	20.203033
465.000000	20.410467
466.000000	20.599300
467.000000	20.803300
468.000000	20.994967
469.000000	21.177300
470.000000	21.365033
471.000000	21.579667
472.000000	21.764333
473.000000	21.943533
474.000000	22.114600
475.000000	22.284167
476.000000	22.473500
477.000000	22.631633
478.000000	22.809467
479.000000	22.943033
480.000000	23.063200
481.000000	23.187767
482.000000	23.312533
483.000000	23.411533
484.000000	23.471933
485.000000	23.536200
486.000000	23.552833
487.000000	23.566033
488.000000	23.572300
489.000000	23.560400
490.000000	23.553900
491.000000	23.549000
492.000000	23.527833
493.000000	23.529800
494.000000	23.507267
495.000000	23.543500
496.000000	23.606200
497.000000	23.712633
498.000000	23.887267
499.000000	24.069233
500.000000	24.347733
501.000000	24.632700
502.000000	25.029033
503.000000	25.486233
504.000000	25.964633
505.000000	26.518700
506.000000	27.119000
507.000000	27.742867
508.000000	28.403667
509.000000	29.076267
510.000000	29.803900
511.000000	30.509867
512.000000	31.238367
513.000000	31.992467
514.000000	32.758400
515.000000	33.504500
516.000000	34.243900
517.000000	34.980233
518.000000	35.701100
519.000000	36.404300
520.000000	37.133900
521.000000	37.867933
522.000000	38.614767
523.000000	39.355700
524.000000	40.114900
525.000000	40.861667
526.000000	41.642600
527.000000	42.410333
528.000000	43.216500
529.000000	44.051800
530.000000	44.933633
531.000000	45.825100
532.000000	46.754267
533.000000	47.708433
534.000000	48.682133
535.000000	49.669367
536.000000	50.685500
537.000000	51.705033
538.000000	52.742033
539.000000	53.766300
540.000000	54.835600
541.000000	55.898067
542.000000	56.913167
543.000000	57.920267
544.000000	58.890567
545.000000	59.812633
546.000000	60.676267
547.000000	61.504500
548.000000	62.299633
549.000000	63.049033
550.000000	63.785767
551.000000	64.433467
552.000000	65.023867
553.000000	65.612067
554.000000	66.131800
555.000000	66.574300
556.000000	66.987567
557.000000	67.332000
558.000000	67.670233
559.000000	67.955967
560.000000	68.300300
561.000000	68.627167
562.000000	68.957900
563.000000	69.272433
564.000000	69.580267
565.000000	69.861867
566.000000	70.114567
567.000000	70.318233
568.000000	70.481300
569.000000	70.609133
570.000000	70.702533
571.000000	70.738933
572.000000	70.725100
573.000000	70.684500
574.000000	70.639133
575.000000	70.595933
576.000000	70.551833
577.000000	70.525667
578.000000	70.524533
579.000000	70.551467
580.000000	70.609167
581.000000	70.700100
582.000000	70.799067
583.000000	70.896067
584.000000	71.003500
585.000000	71.095200
586.000000	71.171933
587.000000	71.212667
588.000000	71.187467
589.000000	71.108133
590.000000	70.957933
591.000000	70.749867
592.000000	70.457733
593.000000	70.110400
594.000000	69.713333
595.000000	69.311967
596.000000	68.867600
597.000000	68.434833
598.000000	67.999333
599.000000	67.591633
600.000000	67.235067
601.000000	66.900333
602.000000	66.581000
603.000000	66.259533
604.000000	65.952767
605.000000	65.694667
606.000000	65.439200
607.000000	65.165733
608.000000	64.903367
609.000000	64.629400
610.000000	64.307167
611.000000	63.954667
612.000000	63.573833
613.000000	63.139733
614.000000	62.653367
615.000000	62.135767
616.000000	61.594933
617.000000	61.014033
618.000000	60.414100
619.000000	59.818467
620.000000	59.217133
621.000000	58.591867
622.000000	57.965600
623.000000	57.308967
624.000000	56.657100
625.000000	56.012200
626.000000	55.341400
627.000000	54.676933
628.000000	54.018367
629.000000	53.387900
630.000000	52.787000
631.000000	52.188867
632.000000	51.607033
633.000000	51.075200
634.000000	50.606467
635.000000	50.180700
636.000000	49.812433
637.000000	49.500467
638.000000	49.296467
639.000000	49.174567
640.000000	49.115667
641.000000	49.142500
642.000000	49.242100
643.000000	49.383567
644.000000	49.594767
645.000000	49.852100
646.000000	50.115667
647.000000	50.397900
648.000000	50.678367
649.000000	50.979933
650.000000	51.247067
651.000000	51.494000
652.000000	51.776033
653.000000	52.046700
654.000000	52.291133
655.000000	52.530833
656.000000	52.798067
657.000000	53.045867
658.000000	53.314967
659.000000	53.588433
660.000000	53.827733
661.000000	54.056267
662.000000	54.258067
663.000000	54.449433
664.000000	54.626133
665.000000	54.767100
666.000000	54.881933
667.000000	54.975333
668.000000	55.055833
669.000000	55.110100
670.000000	55.148100
671.000000	55.143633
672.000000	55.142433
673.000000	55.130800
674.000000	55.093900
675.000000	55.045500
676.000000	55.001467
677.000000	54.980833
678.000000	54.947200
679.000000	54.902167
680.000000	54.859633
681.000000	54.813733
682.000000	54.769500
683.000000	54.754500
684.000000	54.741400
685.000000	54.668933
686.000000	54.638233
687.000000	54.599100
688.000000	54.541533
689.000000	54.475833
690.000000	54.430567
691.000000	54.407967
692.000000	54.397733
693.000000	54.387467
694.000000	54.419033
695.000000	54.462300
696.000000	54.536300
697.000000	54.617200
698.000000	54.714500
699.000000	54.771367
700.000000	54.913633
701.000000	55.019233
702.000000	55.113867
703.000000	55.249033
704.000000	55.369900
705.000000	55.514567
706.000000	55.647400
707.000000	55.794967
708.000000	55.882667
709.000000	55.999267
710.000000	56.171933
711.000000	56.293967
712.000000	56.430900
713.000000	56.599033
714.000000	56.751167
715.000000	56.904133
716.000000	57.038433
717.000000	57.252700
718.000000	57.401367
719.000000	57.555100
720.000000	57.739233
721.000000	57.880433
722.000000	58.090333
723.000000	58.194033
724.000000	58.322067
725.000000	58.461633
726.000000	58.600433
727.000000	58.741200
728.000000	58.886600
729.000000	58.984933
730.000000	59.013133
731.000000	59.108533
732.000000	59.178333
733.000000	59.293367
734.000000	59.371733
735.000000	59.447700
736.000000	59.557733
737.000000	59.615433
738.000000	59.733667
739.000000	59.882600
740.000000	59.983467
741.000000	60.124267
742.000000	60.277600
743.000000	60.429133
744.000000	60.480333
745.000000	60.605767
746.000000	60.724767
747.000000	60.794767
748.000000	60.849233
749.000000	60.910467
750.000000	61.031067
751.000000	61.076800
752.000000	61.206667
753.000000	61.315033
754.000000	61.485300
755.000000	61.567067
756.000000	61.710567
757.000000	61.870100
758.000000	61.995100
759.000000	62.188400
760.000000	62.404233
761.000000	62.628433
762.000000	62.807633
763.000000	63.012467
764.000000	63.165967
765.000000	63.309900
766.000000	63.471833
767.000000	63.584467
768.000000	63.729600
769.000000	63.851933
770.000000	64.056133
771.000000	64.166767
772.000000	64.311367
773.000000	64.480633
774.000000	64.696100
775.000000	64.760067
776.000000	65.006033
777.000000	65.213500
778.000000	65.335767
779.000000	65.473833
780.000000	65.780300
781.000000	65.829067
782.000000	66.088333
783.000000	66.277233
784.000000	66.452567
785.000000	66.571800
786.000000	66.714633
787.000000	66.960300
788.000000	67.054300
789.000000	67.067200
790.000000	67.234533
791.000000	67.357933
792.000000	67.677533
793.000000	67.813133
794.000000	68.002567
795.000000	68.150667
796.000000	68.386400
797.000000	68.513000
798.000000	68.727567
799.000000	68.880767
800.000000	68.900100
801.000000	69.238000
802.000000	69.468300
803.000000	69.538600
804.000000	69.663067
805.000000	69.834967
806.000000	69.995567
807.000000	70.148533
808.000000	70.272700
809.000000	70.476533
810.000000	70.482833
811.000000	70.581867
812.000000	70.777033
813.000000	70.882000
814.000000	71.056667
815.000000	71.203233
816.000000	71.241833
817.000000	71.426967
818.000000	71.484567
819.000000	71.588233
820.000000	71.751033
821.000000	71.866533
822.000000	72.043533
823.000000	72.129433
824.000000	72.150967
825.000000	72.263033
826.000000	72.203067
827.000000	72.284600
828.000000	72.404633
829.000000	72.448500
830.000000	72.551233
831.000000	72.509633
832.000000	72.501133
833.000000	72.580767
834.000000	72.638333
835.000000	72.586933
836.000000	72.803600
837.000000	72.711633
838.000000	72.829400
839.000000	72.782500
840.000000	72.655467
841.000000	72.781367
842.000000	72.707800
843.000000	72.760333
844.000000	72.659500
845.000000	72.536667
846.000000	72.799233
847.000000	72.615133
848.000000	72.803167
849.000000	72.811600
850.000000	72.691733
851.000000	72.636467
852.000000	72.401667
853.000000	72.402333
854.000000	72.606367
855.000000	72.610433
856.000000	72.252767
857.000000	71.854733
858.000000	72.239311
859.000000	72.136850
860.000000	72.028189
861.000000	71.900153
862.000000	71.788154
863.000000	71.660773
864.000000	71.544540
865.000000	71.413300
866.000000	71.309641
867.000000	71.179423
868.000000	71.040162
869.000000	70.892377
870.000000	70.763866
871.000000	70.660048
872.000000	70.610674
873.000000	70.613658
874.000000	70.633328
875.000000	70.625475
876.000000	70.603200
877.000000	70.577977
878.000000	70.542378
879.000000	70.468246
880.000000	70.380941
881.000000	70.295050
882.000000	70.207443
883.000000	70.108236
884.000000	69.996625
885.000000	69.894048
886.000000	69.795345
887.000000	69.701441
888.000000	69.582657
889.000000	69.459042
890.000000	69.349157
891.000000	69.234578
892.000000	69.119363
893.000000	68.996378
894.000000	68.861721
895.000000	68.721269
896.000000	68.593750
897.000000	68.464130
898.000000	68.324985
899.000000	68.187237
900.000000	68.058395
901.000000	67.924729
902.000000	67.800811
903.000000	67.680131
904.000000	67.573193
905.000000	67.466227
906.000000	67.365418
907.000000	67.272791
908.000000	67.189975
909.000000	67.111342
910.000000	67.043144
911.000000	66.987078
912.000000	66.924274
913.000000	66.860646
914.000000	66.787489
915.000000	66.711892
916.000000	66.645901
917.000000	66.590529
918.000000	66.535612
919.000000	66.464090
920.000000	66.382166
921.000000	66.314663
922.000000	66.255196
923.000000	66.189001
924.000000	66.115886
925.000000	66.061851
926.000000	66.001990
927.000000	65.935606
928.000000	65.884989
929.000000	65.827511
930.000000	65.771498
931.000000	65.720092
932.000000	65.665645
933.000000	65.607318
934.000000	65.569668
935.000000	65.527997
936.000000	65.480144
937.000000	65.438904
938.000000	65.408060
939.000000	65.381412
940.000000	65.350564
941.000000	65.310588
942.000000	65.281333
943.000000	65.253959
944.000000	65.226460
945.000000	65.203853
946.000000	65.166304
947.000000	65.140282
948.000000	65.115661
949.000000	65.075523
950.000000	65.047097
951.000000	65.013089
952.000000	64.960673
953.000000	64.913950
954.000000	64.876427
955.000000	64.825012
956.000000	64.778137
957.000000	64.725585
958.000000	64.658333
959.000000	64.594672
960.000000	64.534052
961.000000	64.468087
962.000000	64.403627
963.000000	64.342342
964.000000	64.289119
965.000000	64.228905
966.000000	64.173894
967.000000	64.127908
968.000000	64.083485
969.000000	64.042651
970.000000	63.996276
971.000000	63.953372
972.000000	63.900275
973.000000	63.851360
974.000000	63.807780
975.000000	63.759450
976.000000	63.707880
977.000000	63.654235
978.000000	63.601669
979.000000	63.543962
980.000000	63.494653
981.000000	63.442603
982.000000	63.386488
983.000000	63.343634
984.000000	63.310859
985.000000	63.271041
986.000000	63.238691
987.000000	63.207074
988.000000	63.186747
989.000000	63.167522
990.000000	63.149908
991.000000	63.139685
992.000000	63.135668
993.000000	63.129997
994.000000	63.124587
995.000000	63.122211
996.000000	63.119712
997.000000	63.126659
998.000000	63.135013
999.000000	63.139396
1000.000000	63.144919
1001.000000	63.163011
1002.000000	63.183100
1003.000000	63.196111
1004.000000	63.205366
1005.000000	63.229252
1006.000000	63.244675
1007.000000	63.270071
1008.000000	63.281987
1009.000000	63.311481
1010.000000	63.350673
1011.000000	63.386449
1012.000000	63.432754
1013.000000	63.488820
1014.000000	63.543668
1015.000000	63.599566
1016.000000	63.667590
1017.000000	63.754005
1018.000000	63.843321
1019.000000	63.929544
1020.000000	64.005172
1021.000000	64.097597
1022.000000	64.180318
1023.000000	64.272091
1024.000000	64.358265
1025.000000	64.443602
1026.000000	64.545536
1027.000000	64.627369
1028.000000	64.680404
1029.000000	64.761263
1030.000000	64.833715
1031.000000	64.896053
1032.000000	64.955554
1033.000000	65.021887
1034.000000	65.084177
1035.000000	65.128322
1036.000000	65.185557
1037.000000	65.233032
1038.000000	65.289671
1039.000000	65.322582
1040.000000	65.360670
1041.000000	65.408387
1042.000000	65.456890
1043.000000	65.489455
1044.000000	65.533716
1045.000000	65.572716
1046.000000	65.616545
1047.000000	65.645527
1048.000000	65.682426
1049.000000	65.722751
1050.000000	65.746437
1051.000000	65.797068
1052.000000	65.843612
1053.000000	65.879648
1054.000000	65.925862
1055.000000	65.979618
1056.000000	66.025807
1057.000000	66.076458
1058.000000	66.113224
1059.000000	66.151591
1060.000000	66.191338
1061.000000	66.234213
1062.000000	66.288644
1063.000000	66.328635
1064.000000	66.354794
1065.000000	66.398972
1066.000000	66.445819
1067.000000	66.480217
1068.000000	66.522326
1069.000000	66.564471
1070.000000	66.608524
1071.000000	66.631089
1072.000000	66.685173
1073.000000	66.718940
1074.000000	66.766715
1075.000000	66.789909
1076.000000	66.831620
1077.000000	66.891512
1078.000000	66.933107
1079.000000	66.982026
1080.000000	67.001951
1081.000000	67.049126
1082.000000	67.111965
1083.000000	67.148610
1084.000000	67.204271
1085.000000	67.238885
1086.000000	67.286770
1087.000000	67.340141
1088.000000	67.385397
1089.000000	67.409618
1090.000000	67.450287
1091.000000	67.502722
1092.000000	67.523383
1093.000000	67.566332
1094.000000	67.589335
1095.000000	67.631136
1096.000000	67.663597
1097.000000	67.676986
1098.000000	67.698616
1099.000000	67.710451
1100.000000	67.726074
1101.000000	67.739931
1102.000000	67.760081
1103.000000	67.764579
1104.000000	67.769789
1105.000000	67.780638
1106.000000	67.783072
1107.000000	67.799058
1108.000000	67.800200
1109.000000	67.808868
1110.000000	67.805492
1111.000000	67.804223
1112.000000	67.805654
1113.000000	67.804870
1114.000000	67.806800
1115.000000	67.791781
1116.000000	67.797032
1117.000000	67.767428
1118.000000	67.727164
1119.000000	67.684071
1120.000000	67.625853
1121.000000	67.552582
1122.000000	67.457841
1123.000000	67.356101
1124.000000	67.230295
1125.000000	67.091557
1126.000000	66.921284
1127.000000	66.728353
1128.000000	66.476861
1129.000000	66.189417
1130.000000	65.850586
1131.000000	65.468150
1132.000000	65.063184
1133.000000	64.658323
1134.000000	64.169791
1135.000000	63.660892
1136.000000	63.163998
1137.000000	62.669535
1138.000000	62.202573
1139.000000	61.759595
1140.000000	61.318336
1141.000000	60.896264
1142.000000	60.495831
1143.000000	60.125210
1144.000000	59.813566
1145.000000	59.528633
1146.000000	59.316816
1147.000000	59.151257
1148.000000	59.020314
1149.000000	58.896470
1150.000000	58.771671
1151.000000	58.628702
1152.000000	58.468560
1153.000000	58.271725
1154.000000	58.021378
1155.000000	57.729863
1156.000000	57.398821
1157.000000	57.052944
1158.000000	56.676897
1159.000000	56.298403
1160.000000	55.910288
1161.000000	55.515281
1162.000000	55.114675
1163.000000	54.715471
1164.000000	54.335579
1165.000000	53.970817
1166.000000	53.598315
1167.000000	53.247743
