PE UV       SUBTECH     SPECTRUM    ASCII       PEDS        4.00        
   -1
CICIMAUCR0204-3.Sample.ASC
24/05/31
16:34:21.00
24/05/31
16:34:21.00
Vinicio Soto Monge
C. cupreomarginata. Sex M. Dorsal
250,000000
1
Lambda 1050
1050L1511233
PerkinElmer UV WinLab 6.3.2.0749 / 2.02.05 Lambda 900 UV/VIS/NIR, Aug  7 2015 09:38:08

0
0
3350/servo 860,8/2
0
0
UV/VIS
1
1
1
DoubleDePol,CommonBeamDepol,RBeamAtt,SBeamAtt,60mm sphere, WB InGaAs Detector
0
0
0
0
Program
Program
3350/servo 860,8/2
3350/0,2 860,8/0,2
3350/0,2 860,8/0,2
0
15.00
 
 
 
0
 
860,8
319,2
860,8
Front
100
on
S:100 R:100
0
0
0
0
 
0
 
 
 
0
 
 
0
0
0
0
0
 
 
 
 
0
0


0
0
#HDR
-1
-1
#GR
nm
%R
1.0
0.0
2500,000000
-1,000000
2251
8
68,833200
5,187100
#DATA
250.000000	5.787000
251.000000	5.791133
252.000000	5.793600
253.000000	5.768633
254.000000	5.760900
255.000000	5.762267
256.000000	5.769233
257.000000	5.753667
258.000000	5.729967
259.000000	5.735233
260.000000	5.748100
261.000000	5.718267
262.000000	5.704367
263.000000	5.663133
264.000000	5.640600
265.000000	5.632300
266.000000	5.621767
267.000000	5.604900
268.000000	5.576033
269.000000	5.549333
270.000000	5.533833
271.000000	5.524867
272.000000	5.521433
273.000000	5.490067
274.000000	5.490967
275.000000	5.479000
276.000000	5.484167
277.000000	5.476967
278.000000	5.453733
279.000000	5.444333
280.000000	5.439500
281.000000	5.420100
282.000000	5.416733
283.000000	5.404667
284.000000	5.412033
285.000000	5.399133
286.000000	5.397700
287.000000	5.387533
288.000000	5.372500
289.000000	5.372233
290.000000	5.378533
291.000000	5.371233
292.000000	5.354533
293.000000	5.349267
294.000000	5.350500
295.000000	5.348900
296.000000	5.344700
297.000000	5.328600
298.000000	5.313867
299.000000	5.302000
300.000000	5.318867
301.000000	5.317967
302.000000	5.307033
303.000000	5.284100
304.000000	5.286833
305.000000	5.301500
306.000000	5.302433
307.000000	5.303733
308.000000	5.307333
309.000000	5.301233
310.000000	5.291867
311.000000	5.281567
312.000000	5.274833
313.000000	5.283867
314.000000	5.302500
315.000000	5.292967
316.000000	5.454833
317.000000	5.736133
318.000000	5.856800
319.000000	5.666933
320.000000	5.440067
321.000000	5.611267
322.000000	5.650900
323.000000	5.565600
324.000000	5.595800
325.000000	5.478033
326.000000	5.388167
327.000000	5.549700
328.000000	5.555933
329.000000	5.522033
330.000000	5.573133
331.000000	5.433200
332.000000	5.383600
333.000000	5.440767
334.000000	5.500800
335.000000	5.480967
336.000000	5.454767
337.000000	5.542100
338.000000	5.562333
339.000000	5.515433
340.000000	5.471933
341.000000	5.451333
342.000000	5.451167
343.000000	5.467000
344.000000	5.461900
345.000000	5.451600
346.000000	5.435500
347.000000	5.417000
348.000000	5.491700
349.000000	5.481100
350.000000	5.491200
351.000000	5.483200
352.000000	5.436033
353.000000	5.433933
354.000000	5.466600
355.000000	5.483433
356.000000	5.519667
357.000000	5.497767
358.000000	5.429833
359.000000	5.493967
360.000000	5.477400
361.000000	5.479033
362.000000	5.557367
363.000000	5.585100
364.000000	5.592433
365.000000	5.599433
366.000000	5.584267
367.000000	5.575800
368.000000	5.536033
369.000000	5.578600
370.000000	5.614367
371.000000	5.594667
372.000000	5.570567
373.000000	5.557600
374.000000	5.543567
375.000000	5.531967
376.000000	5.634667
377.000000	5.713000
378.000000	5.716033
379.000000	5.729433
380.000000	5.756533
381.000000	5.791967
382.000000	5.819567
383.000000	5.831767
384.000000	5.852600
385.000000	5.895967
386.000000	5.933867
387.000000	5.957167
388.000000	5.990267
389.000000	6.028533
390.000000	6.067667
391.000000	6.115733
392.000000	6.170133
393.000000	6.214067
394.000000	6.267200
395.000000	6.332833
396.000000	6.404833
397.000000	6.468367
398.000000	6.537100
399.000000	6.608967
400.000000	6.696500
401.000000	6.794033
402.000000	6.886233
403.000000	6.976100
404.000000	7.085233
405.000000	7.208033
406.000000	7.327100
407.000000	7.451967
408.000000	7.598767
409.000000	7.746767
410.000000	7.910200
411.000000	8.083533
412.000000	8.259067
413.000000	8.449733
414.000000	8.649433
415.000000	8.857333
416.000000	9.075000
417.000000	9.295933
418.000000	9.534100
419.000000	9.765733
420.000000	10.009600
421.000000	10.271033
422.000000	10.544900
423.000000	10.817767
424.000000	11.094433
425.000000	11.381733
426.000000	11.645800
427.000000	11.943033
428.000000	12.220367
429.000000	12.506100
430.000000	12.793500
431.000000	13.085200
432.000000	13.380100
433.000000	13.655200
434.000000	13.936100
435.000000	14.215667
436.000000	14.493600
437.000000	14.757200
438.000000	15.031667
439.000000	15.292567
440.000000	15.560300
441.000000	15.819200
442.000000	16.065233
443.000000	16.313633
444.000000	16.554900
445.000000	16.793233
446.000000	17.009100
447.000000	17.223733
448.000000	17.436033
449.000000	17.628900
450.000000	17.831200
451.000000	18.032433
452.000000	18.197367
453.000000	18.380000
454.000000	18.554900
455.000000	18.720167
456.000000	18.864700
457.000000	19.022933
458.000000	19.189033
459.000000	19.342867
460.000000	19.501933
461.000000	19.641467
462.000000	19.793200
463.000000	19.925200
464.000000	20.085633
465.000000	20.229133
466.000000	20.384600
467.000000	20.511233
468.000000	20.653933
469.000000	20.782733
470.000000	20.922267
471.000000	21.071100
472.000000	21.217433
473.000000	21.355033
474.000000	21.479667
475.000000	21.628333
476.000000	21.778267
477.000000	21.927900
478.000000	22.080133
479.000000	22.250467
480.000000	22.399833
481.000000	22.573067
482.000000	22.767700
483.000000	22.964567
484.000000	23.171867
485.000000	23.387800
486.000000	23.643367
487.000000	23.904600
488.000000	24.165700
489.000000	24.491633
490.000000	24.835000
491.000000	25.172467
492.000000	25.565800
493.000000	25.975800
494.000000	26.421400
495.000000	26.875333
496.000000	27.343800
497.000000	27.811833
498.000000	28.320433
499.000000	28.821500
500.000000	29.347900
501.000000	29.844367
502.000000	30.394967
503.000000	30.896700
504.000000	31.417567
505.000000	31.911133
506.000000	32.401633
507.000000	32.903200
508.000000	33.400867
509.000000	33.894833
510.000000	34.394200
511.000000	34.873600
512.000000	35.388833
513.000000	35.911633
514.000000	36.421033
515.000000	36.976567
516.000000	37.539200
517.000000	38.117067
518.000000	38.724767
519.000000	39.350233
520.000000	39.997167
521.000000	40.686733
522.000000	41.429100
523.000000	42.180533
524.000000	42.975433
525.000000	43.799300
526.000000	44.654967
527.000000	45.510100
528.000000	46.390233
529.000000	47.313700
530.000000	48.232733
531.000000	49.164467
532.000000	50.117600
533.000000	51.050167
534.000000	51.964867
535.000000	52.897767
536.000000	53.777300
537.000000	54.637200
538.000000	55.459867
539.000000	56.247667
540.000000	56.984833
541.000000	57.722867
542.000000	58.377333
543.000000	58.980367
544.000000	59.566533
545.000000	60.091233
546.000000	60.567367
547.000000	61.013267
548.000000	61.452500
549.000000	61.838033
550.000000	62.199567
551.000000	62.502100
552.000000	62.797933
553.000000	63.031500
554.000000	63.228733
555.000000	63.392300
556.000000	63.510867
557.000000	63.571500
558.000000	63.619667
559.000000	63.631767
560.000000	63.628600
561.000000	63.632033
562.000000	63.603433
563.000000	63.604700
564.000000	63.595867
565.000000	63.589733
566.000000	63.603000
567.000000	63.609100
568.000000	63.603667
569.000000	63.600600
570.000000	63.599300
571.000000	63.567867
572.000000	63.500867
573.000000	63.423400
574.000000	63.321500
575.000000	63.159467
576.000000	62.999733
577.000000	62.826767
578.000000	62.615500
579.000000	62.420400
580.000000	62.201467
581.000000	61.976333
582.000000	61.765133
583.000000	61.556733
584.000000	61.371700
585.000000	61.214667
586.000000	61.055700
587.000000	60.895600
588.000000	60.737500
589.000000	60.604800
590.000000	60.457933
591.000000	60.284733
592.000000	60.136667
593.000000	59.983300
594.000000	59.827233
595.000000	59.623333
596.000000	59.427900
597.000000	59.235200
598.000000	59.015300
599.000000	58.750700
600.000000	58.484133
601.000000	58.199333
602.000000	57.903167
603.000000	57.575367
604.000000	57.228733
605.000000	56.854667
606.000000	56.457267
607.000000	56.031233
608.000000	55.584567
609.000000	55.111067
610.000000	54.596700
611.000000	54.035533
612.000000	53.458300
613.000000	52.878700
614.000000	52.278667
615.000000	51.678667
616.000000	51.098133
617.000000	50.511467
618.000000	49.926733
619.000000	49.327433
620.000000	48.742567
621.000000	48.169167
622.000000	47.613333
623.000000	47.094433
624.000000	46.574167
625.000000	46.099533
626.000000	45.671300
627.000000	45.267500
628.000000	44.928967
629.000000	44.641267
630.000000	44.395167
631.000000	44.213667
632.000000	44.082267
633.000000	43.996600
634.000000	43.961300
635.000000	43.999233
636.000000	44.078700
637.000000	44.182000
638.000000	44.331700
639.000000	44.543467
640.000000	44.801033
641.000000	45.050400
642.000000	45.317833
643.000000	45.583867
644.000000	45.881800
645.000000	46.177900
646.000000	46.425000
647.000000	46.675100
648.000000	46.915367
649.000000	47.105433
650.000000	47.265967
651.000000	47.403767
652.000000	47.504133
653.000000	47.579500
654.000000	47.648400
655.000000	47.693633
656.000000	47.692100
657.000000	47.690933
658.000000	47.693233
659.000000	47.676200
660.000000	47.660533
661.000000	47.648400
662.000000	47.643500
663.000000	47.635567
664.000000	47.627400
665.000000	47.640767
666.000000	47.665633
667.000000	47.671167
668.000000	47.658233
669.000000	47.670133
670.000000	47.685967
671.000000	47.707400
672.000000	47.697367
673.000000	47.674967
674.000000	47.680633
675.000000	47.691167
676.000000	47.723700
677.000000	47.780800
678.000000	47.822467
679.000000	47.886667
680.000000	47.980067
681.000000	48.084233
682.000000	48.211133
683.000000	48.343867
684.000000	48.484867
685.000000	48.639167
686.000000	48.823733
687.000000	48.996433
688.000000	49.168933
689.000000	49.374767
690.000000	49.540633
691.000000	49.733700
692.000000	49.903967
693.000000	50.080433
694.000000	50.262067
695.000000	50.456167
696.000000	50.658767
697.000000	50.852133
698.000000	51.027100
699.000000	51.228200
700.000000	51.460067
701.000000	51.665767
702.000000	51.847733
703.000000	52.048600
704.000000	52.244533
705.000000	52.445267
706.000000	52.625667
707.000000	52.817600
708.000000	53.040100
709.000000	53.210567
710.000000	53.385167
711.000000	53.584467
712.000000	53.742367
713.000000	53.880333
714.000000	54.072633
715.000000	54.228967
716.000000	54.394400
717.000000	54.560800
718.000000	54.684567
719.000000	54.795733
720.000000	54.891033
721.000000	55.031867
722.000000	55.162900
723.000000	55.276200
724.000000	55.420600
725.000000	55.581667
726.000000	55.663800
727.000000	55.798100
728.000000	55.982300
729.000000	56.034000
730.000000	56.137333
731.000000	56.278067
732.000000	56.399933
733.000000	56.470733
734.000000	56.572167
735.000000	56.633100
736.000000	56.791533
737.000000	56.856667
738.000000	56.975967
739.000000	57.031400
740.000000	57.093800
741.000000	57.157033
742.000000	57.184867
743.000000	57.309800
744.000000	57.425400
745.000000	57.498000
746.000000	57.603733
747.000000	57.665400
748.000000	57.752500
749.000000	57.857933
750.000000	57.983800
751.000000	58.097767
752.000000	58.233400
753.000000	58.281133
754.000000	58.422733
755.000000	58.505633
756.000000	58.681400
757.000000	58.798733
758.000000	58.962133
759.000000	59.039933
760.000000	59.115033
761.000000	59.291267
762.000000	59.453467
763.000000	59.568267
764.000000	59.782700
765.000000	59.865233
766.000000	59.981867
767.000000	60.121267
768.000000	60.274167
769.000000	60.346500
770.000000	60.563000
771.000000	60.667900
772.000000	60.751433
773.000000	60.890467
774.000000	61.043833
775.000000	61.112867
776.000000	61.186533
777.000000	61.342467
778.000000	61.466067
779.000000	61.631767
780.000000	61.656800
781.000000	61.854367
782.000000	61.917700
783.000000	62.134267
784.000000	62.178567
785.000000	62.275767
786.000000	62.395667
787.000000	62.506000
788.000000	62.615600
789.000000	62.622967
790.000000	62.868167
791.000000	62.959033
792.000000	62.948233
793.000000	63.016133
794.000000	63.165767
795.000000	63.317433
796.000000	63.379667
797.000000	63.393467
798.000000	63.664200
799.000000	63.652233
800.000000	63.689433
801.000000	63.862967
802.000000	63.917933
803.000000	64.179267
804.000000	64.251800
805.000000	64.292033
806.000000	64.365000
807.000000	64.408167
808.000000	64.641167
809.000000	64.599967
810.000000	64.614700
811.000000	64.844567
812.000000	64.917333
813.000000	64.964767
814.000000	65.055867
815.000000	65.154200
816.000000	65.245500
817.000000	65.357033
818.000000	65.482033
819.000000	65.539633
820.000000	65.670600
821.000000	65.691867
822.000000	65.865533
823.000000	65.949167
824.000000	65.910333
825.000000	66.117433
826.000000	66.226367
827.000000	66.336333
828.000000	66.416133
829.000000	66.470133
830.000000	66.670067
831.000000	66.650400
832.000000	66.647633
833.000000	66.759467
834.000000	66.865933
835.000000	67.110233
836.000000	67.101300
837.000000	67.210200
838.000000	67.198900
839.000000	67.323567
840.000000	67.396967
841.000000	67.631600
842.000000	67.636667
843.000000	67.572767
844.000000	67.832767
845.000000	67.979233
846.000000	67.944233
847.000000	68.070433
848.000000	68.202900
849.000000	67.959800
850.000000	68.297567
851.000000	68.137567
852.000000	68.325900
853.000000	68.296767
854.000000	68.226833
855.000000	68.470733
856.000000	68.632300
857.000000	67.811000
858.000000	68.304678
859.000000	68.292515
860.000000	68.289959
861.000000	68.277260
862.000000	68.263748
863.000000	68.270168
864.000000	68.255346
865.000000	68.244395
866.000000	68.222514
867.000000	68.223481
868.000000	68.212383
869.000000	68.180917
870.000000	68.162696
871.000000	68.181370
872.000000	68.308336
873.000000	68.532292
874.000000	68.747923
875.000000	68.932349
876.000000	69.119722
877.000000	69.283102
878.000000	69.414882
879.000000	69.511875
880.000000	69.587767
881.000000	69.668357
882.000000	69.749458
883.000000	69.821741
884.000000	69.878930
885.000000	69.944353
886.000000	70.002996
887.000000	70.050874
888.000000	70.096080
889.000000	70.145442
890.000000	70.172037
891.000000	70.196369
892.000000	70.223914
893.000000	70.230451
894.000000	70.236110
895.000000	70.245217
896.000000	70.253670
897.000000	70.254711
898.000000	70.242512
899.000000	70.232762
900.000000	70.215853
901.000000	70.210776
902.000000	70.207920
903.000000	70.190504
904.000000	70.179339
905.000000	70.171267
906.000000	70.156431
907.000000	70.142770
908.000000	70.129096
909.000000	70.125861
910.000000	70.116335
911.000000	70.107165
912.000000	70.098425
913.000000	70.088380
914.000000	70.071044
915.000000	70.059505
916.000000	70.041089
917.000000	70.032195
918.000000	70.009759
919.000000	69.991461
920.000000	69.969073
921.000000	69.941399
922.000000	69.910247
923.000000	69.876061
924.000000	69.832790
925.000000	69.791984
926.000000	69.762420
927.000000	69.737726
928.000000	69.694341
929.000000	69.655632
930.000000	69.624588
931.000000	69.584210
932.000000	69.527715
933.000000	69.471582
934.000000	69.424520
935.000000	69.371380
936.000000	69.314746
937.000000	69.265064
938.000000	69.209314
939.000000	69.161545
940.000000	69.108076
941.000000	69.047438
942.000000	68.997488
943.000000	68.936304
944.000000	68.864194
945.000000	68.793587
946.000000	68.728750
947.000000	68.670590
948.000000	68.601523
949.000000	68.523201
950.000000	68.441751
951.000000	68.357669
952.000000	68.275765
953.000000	68.198654
954.000000	68.114218
955.000000	68.026894
956.000000	67.928417
957.000000	67.829682
958.000000	67.739096
959.000000	67.641754
960.000000	67.537911
961.000000	67.431378
962.000000	67.330609
963.000000	67.226129
964.000000	67.123131
965.000000	67.033754
966.000000	66.944729
967.000000	66.843750
968.000000	66.736900
969.000000	66.641138
970.000000	66.553958
971.000000	66.468278
972.000000	66.373856
973.000000	66.274755
974.000000	66.183093
975.000000	66.092646
976.000000	66.009367
977.000000	65.913701
978.000000	65.814183
979.000000	65.731820
980.000000	65.639780
981.000000	65.555087
982.000000	65.462488
983.000000	65.371076
984.000000	65.286973
985.000000	65.205123
986.000000	65.121485
987.000000	65.042528
988.000000	64.960816
989.000000	64.886241
990.000000	64.814110
991.000000	64.750535
992.000000	64.681037
993.000000	64.613511
994.000000	64.549681
995.000000	64.488847
996.000000	64.432456
997.000000	64.366427
998.000000	64.307141
999.000000	64.255773
1000.000000	64.206192
1001.000000	64.157161
1002.000000	64.102863
1003.000000	64.048660
1004.000000	64.001418
1005.000000	63.950651
1006.000000	63.894474
1007.000000	63.850186
1008.000000	63.803208
1009.000000	63.762081
1010.000000	63.717002
1011.000000	63.688206
1012.000000	63.656094
1013.000000	63.618352
1014.000000	63.593914
1015.000000	63.578995
1016.000000	63.568465
1017.000000	63.553884
1018.000000	63.540908
1019.000000	63.534247
1020.000000	63.533323
1021.000000	63.532137
1022.000000	63.534328
1023.000000	63.530810
1024.000000	63.527414
1025.000000	63.529955
1026.000000	63.536645
1027.000000	63.539110
1028.000000	63.546909
1029.000000	63.541464
1030.000000	63.543205
1031.000000	63.550175
1032.000000	63.539819
1033.000000	63.538515
1034.000000	63.544754
1035.000000	63.536537
1036.000000	63.531959
1037.000000	63.519579
1038.000000	63.523747
1039.000000	63.511320
1040.000000	63.501691
1041.000000	63.484167
1042.000000	63.490068
1043.000000	63.482717
1044.000000	63.484992
1045.000000	63.474188
1046.000000	63.477074
1047.000000	63.472109
1048.000000	63.459638
1049.000000	63.472402
1050.000000	63.476965
1051.000000	63.479180
1052.000000	63.503737
1053.000000	63.504425
1054.000000	63.515111
1055.000000	63.526499
1056.000000	63.544943
1057.000000	63.553383
1058.000000	63.577396
1059.000000	63.593368
1060.000000	63.615604
1061.000000	63.634312
1062.000000	63.649854
1063.000000	63.674144
1064.000000	63.697615
1065.000000	63.713389
1066.000000	63.730420
1067.000000	63.764198
1068.000000	63.786861
1069.000000	63.822030
1070.000000	63.823198
1071.000000	63.854982
1072.000000	63.885185
1073.000000	63.907939
1074.000000	63.930423
1075.000000	63.968825
1076.000000	63.995973
1077.000000	64.017985
1078.000000	64.053044
1079.000000	64.077796
1080.000000	64.101093
1081.000000	64.132795
1082.000000	64.177490
1083.000000	64.202872
1084.000000	64.242028
1085.000000	64.281136
1086.000000	64.300117
1087.000000	64.345461
1088.000000	64.366615
1089.000000	64.408817
1090.000000	64.422418
1091.000000	64.444285
1092.000000	64.476748
1093.000000	64.487105
1094.000000	64.518203
1095.000000	64.538696
1096.000000	64.564991
1097.000000	64.560064
1098.000000	64.584940
1099.000000	64.593266
1100.000000	64.597001
1101.000000	64.610861
1102.000000	64.606069
1103.000000	64.619662
1104.000000	64.631856
1105.000000	64.642266
1106.000000	64.630151
1107.000000	64.628564
1108.000000	64.624734
1109.000000	64.626524
1110.000000	64.625967
1111.000000	64.624636
1112.000000	64.622681
1113.000000	64.610622
1114.000000	64.607822
1115.000000	64.609678
1116.000000	64.594711
1117.000000	64.584365
1118.000000	64.555697
1119.000000	64.515190
1120.000000	64.482255
1121.000000	64.440581
1122.000000	64.381927
1123.000000	64.307882
1124.000000	64.232438
1125.000000	64.123984
1126.000000	64.020538
1127.000000	63.890326
1128.000000	63.735057
1129.000000	63.544466
1130.000000	63.330569
1131.000000	63.090325
1132.000000	62.818249
1133.000000	62.560993
1134.000000	62.255964
1135.000000	61.913655
1136.000000	61.571900
1137.000000	61.245843
1138.000000	60.935216
1139.000000	60.640463
1140.000000	60.353667
1141.000000	60.067308
1142.000000	59.806802
1143.000000	59.553810
1144.000000	59.340789
1145.000000	59.155725
1146.000000	59.019335
1147.000000	58.909359
1148.000000	58.830462
1149.000000	58.748996
1150.000000	58.695426
1151.000000	58.623227
1152.000000	58.528129
1153.000000	58.403320
1154.000000	58.253085
1155.000000	58.071610
1156.000000	57.857199
1157.000000	57.623918
1158.000000	57.379634
1159.000000	57.115625
1160.000000	56.840626
1161.000000	56.569658
1162.000000	56.299708
1163.000000	56.021254
1164.000000	55.741723
1165.000000	55.468855
1166.000000	55.208320
1167.000000	54.960391
