PE UV       SUBTECH     SPECTRUM    ASCII       PEDS        4.00        
   -1
CICIMAUCR0250-3.Sample.ASC
24/05/27
16:50:50.00
24/05/27
16:50:50.00
Vinicio Soto Monge
C. resplendens, M
250,000000
1
Lambda 1050
1050L1511233
PerkinElmer UV WinLab 6.3.2.0749 / 2.02.05 Lambda 900 UV/VIS/NIR, Aug  7 2015 09:38:08

0
0
3350/servo 860,8/2
0
0
UV/VIS
1
1
1
DoubleDePol,CommonBeamDepol,RBeamAtt,SBeamAtt,60mm sphere, WB InGaAs Detector
0
0
0
0
Program
Program
3350/servo 860,8/2
3350/0,2 860,8/0,2
3350/0,2 860,8/0,2
0
15.00
 
 
 
0
 
860,8
319,2
860,8
Front
100
on
S:100 R:100
0
0
0
0
 
0
 
 
 
0
 
 
0
0
0
0
0
 
 
 
 
0
0


0
0
#HDR
-1
-1
#GR
nm
%R
1.0
0.0
2500,000000
-1,000000
2251
8
89,705100
5,547200
#DATA
250.000000	2232.000000	6.313633
251.000000	2231.000000	6.282600
252.000000	2230.000000	6.254233
253.000000	2229.000000	6.267733
254.000000	2228.000000	6.254267
255.000000	2227.000000	6.236000
256.000000	2226.000000	6.220900
257.000000	2225.000000	6.196033
258.000000	2224.000000	6.175533
259.000000	2223.000000	6.175000
260.000000	2222.000000	6.155100
261.000000	2221.000000	6.134067
262.000000	2220.000000	6.105400
263.000000	2219.000000	6.092167
264.000000	2218.000000	6.084467
265.000000	2217.000000	6.039767
266.000000	2216.000000	6.009900
267.000000	2215.000000	6.002400
268.000000	2214.000000	5.974100
269.000000	2213.000000	5.948900
270.000000	2212.000000	5.957433
271.000000	2211.000000	5.947800
272.000000	2210.000000	5.923100
273.000000	2209.000000	5.917300
274.000000	2208.000000	5.901500
275.000000	2207.000000	5.908000
276.000000	2206.000000	5.899600
277.000000	2205.000000	5.874367
278.000000	2204.000000	5.875367
279.000000	2203.000000	5.867300
280.000000	2202.000000	5.870533
281.000000	2201.000000	5.854667
282.000000	2200.000000	5.849167
283.000000	2199.000000	5.836400
284.000000	2198.000000	5.813300
285.000000	2197.000000	5.812200
286.000000	2196.000000	5.808267
287.000000	2195.000000	5.776067
288.000000	2194.000000	5.788800
289.000000	2193.000000	5.784700
290.000000	2192.000000	5.761433
291.000000	2191.000000	5.772533
292.000000	2190.000000	5.759700
293.000000	2189.000000	5.739667
294.000000	2188.000000	5.733433
295.000000	2187.000000	5.733467
296.000000	2186.000000	5.724000
297.000000	2185.000000	5.712400
298.000000	2184.000000	5.708500
299.000000	2183.000000	5.679767
300.000000	2182.000000	5.684467
301.000000	2181.000000	5.701367
302.000000	2180.000000	5.683067
303.000000	2179.000000	5.673067
304.000000	2178.000000	5.656567
305.000000	2177.000000	5.640567
306.000000	2176.000000	5.647700
307.000000	2175.000000	5.653200
308.000000	2174.000000	5.643233
309.000000	2173.000000	5.630867
310.000000	2172.000000	5.636600
311.000000	2171.000000	5.655967
312.000000	2170.000000	5.638333
313.000000	2169.000000	5.610100
314.000000	2168.000000	5.621067
315.000000	2167.000000	5.636600
316.000000	2166.000000	5.724900
317.000000	2165.000000	5.837400
318.000000	2164.000000	5.841233
319.000000	2163.000000	5.873000
320.000000	2162.000000	5.908400
321.000000	2161.000000	5.823667
322.000000	2160.000000	5.797833
323.000000	2159.000000	5.854767
324.000000	2158.000000	5.827500
325.000000	2157.000000	5.810067
326.000000	2156.000000	5.749567
327.000000	2155.000000	5.699733
328.000000	2154.000000	5.716933
329.000000	2153.000000	5.801667
330.000000	2152.000000	5.840133
331.000000	2151.000000	5.761133
332.000000	2150.000000	5.769500
333.000000	2149.000000	5.756267
334.000000	2148.000000	5.711167
335.000000	2147.000000	5.727833
336.000000	2146.000000	5.725667
337.000000	2145.000000	5.790500
338.000000	2144.000000	5.813033
339.000000	2143.000000	5.785267
340.000000	2142.000000	5.828700
341.000000	2141.000000	5.809833
342.000000	2140.000000	5.831767
343.000000	2139.000000	5.853067
344.000000	2138.000000	5.779800
345.000000	2137.000000	5.744400
346.000000	2136.000000	5.769433
347.000000	2135.000000	5.849467
348.000000	2134.000000	5.906100
349.000000	2133.000000	5.883467
350.000000	2132.000000	5.880200
351.000000	2131.000000	5.833333
352.000000	2130.000000	5.864667
353.000000	2129.000000	5.904767
354.000000	2128.000000	5.929733
355.000000	2127.000000	6.007700
356.000000	2126.000000	6.021133
357.000000	2125.000000	6.027733
358.000000	2124.000000	6.057767
359.000000	2123.000000	6.128067
360.000000	2122.000000	6.153567
361.000000	2121.000000	6.168500
362.000000	2120.000000	6.205600
363.000000	2119.000000	6.225100
364.000000	2118.000000	6.257267
365.000000	2117.000000	6.284300
366.000000	2116.000000	6.356900
367.000000	2115.000000	6.415267
368.000000	2114.000000	6.378267
369.000000	2113.000000	6.395833
370.000000	2112.000000	6.472467
371.000000	2111.000000	6.485867
372.000000	2110.000000	6.455133
373.000000	2109.000000	6.449367
374.000000	2108.000000	6.537300
375.000000	2107.000000	6.621800
376.000000	2106.000000	6.664100
377.000000	2105.000000	6.706100
378.000000	2104.000000	6.747200
379.000000	2103.000000	6.792167
380.000000	2102.000000	6.850700
381.000000	2101.000000	6.908500
382.000000	2100.000000	6.969467
383.000000	2099.000000	7.032933
384.000000	2098.000000	7.105033
385.000000	2097.000000	7.185700
386.000000	2096.000000	7.255633
387.000000	2095.000000	7.325467
388.000000	2094.000000	7.409133
389.000000	2093.000000	7.503967
390.000000	2092.000000	7.598933
391.000000	2091.000000	7.707867
392.000000	2090.000000	7.821900
393.000000	2089.000000	7.937300
394.000000	2088.000000	8.058233
395.000000	2087.000000	8.185500
396.000000	2086.000000	8.333700
397.000000	2085.000000	8.478867
398.000000	2084.000000	8.646867
399.000000	2083.000000	8.820900
400.000000	2082.000000	9.024233
401.000000	2081.000000	9.222700
402.000000	2080.000000	9.436667
403.000000	2079.000000	9.686633
404.000000	2078.000000	9.926467
405.000000	2077.000000	10.200233
406.000000	2076.000000	10.469367
407.000000	2075.000000	10.744867
408.000000	2074.000000	11.061000
409.000000	2073.000000	11.380700
410.000000	2072.000000	11.711333
411.000000	2071.000000	12.068733
412.000000	2070.000000	12.433900
413.000000	2069.000000	12.806767
414.000000	2068.000000	13.192500
415.000000	2067.000000	13.596067
416.000000	2066.000000	14.009800
417.000000	2065.000000	14.432967
418.000000	2064.000000	14.847433
419.000000	2063.000000	15.267133
420.000000	2062.000000	15.706633
421.000000	2061.000000	16.132200
422.000000	2060.000000	16.576567
423.000000	2059.000000	17.000667
424.000000	2058.000000	17.452500
425.000000	2057.000000	17.887067
426.000000	2056.000000	18.341967
427.000000	2055.000000	18.763467
428.000000	2054.000000	19.169467
429.000000	2053.000000	19.592567
430.000000	2052.000000	20.020700
431.000000	2051.000000	20.402167
432.000000	2050.000000	20.810100
433.000000	2049.000000	21.221233
434.000000	2048.000000	21.593667
435.000000	2047.000000	21.987133
436.000000	2046.000000	22.329600
437.000000	2045.000000	22.677400
438.000000	2044.000000	23.041000
439.000000	2043.000000	23.370033
440.000000	2042.000000	23.689767
441.000000	2041.000000	24.006700
442.000000	2040.000000	24.298033
443.000000	2039.000000	24.619367
444.000000	2038.000000	24.871600
445.000000	2037.000000	25.126333
446.000000	2036.000000	25.356667
447.000000	2035.000000	25.619333
448.000000	2034.000000	25.832833
449.000000	2033.000000	26.037133
450.000000	2032.000000	26.244733
451.000000	2031.000000	26.422000
452.000000	2030.000000	26.599267
453.000000	2029.000000	26.751200
454.000000	2028.000000	26.880600
455.000000	2027.000000	27.007267
456.000000	2026.000000	27.122367
457.000000	2025.000000	27.214800
458.000000	2024.000000	27.326567
459.000000	2023.000000	27.393667
460.000000	2022.000000	27.442933
461.000000	2021.000000	27.512733
462.000000	2020.000000	27.541233
463.000000	2019.000000	27.548567
464.000000	2018.000000	27.587767
465.000000	2017.000000	27.598367
466.000000	2016.000000	27.584000
467.000000	2015.000000	27.578467
468.000000	2014.000000	27.554633
469.000000	2013.000000	27.547900
470.000000	2012.000000	27.502000
471.000000	2011.000000	27.468167
472.000000	2010.000000	27.442833
473.000000	2009.000000	27.412200
474.000000	2008.000000	27.390133
475.000000	2007.000000	27.360700
476.000000	2006.000000	27.345600
477.000000	2005.000000	27.344433
478.000000	2004.000000	27.355333
479.000000	2003.000000	27.379267
480.000000	2002.000000	27.401600
481.000000	2001.000000	27.465667
482.000000	2000.000000	27.539933
483.000000	1999.000000	27.643667
484.000000	1998.000000	27.752900
485.000000	1997.000000	27.908767
486.000000	1996.000000	28.079333
487.000000	1995.000000	28.261733
488.000000	1994.000000	28.458567
489.000000	1993.000000	28.696533
490.000000	1992.000000	28.981100
491.000000	1991.000000	29.276467
492.000000	1990.000000	29.577600
493.000000	1989.000000	29.941700
494.000000	1988.000000	30.274633
495.000000	1987.000000	30.662700
496.000000	1986.000000	31.079867
497.000000	1985.000000	31.494633
498.000000	1984.000000	31.934500
499.000000	1983.000000	32.416133
500.000000	1982.000000	32.890900
501.000000	1981.000000	33.381767
502.000000	1980.000000	33.904133
503.000000	1979.000000	34.426100
504.000000	1978.000000	34.927067
505.000000	1977.000000	35.480100
506.000000	1976.000000	36.036133
507.000000	1975.000000	36.607867
508.000000	1974.000000	37.198467
509.000000	1973.000000	37.827567
510.000000	1972.000000	38.489533
511.000000	1971.000000	39.187067
512.000000	1970.000000	39.932200
513.000000	1969.000000	40.709367
514.000000	1968.000000	41.533333
515.000000	1967.000000	42.374300
516.000000	1966.000000	43.246133
517.000000	1965.000000	44.186500
518.000000	1964.000000	45.157167
519.000000	1963.000000	46.161700
520.000000	1962.000000	47.224433
521.000000	1961.000000	48.305233
522.000000	1960.000000	49.444267
523.000000	1959.000000	50.602133
524.000000	1958.000000	51.797200
525.000000	1957.000000	53.012267
526.000000	1956.000000	54.227967
527.000000	1955.000000	55.466067
528.000000	1954.000000	56.697567
529.000000	1953.000000	57.942300
530.000000	1952.000000	59.204133
531.000000	1951.000000	60.453767
532.000000	1950.000000	61.687967
533.000000	1949.000000	62.915200
534.000000	1948.000000	64.117233
535.000000	1947.000000	65.288033
536.000000	1946.000000	66.425800
537.000000	1945.000000	67.509200
538.000000	1944.000000	68.558133
539.000000	1943.000000	69.557700
540.000000	1942.000000	70.547033
541.000000	1941.000000	71.480167
542.000000	1940.000000	72.400400
543.000000	1939.000000	73.269867
544.000000	1938.000000	74.099200
545.000000	1937.000000	74.900467
546.000000	1936.000000	75.637033
547.000000	1935.000000	76.364600
548.000000	1934.000000	77.034433
549.000000	1933.000000	77.683567
550.000000	1932.000000	78.344633
551.000000	1931.000000	78.940767
552.000000	1930.000000	79.504733
553.000000	1929.000000	80.058767
554.000000	1928.000000	80.620600
555.000000	1927.000000	81.126267
556.000000	1926.000000	81.583600
557.000000	1925.000000	82.049200
558.000000	1924.000000	82.478033
559.000000	1923.000000	82.886367
560.000000	1922.000000	83.293767
561.000000	1921.000000	83.665100
562.000000	1920.000000	84.017533
563.000000	1919.000000	84.374800
564.000000	1918.000000	84.703900
565.000000	1917.000000	85.042733
566.000000	1916.000000	85.328933
567.000000	1915.000000	85.637333
568.000000	1914.000000	85.922300
569.000000	1913.000000	86.183267
570.000000	1912.000000	86.441533
571.000000	1911.000000	86.710300
572.000000	1910.000000	86.943667
573.000000	1909.000000	87.191100
574.000000	1908.000000	87.407933
575.000000	1907.000000	87.609000
576.000000	1906.000000	87.774300
577.000000	1905.000000	87.962367
578.000000	1904.000000	88.121600
579.000000	1903.000000	88.255667
580.000000	1902.000000	88.389700
581.000000	1901.000000	88.468400
582.000000	1900.000000	88.584033
583.000000	1899.000000	88.624867
584.000000	1898.000000	88.651167
585.000000	1897.000000	88.680333
586.000000	1896.000000	88.710433
587.000000	1895.000000	88.695067
588.000000	1894.000000	88.644933
589.000000	1893.000000	88.629367
590.000000	1892.000000	88.573533
591.000000	1891.000000	88.482000
592.000000	1890.000000	88.388867
593.000000	1889.000000	88.277800
594.000000	1888.000000	88.152600
595.000000	1887.000000	88.004533
596.000000	1886.000000	87.827600
597.000000	1885.000000	87.657867
598.000000	1884.000000	87.440067
599.000000	1883.000000	87.225133
600.000000	1882.000000	87.006400
601.000000	1881.000000	86.744533
602.000000	1880.000000	86.486233
603.000000	1879.000000	86.196567
604.000000	1878.000000	85.882300
605.000000	1877.000000	85.548967
606.000000	1876.000000	85.190167
607.000000	1875.000000	84.819100
608.000000	1874.000000	84.376067
609.000000	1873.000000	83.918867
610.000000	1872.000000	83.449667
611.000000	1871.000000	82.914500
612.000000	1870.000000	82.321067
613.000000	1869.000000	81.691067
614.000000	1868.000000	81.039567
615.000000	1867.000000	80.342533
616.000000	1866.000000	79.612467
617.000000	1865.000000	78.862533
618.000000	1864.000000	78.041400
619.000000	1863.000000	77.204233
620.000000	1862.000000	76.363433
621.000000	1861.000000	75.471633
622.000000	1860.000000	74.541400
623.000000	1859.000000	73.575200
624.000000	1858.000000	72.586600
625.000000	1857.000000	71.553733
626.000000	1856.000000	70.504800
627.000000	1855.000000	69.441633
628.000000	1854.000000	68.329367
629.000000	1853.000000	67.188367
630.000000	1852.000000	66.032633
631.000000	1851.000000	64.862833
632.000000	1850.000000	63.716567
633.000000	1849.000000	62.560067
634.000000	1848.000000	61.445033
635.000000	1847.000000	60.386500
636.000000	1846.000000	59.372433
637.000000	1845.000000	58.437167
638.000000	1844.000000	57.579900
639.000000	1843.000000	56.797600
640.000000	1842.000000	56.132467
641.000000	1841.000000	55.582933
642.000000	1840.000000	55.147233
643.000000	1839.000000	54.845367
644.000000	1838.000000	54.665433
645.000000	1837.000000	54.599467
646.000000	1836.000000	54.649567
647.000000	1835.000000	54.831133
648.000000	1834.000000	55.137567
649.000000	1833.000000	55.524333
650.000000	1832.000000	56.032733
651.000000	1831.000000	56.639400
652.000000	1830.000000	57.343300
653.000000	1829.000000	58.140367
654.000000	1828.000000	58.961967
655.000000	1827.000000	59.794067
656.000000	1826.000000	60.647467
657.000000	1825.000000	61.559233
658.000000	1824.000000	62.459800
659.000000	1823.000000	63.330333
660.000000	1822.000000	64.224900
661.000000	1821.000000	65.141167
662.000000	1820.000000	66.034900
663.000000	1819.000000	66.887800
664.000000	1818.000000	67.704433
665.000000	1817.000000	68.508867
666.000000	1816.000000	69.279767
667.000000	1815.000000	70.054700
668.000000	1814.000000	70.780100
669.000000	1813.000000	71.451500
670.000000	1812.000000	72.102367
671.000000	1811.000000	72.753700
672.000000	1810.000000	73.384667
673.000000	1809.000000	73.985300
674.000000	1808.000000	74.555867
675.000000	1807.000000	75.083667
676.000000	1806.000000	75.568200
677.000000	1805.000000	76.033467
678.000000	1804.000000	76.477433
679.000000	1803.000000	76.895800
680.000000	1802.000000	77.255467
681.000000	1801.000000	77.592467
682.000000	1800.000000	77.886267
683.000000	1799.000000	78.173600
684.000000	1798.000000	78.447533
685.000000	1797.000000	78.676100
686.000000	1796.000000	78.832000
687.000000	1795.000000	79.032767
688.000000	1794.000000	79.174100
689.000000	1793.000000	79.285467
690.000000	1792.000000	79.406000
691.000000	1791.000000	79.526833
692.000000	1790.000000	79.596500
693.000000	1789.000000	79.644033
694.000000	1788.000000	79.696967
695.000000	1787.000000	79.729433
696.000000	1786.000000	79.782933
697.000000	1785.000000	79.862733
698.000000	1784.000000	79.944833
699.000000	1783.000000	80.001067
700.000000	1782.000000	80.053133
701.000000	1781.000000	80.140733
702.000000	1780.000000	80.253233
703.000000	1779.000000	80.407933
704.000000	1778.000000	80.557100
705.000000	1777.000000	80.761700
706.000000	1776.000000	80.932933
707.000000	1775.000000	81.149100
708.000000	1774.000000	81.423300
709.000000	1773.000000	81.673467
710.000000	1772.000000	81.967200
711.000000	1771.000000	82.292700
712.000000	1770.000000	82.606133
713.000000	1769.000000	82.987400
714.000000	1768.000000	83.329267
715.000000	1767.000000	83.690033
716.000000	1766.000000	84.149633
717.000000	1765.000000	84.479767
718.000000	1764.000000	84.862400
719.000000	1763.000000	85.267467
720.000000	1762.000000	85.661867
721.000000	1761.000000	86.053267
722.000000	1760.000000	86.450400
723.000000	1759.000000	86.838967
724.000000	1758.000000	87.227533
725.000000	1757.000000	87.609200
726.000000	1756.000000	87.916367
727.000000	1755.000000	88.302433
728.000000	1754.000000	88.666067
729.000000	1753.000000	88.936200
730.000000	1752.000000	89.218267
731.000000	1751.000000	89.521333
732.000000	1750.000000	89.822033
733.000000	1749.000000	90.059533
734.000000	1748.000000	90.324067
735.000000	1747.000000	90.527967
736.000000	1746.000000	90.760767
737.000000	1745.000000	90.898233
738.000000	1744.000000	91.127833
739.000000	1743.000000	91.333433
740.000000	1742.000000	91.477233
741.000000	1741.000000	91.639900
742.000000	1740.000000	91.788800
743.000000	1739.000000	91.866200
744.000000	1738.000000	91.904167
745.000000	1737.000000	92.086400
746.000000	1736.000000	92.129833
747.000000	1735.000000	92.249600
748.000000	1734.000000	92.308767
749.000000	1733.000000	92.378000
750.000000	1732.000000	92.424467
751.000000	1731.000000	92.511600
752.000000	1730.000000	92.580833
753.000000	1729.000000	92.564000
754.000000	1728.000000	92.665833
755.000000	1727.000000	92.778800
756.000000	1726.000000	92.745700
757.000000	1725.000000	92.729833
758.000000	1724.000000	92.693467
759.000000	1723.000000	92.695433
760.000000	1722.000000	92.752533
761.000000	1721.000000	92.765033
762.000000	1720.000000	92.756133
763.000000	1719.000000	92.810600
764.000000	1718.000000	92.700067
765.000000	1717.000000	92.545433
766.000000	1716.000000	92.507900
767.000000	1715.000000	92.429233
768.000000	1714.000000	92.294233
769.000000	1713.000000	92.259000
770.000000	1712.000000	92.175200
771.000000	1711.000000	91.974833
772.000000	1710.000000	91.867200
773.000000	1709.000000	91.727033
774.000000	1708.000000	91.599600
775.000000	1707.000000	91.518067
776.000000	1706.000000	91.334933
777.000000	1705.000000	91.105433
778.000000	1704.000000	90.976967
779.000000	1703.000000	90.992500
780.000000	1702.000000	90.790767
781.000000	1701.000000	90.620533
782.000000	1700.000000	90.499300
783.000000	1699.000000	90.420433
784.000000	1698.000000	90.204867
785.000000	1697.000000	90.132567
786.000000	1696.000000	90.006900
787.000000	1695.000000	89.999433
788.000000	1694.000000	89.899933
789.000000	1693.000000	89.861767
790.000000	1692.000000	89.603033
791.000000	1691.000000	89.610633
792.000000	1690.000000	89.330967
793.000000	1689.000000	89.160833
794.000000	1688.000000	89.067333
795.000000	1687.000000	89.011967
796.000000	1686.000000	88.805200
797.000000	1685.000000	88.602367
798.000000	1684.000000	88.439400
799.000000	1683.000000	88.111700
800.000000	1682.000000	87.849900
801.000000	1681.000000	87.411067
802.000000	1680.000000	87.191467
803.000000	1679.000000	86.937333
804.000000	1678.000000	86.625500
805.000000	1677.000000	86.149400
806.000000	1676.000000	85.819267
807.000000	1675.000000	85.510733
808.000000	1674.000000	85.049467
809.000000	1673.000000	84.667600
810.000000	1672.000000	84.160667
811.000000	1671.000000	83.780933
812.000000	1670.000000	83.374233
813.000000	1669.000000	82.852800
814.000000	1668.000000	82.507167
815.000000	1667.000000	82.078033
816.000000	1666.000000	81.696600
817.000000	1665.000000	81.255200
818.000000	1664.000000	80.831700
819.000000	1663.000000	80.525700
820.000000	1662.000000	79.997467
821.000000	1661.000000	79.579900
822.000000	1660.000000	79.231567
823.000000	1659.000000	78.922433
824.000000	1658.000000	78.496733
825.000000	1657.000000	78.202900
826.000000	1656.000000	78.004800
827.000000	1655.000000	77.767200
828.000000	1654.000000	77.393633
829.000000	1653.000000	77.318400
830.000000	1652.000000	76.932033
831.000000	1651.000000	76.684933
832.000000	1650.000000	76.407800
833.000000	1649.000000	76.443033
834.000000	1648.000000	76.156833
835.000000	1647.000000	76.113667
836.000000	1646.000000	75.951500
837.000000	1645.000000	75.875367
838.000000	1644.000000	75.651100
