PE UV       SUBTECH     SPECTRUM    ASCII       PEDS        4.00        
   -1
CICIMAUCR0240-3.Sample.ASC
24/06/20
12:39:27.00
24/06/20
12:39:27.00
Vinicio Soto Monge
C. resplendens. Sex M. Dorsal.
250,000000
1
Lambda 1050
1050L1511233
PerkinElmer UV WinLab 6.3.2.0749 / 2.02.05 Lambda 900 UV/VIS/NIR, Aug  7 2015 09:38:08

0
0
3350/servo 860,8/2
0
0
UV/VIS
1
1
1
DoubleDePol,CommonBeamDepol,RBeamAtt,SBeamAtt,60mm sphere, WB InGaAs Detector
0
0
0
0
Program
Program
3350/servo 860,8/2
3350/0,2 860,8/0,2
3350/0,2 860,8/0,2
0
15.00
 
 
 
0
 
860,8
319,2
860,8
Front
100
on
S:100 R:100
0
0
0
0
 
0
 
 
 
0
 
 
0
0
0
0
0
 
 
 
 
0
0


0
0
#HDR
-1
-1
#GR
nm
%R
1.0
0.0
2500,000000
-1,000000
2251
8
89,336400
5,668900
#DATA
250.000000	2232.000000	6.160467
251.000000	2231.000000	6.148000
252.000000	2230.000000	6.158867
253.000000	2229.000000	6.141067
254.000000	2228.000000	6.129500
255.000000	2227.000000	6.108367
256.000000	2226.000000	6.114267
257.000000	2225.000000	6.089167
258.000000	2224.000000	6.090733
259.000000	2223.000000	6.070600
260.000000	2222.000000	6.065067
261.000000	2221.000000	6.044567
262.000000	2220.000000	6.009000
263.000000	2219.000000	5.998333
264.000000	2218.000000	5.983867
265.000000	2217.000000	5.929900
266.000000	2216.000000	5.895733
267.000000	2215.000000	5.875233
268.000000	2214.000000	5.872700
269.000000	2213.000000	5.864467
270.000000	2212.000000	5.828600
271.000000	2211.000000	5.808600
272.000000	2210.000000	5.791800
273.000000	2209.000000	5.796833
274.000000	2208.000000	5.804467
275.000000	2207.000000	5.774433
276.000000	2206.000000	5.739867
277.000000	2205.000000	5.737967
278.000000	2204.000000	5.734800
279.000000	2203.000000	5.742300
280.000000	2202.000000	5.735867
281.000000	2201.000000	5.720300
282.000000	2200.000000	5.709100
283.000000	2199.000000	5.693767
284.000000	2198.000000	5.695133
285.000000	2197.000000	5.686900
286.000000	2196.000000	5.663367
287.000000	2195.000000	5.661800
288.000000	2194.000000	5.665267
289.000000	2193.000000	5.660900
290.000000	2192.000000	5.661767
291.000000	2191.000000	5.666133
292.000000	2190.000000	5.638900
293.000000	2189.000000	5.668600
294.000000	2188.000000	5.678833
295.000000	2187.000000	5.669567
296.000000	2186.000000	5.671933
297.000000	2185.000000	5.651267
298.000000	2184.000000	5.641733
299.000000	2183.000000	5.648267
300.000000	2182.000000	5.667733
301.000000	2181.000000	5.655367
302.000000	2180.000000	5.649767
303.000000	2179.000000	5.631433
304.000000	2178.000000	5.646800
305.000000	2177.000000	5.653767
306.000000	2176.000000	5.630000
307.000000	2175.000000	5.631333
308.000000	2174.000000	5.652900
309.000000	2173.000000	5.623367
310.000000	2172.000000	5.626500
311.000000	2171.000000	5.638167
312.000000	2170.000000	5.633867
313.000000	2169.000000	5.629967
314.000000	2168.000000	5.647633
315.000000	2167.000000	5.647067
316.000000	2166.000000	6.075833
317.000000	2165.000000	6.556233
318.000000	2164.000000	6.280567
319.000000	2163.000000	6.111600
320.000000	2162.000000	6.238633
321.000000	2161.000000	6.303933
322.000000	2160.000000	6.119433
323.000000	2159.000000	6.041833
324.000000	2158.000000	6.086267
325.000000	2157.000000	5.923700
326.000000	2156.000000	5.984800
327.000000	2155.000000	6.035200
328.000000	2154.000000	5.843833
329.000000	2153.000000	5.751667
330.000000	2152.000000	5.821500
331.000000	2151.000000	5.766233
332.000000	2150.000000	5.891967
333.000000	2149.000000	6.000233
334.000000	2148.000000	5.898367
335.000000	2147.000000	5.958267
336.000000	2146.000000	6.001100
337.000000	2145.000000	5.840033
338.000000	2144.000000	5.904533
339.000000	2143.000000	6.027600
340.000000	2142.000000	6.002700
341.000000	2141.000000	5.943433
342.000000	2140.000000	5.955600
343.000000	2139.000000	6.046667
344.000000	2138.000000	6.034867
345.000000	2137.000000	6.034300
346.000000	2136.000000	6.100200
347.000000	2135.000000	6.059867
348.000000	2134.000000	6.073600
349.000000	2133.000000	6.147100
350.000000	2132.000000	6.071767
351.000000	2131.000000	5.994400
352.000000	2130.000000	5.979633
353.000000	2129.000000	6.095633
354.000000	2128.000000	6.143367
355.000000	2127.000000	6.086667
356.000000	2126.000000	6.218400
357.000000	2125.000000	6.305867
358.000000	2124.000000	6.211367
359.000000	2123.000000	6.252800
360.000000	2122.000000	6.330400
361.000000	2121.000000	6.302933
362.000000	2120.000000	6.268633
363.000000	2119.000000	6.327133
364.000000	2118.000000	6.373733
365.000000	2117.000000	6.397033
366.000000	2116.000000	6.386667
367.000000	2115.000000	6.363267
368.000000	2114.000000	6.405933
369.000000	2113.000000	6.485567
370.000000	2112.000000	6.477167
371.000000	2111.000000	6.403800
372.000000	2110.000000	6.423933
373.000000	2109.000000	6.419500
374.000000	2108.000000	6.353667
375.000000	2107.000000	6.525733
376.000000	2106.000000	6.666633
377.000000	2105.000000	6.703133
378.000000	2104.000000	6.736033
379.000000	2103.000000	6.767067
380.000000	2102.000000	6.809733
381.000000	2101.000000	6.843367
382.000000	2100.000000	6.881100
383.000000	2099.000000	6.921833
384.000000	2098.000000	6.966633
385.000000	2097.000000	7.018800
386.000000	2096.000000	7.058433
387.000000	2095.000000	7.109533
388.000000	2094.000000	7.160867
389.000000	2093.000000	7.236733
390.000000	2092.000000	7.303367
391.000000	2091.000000	7.360333
392.000000	2090.000000	7.442667
393.000000	2089.000000	7.516100
394.000000	2088.000000	7.587967
395.000000	2087.000000	7.682067
396.000000	2086.000000	7.788700
397.000000	2085.000000	7.894400
398.000000	2084.000000	8.002633
399.000000	2083.000000	8.119600
400.000000	2082.000000	8.244067
401.000000	2081.000000	8.386067
402.000000	2080.000000	8.546933
403.000000	2079.000000	8.710033
404.000000	2078.000000	8.876100
405.000000	2077.000000	9.064867
406.000000	2076.000000	9.267067
407.000000	2075.000000	9.470033
408.000000	2074.000000	9.701000
409.000000	2073.000000	9.940367
410.000000	2072.000000	10.204233
411.000000	2071.000000	10.484233
412.000000	2070.000000	10.779400
413.000000	2069.000000	11.105200
414.000000	2068.000000	11.460133
415.000000	2067.000000	11.803100
416.000000	2066.000000	12.182133
417.000000	2065.000000	12.572400
418.000000	2064.000000	12.993800
419.000000	2063.000000	13.419500
420.000000	2062.000000	13.875467
421.000000	2061.000000	14.317800
422.000000	2060.000000	14.809867
423.000000	2059.000000	15.308400
424.000000	2058.000000	15.801033
425.000000	2057.000000	16.328467
426.000000	2056.000000	16.851033
427.000000	2055.000000	17.364000
428.000000	2054.000000	17.879067
429.000000	2053.000000	18.406267
430.000000	2052.000000	18.928333
431.000000	2051.000000	19.456933
432.000000	2050.000000	19.968633
433.000000	2049.000000	20.482067
434.000000	2048.000000	21.001400
435.000000	2047.000000	21.492667
436.000000	2046.000000	21.953400
437.000000	2045.000000	22.438967
438.000000	2044.000000	22.896633
439.000000	2043.000000	23.339933
440.000000	2042.000000	23.761067
441.000000	2041.000000	24.180633
442.000000	2040.000000	24.550967
443.000000	2039.000000	24.941967
444.000000	2038.000000	25.301367
445.000000	2037.000000	25.661867
446.000000	2036.000000	25.973733
447.000000	2035.000000	26.273267
448.000000	2034.000000	26.594567
449.000000	2033.000000	26.859433
450.000000	2032.000000	27.130333
451.000000	2031.000000	27.388667
452.000000	2030.000000	27.627933
453.000000	2029.000000	27.859733
454.000000	2028.000000	28.091200
455.000000	2027.000000	28.273267
456.000000	2026.000000	28.494100
457.000000	2025.000000	28.649867
458.000000	2024.000000	28.813367
459.000000	2023.000000	28.976267
460.000000	2022.000000	29.121967
461.000000	2021.000000	29.250100
462.000000	2020.000000	29.361067
463.000000	2019.000000	29.489500
464.000000	2018.000000	29.592233
465.000000	2017.000000	29.690133
466.000000	2016.000000	29.784400
467.000000	2015.000000	29.853933
468.000000	2014.000000	29.932767
469.000000	2013.000000	29.977800
470.000000	2012.000000	30.038733
471.000000	2011.000000	30.080533
472.000000	2010.000000	30.138400
473.000000	2009.000000	30.164833
474.000000	2008.000000	30.195700
475.000000	2007.000000	30.227033
476.000000	2006.000000	30.252367
477.000000	2005.000000	30.269233
478.000000	2004.000000	30.274967
479.000000	2003.000000	30.289367
480.000000	2002.000000	30.298600
481.000000	2001.000000	30.303967
482.000000	2000.000000	30.317700
483.000000	1999.000000	30.319900
484.000000	1998.000000	30.318133
485.000000	1997.000000	30.339667
486.000000	1996.000000	30.348100
487.000000	1995.000000	30.385133
488.000000	1994.000000	30.425633
489.000000	1993.000000	30.469333
490.000000	1992.000000	30.546033
491.000000	1991.000000	30.646600
492.000000	1990.000000	30.749233
493.000000	1989.000000	30.880433
494.000000	1988.000000	31.064467
495.000000	1987.000000	31.269733
496.000000	1986.000000	31.511067
497.000000	1985.000000	31.820600
498.000000	1984.000000	32.172500
499.000000	1983.000000	32.533567
500.000000	1982.000000	32.954200
501.000000	1981.000000	33.430733
502.000000	1980.000000	33.940867
503.000000	1979.000000	34.484100
504.000000	1978.000000	35.050767
505.000000	1977.000000	35.626333
506.000000	1976.000000	36.201733
507.000000	1975.000000	36.794933
508.000000	1974.000000	37.374167
509.000000	1973.000000	37.964200
510.000000	1972.000000	38.522733
511.000000	1971.000000	39.106967
512.000000	1970.000000	39.674533
513.000000	1969.000000	40.252900
514.000000	1968.000000	40.822800
515.000000	1967.000000	41.392333
516.000000	1966.000000	41.954400
517.000000	1965.000000	42.524400
518.000000	1964.000000	43.113733
519.000000	1963.000000	43.720933
520.000000	1962.000000	44.331967
521.000000	1961.000000	44.998133
522.000000	1960.000000	45.693433
523.000000	1959.000000	46.442800
524.000000	1958.000000	47.229700
525.000000	1957.000000	48.047933
526.000000	1956.000000	48.910833
527.000000	1955.000000	49.803133
528.000000	1954.000000	50.737100
529.000000	1953.000000	51.749600
530.000000	1952.000000	52.828367
531.000000	1951.000000	53.921033
532.000000	1950.000000	55.064667
533.000000	1949.000000	56.237967
534.000000	1948.000000	57.460867
535.000000	1947.000000	58.710467
536.000000	1946.000000	59.960500
537.000000	1945.000000	61.240900
538.000000	1944.000000	62.536700
539.000000	1943.000000	63.826267
540.000000	1942.000000	65.126833
541.000000	1941.000000	66.447200
542.000000	1940.000000	67.772233
543.000000	1939.000000	69.061500
544.000000	1938.000000	70.312900
545.000000	1937.000000	71.520500
546.000000	1936.000000	72.691200
547.000000	1935.000000	73.774233
548.000000	1934.000000	74.828833
549.000000	1933.000000	75.779733
550.000000	1932.000000	76.690167
551.000000	1931.000000	77.555267
552.000000	1930.000000	78.372767
553.000000	1929.000000	79.117533
554.000000	1928.000000	79.789367
555.000000	1927.000000	80.419267
556.000000	1926.000000	81.004000
557.000000	1925.000000	81.540767
558.000000	1924.000000	82.037733
559.000000	1923.000000	82.503767
560.000000	1922.000000	82.967600
561.000000	1921.000000	83.397833
562.000000	1920.000000	83.774400
563.000000	1919.000000	84.162100
564.000000	1918.000000	84.483467
565.000000	1917.000000	84.793500
566.000000	1916.000000	85.112367
567.000000	1915.000000	85.414567
568.000000	1914.000000	85.679167
569.000000	1913.000000	85.978267
570.000000	1912.000000	86.257700
571.000000	1911.000000	86.518233
572.000000	1910.000000	86.771433
573.000000	1909.000000	87.058900
574.000000	1908.000000	87.306800
575.000000	1907.000000	87.544100
576.000000	1906.000000	87.794467
577.000000	1905.000000	88.059767
578.000000	1904.000000	88.278400
579.000000	1903.000000	88.498633
580.000000	1902.000000	88.696300
581.000000	1901.000000	88.897667
582.000000	1900.000000	89.047800
583.000000	1899.000000	89.182267
584.000000	1898.000000	89.317033
585.000000	1897.000000	89.417133
586.000000	1896.000000	89.512400
587.000000	1895.000000	89.566200
588.000000	1894.000000	89.578000
589.000000	1893.000000	89.580833
590.000000	1892.000000	89.588433
591.000000	1891.000000	89.584067
592.000000	1890.000000	89.531500
593.000000	1889.000000	89.430900
594.000000	1888.000000	89.337767
595.000000	1887.000000	89.228900
596.000000	1886.000000	89.120400
597.000000	1885.000000	89.016033
598.000000	1884.000000	88.880133
599.000000	1883.000000	88.731033
600.000000	1882.000000	88.580200
601.000000	1881.000000	88.460467
602.000000	1880.000000	88.295500
603.000000	1879.000000	88.139200
604.000000	1878.000000	87.991667
605.000000	1877.000000	87.828733
606.000000	1876.000000	87.674167
607.000000	1875.000000	87.499067
608.000000	1874.000000	87.305267
609.000000	1873.000000	87.093367
610.000000	1872.000000	86.867767
611.000000	1871.000000	86.605067
612.000000	1870.000000	86.328933
613.000000	1869.000000	86.003500
614.000000	1868.000000	85.653933
615.000000	1867.000000	85.295167
616.000000	1866.000000	84.885767
617.000000	1865.000000	84.439200
618.000000	1864.000000	83.966700
619.000000	1863.000000	83.460433
620.000000	1862.000000	82.923733
621.000000	1861.000000	82.373800
622.000000	1860.000000	81.815800
623.000000	1859.000000	81.208733
624.000000	1858.000000	80.554800
625.000000	1857.000000	79.927733
626.000000	1856.000000	79.326533
627.000000	1855.000000	78.692367
628.000000	1854.000000	78.026933
629.000000	1853.000000	77.381833
630.000000	1852.000000	76.708967
631.000000	1851.000000	76.029033
632.000000	1850.000000	75.343767
633.000000	1849.000000	74.638267
634.000000	1848.000000	73.908767
635.000000	1847.000000	73.172667
636.000000	1846.000000	72.403967
637.000000	1845.000000	71.603233
638.000000	1844.000000	70.808200
639.000000	1843.000000	69.979567
640.000000	1842.000000	69.113500
641.000000	1841.000000	68.216300
642.000000	1840.000000	67.315000
643.000000	1839.000000	66.409867
644.000000	1838.000000	65.481800
645.000000	1837.000000	64.578133
646.000000	1836.000000	63.712000
647.000000	1835.000000	62.848467
648.000000	1834.000000	62.047933
649.000000	1833.000000	61.330333
650.000000	1832.000000	60.670700
651.000000	1831.000000	60.076467
652.000000	1830.000000	59.585467
653.000000	1829.000000	59.185467
654.000000	1828.000000	58.881700
655.000000	1827.000000	58.679833
656.000000	1826.000000	58.606833
657.000000	1825.000000	58.654167
658.000000	1824.000000	58.778967
659.000000	1823.000000	58.981500
660.000000	1822.000000	59.287967
661.000000	1821.000000	59.652333
662.000000	1820.000000	60.070967
663.000000	1819.000000	60.592100
664.000000	1818.000000	61.181667
665.000000	1817.000000	61.810533
666.000000	1816.000000	62.460200
667.000000	1815.000000	63.151367
668.000000	1814.000000	63.858767
669.000000	1813.000000	64.608933
670.000000	1812.000000	65.392967
671.000000	1811.000000	66.189833
672.000000	1810.000000	66.977267
673.000000	1809.000000	67.780633
674.000000	1808.000000	68.561967
675.000000	1807.000000	69.334200
676.000000	1806.000000	70.121467
677.000000	1805.000000	70.867000
678.000000	1804.000000	71.590300
679.000000	1803.000000	72.288300
680.000000	1802.000000	72.931800
681.000000	1801.000000	73.568600
682.000000	1800.000000	74.138133
683.000000	1799.000000	74.640533
684.000000	1798.000000	75.135633
685.000000	1797.000000	75.533333
686.000000	1796.000000	75.877633
687.000000	1795.000000	76.206467
688.000000	1794.000000	76.455400
689.000000	1793.000000	76.677567
690.000000	1792.000000	76.911800
691.000000	1791.000000	77.093300
692.000000	1790.000000	77.244967
693.000000	1789.000000	77.345233
694.000000	1788.000000	77.473367
695.000000	1787.000000	77.572133
696.000000	1786.000000	77.660967
697.000000	1785.000000	77.763033
698.000000	1784.000000	77.822900
699.000000	1783.000000	77.853000
700.000000	1782.000000	77.932467
701.000000	1781.000000	78.025167
702.000000	1780.000000	78.048333
703.000000	1779.000000	78.049400
704.000000	1778.000000	78.142400
705.000000	1777.000000	78.106767
706.000000	1776.000000	78.111900
707.000000	1775.000000	78.146167
708.000000	1774.000000	78.116333
709.000000	1773.000000	78.095467
710.000000	1772.000000	78.086933
711.000000	1771.000000	78.062467
712.000000	1770.000000	78.051700
713.000000	1769.000000	78.043967
714.000000	1768.000000	78.099433
715.000000	1767.000000	78.121800
716.000000	1766.000000	78.163100
717.000000	1765.000000	78.185633
718.000000	1764.000000	78.232700
719.000000	1763.000000	78.316467
720.000000	1762.000000	78.440933
721.000000	1761.000000	78.613433
722.000000	1760.000000	78.720200
723.000000	1759.000000	78.835800
724.000000	1758.000000	78.962033
725.000000	1757.000000	79.197533
726.000000	1756.000000	79.390733
727.000000	1755.000000	79.524167
728.000000	1754.000000	79.708133
729.000000	1753.000000	79.915000
730.000000	1752.000000	80.128033
731.000000	1751.000000	80.382633
732.000000	1750.000000	80.586333
733.000000	1749.000000	80.845700
734.000000	1748.000000	81.054067
735.000000	1747.000000	81.380200
736.000000	1746.000000	81.707600
737.000000	1745.000000	81.976200
738.000000	1744.000000	82.311833
739.000000	1743.000000	82.679300
740.000000	1742.000000	83.014500
741.000000	1741.000000	83.372233
742.000000	1740.000000	83.748867
743.000000	1739.000000	84.110833
744.000000	1738.000000	84.469833
745.000000	1737.000000	84.819933
746.000000	1736.000000	85.134333
747.000000	1735.000000	85.378000
748.000000	1734.000000	85.546967
749.000000	1733.000000	85.856500
750.000000	1732.000000	86.071833
751.000000	1731.000000	86.260700
752.000000	1730.000000	86.401067
753.000000	1729.000000	86.520500
754.000000	1728.000000	86.691833
755.000000	1727.000000	86.788667
756.000000	1726.000000	86.895033
757.000000	1725.000000	86.938300
758.000000	1724.000000	87.035867
759.000000	1723.000000	87.202600
760.000000	1722.000000	87.169233
761.000000	1721.000000	87.277000
762.000000	1720.000000	87.395000
763.000000	1719.000000	87.435533
764.000000	1718.000000	87.443100
765.000000	1717.000000	87.448133
766.000000	1716.000000	87.526300
767.000000	1715.000000	87.490000
768.000000	1714.000000	87.567900
769.000000	1713.000000	87.598433
770.000000	1712.000000	87.561233
771.000000	1711.000000	87.585433
772.000000	1710.000000	87.540000
773.000000	1709.000000	87.577000
774.000000	1708.000000	87.643633
775.000000	1707.000000	87.656500
776.000000	1706.000000	87.575533
777.000000	1705.000000	87.551233
778.000000	1704.000000	87.625200
779.000000	1703.000000	87.614267
780.000000	1702.000000	87.696867
781.000000	1701.000000	87.730600
782.000000	1700.000000	87.782433
783.000000	1699.000000	87.738300
784.000000	1698.000000	87.683967
785.000000	1697.000000	87.817333
786.000000	1696.000000	87.740733
787.000000	1695.000000	87.769667
788.000000	1694.000000	87.707767
789.000000	1693.000000	87.633667
790.000000	1692.000000	87.663067
791.000000	1691.000000	87.506167
792.000000	1690.000000	87.416000
793.000000	1689.000000	87.349633
794.000000	1688.000000	87.293533
795.000000	1687.000000	87.160433
796.000000	1686.000000	87.007700
797.000000	1685.000000	86.993633
798.000000	1684.000000	86.742900
799.000000	1683.000000	86.832100
800.000000	1682.000000	86.593967
801.000000	1681.000000	86.376000
802.000000	1680.000000	86.260033
803.000000	1679.000000	86.192133
804.000000	1678.000000	86.058533
805.000000	1677.000000	86.034700
806.000000	1676.000000	85.866233
807.000000	1675.000000	85.618133
808.000000	1674.000000	85.682500
809.000000	1673.000000	85.457067
810.000000	1672.000000	85.376967
811.000000	1671.000000	85.350467
812.000000	1670.000000	85.204000
813.000000	1669.000000	85.059600
814.000000	1668.000000	85.112767
815.000000	1667.000000	85.087000
816.000000	1666.000000	84.882967
817.000000	1665.000000	84.852167
818.000000	1664.000000	84.793267
819.000000	1663.000000	84.886400
820.000000	1662.000000	84.876133
821.000000	1661.000000	84.748367
822.000000	1660.000000	84.730300
823.000000	1659.000000	84.776767
824.000000	1658.000000	84.659600
825.000000	1657.000000	84.560433
826.000000	1656.000000	84.387333
827.000000	1655.000000	84.495033
828.000000	1654.000000	84.259000
829.000000	1653.000000	84.195000
830.000000	1652.000000	84.046500
831.000000	1651.000000	83.772533
832.000000	1650.000000	83.688633
833.000000	1649.000000	83.544767
834.000000	1648.000000	83.287433
835.000000	1647.000000	83.147967
836.000000	1646.000000	83.015433
837.000000	1645.000000	82.763700
838.000000	1644.000000	82.448933
