PE UV       SUBTECH     SPECTRUM    ASCII       PEDS        4.00        
   -1
CICIMAUCR0205-3.Sample.ASC
24/05/31
16:47:51.00
24/05/31
16:47:51.00
Vinicio Soto Monge
C. cupreomarginata. Sex F. Dorsal
250,000000
1
Lambda 1050
1050L1511233
PerkinElmer UV WinLab 6.3.2.0749 / 2.02.05 Lambda 900 UV/VIS/NIR, Aug  7 2015 09:38:08

0
0
3350/servo 860,8/2
0
0
UV/VIS
1
1
1
DoubleDePol,CommonBeamDepol,RBeamAtt,SBeamAtt,60mm sphere, WB InGaAs Detector
0
0
0
0
Program
Program
3350/servo 860,8/2
3350/0,2 860,8/0,2
3350/0,2 860,8/0,2
0
15.00
 
 
 
0
 
860,8
319,2
860,8
Front
100
on
S:100 R:100
0
0
0
0
 
0
 
 
 
0
 
 
0
0
0
0
0
 
 
 
 
0
0


0
0
#HDR
-1
-1
#GR
nm
%R
1.0
0.0
2500,000000
-1,000000
2251
8
69,495500
5,503700
#DATA
250.000000	6.294133
251.000000	6.279167
252.000000	6.255567
253.000000	6.235067
254.000000	6.216733
255.000000	6.199933
256.000000	6.206933
257.000000	6.201000
258.000000	6.184367
259.000000	6.152433
260.000000	6.137700
261.000000	6.097767
262.000000	6.077000
263.000000	6.047567
264.000000	6.038633
265.000000	6.020700
266.000000	5.997667
267.000000	5.974433
268.000000	5.955767
269.000000	5.924333
270.000000	5.910333
271.000000	5.902333
272.000000	5.884300
273.000000	5.870733
274.000000	5.871567
275.000000	5.847100
276.000000	5.826933
277.000000	5.823433
278.000000	5.807933
279.000000	5.821533
280.000000	5.809900
281.000000	5.778500
282.000000	5.763833
283.000000	5.779200
284.000000	5.779700
285.000000	5.752100
286.000000	5.725033
287.000000	5.734767
288.000000	5.746567
289.000000	5.718567
290.000000	5.731733
291.000000	5.720633
292.000000	5.714433
293.000000	5.719567
294.000000	5.691200
295.000000	5.667633
296.000000	5.665467
297.000000	5.683533
298.000000	5.663633
299.000000	5.642933
300.000000	5.669067
301.000000	5.664967
302.000000	5.659133
303.000000	5.639967
304.000000	5.623067
305.000000	5.627333
306.000000	5.637100
307.000000	5.648100
308.000000	5.638100
309.000000	5.611167
310.000000	5.591000
311.000000	5.594467
312.000000	5.589067
313.000000	5.603967
314.000000	5.604967
315.000000	5.583600
316.000000	5.775300
317.000000	6.165467
318.000000	6.363867
319.000000	6.344467
320.000000	6.175633
321.000000	6.113100
322.000000	6.039300
323.000000	5.843867
324.000000	5.936633
325.000000	6.057267
326.000000	5.986633
327.000000	5.777133
328.000000	5.693100
329.000000	5.754700
330.000000	5.764967
331.000000	5.747467
332.000000	5.683900
333.000000	5.772433
334.000000	5.784900
335.000000	5.669600
336.000000	5.729300
337.000000	5.794167
338.000000	5.749167
339.000000	5.665667
340.000000	5.624867
341.000000	5.643867
342.000000	5.717067
343.000000	5.719267
344.000000	5.678933
345.000000	5.720333
346.000000	5.670000
347.000000	5.623567
348.000000	5.688733
349.000000	5.704433
350.000000	5.704233
351.000000	5.840233
352.000000	5.816900
353.000000	5.726733
354.000000	5.708767
355.000000	5.690567
356.000000	5.687767
357.000000	5.671000
358.000000	5.677967
359.000000	5.766600
360.000000	5.803833
361.000000	5.844567
362.000000	5.857133
363.000000	5.884167
364.000000	5.888033
365.000000	5.887500
366.000000	5.918900
367.000000	5.891533
368.000000	5.900300
369.000000	5.947167
370.000000	5.890033
371.000000	5.825067
372.000000	5.913000
373.000000	5.960767
374.000000	5.981000
375.000000	6.146367
376.000000	6.239000
377.000000	6.287000
378.000000	6.342267
379.000000	6.392833
380.000000	6.469100
381.000000	6.538133
382.000000	6.628667
383.000000	6.730100
384.000000	6.836533
385.000000	6.936067
386.000000	7.047000
387.000000	7.161800
388.000000	7.295833
389.000000	7.442833
390.000000	7.598000
391.000000	7.763167
392.000000	7.937533
393.000000	8.123133
394.000000	8.310400
395.000000	8.522200
396.000000	8.724100
397.000000	8.943467
398.000000	9.162900
399.000000	9.403733
400.000000	9.638667
401.000000	9.878000
402.000000	10.131833
403.000000	10.380800
404.000000	10.648000
405.000000	10.898300
406.000000	11.145100
407.000000	11.394433
408.000000	11.648400
409.000000	11.896267
410.000000	12.150800
411.000000	12.401667
412.000000	12.653667
413.000000	12.900933
414.000000	13.131400
415.000000	13.391133
416.000000	13.605167
417.000000	13.818733
418.000000	14.045433
419.000000	14.247433
420.000000	14.477967
421.000000	14.676100
422.000000	14.872600
423.000000	15.075233
424.000000	15.278633
425.000000	15.461267
426.000000	15.651567
427.000000	15.837133
428.000000	16.002167
429.000000	16.185433
430.000000	16.343167
431.000000	16.530633
432.000000	16.700767
433.000000	16.831733
434.000000	16.992033
435.000000	17.130033
436.000000	17.273233
437.000000	17.401367
438.000000	17.525300
439.000000	17.663700
440.000000	17.776233
441.000000	17.879667
442.000000	17.980867
443.000000	18.041600
444.000000	18.109767
445.000000	18.171667
446.000000	18.237200
447.000000	18.280933
448.000000	18.313167
449.000000	18.340467
450.000000	18.385100
451.000000	18.413100
452.000000	18.464333
453.000000	18.487733
454.000000	18.514067
455.000000	18.566467
456.000000	18.623533
457.000000	18.681933
458.000000	18.755800
459.000000	18.849000
460.000000	18.985333
461.000000	19.102467
462.000000	19.252667
463.000000	19.438800
464.000000	19.620067
465.000000	19.829133
466.000000	20.067267
467.000000	20.326533
468.000000	20.593600
469.000000	20.873600
470.000000	21.183933
471.000000	21.503133
472.000000	21.833733
473.000000	22.164967
474.000000	22.507033
475.000000	22.840767
476.000000	23.190733
477.000000	23.517133
478.000000	23.828200
479.000000	24.156567
480.000000	24.483067
481.000000	24.778567
482.000000	25.086200
483.000000	25.389367
484.000000	25.678933
485.000000	25.951167
486.000000	26.214400
487.000000	26.480600
488.000000	26.767100
489.000000	27.030633
490.000000	27.318833
491.000000	27.592700
492.000000	27.849833
493.000000	28.138900
494.000000	28.423033
495.000000	28.733133
496.000000	29.049233
497.000000	29.352533
498.000000	29.665967
499.000000	29.956533
500.000000	30.269200
501.000000	30.637400
502.000000	30.975000
503.000000	31.376867
504.000000	31.739200
505.000000	32.101000
506.000000	32.479833
507.000000	32.870200
508.000000	33.253367
509.000000	33.629767
510.000000	34.048333
511.000000	34.481800
512.000000	34.885500
513.000000	35.298700
514.000000	35.719300
515.000000	36.117967
516.000000	36.532867
517.000000	36.939600
518.000000	37.358833
519.000000	37.774167
520.000000	38.199033
521.000000	38.643967
522.000000	39.060600
523.000000	39.505400
524.000000	39.929133
525.000000	40.406800
526.000000	40.859033
527.000000	41.345733
528.000000	41.852767
529.000000	42.365133
530.000000	42.891267
531.000000	43.472500
532.000000	44.059067
533.000000	44.654767
534.000000	45.282400
535.000000	45.930933
536.000000	46.574667
537.000000	47.249633
538.000000	47.922400
539.000000	48.656033
540.000000	49.374767
541.000000	50.132300
542.000000	50.889433
543.000000	51.649200
544.000000	52.410067
545.000000	53.157600
546.000000	53.884533
547.000000	54.593567
548.000000	55.318800
549.000000	56.017967
550.000000	56.718900
551.000000	57.406333
552.000000	58.105533
553.000000	58.771933
554.000000	59.404267
555.000000	60.055067
556.000000	60.667467
557.000000	61.235167
558.000000	61.783767
559.000000	62.328933
560.000000	62.898867
561.000000	63.358300
562.000000	63.795000
563.000000	64.204433
564.000000	64.558967
565.000000	64.915633
566.000000	65.220333
567.000000	65.515900
568.000000	65.788833
569.000000	66.026433
570.000000	66.239233
571.000000	66.425200
572.000000	66.569300
573.000000	66.734000
574.000000	66.849000
575.000000	66.956033
576.000000	67.025267
577.000000	67.102267
578.000000	67.181267
579.000000	67.242100
580.000000	67.285300
581.000000	67.307233
582.000000	67.332033
583.000000	67.356400
584.000000	67.389900
585.000000	67.372300
586.000000	67.380233
587.000000	67.334567
588.000000	67.308500
589.000000	67.250900
590.000000	67.165367
591.000000	67.086667
592.000000	66.978500
593.000000	66.884667
594.000000	66.772300
595.000000	66.672033
596.000000	66.561800
597.000000	66.457167
598.000000	66.360133
599.000000	66.306533
600.000000	66.275533
601.000000	66.207467
602.000000	66.160267
603.000000	66.124600
604.000000	66.061000
605.000000	65.950333
606.000000	65.840600
607.000000	65.724767
608.000000	65.577700
609.000000	65.377400
610.000000	65.180867
611.000000	64.981000
612.000000	64.732867
613.000000	64.497833
614.000000	64.254267
615.000000	63.974100
616.000000	63.717467
617.000000	63.477667
618.000000	63.212700
619.000000	62.965367
620.000000	62.693367
621.000000	62.437933
622.000000	62.194600
623.000000	61.942467
624.000000	61.668167
625.000000	61.391767
626.000000	61.089233
627.000000	60.734467
628.000000	60.376667
629.000000	59.983533
630.000000	59.539600
631.000000	59.060300
632.000000	58.573233
633.000000	58.065833
634.000000	57.568900
635.000000	57.097600
636.000000	56.594967
637.000000	56.122867
638.000000	55.686733
639.000000	55.272100
640.000000	54.880267
641.000000	54.516767
642.000000	54.175900
643.000000	53.849567
644.000000	53.552533
645.000000	53.277500
646.000000	53.006000
647.000000	52.773900
648.000000	52.556533
649.000000	52.324567
650.000000	52.118267
651.000000	51.940767
652.000000	51.790733
653.000000	51.672467
654.000000	51.561767
655.000000	51.494900
656.000000	51.490233
657.000000	51.503233
658.000000	51.565167
659.000000	51.688467
660.000000	51.857800
661.000000	52.081700
662.000000	52.336833
663.000000	52.604600
664.000000	52.912633
665.000000	53.197000
666.000000	53.460167
667.000000	53.739800
668.000000	54.009933
669.000000	54.258367
670.000000	54.473133
671.000000	54.665667
672.000000	54.840067
673.000000	54.968433
674.000000	55.106533
675.000000	55.207300
676.000000	55.290833
677.000000	55.371633
678.000000	55.447533
679.000000	55.514233
680.000000	55.595567
681.000000	55.660333
682.000000	55.717600
683.000000	55.777600
684.000000	55.823500
685.000000	55.863733
686.000000	55.904633
687.000000	55.925567
688.000000	55.897600
689.000000	55.878467
690.000000	55.860900
691.000000	55.795400
692.000000	55.767100
693.000000	55.710600
694.000000	55.636433
695.000000	55.574233
696.000000	55.506833
697.000000	55.437767
698.000000	55.384300
699.000000	55.339200
700.000000	55.319167
701.000000	55.290300
702.000000	55.281700
703.000000	55.285767
704.000000	55.283067
705.000000	55.340667
706.000000	55.415000
707.000000	55.452200
708.000000	55.519133
709.000000	55.628000
710.000000	55.703833
711.000000	55.749267
712.000000	55.821733
713.000000	55.945533
714.000000	56.056800
715.000000	56.124867
716.000000	56.264167
717.000000	56.347233
718.000000	56.488633
719.000000	56.604567
720.000000	56.722033
721.000000	56.853633
722.000000	56.952633
723.000000	57.103567
724.000000	57.232667
725.000000	57.395000
726.000000	57.519633
727.000000	57.666600
728.000000	57.790567
729.000000	57.925700
730.000000	58.078367
731.000000	58.225633
732.000000	58.339400
733.000000	58.448967
734.000000	58.553300
735.000000	58.707000
736.000000	58.814633
737.000000	58.893267
738.000000	59.037233
739.000000	59.172233
740.000000	59.260100
741.000000	59.400167
742.000000	59.501600
743.000000	59.694167
744.000000	59.813900
745.000000	59.975900
746.000000	60.154767
747.000000	60.256900
748.000000	60.467967
749.000000	60.616133
750.000000	60.720833
751.000000	60.856500
752.000000	60.997567
753.000000	61.157267
754.000000	61.228600
755.000000	61.400167
756.000000	61.541233
757.000000	61.601233
758.000000	61.646600
759.000000	61.835533
760.000000	61.993133
761.000000	62.178500
762.000000	62.269533
763.000000	62.342133
764.000000	62.485200
765.000000	62.652300
766.000000	62.863833
767.000000	63.070633
768.000000	63.108733
769.000000	63.261733
770.000000	63.349100
771.000000	63.512533
772.000000	63.650600
773.000000	63.701867
774.000000	63.862700
775.000000	63.869400
776.000000	64.035733
777.000000	64.129000
778.000000	64.216300
779.000000	64.318967
780.000000	64.513033
781.000000	64.526667
782.000000	64.566200
783.000000	64.752667
784.000000	64.902000
785.000000	64.930600
786.000000	65.118133
787.000000	65.220667
788.000000	65.259767
789.000000	65.333400
790.000000	65.515433
791.000000	65.540667
792.000000	65.701467
793.000000	65.819633
794.000000	65.742600
795.000000	65.943533
796.000000	66.035967
797.000000	66.120467
798.000000	66.259733
799.000000	66.334600
800.000000	66.399867
801.000000	66.680867
802.000000	66.659567
803.000000	66.712967
804.000000	66.793700
805.000000	66.960133
806.000000	66.893633
807.000000	67.160900
808.000000	67.189767
809.000000	67.355467
810.000000	67.178100
811.000000	67.360400
812.000000	67.389833
813.000000	67.445900
814.000000	67.590000
815.000000	67.619867
816.000000	67.645833
817.000000	67.611700
818.000000	67.562533
819.000000	67.701300
820.000000	67.637533
821.000000	67.685133
822.000000	67.709400
823.000000	67.695367
824.000000	67.676600
825.000000	67.665233
826.000000	67.747600
827.000000	67.758867
828.000000	67.534067
829.000000	67.763533
830.000000	67.707400
831.000000	67.538933
832.000000	67.398733
833.000000	67.479967
834.000000	67.546367
835.000000	67.374067
836.000000	67.247400
837.000000	67.407800
838.000000	67.279000
839.000000	67.113733
840.000000	67.189633
841.000000	66.973300
842.000000	66.988433
843.000000	66.912533
844.000000	66.820567
845.000000	66.897967
846.000000	66.671967
847.000000	66.653167
848.000000	66.551167
849.000000	66.415367
850.000000	66.521800
851.000000	66.436400
852.000000	66.297300
853.000000	65.943267
854.000000	65.968100
855.000000	66.009400
856.000000	66.089900
857.000000	65.729800
858.000000	65.943033
859.000000	65.809962
860.000000	65.688788
861.000000	65.553572
862.000000	65.419127
863.000000	65.290771
864.000000	65.157368
865.000000	65.010144
866.000000	64.869745
867.000000	64.725917
868.000000	64.581042
869.000000	64.439133
870.000000	64.329402
871.000000	64.270458
872.000000	64.284856
873.000000	64.334866
874.000000	64.359122
875.000000	64.357318
876.000000	64.361178
877.000000	64.347370
878.000000	64.301436
879.000000	64.224102
880.000000	64.162298
881.000000	64.085409
882.000000	64.004288
883.000000	63.928483
884.000000	63.852235
885.000000	63.775995
886.000000	63.697726
887.000000	63.624627
888.000000	63.548100
889.000000	63.466853
890.000000	63.406544
891.000000	63.340556
892.000000	63.270751
893.000000	63.203322
894.000000	63.137996
895.000000	63.070563
896.000000	63.011959
897.000000	62.946998
898.000000	62.874930
899.000000	62.813044
900.000000	62.749173
901.000000	62.685570
902.000000	62.623146
903.000000	62.562523
904.000000	62.497552
905.000000	62.442595
906.000000	62.397650
907.000000	62.354237
908.000000	62.305527
909.000000	62.263882
910.000000	62.227887
911.000000	62.198738
912.000000	62.168981
913.000000	62.133605
914.000000	62.108921
915.000000	62.081271
916.000000	62.049915
917.000000	62.013612
918.000000	61.970333
919.000000	61.923807
920.000000	61.886581
921.000000	61.840955
922.000000	61.792337
923.000000	61.741261
924.000000	61.691110
925.000000	61.649605
926.000000	61.606977
927.000000	61.575354
928.000000	61.545583
929.000000	61.514528
930.000000	61.487163
931.000000	61.458925
932.000000	61.430705
933.000000	61.406953
934.000000	61.390648
935.000000	61.385069
936.000000	61.362756
937.000000	61.343783
938.000000	61.334895
939.000000	61.335732
940.000000	61.332312
941.000000	61.324888
942.000000	61.322540
943.000000	61.328304
944.000000	61.329573
945.000000	61.313464
946.000000	61.303873
947.000000	61.301261
948.000000	61.298156
949.000000	61.289861
950.000000	61.275517
951.000000	61.263027
952.000000	61.246938
953.000000	61.227424
954.000000	61.210217
955.000000	61.180761
956.000000	61.154187
957.000000	61.115886
958.000000	61.080797
959.000000	61.047294
960.000000	60.999751
961.000000	60.961638
962.000000	60.915307
963.000000	60.865267
964.000000	60.825588
965.000000	60.781908
966.000000	60.752086
967.000000	60.709254
968.000000	60.670253
969.000000	60.636694
970.000000	60.595828
971.000000	60.554624
972.000000	60.515120
973.000000	60.490414
974.000000	60.466710
975.000000	60.435535
976.000000	60.392287
977.000000	60.354225
978.000000	60.332922
979.000000	60.311636
980.000000	60.274491
981.000000	60.241667
982.000000	60.222792
983.000000	60.208477
984.000000	60.180413
985.000000	60.157755
986.000000	60.153405
987.000000	60.147520
988.000000	60.137163
989.000000	60.130921
990.000000	60.135604
991.000000	60.145624
992.000000	60.151160
993.000000	60.157519
994.000000	60.171281
995.000000	60.184168
996.000000	60.206988
997.000000	60.211506
998.000000	60.236900
999.000000	60.259993
1000.000000	60.292528
1001.000000	60.314940
1002.000000	60.325862
1003.000000	60.347533
1004.000000	60.374467
1005.000000	60.405783
1006.000000	60.432034
1007.000000	60.443433
1008.000000	60.473914
1009.000000	60.500877
1010.000000	60.535573
1011.000000	60.579986
1012.000000	60.610508
1013.000000	60.657143
1014.000000	60.705481
1015.000000	60.765073
1016.000000	60.830476
1017.000000	60.900109
1018.000000	60.969507
1019.000000	61.045712
1020.000000	61.104878
1021.000000	61.187289
1022.000000	61.256240
1023.000000	61.321467
1024.000000	61.404568
1025.000000	61.477148
1026.000000	61.542382
1027.000000	61.613437
1028.000000	61.681109
1029.000000	61.734095
1030.000000	61.798118
1031.000000	61.862178
1032.000000	61.914541
1033.000000	61.962619
1034.000000	62.030057
1035.000000	62.084569
1036.000000	62.121544
1037.000000	62.165332
1038.000000	62.217162
1039.000000	62.256845
1040.000000	62.296910
1041.000000	62.323512
1042.000000	62.363944
1043.000000	62.404000
1044.000000	62.445907
1045.000000	62.472921
1046.000000	62.515800
1047.000000	62.559875
1048.000000	62.614622
1049.000000	62.630418
1050.000000	62.682191
1051.000000	62.726913
1052.000000	62.763184
1053.000000	62.818794
1054.000000	62.867434
1055.000000	62.910551
1056.000000	62.969613
1057.000000	63.013566
1058.000000	63.068417
1059.000000	63.117781
1060.000000	63.148296
1061.000000	63.197145
1062.000000	63.251384
1063.000000	63.293863
1064.000000	63.342883
1065.000000	63.377236
1066.000000	63.419571
1067.000000	63.459288
1068.000000	63.501153
1069.000000	63.539489
1070.000000	63.581225
1071.000000	63.620978
1072.000000	63.664789
1073.000000	63.704817
1074.000000	63.742156
1075.000000	63.783262
1076.000000	63.828402
1077.000000	63.865457
1078.000000	63.909042
1079.000000	63.934689
1080.000000	63.998867
1081.000000	64.032287
1082.000000	64.084195
1083.000000	64.113812
1084.000000	64.172304
1085.000000	64.203875
1086.000000	64.244163
1087.000000	64.286375
1088.000000	64.325122
1089.000000	64.366465
1090.000000	64.399863
1091.000000	64.439364
1092.000000	64.468873
1093.000000	64.495443
1094.000000	64.525684
1095.000000	64.551111
1096.000000	64.583193
1097.000000	64.601693
1098.000000	64.612560
1099.000000	64.626980
1100.000000	64.651235
1101.000000	64.663512
1102.000000	64.658767
1103.000000	64.678203
1104.000000	64.689260
1105.000000	64.695023
1106.000000	64.696796
1107.000000	64.707331
1108.000000	64.697541
1109.000000	64.714518
1110.000000	64.719399
1111.000000	64.718495
1112.000000	64.713267
1113.000000	64.713932
1114.000000	64.724706
1115.000000	64.709795
1116.000000	64.698821
1117.000000	64.688538
1118.000000	64.662599
1119.000000	64.617392
1120.000000	64.583152
1121.000000	64.521206
1122.000000	64.438204
1123.000000	64.368827
1124.000000	64.258527
1125.000000	64.149915
1126.000000	64.005491
1127.000000	63.857581
1128.000000	63.657946
1129.000000	63.417872
1130.000000	63.144339
1131.000000	62.817443
1132.000000	62.493831
1133.000000	62.147745
1134.000000	61.769626
1135.000000	61.356515
1136.000000	60.926784
1137.000000	60.524129
1138.000000	60.129264
1139.000000	59.764235
1140.000000	59.405895
1141.000000	59.048648
1142.000000	58.717540
1143.000000	58.414560
1144.000000	58.134589
1145.000000	57.928208
1146.000000	57.758499
1147.000000	57.633114
1148.000000	57.540996
1149.000000	57.458963
1150.000000	57.380579
1151.000000	57.289034
1152.000000	57.179957
1153.000000	57.037689
1154.000000	56.846721
1155.000000	56.620333
1156.000000	56.357213
1157.000000	56.063395
1158.000000	55.754330
1159.000000	55.424122
1160.000000	55.088408
1161.000000	54.752701
1162.000000	54.408428
1163.000000	54.069093
1164.000000	53.721842
1165.000000	53.386380
1166.000000	53.079092
