PE UV       SUBTECH     SPECTRUM    ASCII       PEDS        4.00        
   -1
CICIMAUCR0261-3.Sample.ASC
24/07/01
14:00:31.00
24/07/01
14:00:31.00
Vinicio Soto Monge
C. resplendens. Sex M. Dorsal.
250,000000
1
Lambda 1050
1050L1511233
PerkinElmer UV WinLab 6.3.2.0749 / 2.02.05 Lambda 900 UV/VIS/NIR, Aug  7 2015 09:38:08

0
0
3350/servo 860,8/2
0
0
UV/VIS
1
1
1
DoubleDePol,CommonBeamDepol,RBeamAtt,SBeamAtt,60mm sphere, WB InGaAs Detector
0
0
0
0
Program
Program
3350/servo 860,8/2
3350/0,2 860,8/0,2
3350/0,2 860,8/0,2
0
15.00
 
 
 
0
 
860,8
319,2
860,8
Front
100
on
S:100 R:100
0
0
0
0
 
0
 
 
 
0
 
 
0
0
0
0
0
 
 
 
 
0
0


0
0
#HDR
-1
-1
#GR
nm
%R
1.0
0.0
2500,000000
-1,000000
2251
8
92,022100
5,605900
#DATA
250.000000	6.464067
251.000000	6.454333
252.000000	6.416667
253.000000	6.403333
254.000000	6.418400
255.000000	6.393733
256.000000	6.367167
257.000000	6.358000
258.000000	6.333233
259.000000	6.315000
260.000000	6.304867
261.000000	6.289700
262.000000	6.253533
263.000000	6.231267
264.000000	6.191867
265.000000	6.173367
266.000000	6.147200
267.000000	6.116800
268.000000	6.110267
269.000000	6.088333
270.000000	6.060700
271.000000	6.034300
272.000000	6.030133
273.000000	6.017900
274.000000	6.002433
275.000000	5.987200
276.000000	5.976933
277.000000	5.960700
278.000000	5.947600
279.000000	5.932833
280.000000	5.912167
281.000000	5.901633
282.000000	5.896733
283.000000	5.890100
284.000000	5.886433
285.000000	5.866067
286.000000	5.858767
287.000000	5.855833
288.000000	5.852767
289.000000	5.823100
290.000000	5.793367
291.000000	5.765367
292.000000	5.778867
293.000000	5.770933
294.000000	5.783700
295.000000	5.765733
296.000000	5.769067
297.000000	5.748933
298.000000	5.747667
299.000000	5.761267
300.000000	5.744000
301.000000	5.753133
302.000000	5.747000
303.000000	5.732000
304.000000	5.732567
305.000000	5.725767
306.000000	5.706833
307.000000	5.724033
308.000000	5.721900
309.000000	5.696400
310.000000	5.687300
311.000000	5.684533
312.000000	5.693067
313.000000	5.691500
314.000000	5.685400
315.000000	5.693867
316.000000	5.992267
317.000000	6.167100
318.000000	5.846000
319.000000	5.848067
320.000000	5.869333
321.000000	5.838833
322.000000	5.849567
323.000000	5.798300
324.000000	5.858667
325.000000	5.770100
326.000000	5.655300
327.000000	5.689767
328.000000	5.735933
329.000000	5.754700
330.000000	5.765200
331.000000	5.774400
332.000000	5.755067
333.000000	5.779100
334.000000	5.755233
335.000000	5.786400
336.000000	5.932400
337.000000	5.890500
338.000000	5.834533
339.000000	5.907033
340.000000	5.898967
341.000000	5.915300
342.000000	5.962467
343.000000	5.964167
344.000000	5.950667
345.000000	5.937467
346.000000	5.982267
347.000000	6.009000
348.000000	6.029767
349.000000	6.021567
350.000000	6.050800
351.000000	6.039333
352.000000	6.047433
353.000000	6.083700
354.000000	6.152733
355.000000	6.261233
356.000000	6.281700
357.000000	6.270600
358.000000	6.286467
359.000000	6.338700
360.000000	6.337300
361.000000	6.354767
362.000000	6.411733
363.000000	6.450900
364.000000	6.422800
365.000000	6.408500
366.000000	6.495600
367.000000	6.527033
368.000000	6.506967
369.000000	6.526800
370.000000	6.480700
371.000000	6.513800
372.000000	6.554700
373.000000	6.524367
374.000000	6.604000
375.000000	6.713633
376.000000	6.760667
377.000000	6.794500
378.000000	6.835133
379.000000	6.877133
380.000000	6.916200
381.000000	6.944133
382.000000	6.967467
383.000000	7.009167
384.000000	7.052433
385.000000	7.109667
386.000000	7.168633
387.000000	7.209667
388.000000	7.262500
389.000000	7.312933
390.000000	7.368633
391.000000	7.416667
392.000000	7.480367
393.000000	7.548233
394.000000	7.633567
395.000000	7.706133
396.000000	7.786733
397.000000	7.878433
398.000000	7.979433
399.000000	8.087267
400.000000	8.191233
401.000000	8.319033
402.000000	8.455033
403.000000	8.586700
404.000000	8.753533
405.000000	8.916533
406.000000	9.099833
407.000000	9.286200
408.000000	9.509033
409.000000	9.738900
410.000000	9.990367
411.000000	10.248700
412.000000	10.543733
413.000000	10.861167
414.000000	11.196067
415.000000	11.545933
416.000000	11.899133
417.000000	12.305533
418.000000	12.738267
419.000000	13.156500
420.000000	13.615467
421.000000	14.077900
422.000000	14.558933
423.000000	15.064767
424.000000	15.593600
425.000000	16.099867
426.000000	16.632200
427.000000	17.141800
428.000000	17.669200
429.000000	18.208967
430.000000	18.737867
431.000000	19.266667
432.000000	19.790067
433.000000	20.289033
434.000000	20.791933
435.000000	21.284033
436.000000	21.786933
437.000000	22.213700
438.000000	22.659500
439.000000	23.095233
440.000000	23.483267
441.000000	23.889133
442.000000	24.242900
443.000000	24.609900
444.000000	24.952633
445.000000	25.265100
446.000000	25.567633
447.000000	25.878733
448.000000	26.153300
449.000000	26.405767
450.000000	26.646967
451.000000	26.865467
452.000000	27.086467
453.000000	27.261967
454.000000	27.459467
455.000000	27.661667
456.000000	27.793933
457.000000	27.973333
458.000000	28.130200
459.000000	28.272067
460.000000	28.420867
461.000000	28.550733
462.000000	28.651233
463.000000	28.771000
464.000000	28.896033
465.000000	28.969133
466.000000	29.082667
467.000000	29.175367
468.000000	29.270233
469.000000	29.354433
470.000000	29.409067
471.000000	29.509200
472.000000	29.572500
473.000000	29.608400
474.000000	29.671967
475.000000	29.709367
476.000000	29.758900
477.000000	29.786300
478.000000	29.828033
479.000000	29.849433
480.000000	29.857867
481.000000	29.862567
482.000000	29.860467
483.000000	29.848967
484.000000	29.781233
485.000000	29.711333
486.000000	29.649900
487.000000	29.600200
488.000000	29.539567
489.000000	29.541367
490.000000	29.540733
491.000000	29.614367
492.000000	29.698067
493.000000	29.844800
494.000000	30.025467
495.000000	30.250633
496.000000	30.532767
497.000000	30.872467
498.000000	31.206633
499.000000	31.605067
500.000000	32.070367
501.000000	32.538233
502.000000	33.051533
503.000000	33.582333
504.000000	34.148167
505.000000	34.740033
506.000000	35.329600
507.000000	35.929267
508.000000	36.532567
509.000000	37.156800
510.000000	37.809000
511.000000	38.487433
512.000000	39.181000
513.000000	39.897767
514.000000	40.670133
515.000000	41.462033
516.000000	42.274900
517.000000	43.184667
518.000000	44.115533
519.000000	45.088300
520.000000	46.099367
521.000000	47.174733
522.000000	48.313333
523.000000	49.465133
524.000000	50.672433
525.000000	51.897633
526.000000	53.138367
527.000000	54.423600
528.000000	55.714800
529.000000	57.032700
530.000000	58.385900
531.000000	59.760367
532.000000	61.130900
533.000000	62.478933
534.000000	63.850000
535.000000	65.188533
536.000000	66.503233
537.000000	67.789600
538.000000	69.026600
539.000000	70.241867
540.000000	71.396400
541.000000	72.530933
542.000000	73.602000
543.000000	74.631300
544.000000	75.567800
545.000000	76.505200
546.000000	77.365933
547.000000	78.192900
548.000000	78.959000
549.000000	79.676367
550.000000	80.380267
551.000000	81.026567
552.000000	81.634200
553.000000	82.203433
554.000000	82.727433
555.000000	83.256167
556.000000	83.723567
557.000000	84.195533
558.000000	84.645267
559.000000	85.091167
560.000000	85.543700
561.000000	85.923033
562.000000	86.264533
563.000000	86.620133
564.000000	86.926900
565.000000	87.210633
566.000000	87.478800
567.000000	87.702433
568.000000	87.952733
569.000000	88.181167
570.000000	88.379167
571.000000	88.565667
572.000000	88.757567
573.000000	88.938333
574.000000	89.111300
575.000000	89.275800
576.000000	89.403433
577.000000	89.573000
578.000000	89.707533
579.000000	89.826933
580.000000	89.951967
581.000000	90.051833
582.000000	90.142667
583.000000	90.198400
584.000000	90.256067
585.000000	90.294233
586.000000	90.317800
587.000000	90.331767
588.000000	90.339767
589.000000	90.284600
590.000000	90.262100
591.000000	90.211667
592.000000	90.164300
593.000000	90.073033
594.000000	89.958267
595.000000	89.862833
596.000000	89.750533
597.000000	89.629600
598.000000	89.471200
599.000000	89.274500
600.000000	89.121200
601.000000	88.931433
602.000000	88.742367
603.000000	88.517267
604.000000	88.254000
605.000000	88.000067
606.000000	87.687867
607.000000	87.372500
608.000000	87.012233
609.000000	86.603667
610.000000	86.190133
611.000000	85.760067
612.000000	85.251800
613.000000	84.719067
614.000000	84.154233
615.000000	83.566033
616.000000	82.943000
617.000000	82.302167
618.000000	81.657367
619.000000	80.946533
620.000000	80.207400
621.000000	79.456467
622.000000	78.679167
623.000000	77.881600
624.000000	77.068000
625.000000	76.208900
626.000000	75.339133
627.000000	74.442800
628.000000	73.511000
629.000000	72.548333
630.000000	71.573267
631.000000	70.593033
632.000000	69.597533
633.000000	68.567200
634.000000	67.557000
635.000000	66.572867
636.000000	65.636500
637.000000	64.722933
638.000000	63.802267
639.000000	62.924733
640.000000	62.086767
641.000000	61.287200
642.000000	60.521167
643.000000	59.803933
644.000000	59.105733
645.000000	58.435667
646.000000	57.823867
647.000000	57.283300
648.000000	56.823700
649.000000	56.419967
650.000000	56.111533
651.000000	55.903133
652.000000	55.775100
653.000000	55.751433
654.000000	55.870033
655.000000	56.065700
656.000000	56.319467
657.000000	56.688533
658.000000	57.114933
659.000000	57.560533
660.000000	58.055600
661.000000	58.586900
662.000000	59.157133
663.000000	59.747533
664.000000	60.324400
665.000000	60.914533
666.000000	61.510800
667.000000	62.112533
668.000000	62.721067
669.000000	63.333200
670.000000	63.968400
671.000000	64.624233
672.000000	65.249533
673.000000	65.823133
674.000000	66.396567
675.000000	66.991500
676.000000	67.531167
677.000000	68.091000
678.000000	68.615300
679.000000	69.097367
680.000000	69.564500
681.000000	70.031333
682.000000	70.437833
683.000000	70.812767
684.000000	71.158000
685.000000	71.459933
686.000000	71.731733
687.000000	71.980067
688.000000	72.242300
689.000000	72.445333
690.000000	72.656333
691.000000	72.825467
692.000000	72.987133
693.000000	73.143433
694.000000	73.250867
695.000000	73.342833
696.000000	73.397967
697.000000	73.492967
698.000000	73.527867
699.000000	73.553800
700.000000	73.526233
701.000000	73.492233
702.000000	73.445133
703.000000	73.450733
704.000000	73.452167
705.000000	73.411633
706.000000	73.409900
707.000000	73.428800
708.000000	73.445167
709.000000	73.517800
710.000000	73.527133
711.000000	73.628000
712.000000	73.743433
713.000000	73.871300
714.000000	74.015267
715.000000	74.147633
716.000000	74.332667
717.000000	74.535667
718.000000	74.735667
719.000000	74.963233
720.000000	75.188000
721.000000	75.417800
722.000000	75.630467
723.000000	75.836000
724.000000	76.138567
725.000000	76.437267
726.000000	76.709867
727.000000	77.029867
728.000000	77.354500
729.000000	77.678200
730.000000	78.028800
731.000000	78.340167
732.000000	78.727567
733.000000	79.161100
734.000000	79.478767
735.000000	79.872600
736.000000	80.223333
737.000000	80.655600
738.000000	81.051900
739.000000	81.393533
740.000000	81.757333
741.000000	82.167700
742.000000	82.570600
743.000000	82.891900
744.000000	83.219367
745.000000	83.467967
746.000000	83.772433
747.000000	84.043400
748.000000	84.286567
749.000000	84.479667
750.000000	84.627467
751.000000	84.874267
752.000000	84.933433
753.000000	85.066233
754.000000	85.108700
755.000000	85.236633
756.000000	85.249833
757.000000	85.273033
758.000000	85.419267
759.000000	85.358767
760.000000	85.433400
761.000000	85.488033
762.000000	85.482967
763.000000	85.534767
764.000000	85.573100
765.000000	85.571200
766.000000	85.660167
767.000000	85.815433
768.000000	85.794833
769.000000	85.985867
770.000000	86.090633
771.000000	86.243333
772.000000	86.426833
773.000000	86.611500
774.000000	86.690067
775.000000	86.978967
776.000000	87.107333
777.000000	87.345467
778.000000	87.454233
779.000000	87.649567
780.000000	87.860733
781.000000	88.018800
782.000000	88.149300
783.000000	88.100300
784.000000	88.331000
785.000000	88.345633
786.000000	88.368067
787.000000	88.353467
788.000000	88.373967
789.000000	88.417700
790.000000	88.291300
791.000000	88.287733
792.000000	88.082867
793.000000	87.974833
794.000000	87.951467
795.000000	87.682467
796.000000	87.572633
797.000000	87.375200
798.000000	87.241433
799.000000	87.022067
800.000000	86.913667
801.000000	86.540633
802.000000	86.363667
803.000000	86.142300
804.000000	85.913133
805.000000	85.692867
806.000000	85.523633
807.000000	85.386300
808.000000	85.244667
809.000000	85.072233
810.000000	85.118333
811.000000	84.912900
812.000000	84.653800
813.000000	84.582000
814.000000	84.492700
815.000000	84.374400
816.000000	84.440333
817.000000	84.430933
818.000000	84.268700
819.000000	83.974533
820.000000	83.989333
821.000000	83.827833
822.000000	83.790267
823.000000	83.475667
824.000000	83.452700
825.000000	83.283167
826.000000	82.956533
827.000000	82.700767
828.000000	82.720533
829.000000	82.376600
830.000000	81.985433
831.000000	81.611600
832.000000	81.247567
833.000000	80.921833
834.000000	80.689533
835.000000	80.225933
836.000000	79.862767
837.000000	79.266567
838.000000	78.946733
839.000000	78.622167
840.000000	78.243133
841.000000	77.673800
842.000000	77.358233
843.000000	76.775867
844.000000	76.141900
845.000000	75.890967
846.000000	75.511100
847.000000	74.960433
848.000000	74.628067
849.000000	74.159033
850.000000	73.810033
851.000000	73.541933
852.000000	73.164100
853.000000	72.834400
854.000000	72.289300
855.000000	72.251333
856.000000	71.815133
857.000000	70.486033
858.000000	71.517500
859.000000	71.115542
860.000000	70.735000
861.000000	70.368057
862.000000	69.989018
863.000000	69.601267
864.000000	69.233623
865.000000	68.881338
866.000000	68.527326
867.000000	68.162273
868.000000	67.795536
869.000000	67.445541
870.000000	67.139792
871.000000	66.931542
872.000000	66.784214
873.000000	66.651886
874.000000	66.490685
875.000000	66.329118
876.000000	66.141672
877.000000	65.913453
878.000000	65.691689
879.000000	65.469402
880.000000	65.246635
881.000000	65.014744
882.000000	64.791519
883.000000	64.565644
884.000000	64.332701
885.000000	64.107460
886.000000	63.891188
887.000000	63.669616
888.000000	63.445378
889.000000	63.201736
890.000000	62.978529
891.000000	62.755923
892.000000	62.527979
893.000000	62.293360
894.000000	62.075651
895.000000	61.849098
896.000000	61.613311
897.000000	61.379774
898.000000	61.151438
899.000000	60.920834
900.000000	60.700163
901.000000	60.473412
902.000000	60.261266
903.000000	60.043581
904.000000	59.836644
905.000000	59.638028
906.000000	59.444254
907.000000	59.243941
908.000000	59.061988
909.000000	58.880581
910.000000	58.705571
911.000000	58.535266
912.000000	58.362922
913.000000	58.198341
914.000000	58.037221
915.000000	57.862180
916.000000	57.704465
917.000000	57.544319
918.000000	57.378173
919.000000	57.214826
920.000000	57.049383
921.000000	56.887927
922.000000	56.730730
923.000000	56.569679
924.000000	56.410111
925.000000	56.258133
926.000000	56.098628
927.000000	55.932486
928.000000	55.777261
929.000000	55.623206
930.000000	55.465855
931.000000	55.315644
932.000000	55.173747
933.000000	55.032944
934.000000	54.882865
935.000000	54.732900
936.000000	54.589268
937.000000	54.461676
938.000000	54.348256
939.000000	54.228725
940.000000	54.105801
941.000000	53.991669
942.000000	53.894613
943.000000	53.795213
944.000000	53.694136
945.000000	53.612395
946.000000	53.534918
947.000000	53.442514
948.000000	53.359503
949.000000	53.298186
950.000000	53.223507
951.000000	53.146779
952.000000	53.088216
953.000000	53.024528
954.000000	52.965269
955.000000	52.915122
956.000000	52.850359
957.000000	52.790594
958.000000	52.737160
959.000000	52.669327
960.000000	52.612396
961.000000	52.560552
962.000000	52.503928
963.000000	52.442738
964.000000	52.386940
965.000000	52.345144
966.000000	52.291869
967.000000	52.244415
968.000000	52.206056
969.000000	52.148813
970.000000	52.110795
971.000000	52.081078
972.000000	52.046127
973.000000	52.015570
974.000000	51.985175
975.000000	51.950927
976.000000	51.928606
977.000000	51.916621
978.000000	51.900488
979.000000	51.884279
980.000000	51.874378
981.000000	51.866346
982.000000	51.864834
983.000000	51.859848
984.000000	51.855959
985.000000	51.868060
986.000000	51.867563
987.000000	51.869233
988.000000	51.876656
989.000000	51.895395
990.000000	51.906938
991.000000	51.920542
992.000000	51.934899
993.000000	51.940530
994.000000	51.958358
995.000000	51.979390
996.000000	51.993547
997.000000	52.008136
998.000000	52.026104
999.000000	52.040906
1000.000000	52.063503
1001.000000	52.074161
1002.000000	52.082091
1003.000000	52.104629
1004.000000	52.113290
1005.000000	52.136118
1006.000000	52.149013
1007.000000	52.150623
1008.000000	52.176263
1009.000000	52.198308
1010.000000	52.219483
1011.000000	52.238267
1012.000000	52.262801
1013.000000	52.310366
1014.000000	52.350007
1015.000000	52.374036
1016.000000	52.417430
1017.000000	52.463145
1018.000000	52.510308
1019.000000	52.560356
1020.000000	52.622707
1021.000000	52.687147
1022.000000	52.748469
1023.000000	52.809453
1024.000000	52.875074
1025.000000	52.955688
1026.000000	53.025373
1027.000000	53.087057
1028.000000	53.159992
1029.000000	53.230563
1030.000000	53.299214
1031.000000	53.386913
1032.000000	53.459043
1033.000000	53.531132
1034.000000	53.590202
1035.000000	53.661688
1036.000000	53.738738
1037.000000	53.807431
1038.000000	53.872775
1039.000000	53.945287
1040.000000	54.014128
1041.000000	54.079431
1042.000000	54.150396
1043.000000	54.224881
1044.000000	54.280555
1045.000000	54.339678
1046.000000	54.410138
1047.000000	54.479636
1048.000000	54.526920
1049.000000	54.601340
1050.000000	54.663631
1051.000000	54.733809
1052.000000	54.793607
1053.000000	54.855463
1054.000000	54.925360
1055.000000	54.984258
1056.000000	55.047298
1057.000000	55.116598
1058.000000	55.176941
1059.000000	55.246241
1060.000000	55.297277
1061.000000	55.365069
1062.000000	55.425556
1063.000000	55.487027
1064.000000	55.538077
1065.000000	55.599143
1066.000000	55.653881
1067.000000	55.718770
1068.000000	55.766867
1069.000000	55.828017
1070.000000	55.885425
1071.000000	55.943698
1072.000000	56.003190
1073.000000	56.064039
1074.000000	56.125871
1075.000000	56.179798
1076.000000	56.237138
1077.000000	56.296628
1078.000000	56.348865
1079.000000	56.408066
1080.000000	56.474972
1081.000000	56.530456
1082.000000	56.589139
1083.000000	56.641160
1084.000000	56.712595
1085.000000	56.772583
1086.000000	56.826110
1087.000000	56.867588
1088.000000	56.929393
1089.000000	56.991143
1090.000000	57.058570
1091.000000	57.108475
1092.000000	57.150952
1093.000000	57.215835
1094.000000	57.261324
1095.000000	57.308419
1096.000000	57.348961
1097.000000	57.402549
1098.000000	57.444103
1099.000000	57.480980
1100.000000	57.509659
1101.000000	57.554109
1102.000000	57.591784
1103.000000	57.622274
1104.000000	57.655844
1105.000000	57.688544
1106.000000	57.729258
1107.000000	57.758305
1108.000000	57.782688
1109.000000	57.814843
1110.000000	57.852260
1111.000000	57.869725
1112.000000	57.890923
1113.000000	57.916740
1114.000000	57.960301
1115.000000	57.983071
1116.000000	58.007522
1117.000000	58.027903
1118.000000	58.027067
1119.000000	58.030253
1120.000000	58.036768
1121.000000	58.037206
1122.000000	58.019036
1123.000000	58.000648
1124.000000	57.945929
1125.000000	57.913796
1126.000000	57.840643
1127.000000	57.773978
1128.000000	57.671570
1129.000000	57.552104
1130.000000	57.393206
1131.000000	57.232183
1132.000000	57.052064
1133.000000	56.895124
1134.000000	56.665950
1135.000000	56.420664
1136.000000	56.181985
1137.000000	55.934185
1138.000000	55.713126
1139.000000	55.501209
1140.000000	55.309979
1141.000000	55.102066
1142.000000	54.921137
1143.000000	54.752348
1144.000000	54.617119
1145.000000	54.496682
1146.000000	54.384574
1147.000000	54.308249
1148.000000	54.231303
1149.000000	54.165308
1150.000000	54.090234
1151.000000	54.009175
1152.000000	53.911522
1153.000000	53.797885
1154.000000	53.661989
1155.000000	53.504335
1156.000000	53.335520
1157.000000	53.161034
1158.000000	52.959034
1159.000000	52.772698
1160.000000	52.566291
1161.000000	52.359576
1162.000000	52.155838
1163.000000	51.951078
1164.000000	51.741853
1165.000000	51.542780
1166.000000	51.341782
