PE UV       SUBTECH     SPECTRUM    ASCII       PEDS        4.00        
   -1
CICIMAUCR0260-3.Sample.ASC
24/07/01
13:47:05.00
24/07/01
13:47:05.00
Vinicio Soto Monge
C. resplendens. Sex F. Dorsal.
250,000000
1
Lambda 1050
1050L1511233
PerkinElmer UV WinLab 6.3.2.0749 / 2.02.05 Lambda 900 UV/VIS/NIR, Aug  7 2015 09:38:08

0
0
3350/servo 860,8/2
0
0
UV/VIS
1
1
1
DoubleDePol,CommonBeamDepol,RBeamAtt,SBeamAtt,60mm sphere, WB InGaAs Detector
0
0
0
0
Program
Program
3350/servo 860,8/2
3350/0,2 860,8/0,2
3350/0,2 860,8/0,2
0
15.00
 
 
 
0
 
860,8
319,2
860,8
Front
100
on
S:100 R:100
0
0
0
0
 
0
 
 
 
0
 
 
0
0
0
0
0
 
 
 
 
0
0


0
0
#HDR
-1
-1
#GR
nm
%R
1.0
0.0
2500,000000
-1,000000
2251
8
90,775700
5,523800
#DATA
250.000000	6.217600
251.000000	6.216900
252.000000	6.201933
253.000000	6.185100
254.000000	6.182200
255.000000	6.160200
256.000000	6.145367
257.000000	6.131100
258.000000	6.122800
259.000000	6.071767
260.000000	6.072800
261.000000	6.051067
262.000000	6.033567
263.000000	6.012100
264.000000	5.999367
265.000000	5.981367
266.000000	5.942833
267.000000	5.926067
268.000000	5.911233
269.000000	5.874533
270.000000	5.865600
271.000000	5.848700
272.000000	5.829233
273.000000	5.826867
274.000000	5.818467
275.000000	5.804067
276.000000	5.785167
277.000000	5.791567
278.000000	5.794767
279.000000	5.749033
280.000000	5.726267
281.000000	5.733933
282.000000	5.731967
283.000000	5.715100
284.000000	5.712733
285.000000	5.705300
286.000000	5.700033
287.000000	5.686367
288.000000	5.676067
289.000000	5.681467
290.000000	5.683733
291.000000	5.670100
292.000000	5.670500
293.000000	5.672667
294.000000	5.663833
295.000000	5.666833
296.000000	5.638167
297.000000	5.633900
298.000000	5.631167
299.000000	5.620467
300.000000	5.630600
301.000000	5.627933
302.000000	5.610900
303.000000	5.623200
304.000000	5.615233
305.000000	5.611133
306.000000	5.629200
307.000000	5.629867
308.000000	5.626167
309.000000	5.609100
310.000000	5.618467
311.000000	5.614867
312.000000	5.593233
313.000000	5.591133
314.000000	5.578567
315.000000	5.593333
316.000000	5.784733
317.000000	6.042400
318.000000	6.028367
319.000000	6.077033
320.000000	6.175533
321.000000	5.783000
322.000000	5.605233
323.000000	5.740400
324.000000	5.686900
325.000000	5.771600
326.000000	5.890233
327.000000	5.902700
328.000000	5.877500
329.000000	5.833833
330.000000	5.740333
331.000000	5.703033
332.000000	5.737367
333.000000	5.668633
334.000000	5.639633
335.000000	5.764467
336.000000	5.842967
337.000000	5.788367
338.000000	5.685400
339.000000	5.584800
340.000000	5.654700
341.000000	5.718100
342.000000	5.686300
343.000000	5.784833
344.000000	5.821100
345.000000	5.770600
346.000000	5.765200
347.000000	5.769200
348.000000	5.716367
349.000000	5.754267
350.000000	5.810633
351.000000	5.811400
352.000000	5.778500
353.000000	5.808233
354.000000	5.863367
355.000000	5.887433
356.000000	5.901700
357.000000	5.996000
358.000000	6.047400
359.000000	6.029667
360.000000	6.052967
361.000000	6.021967
362.000000	6.056133
363.000000	6.118133
364.000000	6.144200
365.000000	6.125200
366.000000	6.192300
367.000000	6.249500
368.000000	6.266500
369.000000	6.336267
370.000000	6.329567
371.000000	6.338000
372.000000	6.385567
373.000000	6.384733
374.000000	6.376000
375.000000	6.485800
376.000000	6.507333
377.000000	6.488900
378.000000	6.529367
379.000000	6.588167
380.000000	6.615200
381.000000	6.654100
382.000000	6.699133
383.000000	6.728967
384.000000	6.777400
385.000000	6.827400
386.000000	6.867767
387.000000	6.910433
388.000000	6.964600
389.000000	7.006467
390.000000	7.061233
391.000000	7.107200
392.000000	7.157667
393.000000	7.231467
394.000000	7.289400
395.000000	7.364000
396.000000	7.438400
397.000000	7.505033
398.000000	7.584833
399.000000	7.670767
400.000000	7.768700
401.000000	7.876733
402.000000	7.996367
403.000000	8.111133
404.000000	8.247133
405.000000	8.394900
406.000000	8.563433
407.000000	8.741433
408.000000	8.944567
409.000000	9.171667
410.000000	9.391767
411.000000	9.637500
412.000000	9.922733
413.000000	10.229500
414.000000	10.547200
415.000000	10.889200
416.000000	11.253200
417.000000	11.633100
418.000000	12.045867
419.000000	12.458300
420.000000	12.897167
421.000000	13.340733
422.000000	13.829800
423.000000	14.325600
424.000000	14.828867
425.000000	15.334867
426.000000	15.827900
427.000000	16.351767
428.000000	16.853133
429.000000	17.365433
430.000000	17.889700
431.000000	18.384967
432.000000	18.875467
433.000000	19.366800
434.000000	19.859267
435.000000	20.311133
436.000000	20.768667
437.000000	21.192300
438.000000	21.602667
439.000000	22.018200
440.000000	22.406233
441.000000	22.786933
442.000000	23.144067
443.000000	23.481833
444.000000	23.814467
445.000000	24.114867
446.000000	24.421800
447.000000	24.688367
448.000000	24.955500
449.000000	25.214867
450.000000	25.466933
451.000000	25.678233
452.000000	25.914433
453.000000	26.111033
454.000000	26.314200
455.000000	26.488267
456.000000	26.664267
457.000000	26.843667
458.000000	26.987200
459.000000	27.133000
460.000000	27.264133
461.000000	27.403633
462.000000	27.526033
463.000000	27.647433
464.000000	27.747000
465.000000	27.862933
466.000000	27.922400
467.000000	27.999667
468.000000	28.063967
469.000000	28.113300
470.000000	28.164033
471.000000	28.190933
472.000000	28.209767
473.000000	28.230833
474.000000	28.228200
475.000000	28.228467
476.000000	28.212833
477.000000	28.175567
478.000000	28.162267
479.000000	28.124400
480.000000	28.088833
481.000000	28.082067
482.000000	28.086633
483.000000	28.070333
484.000000	28.059067
485.000000	28.074033
486.000000	28.119600
487.000000	28.195367
488.000000	28.307400
489.000000	28.458400
490.000000	28.651733
491.000000	28.873033
492.000000	29.156467
493.000000	29.461967
494.000000	29.812067
495.000000	30.230300
496.000000	30.615900
497.000000	31.054133
498.000000	31.553400
499.000000	32.024167
500.000000	32.508733
501.000000	33.014667
502.000000	33.552100
503.000000	34.065100
504.000000	34.559033
505.000000	35.054867
506.000000	35.548767
507.000000	36.020233
508.000000	36.487833
509.000000	36.945367
510.000000	37.397533
511.000000	37.830333
512.000000	38.284267
513.000000	38.738467
514.000000	39.185900
515.000000	39.667500
516.000000	40.175000
517.000000	40.675033
518.000000	41.225767
519.000000	41.810833
520.000000	42.418900
521.000000	43.093800
522.000000	43.806167
523.000000	44.588867
524.000000	45.419000
525.000000	46.281433
526.000000	47.204633
527.000000	48.173300
528.000000	49.194433
529.000000	50.260100
530.000000	51.364700
531.000000	52.523933
532.000000	53.711333
533.000000	54.899633
534.000000	56.103067
535.000000	57.298400
536.000000	58.505133
537.000000	59.680000
538.000000	60.841900
539.000000	61.989600
540.000000	63.092067
541.000000	64.181200
542.000000	65.219200
543.000000	66.231533
544.000000	67.189133
545.000000	68.098300
546.000000	68.980900
547.000000	69.803900
548.000000	70.588467
549.000000	71.350300
550.000000	72.049533
551.000000	72.767400
552.000000	73.447167
553.000000	74.079800
554.000000	74.701333
555.000000	75.295733
556.000000	75.886533
557.000000	76.447767
558.000000	76.992967
559.000000	77.556300
560.000000	78.117967
561.000000	78.621067
562.000000	79.147867
563.000000	79.684233
564.000000	80.168400
565.000000	80.651300
566.000000	81.107300
567.000000	81.560533
568.000000	81.988033
569.000000	82.389200
570.000000	82.777100
571.000000	83.166500
572.000000	83.490567
573.000000	83.837533
574.000000	84.147100
575.000000	84.460267
576.000000	84.750633
577.000000	85.026367
578.000000	85.275767
579.000000	85.523533
580.000000	85.780933
581.000000	86.003133
582.000000	86.216800
583.000000	86.412200
584.000000	86.594667
585.000000	86.753567
586.000000	86.917467
587.000000	87.060667
588.000000	87.178133
589.000000	87.305800
590.000000	87.398067
591.000000	87.472900
592.000000	87.573167
593.000000	87.650933
594.000000	87.692967
595.000000	87.737867
596.000000	87.776867
597.000000	87.801467
598.000000	87.804533
599.000000	87.785200
600.000000	87.735600
601.000000	87.663167
602.000000	87.589000
603.000000	87.479533
604.000000	87.356200
605.000000	87.160867
606.000000	86.967167
607.000000	86.744800
608.000000	86.459867
609.000000	86.142133
610.000000	85.790200
611.000000	85.393867
612.000000	84.931367
613.000000	84.420100
614.000000	83.897433
615.000000	83.316800
616.000000	82.685633
617.000000	82.022967
618.000000	81.310367
619.000000	80.544667
620.000000	79.732967
621.000000	78.857500
622.000000	77.914467
623.000000	76.904133
624.000000	75.831267
625.000000	74.717500
626.000000	73.553200
627.000000	72.336600
628.000000	71.070900
629.000000	69.740567
630.000000	68.351600
631.000000	66.939233
632.000000	65.519567
633.000000	64.115500
634.000000	62.729100
635.000000	61.411333
636.000000	60.158533
637.000000	58.975667
638.000000	57.903833
639.000000	56.959700
640.000000	56.148400
641.000000	55.450600
642.000000	54.869867
643.000000	54.458267
644.000000	54.203767
645.000000	54.054467
646.000000	54.047433
647.000000	54.168767
648.000000	54.385667
649.000000	54.714567
650.000000	55.138067
651.000000	55.640333
652.000000	56.237567
653.000000	56.901633
654.000000	57.625400
655.000000	58.406100
656.000000	59.215000
657.000000	60.072867
658.000000	60.972700
659.000000	61.886600
660.000000	62.790700
661.000000	63.686900
662.000000	64.557900
663.000000	65.386400
664.000000	66.192200
665.000000	66.924933
666.000000	67.590133
667.000000	68.225767
668.000000	68.744200
669.000000	69.238267
670.000000	69.709100
671.000000	70.127800
672.000000	70.489067
673.000000	70.827100
674.000000	71.123967
675.000000	71.417967
676.000000	71.684667
677.000000	71.937967
678.000000	72.190767
679.000000	72.444300
680.000000	72.627867
681.000000	72.832467
682.000000	73.002400
683.000000	73.074200
684.000000	73.146167
685.000000	73.187533
686.000000	73.162200
687.000000	73.114667
688.000000	73.065133
689.000000	72.955167
690.000000	72.799200
691.000000	72.661000
692.000000	72.491533
693.000000	72.354567
694.000000	72.205200
695.000000	72.017200
696.000000	71.845467
697.000000	71.704733
698.000000	71.541867
699.000000	71.385267
700.000000	71.222067
701.000000	71.047933
702.000000	70.855500
703.000000	70.695067
704.000000	70.577867
705.000000	70.419500
706.000000	70.303500
707.000000	70.162567
708.000000	70.137800
709.000000	70.021167
710.000000	69.997267
711.000000	69.986400
712.000000	70.059633
713.000000	70.121133
714.000000	70.291200
715.000000	70.547767
716.000000	70.771100
717.000000	71.067633
718.000000	71.428867
719.000000	71.827700
720.000000	72.236833
721.000000	72.677300
722.000000	73.168733
723.000000	73.701600
724.000000	74.165533
725.000000	74.773733
726.000000	75.351200
727.000000	75.871667
728.000000	76.461833
729.000000	77.022867
730.000000	77.599600
731.000000	78.158267
732.000000	78.696200
733.000000	79.248700
734.000000	79.789700
735.000000	80.330067
736.000000	80.867667
737.000000	81.390800
738.000000	81.899567
739.000000	82.387433
740.000000	82.863367
741.000000	83.351233
742.000000	83.843333
743.000000	84.295867
744.000000	84.694433
745.000000	85.127100
746.000000	85.465733
747.000000	85.888133
748.000000	86.191900
749.000000	86.512867
750.000000	86.747300
751.000000	86.998667
752.000000	87.311900
753.000000	87.483400
754.000000	87.692400
755.000000	87.872033
756.000000	88.060033
757.000000	88.231500
758.000000	88.350800
759.000000	88.546267
760.000000	88.608900
761.000000	88.701933
762.000000	88.824867
763.000000	88.934233
764.000000	89.021333
765.000000	89.135933
766.000000	89.193267
767.000000	89.179933
768.000000	89.274100
769.000000	89.403033
770.000000	89.340500
771.000000	89.397333
772.000000	89.390633
773.000000	89.351367
774.000000	89.370300
775.000000	89.440733
776.000000	89.415700
777.000000	89.463900
778.000000	89.442800
779.000000	89.438767
780.000000	89.511467
781.000000	89.514667
782.000000	89.553233
783.000000	89.575067
784.000000	89.654933
785.000000	89.629400
786.000000	89.617667
787.000000	89.672333
788.000000	89.678100
789.000000	89.813033
790.000000	89.727767
791.000000	89.767467
792.000000	89.899433
793.000000	89.948633
794.000000	89.880500
795.000000	89.850700
796.000000	89.961267
797.000000	90.041767
798.000000	90.129233
799.000000	90.230067
800.000000	90.295133
801.000000	90.392233
802.000000	90.684333
803.000000	90.709067
804.000000	90.665500
805.000000	90.806767
806.000000	90.930533
807.000000	90.892800
808.000000	91.162367
809.000000	91.117567
810.000000	91.280233
811.000000	91.446800
812.000000	91.546733
813.000000	91.351067
814.000000	91.292833
815.000000	91.429967
816.000000	91.222867
817.000000	91.338200
818.000000	91.287233
819.000000	91.116700
820.000000	91.054267
821.000000	91.025433
822.000000	90.802767
823.000000	90.702033
824.000000	90.576933
825.000000	90.379700
826.000000	90.176267
827.000000	89.930000
828.000000	89.690467
829.000000	89.576667
830.000000	89.335900
831.000000	88.979000
832.000000	88.743767
833.000000	88.314900
834.000000	88.058800
835.000000	87.916867
836.000000	87.526967
837.000000	87.158500
838.000000	87.000933
839.000000	86.523767
840.000000	86.285200
841.000000	85.960267
842.000000	85.600667
843.000000	85.108000
844.000000	85.119300
845.000000	84.576233
846.000000	84.241033
847.000000	84.031900
848.000000	83.762700
849.000000	83.458033
850.000000	83.489767
851.000000	82.852800
852.000000	82.629833
853.000000	82.568667
854.000000	82.101833
855.000000	81.762200
856.000000	81.713167
857.000000	81.092633
858.000000	81.522667
859.000000	81.273404
860.000000	81.051587
861.000000	80.802385
862.000000	80.590999
863.000000	80.363906
864.000000	80.139693
865.000000	79.908568
866.000000	79.701128
867.000000	79.477196
868.000000	79.239707
869.000000	79.052693
870.000000	78.901409
871.000000	78.822808
872.000000	78.766440
873.000000	78.699439
874.000000	78.593069
875.000000	78.473700
876.000000	78.323913
877.000000	78.173379
878.000000	78.011379
879.000000	77.844613
880.000000	77.670981
881.000000	77.478286
882.000000	77.289205
883.000000	77.099028
884.000000	76.902833
885.000000	76.701720
886.000000	76.501384
887.000000	76.285872
888.000000	76.067457
889.000000	75.850103
890.000000	75.627282
891.000000	75.389167
892.000000	75.137673
893.000000	74.895818
894.000000	74.651103
895.000000	74.391764
896.000000	74.132692
897.000000	73.882567
898.000000	73.633749
899.000000	73.377055
900.000000	73.143854
901.000000	72.899256
902.000000	72.663625
903.000000	72.448986
904.000000	72.240694
905.000000	72.040391
906.000000	71.855006
907.000000	71.675146
908.000000	71.516481
909.000000	71.368748
910.000000	71.230933
911.000000	71.100907
912.000000	70.972420
913.000000	70.847673
914.000000	70.731747
915.000000	70.618078
916.000000	70.507623
917.000000	70.406699
918.000000	70.304483
919.000000	70.204961
920.000000	70.102835
921.000000	70.009013
922.000000	69.915244
923.000000	69.816325
924.000000	69.709859
925.000000	69.611347
926.000000	69.514625
927.000000	69.412465
928.000000	69.304953
929.000000	69.202998
930.000000	69.101967
931.000000	68.983870
932.000000	68.850769
933.000000	68.713972
934.000000	68.580260
935.000000	68.439825
936.000000	68.292457
937.000000	68.136303
938.000000	67.981954
939.000000	67.820964
940.000000	67.658762
941.000000	67.499205
942.000000	67.328004
943.000000	67.163386
944.000000	66.999862
945.000000	66.819938
946.000000	66.640829
947.000000	66.466087
948.000000	66.290646
949.000000	66.115841
950.000000	65.942086
951.000000	65.767782
952.000000	65.585280
953.000000	65.405590
954.000000	65.240065
955.000000	65.079011
956.000000	64.914063
957.000000	64.754136
958.000000	64.599428
959.000000	64.438579
960.000000	64.286649
961.000000	64.143517
962.000000	64.006696
963.000000	63.879429
964.000000	63.752634
965.000000	63.633740
966.000000	63.524667
967.000000	63.416561
968.000000	63.321037
969.000000	63.231041
970.000000	63.140733
971.000000	63.063935
972.000000	62.978594
973.000000	62.898749
974.000000	62.821135
975.000000	62.745846
976.000000	62.674499
977.000000	62.598476
978.000000	62.518397
979.000000	62.436367
980.000000	62.356226
981.000000	62.281622
982.000000	62.191711
983.000000	62.106005
984.000000	62.022831
985.000000	61.949560
986.000000	61.865022
987.000000	61.784068
988.000000	61.698613
989.000000	61.619607
990.000000	61.531663
991.000000	61.454480
992.000000	61.376485
993.000000	61.296651
994.000000	61.221622
995.000000	61.136689
996.000000	61.050285
997.000000	60.974518
998.000000	60.907618
999.000000	60.826178
1000.000000	60.745521
1001.000000	60.675939
1002.000000	60.608450
1003.000000	60.532147
1004.000000	60.458955
1005.000000	60.397563
1006.000000	60.333520
1007.000000	60.265164
1008.000000	60.209734
1009.000000	60.155330
1010.000000	60.114727
1011.000000	60.074587
1012.000000	60.040312
1013.000000	60.017275
1014.000000	59.989768
1015.000000	59.967762
1016.000000	59.962175
1017.000000	59.950626
1018.000000	59.958214
1019.000000	59.969021
1020.000000	59.970009
1021.000000	59.987454
1022.000000	60.014991
1023.000000	60.022976
1024.000000	60.047233
1025.000000	60.076329
1026.000000	60.088121
1027.000000	60.122413
1028.000000	60.143200
1029.000000	60.161597
1030.000000	60.194460
1031.000000	60.222096
1032.000000	60.256600
1033.000000	60.279733
1034.000000	60.301332
1035.000000	60.332404
1036.000000	60.367882
1037.000000	60.385552
1038.000000	60.417190
1039.000000	60.449641
1040.000000	60.477260
1041.000000	60.494539
1042.000000	60.517405
1043.000000	60.550232
1044.000000	60.576159
1045.000000	60.605436
1046.000000	60.627367
1047.000000	60.665070
1048.000000	60.681942
1049.000000	60.723006
1050.000000	60.744322
1051.000000	60.779181
1052.000000	60.790881
1053.000000	60.828672
1054.000000	60.864094
1055.000000	60.896185
1056.000000	60.926138
1057.000000	60.964864
1058.000000	61.008631
1059.000000	61.021061
1060.000000	61.040829
1061.000000	61.076338
1062.000000	61.100423
1063.000000	61.125604
1064.000000	61.143421
1065.000000	61.172251
1066.000000	61.194354
1067.000000	61.210730
1068.000000	61.227608
1069.000000	61.251612
1070.000000	61.284288
1071.000000	61.301307
1072.000000	61.317177
1073.000000	61.322708
1074.000000	61.340866
1075.000000	61.367361
1076.000000	61.386968
1077.000000	61.407752
1078.000000	61.418137
1079.000000	61.437455
1080.000000	61.447197
1081.000000	61.480048
1082.000000	61.486936
1083.000000	61.503386
1084.000000	61.522846
1085.000000	61.545267
1086.000000	61.549947
1087.000000	61.554803
1088.000000	61.587379
1089.000000	61.612910
1090.000000	61.621791
1091.000000	61.631912
1092.000000	61.638893
1093.000000	61.657996
1094.000000	61.672675
1095.000000	61.682573
1096.000000	61.682303
1097.000000	61.685695
1098.000000	61.700073
1099.000000	61.698662
1100.000000	61.698791
1101.000000	61.704792
1102.000000	61.704184
1103.000000	61.714179
1104.000000	61.726323
1105.000000	61.726792
1106.000000	61.728077
1107.000000	61.725187
1108.000000	61.731917
1109.000000	61.728404
1110.000000	61.729663
1111.000000	61.743437
1112.000000	61.745127
1113.000000	61.742650
1114.000000	61.739794
1115.000000	61.730409
1116.000000	61.726574
1117.000000	61.710369
1118.000000	61.686945
1119.000000	61.642432
1120.000000	61.613697
1121.000000	61.581319
1122.000000	61.519473
1123.000000	61.453906
1124.000000	61.346083
1125.000000	61.253644
1126.000000	61.127614
1127.000000	60.984540
1128.000000	60.805216
1129.000000	60.605799
1130.000000	60.365886
1131.000000	60.096212
1132.000000	59.798825
1133.000000	59.520630
1134.000000	59.184096
1135.000000	58.810274
1136.000000	58.430082
1137.000000	58.074345
1138.000000	57.742944
1139.000000	57.422022
1140.000000	57.111586
1141.000000	56.811871
1142.000000	56.527609
1143.000000	56.270150
1144.000000	56.046684
1145.000000	55.842444
1146.000000	55.664222
1147.000000	55.514695
1148.000000	55.367621
1149.000000	55.230433
1150.000000	55.097490
1151.000000	54.959631
1152.000000	54.811778
1153.000000	54.629451
1154.000000	54.426539
1155.000000	54.198211
1156.000000	53.968686
1157.000000	53.715737
1158.000000	53.450186
1159.000000	53.193979
1160.000000	52.932301
1161.000000	52.654719
1162.000000	52.385635
1163.000000	52.133780
1164.000000	51.882962
1165.000000	51.635517
1166.000000	51.390751
