PE UV       SUBTECH     SPECTRUM    ASCII       PEDS        4.00        
   -1
CICIMAUCR0261-3.Sample.ASC
24/07/01
14:00:31.00
24/07/01
14:00:31.00
Vinicio Soto Monge
C. resplendens. Sex M. Dorsal.
250,000000
1
Lambda 1050
1050L1511233
PerkinElmer UV WinLab 6.3.2.0749 / 2.02.05 Lambda 900 UV/VIS/NIR, Aug  7 2015 09:38:08

0
0
3350/servo 860,8/2
0
0
UV/VIS
1
1
1
DoubleDePol,CommonBeamDepol,RBeamAtt,SBeamAtt,60mm sphere, WB InGaAs Detector
0
0
0
0
Program
Program
3350/servo 860,8/2
3350/0,2 860,8/0,2
3350/0,2 860,8/0,2
0
15.00
 
 
 
0
 
860,8
319,2
860,8
Front
100
on
S:100 R:100
0
0
0
0
 
0
 
 
 
0
 
 
0
0
0
0
0
 
 
 
 
0
0


0
0
#HDR
-1
-1
#GR
nm
%R
1.0
0.0
2500,000000
-1,000000
2251
8
92,022100
5,605900
#DATA
250.000000	2232.000000	6.464067
251.000000	2231.000000	6.454333
252.000000	2230.000000	6.416667
253.000000	2229.000000	6.403333
254.000000	2228.000000	6.418400
255.000000	2227.000000	6.393733
256.000000	2226.000000	6.367167
257.000000	2225.000000	6.358000
258.000000	2224.000000	6.333233
259.000000	2223.000000	6.315000
260.000000	2222.000000	6.304867
261.000000	2221.000000	6.289700
262.000000	2220.000000	6.253533
263.000000	2219.000000	6.231267
264.000000	2218.000000	6.191867
265.000000	2217.000000	6.173367
266.000000	2216.000000	6.147200
267.000000	2215.000000	6.116800
268.000000	2214.000000	6.110267
269.000000	2213.000000	6.088333
270.000000	2212.000000	6.060700
271.000000	2211.000000	6.034300
272.000000	2210.000000	6.030133
273.000000	2209.000000	6.017900
274.000000	2208.000000	6.002433
275.000000	2207.000000	5.987200
276.000000	2206.000000	5.976933
277.000000	2205.000000	5.960700
278.000000	2204.000000	5.947600
279.000000	2203.000000	5.932833
280.000000	2202.000000	5.912167
281.000000	2201.000000	5.901633
282.000000	2200.000000	5.896733
283.000000	2199.000000	5.890100
284.000000	2198.000000	5.886433
285.000000	2197.000000	5.866067
286.000000	2196.000000	5.858767
287.000000	2195.000000	5.855833
288.000000	2194.000000	5.852767
289.000000	2193.000000	5.823100
290.000000	2192.000000	5.793367
291.000000	2191.000000	5.765367
292.000000	2190.000000	5.778867
293.000000	2189.000000	5.770933
294.000000	2188.000000	5.783700
295.000000	2187.000000	5.765733
296.000000	2186.000000	5.769067
297.000000	2185.000000	5.748933
298.000000	2184.000000	5.747667
299.000000	2183.000000	5.761267
300.000000	2182.000000	5.744000
301.000000	2181.000000	5.753133
302.000000	2180.000000	5.747000
303.000000	2179.000000	5.732000
304.000000	2178.000000	5.732567
305.000000	2177.000000	5.725767
306.000000	2176.000000	5.706833
307.000000	2175.000000	5.724033
308.000000	2174.000000	5.721900
309.000000	2173.000000	5.696400
310.000000	2172.000000	5.687300
311.000000	2171.000000	5.684533
312.000000	2170.000000	5.693067
313.000000	2169.000000	5.691500
314.000000	2168.000000	5.685400
315.000000	2167.000000	5.693867
316.000000	2166.000000	5.992267
317.000000	2165.000000	6.167100
318.000000	2164.000000	5.846000
319.000000	2163.000000	5.848067
320.000000	2162.000000	5.869333
321.000000	2161.000000	5.838833
322.000000	2160.000000	5.849567
323.000000	2159.000000	5.798300
324.000000	2158.000000	5.858667
325.000000	2157.000000	5.770100
326.000000	2156.000000	5.655300
327.000000	2155.000000	5.689767
328.000000	2154.000000	5.735933
329.000000	2153.000000	5.754700
330.000000	2152.000000	5.765200
331.000000	2151.000000	5.774400
332.000000	2150.000000	5.755067
333.000000	2149.000000	5.779100
334.000000	2148.000000	5.755233
335.000000	2147.000000	5.786400
336.000000	2146.000000	5.932400
337.000000	2145.000000	5.890500
338.000000	2144.000000	5.834533
339.000000	2143.000000	5.907033
340.000000	2142.000000	5.898967
341.000000	2141.000000	5.915300
342.000000	2140.000000	5.962467
343.000000	2139.000000	5.964167
344.000000	2138.000000	5.950667
345.000000	2137.000000	5.937467
346.000000	2136.000000	5.982267
347.000000	2135.000000	6.009000
348.000000	2134.000000	6.029767
349.000000	2133.000000	6.021567
350.000000	2132.000000	6.050800
351.000000	2131.000000	6.039333
352.000000	2130.000000	6.047433
353.000000	2129.000000	6.083700
354.000000	2128.000000	6.152733
355.000000	2127.000000	6.261233
356.000000	2126.000000	6.281700
357.000000	2125.000000	6.270600
358.000000	2124.000000	6.286467
359.000000	2123.000000	6.338700
360.000000	2122.000000	6.337300
361.000000	2121.000000	6.354767
362.000000	2120.000000	6.411733
363.000000	2119.000000	6.450900
364.000000	2118.000000	6.422800
365.000000	2117.000000	6.408500
366.000000	2116.000000	6.495600
367.000000	2115.000000	6.527033
368.000000	2114.000000	6.506967
369.000000	2113.000000	6.526800
370.000000	2112.000000	6.480700
371.000000	2111.000000	6.513800
372.000000	2110.000000	6.554700
373.000000	2109.000000	6.524367
374.000000	2108.000000	6.604000
375.000000	2107.000000	6.713633
376.000000	2106.000000	6.760667
377.000000	2105.000000	6.794500
378.000000	2104.000000	6.835133
379.000000	2103.000000	6.877133
380.000000	2102.000000	6.916200
381.000000	2101.000000	6.944133
382.000000	2100.000000	6.967467
383.000000	2099.000000	7.009167
384.000000	2098.000000	7.052433
385.000000	2097.000000	7.109667
386.000000	2096.000000	7.168633
387.000000	2095.000000	7.209667
388.000000	2094.000000	7.262500
389.000000	2093.000000	7.312933
390.000000	2092.000000	7.368633
391.000000	2091.000000	7.416667
392.000000	2090.000000	7.480367
393.000000	2089.000000	7.548233
394.000000	2088.000000	7.633567
395.000000	2087.000000	7.706133
396.000000	2086.000000	7.786733
397.000000	2085.000000	7.878433
398.000000	2084.000000	7.979433
399.000000	2083.000000	8.087267
400.000000	2082.000000	8.191233
401.000000	2081.000000	8.319033
402.000000	2080.000000	8.455033
403.000000	2079.000000	8.586700
404.000000	2078.000000	8.753533
405.000000	2077.000000	8.916533
406.000000	2076.000000	9.099833
407.000000	2075.000000	9.286200
408.000000	2074.000000	9.509033
409.000000	2073.000000	9.738900
410.000000	2072.000000	9.990367
411.000000	2071.000000	10.248700
412.000000	2070.000000	10.543733
413.000000	2069.000000	10.861167
414.000000	2068.000000	11.196067
415.000000	2067.000000	11.545933
416.000000	2066.000000	11.899133
417.000000	2065.000000	12.305533
418.000000	2064.000000	12.738267
419.000000	2063.000000	13.156500
420.000000	2062.000000	13.615467
421.000000	2061.000000	14.077900
422.000000	2060.000000	14.558933
423.000000	2059.000000	15.064767
424.000000	2058.000000	15.593600
425.000000	2057.000000	16.099867
426.000000	2056.000000	16.632200
427.000000	2055.000000	17.141800
428.000000	2054.000000	17.669200
429.000000	2053.000000	18.208967
430.000000	2052.000000	18.737867
431.000000	2051.000000	19.266667
432.000000	2050.000000	19.790067
433.000000	2049.000000	20.289033
434.000000	2048.000000	20.791933
435.000000	2047.000000	21.284033
436.000000	2046.000000	21.786933
437.000000	2045.000000	22.213700
438.000000	2044.000000	22.659500
439.000000	2043.000000	23.095233
440.000000	2042.000000	23.483267
441.000000	2041.000000	23.889133
442.000000	2040.000000	24.242900
443.000000	2039.000000	24.609900
444.000000	2038.000000	24.952633
445.000000	2037.000000	25.265100
446.000000	2036.000000	25.567633
447.000000	2035.000000	25.878733
448.000000	2034.000000	26.153300
449.000000	2033.000000	26.405767
450.000000	2032.000000	26.646967
451.000000	2031.000000	26.865467
452.000000	2030.000000	27.086467
453.000000	2029.000000	27.261967
454.000000	2028.000000	27.459467
455.000000	2027.000000	27.661667
456.000000	2026.000000	27.793933
457.000000	2025.000000	27.973333
458.000000	2024.000000	28.130200
459.000000	2023.000000	28.272067
460.000000	2022.000000	28.420867
461.000000	2021.000000	28.550733
462.000000	2020.000000	28.651233
463.000000	2019.000000	28.771000
464.000000	2018.000000	28.896033
465.000000	2017.000000	28.969133
466.000000	2016.000000	29.082667
467.000000	2015.000000	29.175367
468.000000	2014.000000	29.270233
469.000000	2013.000000	29.354433
470.000000	2012.000000	29.409067
471.000000	2011.000000	29.509200
472.000000	2010.000000	29.572500
473.000000	2009.000000	29.608400
474.000000	2008.000000	29.671967
475.000000	2007.000000	29.709367
476.000000	2006.000000	29.758900
477.000000	2005.000000	29.786300
478.000000	2004.000000	29.828033
479.000000	2003.000000	29.849433
480.000000	2002.000000	29.857867
481.000000	2001.000000	29.862567
482.000000	2000.000000	29.860467
483.000000	1999.000000	29.848967
484.000000	1998.000000	29.781233
485.000000	1997.000000	29.711333
486.000000	1996.000000	29.649900
487.000000	1995.000000	29.600200
488.000000	1994.000000	29.539567
489.000000	1993.000000	29.541367
490.000000	1992.000000	29.540733
491.000000	1991.000000	29.614367
492.000000	1990.000000	29.698067
493.000000	1989.000000	29.844800
494.000000	1988.000000	30.025467
495.000000	1987.000000	30.250633
496.000000	1986.000000	30.532767
497.000000	1985.000000	30.872467
498.000000	1984.000000	31.206633
499.000000	1983.000000	31.605067
500.000000	1982.000000	32.070367
501.000000	1981.000000	32.538233
502.000000	1980.000000	33.051533
503.000000	1979.000000	33.582333
504.000000	1978.000000	34.148167
505.000000	1977.000000	34.740033
506.000000	1976.000000	35.329600
507.000000	1975.000000	35.929267
508.000000	1974.000000	36.532567
509.000000	1973.000000	37.156800
510.000000	1972.000000	37.809000
511.000000	1971.000000	38.487433
512.000000	1970.000000	39.181000
513.000000	1969.000000	39.897767
514.000000	1968.000000	40.670133
515.000000	1967.000000	41.462033
516.000000	1966.000000	42.274900
517.000000	1965.000000	43.184667
518.000000	1964.000000	44.115533
519.000000	1963.000000	45.088300
520.000000	1962.000000	46.099367
521.000000	1961.000000	47.174733
522.000000	1960.000000	48.313333
523.000000	1959.000000	49.465133
524.000000	1958.000000	50.672433
525.000000	1957.000000	51.897633
526.000000	1956.000000	53.138367
527.000000	1955.000000	54.423600
528.000000	1954.000000	55.714800
529.000000	1953.000000	57.032700
530.000000	1952.000000	58.385900
531.000000	1951.000000	59.760367
532.000000	1950.000000	61.130900
533.000000	1949.000000	62.478933
534.000000	1948.000000	63.850000
535.000000	1947.000000	65.188533
536.000000	1946.000000	66.503233
537.000000	1945.000000	67.789600
538.000000	1944.000000	69.026600
539.000000	1943.000000	70.241867
540.000000	1942.000000	71.396400
541.000000	1941.000000	72.530933
542.000000	1940.000000	73.602000
543.000000	1939.000000	74.631300
544.000000	1938.000000	75.567800
545.000000	1937.000000	76.505200
546.000000	1936.000000	77.365933
547.000000	1935.000000	78.192900
548.000000	1934.000000	78.959000
549.000000	1933.000000	79.676367
550.000000	1932.000000	80.380267
551.000000	1931.000000	81.026567
552.000000	1930.000000	81.634200
553.000000	1929.000000	82.203433
554.000000	1928.000000	82.727433
555.000000	1927.000000	83.256167
556.000000	1926.000000	83.723567
557.000000	1925.000000	84.195533
558.000000	1924.000000	84.645267
559.000000	1923.000000	85.091167
560.000000	1922.000000	85.543700
561.000000	1921.000000	85.923033
562.000000	1920.000000	86.264533
563.000000	1919.000000	86.620133
564.000000	1918.000000	86.926900
565.000000	1917.000000	87.210633
566.000000	1916.000000	87.478800
567.000000	1915.000000	87.702433
568.000000	1914.000000	87.952733
569.000000	1913.000000	88.181167
570.000000	1912.000000	88.379167
571.000000	1911.000000	88.565667
572.000000	1910.000000	88.757567
573.000000	1909.000000	88.938333
574.000000	1908.000000	89.111300
575.000000	1907.000000	89.275800
576.000000	1906.000000	89.403433
577.000000	1905.000000	89.573000
578.000000	1904.000000	89.707533
579.000000	1903.000000	89.826933
580.000000	1902.000000	89.951967
581.000000	1901.000000	90.051833
582.000000	1900.000000	90.142667
583.000000	1899.000000	90.198400
584.000000	1898.000000	90.256067
585.000000	1897.000000	90.294233
586.000000	1896.000000	90.317800
587.000000	1895.000000	90.331767
588.000000	1894.000000	90.339767
589.000000	1893.000000	90.284600
590.000000	1892.000000	90.262100
591.000000	1891.000000	90.211667
592.000000	1890.000000	90.164300
593.000000	1889.000000	90.073033
594.000000	1888.000000	89.958267
595.000000	1887.000000	89.862833
596.000000	1886.000000	89.750533
597.000000	1885.000000	89.629600
598.000000	1884.000000	89.471200
599.000000	1883.000000	89.274500
600.000000	1882.000000	89.121200
601.000000	1881.000000	88.931433
602.000000	1880.000000	88.742367
603.000000	1879.000000	88.517267
604.000000	1878.000000	88.254000
605.000000	1877.000000	88.000067
606.000000	1876.000000	87.687867
607.000000	1875.000000	87.372500
608.000000	1874.000000	87.012233
609.000000	1873.000000	86.603667
610.000000	1872.000000	86.190133
611.000000	1871.000000	85.760067
612.000000	1870.000000	85.251800
613.000000	1869.000000	84.719067
614.000000	1868.000000	84.154233
615.000000	1867.000000	83.566033
616.000000	1866.000000	82.943000
617.000000	1865.000000	82.302167
618.000000	1864.000000	81.657367
619.000000	1863.000000	80.946533
620.000000	1862.000000	80.207400
621.000000	1861.000000	79.456467
622.000000	1860.000000	78.679167
623.000000	1859.000000	77.881600
624.000000	1858.000000	77.068000
625.000000	1857.000000	76.208900
626.000000	1856.000000	75.339133
627.000000	1855.000000	74.442800
628.000000	1854.000000	73.511000
629.000000	1853.000000	72.548333
630.000000	1852.000000	71.573267
631.000000	1851.000000	70.593033
632.000000	1850.000000	69.597533
633.000000	1849.000000	68.567200
634.000000	1848.000000	67.557000
635.000000	1847.000000	66.572867
636.000000	1846.000000	65.636500
637.000000	1845.000000	64.722933
638.000000	1844.000000	63.802267
639.000000	1843.000000	62.924733
640.000000	1842.000000	62.086767
641.000000	1841.000000	61.287200
642.000000	1840.000000	60.521167
643.000000	1839.000000	59.803933
644.000000	1838.000000	59.105733
645.000000	1837.000000	58.435667
646.000000	1836.000000	57.823867
647.000000	1835.000000	57.283300
648.000000	1834.000000	56.823700
649.000000	1833.000000	56.419967
650.000000	1832.000000	56.111533
651.000000	1831.000000	55.903133
652.000000	1830.000000	55.775100
653.000000	1829.000000	55.751433
654.000000	1828.000000	55.870033
655.000000	1827.000000	56.065700
656.000000	1826.000000	56.319467
657.000000	1825.000000	56.688533
658.000000	1824.000000	57.114933
659.000000	1823.000000	57.560533
660.000000	1822.000000	58.055600
661.000000	1821.000000	58.586900
662.000000	1820.000000	59.157133
663.000000	1819.000000	59.747533
664.000000	1818.000000	60.324400
665.000000	1817.000000	60.914533
666.000000	1816.000000	61.510800
667.000000	1815.000000	62.112533
668.000000	1814.000000	62.721067
669.000000	1813.000000	63.333200
670.000000	1812.000000	63.968400
671.000000	1811.000000	64.624233
672.000000	1810.000000	65.249533
673.000000	1809.000000	65.823133
674.000000	1808.000000	66.396567
675.000000	1807.000000	66.991500
676.000000	1806.000000	67.531167
677.000000	1805.000000	68.091000
678.000000	1804.000000	68.615300
679.000000	1803.000000	69.097367
680.000000	1802.000000	69.564500
681.000000	1801.000000	70.031333
682.000000	1800.000000	70.437833
683.000000	1799.000000	70.812767
684.000000	1798.000000	71.158000
685.000000	1797.000000	71.459933
686.000000	1796.000000	71.731733
687.000000	1795.000000	71.980067
688.000000	1794.000000	72.242300
689.000000	1793.000000	72.445333
690.000000	1792.000000	72.656333
691.000000	1791.000000	72.825467
692.000000	1790.000000	72.987133
693.000000	1789.000000	73.143433
694.000000	1788.000000	73.250867
695.000000	1787.000000	73.342833
696.000000	1786.000000	73.397967
697.000000	1785.000000	73.492967
698.000000	1784.000000	73.527867
699.000000	1783.000000	73.553800
700.000000	1782.000000	73.526233
701.000000	1781.000000	73.492233
702.000000	1780.000000	73.445133
703.000000	1779.000000	73.450733
704.000000	1778.000000	73.452167
705.000000	1777.000000	73.411633
706.000000	1776.000000	73.409900
707.000000	1775.000000	73.428800
708.000000	1774.000000	73.445167
709.000000	1773.000000	73.517800
710.000000	1772.000000	73.527133
711.000000	1771.000000	73.628000
712.000000	1770.000000	73.743433
713.000000	1769.000000	73.871300
714.000000	1768.000000	74.015267
715.000000	1767.000000	74.147633
716.000000	1766.000000	74.332667
717.000000	1765.000000	74.535667
718.000000	1764.000000	74.735667
719.000000	1763.000000	74.963233
720.000000	1762.000000	75.188000
721.000000	1761.000000	75.417800
722.000000	1760.000000	75.630467
723.000000	1759.000000	75.836000
724.000000	1758.000000	76.138567
725.000000	1757.000000	76.437267
726.000000	1756.000000	76.709867
727.000000	1755.000000	77.029867
728.000000	1754.000000	77.354500
729.000000	1753.000000	77.678200
730.000000	1752.000000	78.028800
731.000000	1751.000000	78.340167
732.000000	1750.000000	78.727567
733.000000	1749.000000	79.161100
734.000000	1748.000000	79.478767
735.000000	1747.000000	79.872600
736.000000	1746.000000	80.223333
737.000000	1745.000000	80.655600
738.000000	1744.000000	81.051900
739.000000	1743.000000	81.393533
740.000000	1742.000000	81.757333
741.000000	1741.000000	82.167700
742.000000	1740.000000	82.570600
743.000000	1739.000000	82.891900
744.000000	1738.000000	83.219367
745.000000	1737.000000	83.467967
746.000000	1736.000000	83.772433
747.000000	1735.000000	84.043400
748.000000	1734.000000	84.286567
749.000000	1733.000000	84.479667
750.000000	1732.000000	84.627467
751.000000	1731.000000	84.874267
752.000000	1730.000000	84.933433
753.000000	1729.000000	85.066233
754.000000	1728.000000	85.108700
755.000000	1727.000000	85.236633
756.000000	1726.000000	85.249833
757.000000	1725.000000	85.273033
758.000000	1724.000000	85.419267
759.000000	1723.000000	85.358767
760.000000	1722.000000	85.433400
761.000000	1721.000000	85.488033
762.000000	1720.000000	85.482967
763.000000	1719.000000	85.534767
764.000000	1718.000000	85.573100
765.000000	1717.000000	85.571200
766.000000	1716.000000	85.660167
767.000000	1715.000000	85.815433
768.000000	1714.000000	85.794833
769.000000	1713.000000	85.985867
770.000000	1712.000000	86.090633
771.000000	1711.000000	86.243333
772.000000	1710.000000	86.426833
773.000000	1709.000000	86.611500
774.000000	1708.000000	86.690067
775.000000	1707.000000	86.978967
776.000000	1706.000000	87.107333
777.000000	1705.000000	87.345467
778.000000	1704.000000	87.454233
779.000000	1703.000000	87.649567
780.000000	1702.000000	87.860733
781.000000	1701.000000	88.018800
782.000000	1700.000000	88.149300
783.000000	1699.000000	88.100300
784.000000	1698.000000	88.331000
785.000000	1697.000000	88.345633
786.000000	1696.000000	88.368067
787.000000	1695.000000	88.353467
788.000000	1694.000000	88.373967
789.000000	1693.000000	88.417700
790.000000	1692.000000	88.291300
791.000000	1691.000000	88.287733
792.000000	1690.000000	88.082867
793.000000	1689.000000	87.974833
794.000000	1688.000000	87.951467
795.000000	1687.000000	87.682467
796.000000	1686.000000	87.572633
797.000000	1685.000000	87.375200
798.000000	1684.000000	87.241433
799.000000	1683.000000	87.022067
800.000000	1682.000000	86.913667
801.000000	1681.000000	86.540633
802.000000	1680.000000	86.363667
803.000000	1679.000000	86.142300
804.000000	1678.000000	85.913133
805.000000	1677.000000	85.692867
806.000000	1676.000000	85.523633
807.000000	1675.000000	85.386300
808.000000	1674.000000	85.244667
809.000000	1673.000000	85.072233
810.000000	1672.000000	85.118333
811.000000	1671.000000	84.912900
812.000000	1670.000000	84.653800
813.000000	1669.000000	84.582000
814.000000	1668.000000	84.492700
815.000000	1667.000000	84.374400
816.000000	1666.000000	84.440333
817.000000	1665.000000	84.430933
818.000000	1664.000000	84.268700
819.000000	1663.000000	83.974533
820.000000	1662.000000	83.989333
821.000000	1661.000000	83.827833
822.000000	1660.000000	83.790267
823.000000	1659.000000	83.475667
824.000000	1658.000000	83.452700
825.000000	1657.000000	83.283167
826.000000	1656.000000	82.956533
827.000000	1655.000000	82.700767
828.000000	1654.000000	82.720533
829.000000	1653.000000	82.376600
830.000000	1652.000000	81.985433
831.000000	1651.000000	81.611600
832.000000	1650.000000	81.247567
833.000000	1649.000000	80.921833
834.000000	1648.000000	80.689533
835.000000	1647.000000	80.225933
836.000000	1646.000000	79.862767
837.000000	1645.000000	79.266567
838.000000	1644.000000	78.946733
