PE UV       SUBTECH     SPECTRUM    ASCII       PEDS        4.00        
   -1
CICIMAUCR0247-3.Sample.ASC
24/06/24
17:27:09.00
24/06/24
17:27:09.00
Vinicio Soto Monge
C. resplendens. Sex M.Dorsal. 
250,000000
1
Lambda 1050
1050L1511233
PerkinElmer UV WinLab 6.3.2.0749 / 2.02.05 Lambda 900 UV/VIS/NIR, Aug  7 2015 09:38:08

0
0
3350/servo 860,8/2
0
0
UV/VIS
1
1
1
DoubleDePol,CommonBeamDepol,RBeamAtt,SBeamAtt,60mm sphere, WB InGaAs Detector
0
0
0
0
Program
Program
3350/servo 860,8/2
3350/0,2 860,8/0,2
3350/0,2 860,8/0,2
0
15.00
 
 
 
0
 
860,8
319,2
860,8
Front
100
on
S:100 R:100
0
0
0
0
 
0
 
 
 
0
 
 
0
0
0
0
0
 
 
 
 
0
0


0
0
#HDR
-1
-1
#GR
nm
%R
1.0
0.0
2500,000000
-1,000000
2251
8
89,189200
5,680200
#DATA
250.000000	6.258900
251.000000	6.225867
252.000000	6.221933
253.000000	6.226100
254.000000	6.214767
255.000000	6.215733
256.000000	6.215433
257.000000	6.213733
258.000000	6.184233
259.000000	6.179033
260.000000	6.166867
261.000000	6.133567
262.000000	6.114867
263.000000	6.092833
264.000000	6.083633
265.000000	6.044700
266.000000	6.028533
267.000000	5.983533
268.000000	5.947300
269.000000	5.948267
270.000000	5.939300
271.000000	5.921500
272.000000	5.926467
273.000000	5.917800
274.000000	5.922933
275.000000	5.910933
276.000000	5.886600
277.000000	5.870667
278.000000	5.859633
279.000000	5.868767
280.000000	5.890533
281.000000	5.862267
282.000000	5.864833
283.000000	5.849867
284.000000	5.844167
285.000000	5.838800
286.000000	5.839533
287.000000	5.845167
288.000000	5.847700
289.000000	5.848433
290.000000	5.861067
291.000000	5.845533
292.000000	5.847200
293.000000	5.851900
294.000000	5.852533
295.000000	5.844833
296.000000	5.823833
297.000000	5.806633
298.000000	5.849067
299.000000	5.847300
300.000000	5.823733
301.000000	5.793400
302.000000	5.795433
303.000000	5.789433
304.000000	5.799433
305.000000	5.836000
306.000000	5.817300
307.000000	5.802167
308.000000	5.819267
309.000000	5.822000
310.000000	5.832567
311.000000	5.838933
312.000000	5.824833
313.000000	5.790900
314.000000	5.795167
315.000000	5.792667
316.000000	6.060333
317.000000	6.277633
318.000000	6.196633
319.000000	6.565533
320.000000	6.862733
321.000000	6.716400
322.000000	6.416367
323.000000	6.227500
324.000000	6.161433
325.000000	6.091133
326.000000	6.233867
327.000000	6.260200
328.000000	6.202667
329.000000	6.232467
330.000000	6.206367
331.000000	6.141000
332.000000	6.096600
333.000000	6.162900
334.000000	6.284800
335.000000	6.207100
336.000000	6.111167
337.000000	6.097333
338.000000	6.111967
339.000000	6.305767
340.000000	6.283667
341.000000	6.236800
342.000000	6.255200
343.000000	6.175500
344.000000	6.117533
345.000000	6.153933
346.000000	6.177900
347.000000	6.159000
348.000000	6.113833
349.000000	6.151467
350.000000	6.235500
351.000000	6.259600
352.000000	6.300400
353.000000	6.354367
354.000000	6.369867
355.000000	6.362700
356.000000	6.351133
357.000000	6.368667
358.000000	6.432600
359.000000	6.515333
360.000000	6.588100
361.000000	6.508800
362.000000	6.445333
363.000000	6.457833
364.000000	6.558167
365.000000	6.642867
366.000000	6.642533
367.000000	6.599067
368.000000	6.605067
369.000000	6.548067
370.000000	6.544200
371.000000	6.597467
372.000000	6.571733
373.000000	6.571933
374.000000	6.484300
375.000000	6.629833
376.000000	6.784233
377.000000	6.813000
378.000000	6.826667
379.000000	6.845800
380.000000	6.874067
381.000000	6.895033
382.000000	6.919767
383.000000	6.945900
384.000000	6.977567
385.000000	7.003967
386.000000	7.025867
387.000000	7.060033
388.000000	7.094933
389.000000	7.118100
390.000000	7.160267
391.000000	7.188833
392.000000	7.203467
393.000000	7.243433
394.000000	7.276433
395.000000	7.297267
396.000000	7.334033
397.000000	7.370267
398.000000	7.416167
399.000000	7.455133
400.000000	7.488167
401.000000	7.539733
402.000000	7.589633
403.000000	7.631100
404.000000	7.672400
405.000000	7.726100
406.000000	7.797667
407.000000	7.854433
408.000000	7.908467
409.000000	7.979967
410.000000	8.053500
411.000000	8.135767
412.000000	8.231533
413.000000	8.312833
414.000000	8.422200
415.000000	8.553367
416.000000	8.692933
417.000000	8.849067
418.000000	8.992467
419.000000	9.178100
420.000000	9.382167
421.000000	9.590833
422.000000	9.820033
423.000000	10.083933
424.000000	10.383067
425.000000	10.705100
426.000000	11.041900
427.000000	11.418433
428.000000	11.835500
429.000000	12.282600
430.000000	12.755733
431.000000	13.262233
432.000000	13.799167
433.000000	14.373067
434.000000	14.981133
435.000000	15.607967
436.000000	16.260600
437.000000	16.938933
438.000000	17.653967
439.000000	18.359233
440.000000	19.085200
441.000000	19.799200
442.000000	20.547033
443.000000	21.270267
444.000000	21.977167
445.000000	22.697067
446.000000	23.384300
447.000000	24.055967
448.000000	24.706700
449.000000	25.330100
450.000000	25.947467
451.000000	26.536767
452.000000	27.080800
453.000000	27.635167
454.000000	28.159867
455.000000	28.616167
456.000000	29.108633
457.000000	29.560033
458.000000	29.999900
459.000000	30.428133
460.000000	30.798267
461.000000	31.196400
462.000000	31.608933
463.000000	31.969867
464.000000	32.326267
465.000000	32.676933
466.000000	33.017000
467.000000	33.330267
468.000000	33.660933
469.000000	33.957567
470.000000	34.272733
471.000000	34.581167
472.000000	34.878467
473.000000	35.192567
474.000000	35.489233
475.000000	35.775333
476.000000	36.055600
477.000000	36.334367
478.000000	36.574367
479.000000	36.823233
480.000000	37.061700
481.000000	37.295233
482.000000	37.530600
483.000000	37.732367
484.000000	37.933933
485.000000	38.125333
486.000000	38.263733
487.000000	38.396667
488.000000	38.554000
489.000000	38.687900
490.000000	38.782733
491.000000	38.882567
492.000000	38.990767
493.000000	39.050767
494.000000	39.068133
495.000000	39.057133
496.000000	39.053267
497.000000	39.034133
498.000000	39.021233
499.000000	38.982333
500.000000	38.937133
501.000000	38.896567
502.000000	38.839067
503.000000	38.859567
504.000000	38.872533
505.000000	38.941067
506.000000	39.053333
507.000000	39.241733
508.000000	39.491433
509.000000	39.858933
510.000000	40.324167
511.000000	40.904500
512.000000	41.635867
513.000000	42.471200
514.000000	43.409100
515.000000	44.469967
516.000000	45.618100
517.000000	46.848833
518.000000	48.163833
519.000000	49.551800
520.000000	50.986733
521.000000	52.451400
522.000000	53.929967
523.000000	55.413767
524.000000	56.870200
525.000000	58.305033
526.000000	59.678333
527.000000	61.044333
528.000000	62.341767
529.000000	63.604533
530.000000	64.807300
531.000000	65.979767
532.000000	67.104400
533.000000	68.157433
534.000000	69.126167
535.000000	70.044000
536.000000	70.894667
537.000000	71.712233
538.000000	72.453000
539.000000	73.151533
540.000000	73.811767
541.000000	74.419300
542.000000	75.000467
543.000000	75.561500
544.000000	76.076033
545.000000	76.587233
546.000000	77.085400
547.000000	77.566233
548.000000	78.034133
549.000000	78.534033
550.000000	79.002933
551.000000	79.540933
552.000000	80.057067
553.000000	80.617967
554.000000	81.149667
555.000000	81.705533
556.000000	82.246833
557.000000	82.831133
558.000000	83.356033
559.000000	83.860600
560.000000	84.361800
561.000000	84.853033
562.000000	85.340733
563.000000	85.767767
564.000000	86.175633
565.000000	86.533133
566.000000	86.874567
567.000000	87.189467
568.000000	87.483067
569.000000	87.743433
570.000000	87.969867
571.000000	88.216433
572.000000	88.411000
573.000000	88.590100
574.000000	88.753400
575.000000	88.911067
576.000000	89.054333
577.000000	89.156500
578.000000	89.267900
579.000000	89.334800
580.000000	89.398833
581.000000	89.455467
582.000000	89.490033
583.000000	89.532267
584.000000	89.534233
585.000000	89.557467
586.000000	89.581167
587.000000	89.554500
588.000000	89.526133
589.000000	89.484300
590.000000	89.455667
591.000000	89.414833
592.000000	89.359667
593.000000	89.295200
594.000000	89.193333
595.000000	89.072600
596.000000	88.939433
597.000000	88.809367
598.000000	88.646400
599.000000	88.438533
600.000000	88.242533
601.000000	87.997267
602.000000	87.696533
603.000000	87.383633
604.000000	87.042500
605.000000	86.654433
606.000000	86.244533
607.000000	85.788767
608.000000	85.282967
609.000000	84.804767
610.000000	84.244667
611.000000	83.649267
612.000000	83.036400
613.000000	82.435433
614.000000	81.780033
615.000000	81.096167
616.000000	80.427700
617.000000	79.735533
618.000000	78.990933
619.000000	78.202067
620.000000	77.404700
621.000000	76.590800
622.000000	75.708500
623.000000	74.793300
624.000000	73.880567
625.000000	72.906067
626.000000	71.913467
627.000000	70.919100
628.000000	69.908800
629.000000	68.876567
630.000000	67.811833
631.000000	66.741400
632.000000	65.677967
633.000000	64.662967
634.000000	63.710067
635.000000	62.800400
636.000000	61.965467
637.000000	61.206767
638.000000	60.538367
639.000000	59.962633
640.000000	59.454333
641.000000	59.026167
642.000000	58.703467
643.000000	58.480333
644.000000	58.314400
645.000000	58.228200
646.000000	58.243533
647.000000	58.316967
648.000000	58.461967
649.000000	58.671900
650.000000	58.939167
651.000000	59.275100
652.000000	59.682167
653.000000	60.084767
654.000000	60.558567
655.000000	61.106567
656.000000	61.679800
657.000000	62.314333
658.000000	63.001900
659.000000	63.726567
660.000000	64.491267
661.000000	65.272367
662.000000	66.067400
663.000000	66.880433
664.000000	67.699800
665.000000	68.497267
666.000000	69.229367
667.000000	69.921800
668.000000	70.587967
669.000000	71.217700
670.000000	71.813100
671.000000	72.346433
672.000000	72.862833
673.000000	73.320667
674.000000	73.755767
675.000000	74.133033
676.000000	74.507900
677.000000	74.896933
678.000000	75.240167
679.000000	75.566233
680.000000	75.914333
681.000000	76.228367
682.000000	76.515733
683.000000	76.803067
684.000000	77.063333
685.000000	77.293800
686.000000	77.506667
687.000000	77.706167
688.000000	77.831333
689.000000	77.938833
690.000000	78.063400
691.000000	78.182333
692.000000	78.271867
693.000000	78.317767
694.000000	78.380267
695.000000	78.443367
696.000000	78.523733
697.000000	78.547333
698.000000	78.642200
699.000000	78.768367
700.000000	78.906467
701.000000	79.029533
702.000000	79.189533
703.000000	79.365333
704.000000	79.508367
705.000000	79.713333
706.000000	79.861800
707.000000	80.043567
708.000000	80.220733
709.000000	80.342567
710.000000	80.532600
711.000000	80.719967
712.000000	80.843567
713.000000	80.958467
714.000000	81.132067
715.000000	81.325600
716.000000	81.510233
717.000000	81.680000
718.000000	81.844300
719.000000	82.005867
720.000000	82.239167
721.000000	82.460933
722.000000	82.671633
723.000000	82.934600
724.000000	83.170833
725.000000	83.398800
726.000000	83.658733
727.000000	83.877800
728.000000	84.096667
729.000000	84.266600
730.000000	84.493367
731.000000	84.673300
732.000000	84.809667
733.000000	84.967967
734.000000	85.048933
735.000000	85.163900
736.000000	85.301933
737.000000	85.391433
738.000000	85.531733
739.000000	85.653633
740.000000	85.810100
741.000000	85.866633
742.000000	85.951967
743.000000	86.123933
744.000000	86.228633
745.000000	86.396000
746.000000	86.554267
747.000000	86.748933
748.000000	86.881500
749.000000	87.036833
750.000000	87.160900
751.000000	87.441067
752.000000	87.563067
753.000000	87.714100
754.000000	87.824367
755.000000	87.952133
756.000000	88.025400
757.000000	88.129300
758.000000	88.203900
759.000000	88.271767
760.000000	88.233933
761.000000	88.406000
762.000000	88.362067
763.000000	88.389133
764.000000	88.322600
765.000000	88.339100
766.000000	88.344233
767.000000	88.356367
768.000000	88.349000
769.000000	88.346833
770.000000	88.342567
771.000000	88.313367
772.000000	88.335833
773.000000	88.401333
774.000000	88.308200
775.000000	88.344000
776.000000	88.251600
777.000000	88.328100
778.000000	88.334833
779.000000	88.322367
780.000000	88.457967
781.000000	88.452233
782.000000	88.525567
783.000000	88.573233
784.000000	88.738100
785.000000	88.698467
786.000000	88.742467
787.000000	88.887900
788.000000	88.779000
789.000000	88.845567
790.000000	88.988333
791.000000	88.854400
792.000000	88.859133
793.000000	88.904967
794.000000	88.789033
795.000000	88.712100
796.000000	88.606967
797.000000	88.572033
798.000000	88.310600
799.000000	88.147733
800.000000	87.961367
801.000000	87.863600
802.000000	87.713567
803.000000	87.462167
804.000000	87.195567
805.000000	86.992533
806.000000	86.780300
807.000000	86.470167
808.000000	86.372100
809.000000	86.041433
810.000000	85.791767
811.000000	85.590967
812.000000	85.440300
813.000000	85.189800
814.000000	84.956600
815.000000	84.894367
816.000000	84.695133
817.000000	84.551067
818.000000	84.384300
819.000000	84.218767
820.000000	84.085333
821.000000	84.099633
822.000000	83.746533
823.000000	83.802067
824.000000	83.604433
825.000000	83.333267
826.000000	83.192367
827.000000	82.943833
828.000000	82.890900
829.000000	82.696100
830.000000	82.540067
831.000000	82.267633
832.000000	82.082400
833.000000	81.879433
834.000000	81.704500
835.000000	81.230900
836.000000	80.871667
837.000000	80.571333
838.000000	80.497033
839.000000	80.127667
840.000000	79.790567
841.000000	79.575733
842.000000	79.479067
843.000000	78.862100
844.000000	78.542167
845.000000	78.328600
846.000000	77.972433
847.000000	77.489967
848.000000	77.315700
849.000000	77.065067
850.000000	76.909267
851.000000	76.760167
852.000000	76.075767
853.000000	76.514700
854.000000	76.117967
855.000000	76.015333
856.000000	75.698267
857.000000	75.452533
858.000000	75.722044
859.000000	75.537528
860.000000	75.380293
861.000000	75.222222
862.000000	75.072612
863.000000	74.922744
864.000000	74.768979
865.000000	74.628618
866.000000	74.507534
867.000000	74.364089
868.000000	74.232922
869.000000	74.097749
870.000000	73.959284
871.000000	73.826669
872.000000	73.767736
873.000000	73.799599
874.000000	73.888708
875.000000	73.979159
876.000000	74.027995
877.000000	74.074986
878.000000	74.092718
879.000000	74.082751
880.000000	74.057872
881.000000	74.037797
882.000000	74.002630
883.000000	73.957721
884.000000	73.911869
885.000000	73.860753
886.000000	73.810829
887.000000	73.771940
888.000000	73.715930
889.000000	73.656344
890.000000	73.589146
891.000000	73.519201
892.000000	73.449398
893.000000	73.379130
894.000000	73.302406
895.000000	73.221200
896.000000	73.135882
897.000000	73.050712
898.000000	72.962894
899.000000	72.872311
900.000000	72.788404
901.000000	72.699002
902.000000	72.616278
903.000000	72.542619
904.000000	72.459710
905.000000	72.382040
906.000000	72.323513
907.000000	72.253912
908.000000	72.193832
909.000000	72.137942
910.000000	72.084374
911.000000	72.036499
912.000000	71.989352
913.000000	71.944251
914.000000	71.903409
915.000000	71.865236
916.000000	71.822290
917.000000	71.790738
918.000000	71.759886
919.000000	71.719819
920.000000	71.679147
921.000000	71.633633
922.000000	71.593205
923.000000	71.548312
924.000000	71.491094
925.000000	71.454232
926.000000	71.414122
927.000000	71.374196
928.000000	71.324359
929.000000	71.268376
930.000000	71.229753
931.000000	71.177302
932.000000	71.119634
933.000000	71.051650
934.000000	70.992287
935.000000	70.930751
936.000000	70.872537
937.000000	70.810556
938.000000	70.735987
939.000000	70.674547
940.000000	70.611716
941.000000	70.543718
942.000000	70.477006
943.000000	70.406750
944.000000	70.338621
945.000000	70.267213
946.000000	70.188022
947.000000	70.116823
948.000000	70.058052
949.000000	69.985243
950.000000	69.913688
951.000000	69.845697
952.000000	69.778406
953.000000	69.716489
954.000000	69.655541
955.000000	69.586801
956.000000	69.520847
957.000000	69.478257
958.000000	69.419280
959.000000	69.356995
960.000000	69.303267
961.000000	69.243781
962.000000	69.197097
963.000000	69.137715
964.000000	69.071165
965.000000	69.023029
966.000000	68.976743
967.000000	68.932789
968.000000	68.881432
969.000000	68.830603
970.000000	68.791906
971.000000	68.759323
972.000000	68.714696
973.000000	68.683284
974.000000	68.643253
975.000000	68.601611
976.000000	68.570632
977.000000	68.550994
978.000000	68.508854
979.000000	68.465142
980.000000	68.445700
981.000000	68.415360
982.000000	68.387181
983.000000	68.359795
984.000000	68.333245
985.000000	68.314490
986.000000	68.297710
987.000000	68.280966
988.000000	68.266484
989.000000	68.250457
990.000000	68.247163
991.000000	68.251069
992.000000	68.245050
993.000000	68.248770
994.000000	68.253862
995.000000	68.264177
996.000000	68.274941
997.000000	68.287857
998.000000	68.311206
999.000000	68.332666
1000.000000	68.349474
1001.000000	68.370388
1002.000000	68.384657
1003.000000	68.406470
1004.000000	68.423293
1005.000000	68.444777
1006.000000	68.459654
1007.000000	68.483958
1008.000000	68.497694
1009.000000	68.524945
1010.000000	68.538883
1011.000000	68.563986
1012.000000	68.577676
1013.000000	68.607490
1014.000000	68.631640
1015.000000	68.671271
1016.000000	68.712546
1017.000000	68.756591
1018.000000	68.794253
1019.000000	68.828701
1020.000000	68.868642
1021.000000	68.921678
1022.000000	68.969753
1023.000000	69.027181
1024.000000	69.073454
1025.000000	69.118307
1026.000000	69.170017
1027.000000	69.228275
1028.000000	69.284498
1029.000000	69.335010
1030.000000	69.405175
1031.000000	69.445530
1032.000000	69.494088
1033.000000	69.543954
1034.000000	69.597874
1035.000000	69.649000
1036.000000	69.706565
1037.000000	69.763959
1038.000000	69.818912
1039.000000	69.870280
1040.000000	69.932265
1041.000000	69.978082
1042.000000	70.029514
1043.000000	70.092563
1044.000000	70.158947
1045.000000	70.223839
1046.000000	70.280234
1047.000000	70.341034
1048.000000	70.401594
1049.000000	70.468293
1050.000000	70.528928
1051.000000	70.593167
1052.000000	70.661816
1053.000000	70.727097
1054.000000	70.801946
1055.000000	70.850535
1056.000000	70.927642
1057.000000	70.985879
1058.000000	71.050057
1059.000000	71.099622
1060.000000	71.177655
1061.000000	71.229723
1062.000000	71.288512
1063.000000	71.336113
1064.000000	71.385865
1065.000000	71.440174
1066.000000	71.474473
1067.000000	71.525643
1068.000000	71.582100
1069.000000	71.611052
1070.000000	71.663078
1071.000000	71.706705
1072.000000	71.738716
1073.000000	71.773951
1074.000000	71.810380
1075.000000	71.853646
1076.000000	71.887875
1077.000000	71.915286
1078.000000	71.959660
1079.000000	71.989736
1080.000000	72.016804
1081.000000	72.037252
1082.000000	72.075051
1083.000000	72.109339
1084.000000	72.134463
1085.000000	72.149168
1086.000000	72.177155
1087.000000	72.211471
1088.000000	72.238655
1089.000000	72.261693
1090.000000	72.271300
1091.000000	72.303480
1092.000000	72.314718
1093.000000	72.338435
1094.000000	72.358581
1095.000000	72.361224
1096.000000	72.376703
1097.000000	72.395884
1098.000000	72.415449
1099.000000	72.430298
1100.000000	72.437512
1101.000000	72.455670
1102.000000	72.443444
1103.000000	72.458706
1104.000000	72.472783
1105.000000	72.475197
1106.000000	72.490171
1107.000000	72.498139
1108.000000	72.516762
1109.000000	72.521818
1110.000000	72.527044
1111.000000	72.545757
1112.000000	72.542658
1113.000000	72.554236
1114.000000	72.567253
1115.000000	72.575864
1116.000000	72.576399
1117.000000	72.567210
1118.000000	72.551997
1119.000000	72.533662
1120.000000	72.515804
1121.000000	72.495790
1122.000000	72.451880
1123.000000	72.403150
1124.000000	72.312320
1125.000000	72.235201
1126.000000	72.125153
1127.000000	72.010272
1128.000000	71.861974
1129.000000	71.682792
1130.000000	71.470521
1131.000000	71.235417
1132.000000	70.983927
1133.000000	70.737669
1134.000000	70.458154
1135.000000	70.121753
1136.000000	69.777247
1137.000000	69.452791
1138.000000	69.136663
1139.000000	68.833629
1140.000000	68.545214
1141.000000	68.270728
1142.000000	68.013162
1143.000000	67.776184
1144.000000	67.556972
1145.000000	67.359114
1146.000000	67.175944
1147.000000	67.011262
1148.000000	66.849009
1149.000000	66.700463
1150.000000	66.547368
1151.000000	66.397402
1152.000000	66.239274
1153.000000	66.053169
1154.000000	65.853381
1155.000000	65.639267
1156.000000	65.416059
1157.000000	65.181592
1158.000000	64.933969
1159.000000	64.686217
1160.000000	64.440318
1161.000000	64.192808
1162.000000	63.948468
1163.000000	63.702758
1164.000000	63.468072
1165.000000	63.246188
1166.000000	63.021252
1167.000000	62.794727
