PE UV       SUBTECH     SPECTRUM    ASCII       PEDS        4.00        
   -1
CICIMAUCR0253-3.Sample.ASC
24/06/26
14:04:18.00
24/06/26
14:04:18.00
Vinicio Soto Monge
C. resplendens. Sex M. Dorsal.
250,000000
1
Lambda 1050
1050L1511233
PerkinElmer UV WinLab 6.3.2.0749 / 2.02.05 Lambda 900 UV/VIS/NIR, Aug  7 2015 09:38:08

0
0
3350/servo 860,8/2
0
0
UV/VIS
1
1
1
DoubleDePol,CommonBeamDepol,RBeamAtt,SBeamAtt,60mm sphere, WB InGaAs Detector
0
0
0
0
Program
Program
3350/servo 860,8/2
3350/0,2 860,8/0,2
3350/0,2 860,8/0,2
0
15.00
 
 
 
0
 
860,8
319,2
860,8
Front
100
on
S:100 R:100
0
0
0
0
 
0
 
 
 
0
 
 
0
0
0
0
0
 
 
 
 
0
0


0
0
#HDR
-1
-1
#GR
nm
%R
1.0
0.0
2500,000000
-1,000000
2251
8
90,933900
5,761100
#DATA
250.000000	6.433533
251.000000	6.415100
252.000000	6.441200
253.000000	6.401633
254.000000	6.387833
255.000000	6.379000
256.000000	6.382167
257.000000	6.370033
258.000000	6.375533
259.000000	6.336633
260.000000	6.292867
261.000000	6.290033
262.000000	6.262033
263.000000	6.248467
264.000000	6.224467
265.000000	6.181567
266.000000	6.151767
267.000000	6.140367
268.000000	6.101700
269.000000	6.090100
270.000000	6.063900
271.000000	6.055500
272.000000	6.061167
273.000000	6.046100
274.000000	6.012667
275.000000	6.024767
276.000000	6.026000
277.000000	5.977100
278.000000	5.974267
279.000000	5.984900
280.000000	5.977867
281.000000	5.955167
282.000000	5.961233
283.000000	5.956400
284.000000	5.961067
285.000000	5.959733
286.000000	5.956133
287.000000	5.939067
288.000000	5.944667
289.000000	5.918500
290.000000	5.926467
291.000000	5.932233
292.000000	5.903633
293.000000	5.907233
294.000000	5.898800
295.000000	5.906533
296.000000	5.920400
297.000000	5.904067
298.000000	5.904567
299.000000	5.925367
300.000000	5.893700
301.000000	5.883567
302.000000	5.898900
303.000000	5.907867
304.000000	5.900000
305.000000	5.890333
306.000000	5.878033
307.000000	5.871567
308.000000	5.877300
309.000000	5.884200
310.000000	5.875633
311.000000	5.860833
312.000000	5.845700
313.000000	5.867800
314.000000	5.849433
315.000000	5.853400
316.000000	6.373533
317.000000	6.786067
318.000000	6.406667
319.000000	6.534200
320.000000	6.666233
321.000000	6.438233
322.000000	6.230100
323.000000	6.033267
324.000000	6.393567
325.000000	6.551767
326.000000	6.454467
327.000000	6.316667
328.000000	6.166067
329.000000	6.238700
330.000000	6.213533
331.000000	6.237500
332.000000	6.352100
333.000000	6.324833
334.000000	6.267467
335.000000	6.242367
336.000000	6.085233
337.000000	5.966700
338.000000	5.931967
339.000000	6.021933
340.000000	6.066900
341.000000	6.059000
342.000000	6.208200
343.000000	6.194833
344.000000	6.112967
345.000000	6.137333
346.000000	6.164833
347.000000	6.174400
348.000000	6.169367
349.000000	6.305133
350.000000	6.400767
351.000000	6.372933
352.000000	6.281767
353.000000	6.286800
354.000000	6.431400
355.000000	6.378000
356.000000	6.385900
357.000000	6.454000
358.000000	6.360467
359.000000	6.341233
360.000000	6.357167
361.000000	6.435267
362.000000	6.479467
363.000000	6.507667
364.000000	6.534200
365.000000	6.570567
366.000000	6.622600
367.000000	6.586300
368.000000	6.640600
369.000000	6.669133
370.000000	6.637000
371.000000	6.685633
372.000000	6.658533
373.000000	6.665900
374.000000	6.646433
375.000000	6.986167
376.000000	7.124167
377.000000	7.117933
378.000000	7.175867
379.000000	7.241667
380.000000	7.292700
381.000000	7.349167
382.000000	7.426033
383.000000	7.497167
384.000000	7.578467
385.000000	7.649267
386.000000	7.740233
387.000000	7.847967
388.000000	7.940067
389.000000	8.034533
390.000000	8.160367
391.000000	8.276367
392.000000	8.406967
393.000000	8.558267
394.000000	8.691300
395.000000	8.847033
396.000000	9.014100
397.000000	9.194467
398.000000	9.364600
399.000000	9.574800
400.000000	9.783733
401.000000	10.014767
402.000000	10.272567
403.000000	10.510667
404.000000	10.784633
405.000000	11.044667
406.000000	11.344333
407.000000	11.649833
408.000000	11.970867
409.000000	12.297667
410.000000	12.657600
411.000000	13.009933
412.000000	13.376433
413.000000	13.767233
414.000000	14.167067
415.000000	14.564967
416.000000	14.965800
417.000000	15.355867
418.000000	15.777600
419.000000	16.195400
420.000000	16.600033
421.000000	17.020433
422.000000	17.425267
423.000000	17.856467
424.000000	18.253033
425.000000	18.651633
426.000000	19.053733
427.000000	19.452200
428.000000	19.827600
429.000000	20.206800
430.000000	20.575933
431.000000	20.913567
432.000000	21.261900
433.000000	21.618567
434.000000	21.931100
435.000000	22.271900
436.000000	22.574033
437.000000	22.870567
438.000000	23.145467
439.000000	23.418500
440.000000	23.667467
441.000000	23.911467
442.000000	24.129000
443.000000	24.339867
444.000000	24.542633
445.000000	24.721033
446.000000	24.896500
447.000000	25.050067
448.000000	25.171900
449.000000	25.272200
450.000000	25.368600
451.000000	25.436767
452.000000	25.505967
453.000000	25.566600
454.000000	25.582133
455.000000	25.569867
456.000000	25.570200
457.000000	25.513400
458.000000	25.473933
459.000000	25.399933
460.000000	25.326733
461.000000	25.210233
462.000000	25.090333
463.000000	24.950167
464.000000	24.820700
465.000000	24.679667
466.000000	24.511767
467.000000	24.337800
468.000000	24.181733
469.000000	24.020433
470.000000	23.854033
471.000000	23.675033
472.000000	23.523133
473.000000	23.395867
474.000000	23.276267
475.000000	23.162833
476.000000	23.086800
477.000000	23.038567
478.000000	23.045400
479.000000	23.052333
480.000000	23.128233
481.000000	23.239233
482.000000	23.405900
483.000000	23.607567
484.000000	23.861767
485.000000	24.137267
486.000000	24.440300
487.000000	24.824200
488.000000	25.195200
489.000000	25.617733
490.000000	26.065000
491.000000	26.547667
492.000000	27.038733
493.000000	27.546467
494.000000	28.059433
495.000000	28.579133
496.000000	29.085133
497.000000	29.602600
498.000000	30.097267
499.000000	30.594067
500.000000	31.066233
501.000000	31.543400
502.000000	32.013233
503.000000	32.461767
504.000000	32.918033
505.000000	33.353933
506.000000	33.801333
507.000000	34.221467
508.000000	34.661200
509.000000	35.095867
510.000000	35.533067
511.000000	35.973733
512.000000	36.464367
513.000000	36.963400
514.000000	37.511067
515.000000	38.090300
516.000000	38.701633
517.000000	39.355900
518.000000	40.069700
519.000000	40.822400
520.000000	41.646933
521.000000	42.544400
522.000000	43.487567
523.000000	44.502333
524.000000	45.581567
525.000000	46.691433
526.000000	47.849533
527.000000	49.044667
528.000000	50.290833
529.000000	51.588800
530.000000	52.909167
531.000000	54.291733
532.000000	55.699033
533.000000	57.147167
534.000000	58.610900
535.000000	60.060767
536.000000	61.518700
537.000000	62.956433
538.000000	64.389067
539.000000	65.782700
540.000000	67.157533
541.000000	68.501967
542.000000	69.785900
543.000000	71.047967
544.000000	72.205767
545.000000	73.321367
546.000000	74.327533
547.000000	75.317133
548.000000	76.221100
549.000000	77.046400
550.000000	77.847833
551.000000	78.578433
552.000000	79.264400
553.000000	79.899700
554.000000	80.490900
555.000000	81.073300
556.000000	81.593633
557.000000	82.078800
558.000000	82.548700
559.000000	83.006900
560.000000	83.492567
561.000000	83.891900
562.000000	84.292800
563.000000	84.673700
564.000000	85.030400
565.000000	85.370300
566.000000	85.690467
567.000000	86.001467
568.000000	86.277067
569.000000	86.562467
570.000000	86.821867
571.000000	87.053900
572.000000	87.286733
573.000000	87.509733
574.000000	87.730467
575.000000	87.948067
576.000000	88.148833
577.000000	88.368033
578.000000	88.546367
579.000000	88.713500
580.000000	88.883100
581.000000	89.058467
582.000000	89.228200
583.000000	89.369433
584.000000	89.488633
585.000000	89.588267
586.000000	89.689633
587.000000	89.761333
588.000000	89.803933
589.000000	89.820800
590.000000	89.817967
591.000000	89.798033
592.000000	89.741400
593.000000	89.660833
594.000000	89.545233
595.000000	89.410700
596.000000	89.249833
597.000000	89.071600
598.000000	88.853833
599.000000	88.596233
600.000000	88.351567
601.000000	88.085733
602.000000	87.768533
603.000000	87.456167
604.000000	87.124800
605.000000	86.785100
606.000000	86.451133
607.000000	86.129167
608.000000	85.801833
609.000000	85.423733
610.000000	85.051533
611.000000	84.671333
612.000000	84.253200
613.000000	83.809700
614.000000	83.337800
615.000000	82.838533
616.000000	82.287533
617.000000	81.700133
618.000000	81.057900
619.000000	80.351300
620.000000	79.579600
621.000000	78.746900
622.000000	77.852367
623.000000	76.886967
624.000000	75.835967
625.000000	74.739300
626.000000	73.625633
627.000000	72.471000
628.000000	71.263233
629.000000	70.036133
630.000000	68.815467
631.000000	67.596833
632.000000	66.413933
633.000000	65.279633
634.000000	64.163767
635.000000	63.104733
636.000000	62.125567
637.000000	61.190667
638.000000	60.309267
639.000000	59.446200
640.000000	58.633567
641.000000	57.889100
642.000000	57.162267
643.000000	56.464800
644.000000	55.807567
645.000000	55.212333
646.000000	54.664233
647.000000	54.195933
648.000000	53.813600
649.000000	53.531433
650.000000	53.362400
651.000000	53.297967
652.000000	53.386000
653.000000	53.641733
654.000000	54.053700
655.000000	54.581367
656.000000	55.246600
657.000000	56.057300
658.000000	56.976467
659.000000	57.962900
660.000000	59.029700
661.000000	60.150633
662.000000	61.282133
663.000000	62.408467
664.000000	63.500300
665.000000	64.542367
666.000000	65.512100
667.000000	66.412967
668.000000	67.247367
669.000000	68.014833
670.000000	68.726067
671.000000	69.389200
672.000000	70.020533
673.000000	70.622133
674.000000	71.178133
675.000000	71.704767
676.000000	72.246633
677.000000	72.845033
678.000000	73.437300
679.000000	74.047500
680.000000	74.685500
681.000000	75.252267
682.000000	75.881467
683.000000	76.527433
684.000000	77.175767
685.000000	77.839633
686.000000	78.448967
687.000000	79.036700
688.000000	79.596867
689.000000	80.137267
690.000000	80.654800
691.000000	81.086067
692.000000	81.481333
693.000000	81.895733
694.000000	82.238100
695.000000	82.557967
696.000000	82.824200
697.000000	83.078767
698.000000	83.351467
699.000000	83.609167
700.000000	83.876733
701.000000	84.076767
702.000000	84.281167
703.000000	84.576633
704.000000	84.859100
705.000000	85.099900
706.000000	85.336800
707.000000	85.538167
708.000000	85.780567
709.000000	86.037967
710.000000	86.310567
711.000000	86.612067
712.000000	86.844433
713.000000	87.000333
714.000000	87.241367
715.000000	87.403167
716.000000	87.564033
717.000000	87.675467
718.000000	87.903333
719.000000	87.988300
720.000000	88.101100
721.000000	88.201100
722.000000	88.319567
723.000000	88.441033
724.000000	88.610300
725.000000	88.741000
726.000000	88.854633
727.000000	89.005200
728.000000	89.169667
729.000000	89.409033
730.000000	89.654833
731.000000	89.783600
732.000000	90.037233
733.000000	90.291200
734.000000	90.483867
735.000000	90.711300
736.000000	90.979300
737.000000	91.197300
738.000000	91.418567
739.000000	91.521233
740.000000	91.680600
741.000000	91.909867
742.000000	92.009667
743.000000	92.059033
744.000000	92.103133
745.000000	92.151033
746.000000	92.047533
747.000000	92.112067
748.000000	92.152400
749.000000	92.033567
750.000000	92.057767
751.000000	91.984900
752.000000	92.040100
753.000000	91.954467
754.000000	91.882200
755.000000	91.819033
756.000000	91.722733
757.000000	91.682400
758.000000	91.564267
759.000000	91.567567
760.000000	91.506933
761.000000	91.304267
762.000000	91.193333
763.000000	90.970300
764.000000	90.959267
765.000000	90.880700
766.000000	90.644133
767.000000	90.472533
768.000000	90.396433
769.000000	90.165100
770.000000	90.143300
771.000000	89.953500
772.000000	89.773500
773.000000	89.687400
774.000000	89.683667
775.000000	89.515633
776.000000	89.461500
777.000000	89.417767
778.000000	89.322333
779.000000	89.127500
780.000000	89.004367
781.000000	88.943533
782.000000	88.809900
783.000000	88.659300
784.000000	88.487933
785.000000	88.434100
786.000000	88.084133
787.000000	87.800767
788.000000	87.529400
789.000000	87.387067
790.000000	86.997467
791.000000	86.661400
792.000000	86.454600
793.000000	86.111667
794.000000	85.670300
795.000000	85.496333
796.000000	85.176233
797.000000	84.854567
798.000000	84.625600
799.000000	84.398433
800.000000	83.995000
801.000000	83.704267
802.000000	83.337600
803.000000	83.092267
804.000000	82.820167
805.000000	82.544833
806.000000	82.239267
807.000000	81.923800
808.000000	81.655833
809.000000	81.407767
810.000000	81.060100
811.000000	80.836867
812.000000	80.633167
813.000000	80.330800
814.000000	80.222433
815.000000	79.903100
816.000000	79.778700
817.000000	79.469567
818.000000	79.328467
819.000000	79.106200
820.000000	78.760600
821.000000	78.579667
822.000000	78.246633
823.000000	77.921967
824.000000	77.680267
825.000000	77.344967
826.000000	77.094733
827.000000	76.793833
828.000000	76.484733
829.000000	76.137733
830.000000	75.766500
831.000000	75.567700
832.000000	75.228033
833.000000	74.955833
834.000000	74.791233
835.000000	74.559433
836.000000	74.514800
837.000000	74.462800
838.000000	74.237300
839.000000	74.049833
840.000000	73.990400
841.000000	73.950800
842.000000	73.900300
843.000000	73.831400
844.000000	73.596967
845.000000	73.902167
846.000000	73.749667
847.000000	74.020800
848.000000	73.761967
849.000000	73.772500
850.000000	73.551967
851.000000	73.540767
852.000000	73.549100
853.000000	73.513733
854.000000	73.361500
855.000000	73.624733
856.000000	73.959933
857.000000	73.695800
858.000000	73.760156
859.000000	73.665288
860.000000	73.561415
861.000000	73.457968
862.000000	73.358648
863.000000	73.234629
864.000000	73.122376
865.000000	73.004620
866.000000	72.877296
867.000000	72.754542
868.000000	72.601709
869.000000	72.440501
870.000000	72.260735
871.000000	72.127691
872.000000	72.058424
873.000000	72.065394
874.000000	72.091544
875.000000	72.084433
876.000000	72.053755
877.000000	71.999361
878.000000	71.904126
879.000000	71.776364
880.000000	71.644547
881.000000	71.494966
882.000000	71.342240
883.000000	71.174300
884.000000	71.010514
885.000000	70.845064
886.000000	70.677002
887.000000	70.509126
888.000000	70.338604
889.000000	70.163342
890.000000	69.993674
891.000000	69.816061
892.000000	69.660622
893.000000	69.493905
894.000000	69.339095
895.000000	69.192493
896.000000	69.048490
897.000000	68.900939
898.000000	68.765227
899.000000	68.627960
900.000000	68.494736
901.000000	68.357979
902.000000	68.234030
903.000000	68.106321
904.000000	67.979727
905.000000	67.860294
906.000000	67.729497
907.000000	67.589086
908.000000	67.465727
909.000000	67.334724
910.000000	67.207930
911.000000	67.078745
912.000000	66.960483
913.000000	66.845190
914.000000	66.733102
915.000000	66.625377
916.000000	66.516423
917.000000	66.411423
918.000000	66.308739
919.000000	66.197590
920.000000	66.087139
921.000000	65.983429
922.000000	65.872693
923.000000	65.750652
924.000000	65.638043
925.000000	65.528199
926.000000	65.408829
927.000000	65.283714
928.000000	65.147546
929.000000	65.016534
930.000000	64.905252
931.000000	64.780294
932.000000	64.650458
933.000000	64.533003
934.000000	64.410809
935.000000	64.300639
936.000000	64.198086
937.000000	64.085823
938.000000	63.989028
939.000000	63.894699
940.000000	63.808811
941.000000	63.720732
942.000000	63.620231
943.000000	63.533256
944.000000	63.440049
945.000000	63.334083
946.000000	63.225434
947.000000	63.118871
948.000000	63.004350
949.000000	62.889783
950.000000	62.785634
951.000000	62.669316
952.000000	62.550598
953.000000	62.452195
954.000000	62.355253
955.000000	62.255097
956.000000	62.156550
957.000000	62.072181
958.000000	62.003437
959.000000	61.930707
960.000000	61.859357
961.000000	61.788964
962.000000	61.729250
963.000000	61.676996
964.000000	61.623210
965.000000	61.573776
966.000000	61.527883
967.000000	61.487170
968.000000	61.447159
969.000000	61.407841
970.000000	61.360141
971.000000	61.320104
972.000000	61.283707
973.000000	61.257916
974.000000	61.219265
975.000000	61.185822
976.000000	61.148779
977.000000	61.114438
978.000000	61.089668
979.000000	61.069731
980.000000	61.041102
981.000000	61.011453
982.000000	60.992350
983.000000	60.973938
984.000000	60.943948
985.000000	60.921660
986.000000	60.912364
987.000000	60.903342
988.000000	60.888439
989.000000	60.870199
990.000000	60.856397
991.000000	60.861088
992.000000	60.852989
993.000000	60.840360
994.000000	60.832828
995.000000	60.821658
996.000000	60.821241
997.000000	60.824839
998.000000	60.839824
999.000000	60.847478
1000.000000	60.852132
1001.000000	60.866549
1002.000000	60.884717
1003.000000	60.898232
1004.000000	60.916366
1005.000000	60.938255
1006.000000	60.964651
1007.000000	60.998831
1008.000000	61.033499
1009.000000	61.057455
1010.000000	61.096284
1011.000000	61.152920
1012.000000	61.198302
1013.000000	61.256678
1014.000000	61.318624
1015.000000	61.392613
1016.000000	61.455622
1017.000000	61.524567
1018.000000	61.611009
1019.000000	61.695976
1020.000000	61.776618
1021.000000	61.869893
1022.000000	61.962317
1023.000000	62.042567
1024.000000	62.142089
1025.000000	62.231484
1026.000000	62.321560
1027.000000	62.412786
1028.000000	62.505395
1029.000000	62.584374
1030.000000	62.670238
1031.000000	62.769382
1032.000000	62.845845
1033.000000	62.923194
1034.000000	63.003097
1035.000000	63.082218
1036.000000	63.148271
1037.000000	63.232966
1038.000000	63.308081
1039.000000	63.375517
1040.000000	63.433031
1041.000000	63.501237
1042.000000	63.567815
1043.000000	63.641419
1044.000000	63.698074
1045.000000	63.751181
1046.000000	63.818188
1047.000000	63.877718
1048.000000	63.931348
1049.000000	63.999395
1050.000000	64.055586
1051.000000	64.113582
1052.000000	64.168463
1053.000000	64.239635
1054.000000	64.303310
1055.000000	64.361463
1056.000000	64.417953
1057.000000	64.484894
1058.000000	64.532076
1059.000000	64.594400
1060.000000	64.645505
1061.000000	64.700948
1062.000000	64.756850
1063.000000	64.810975
1064.000000	64.860309
1065.000000	64.928159
1066.000000	64.972779
1067.000000	65.024642
1068.000000	65.070885
1069.000000	65.124098
1070.000000	65.172008
1071.000000	65.218001
1072.000000	65.270143
1073.000000	65.311656
1074.000000	65.372902
1075.000000	65.416394
1076.000000	65.472664
1077.000000	65.518277
1078.000000	65.553167
1079.000000	65.607578
1080.000000	65.659567
1081.000000	65.714205
1082.000000	65.745900
1083.000000	65.800127
1084.000000	65.845201
1085.000000	65.881611
1086.000000	65.929773
1087.000000	65.965200
1088.000000	66.015680
1089.000000	66.061755
1090.000000	66.089399
1091.000000	66.128285
1092.000000	66.152162
1093.000000	66.199642
1094.000000	66.233961
1095.000000	66.251404
1096.000000	66.259243
1097.000000	66.297833
1098.000000	66.323292
1099.000000	66.342396
1100.000000	66.339309
1101.000000	66.367708
1102.000000	66.379918
1103.000000	66.393022
1104.000000	66.404400
1105.000000	66.409895
1106.000000	66.415984
1107.000000	66.411497
1108.000000	66.430428
1109.000000	66.433568
1110.000000	66.444691
1111.000000	66.448669
1112.000000	66.452463
1113.000000	66.449441
1114.000000	66.454607
1115.000000	66.445117
1116.000000	66.451188
1117.000000	66.429424
1118.000000	66.401320
1119.000000	66.368868
1120.000000	66.338828
1121.000000	66.297154
1122.000000	66.235626
1123.000000	66.157915
1124.000000	66.063521
1125.000000	65.973913
1126.000000	65.847703
1127.000000	65.705471
1128.000000	65.533954
1129.000000	65.325708
1130.000000	65.088887
1131.000000	64.832390
1132.000000	64.547752
1133.000000	64.277988
1134.000000	63.946437
1135.000000	63.573351
1136.000000	63.226119
1137.000000	62.866312
1138.000000	62.547300
1139.000000	62.244643
1140.000000	61.953096
1141.000000	61.664382
1142.000000	61.391474
1143.000000	61.167656
1144.000000	60.942476
1145.000000	60.749433
1146.000000	60.591100
1147.000000	60.441562
1148.000000	60.307769
1149.000000	60.182376
1150.000000	60.056119
1151.000000	59.929813
1152.000000	59.783604
1153.000000	59.611779
1154.000000	59.424593
1155.000000	59.208510
1156.000000	58.988020
1157.000000	58.753555
1158.000000	58.500662
1159.000000	58.253583
1160.000000	58.003478
1161.000000	57.754474
1162.000000	57.493057
1163.000000	57.240834
1164.000000	56.999057
1165.000000	56.761202
1166.000000	56.530646
