PE UV       SUBTECH     SPECTRUM    ASCII       PEDS        4.00        
   -1
CICIMAUCR0210-3.ASC
24/06/06
17:17:43.00
24/06/06
17:17:43.00
Vinicio Soto Monge
C. resplendens. Sex F. Dorsal
250,000000
1
Lambda 1050
1050L1511233
PerkinElmer UV WinLab 6.3.2.0749 / 2.02.05 Lambda 900 UV/VIS/NIR, Aug  7 2015 09:38:08

0
0
3350/servo 860,8/2
0
0
UV/VIS
1
1
1
DoubleDePol,CommonBeamDepol,RBeamAtt,SBeamAtt,60mm sphere, WB InGaAs Detector
0
0
0
0
Program
Program
3350/servo 860,8/2
3350/0,2 860,8/0,2
3350/0,2 860,8/0,2
0
15.00
 
 
 
0
 
860,8
319,2
860,8
Front
100
on
S:100 R:100
0
0
0
0
 
0
 
 
 
0
 
 
0
0
0
0
0
 
 
 
 
0
0


0
0
#HDR
-1
-1
#GR
nm
%R
1.0
0.0
2500,000000
-1,000000
2251
8
91,100500
5,644400
#DATA
250.000000	2232.000000	6.154633
251.000000	2231.000000	6.131200
252.000000	2230.000000	6.156667
253.000000	2229.000000	6.146367
254.000000	2228.000000	6.116033
255.000000	2227.000000	6.100867
256.000000	2226.000000	6.109267
257.000000	2225.000000	6.103567
258.000000	2224.000000	6.070467
259.000000	2223.000000	6.071033
260.000000	2222.000000	6.048633
261.000000	2221.000000	6.001267
262.000000	2220.000000	5.998800
263.000000	2219.000000	5.955900
264.000000	2218.000000	5.944667
265.000000	2217.000000	5.922067
266.000000	2216.000000	5.903667
267.000000	2215.000000	5.905067
268.000000	2214.000000	5.880500
269.000000	2213.000000	5.863133
270.000000	2212.000000	5.831933
271.000000	2211.000000	5.834467
272.000000	2210.000000	5.827233
273.000000	2209.000000	5.812167
274.000000	2208.000000	5.803867
275.000000	2207.000000	5.782967
276.000000	2206.000000	5.754567
277.000000	2205.000000	5.744900
278.000000	2204.000000	5.754500
279.000000	2203.000000	5.751333
280.000000	2202.000000	5.717033
281.000000	2201.000000	5.712800
282.000000	2200.000000	5.692000
283.000000	2199.000000	5.671633
284.000000	2198.000000	5.672067
285.000000	2197.000000	5.658767
286.000000	2196.000000	5.650667
287.000000	2195.000000	5.637033
288.000000	2194.000000	5.640133
289.000000	2193.000000	5.641133
290.000000	2192.000000	5.617633
291.000000	2191.000000	5.606333
292.000000	2190.000000	5.593733
293.000000	2189.000000	5.589367
294.000000	2188.000000	5.586433
295.000000	2187.000000	5.593433
296.000000	2186.000000	5.586500
297.000000	2185.000000	5.569933
298.000000	2184.000000	5.557567
299.000000	2183.000000	5.536367
300.000000	2182.000000	5.544500
301.000000	2181.000000	5.547433
302.000000	2180.000000	5.548367
303.000000	2179.000000	5.532367
304.000000	2178.000000	5.532233
305.000000	2177.000000	5.533333
306.000000	2176.000000	5.532400
307.000000	2175.000000	5.528833
308.000000	2174.000000	5.519133
309.000000	2173.000000	5.506967
310.000000	2172.000000	5.514433
311.000000	2171.000000	5.509867
312.000000	2170.000000	5.485600
313.000000	2169.000000	5.491567
314.000000	2168.000000	5.501867
315.000000	2167.000000	5.479233
316.000000	2166.000000	5.599767
317.000000	2165.000000	5.780033
318.000000	2164.000000	5.741700
319.000000	2163.000000	5.665667
320.000000	2162.000000	5.675067
321.000000	2161.000000	5.653933
322.000000	2160.000000	5.594000
323.000000	2159.000000	5.565233
324.000000	2158.000000	5.652133
325.000000	2157.000000	5.705667
326.000000	2156.000000	5.702133
327.000000	2155.000000	5.685700
328.000000	2154.000000	5.671233
329.000000	2153.000000	5.709867
330.000000	2152.000000	5.774833
331.000000	2151.000000	5.727400
332.000000	2150.000000	5.657133
333.000000	2149.000000	5.662633
334.000000	2148.000000	5.648900
335.000000	2147.000000	5.605567
336.000000	2146.000000	5.702200
337.000000	2145.000000	5.766067
338.000000	2144.000000	5.670833
339.000000	2143.000000	5.650400
340.000000	2142.000000	5.671033
341.000000	2141.000000	5.703400
342.000000	2140.000000	5.739700
343.000000	2139.000000	5.692433
344.000000	2138.000000	5.659200
345.000000	2137.000000	5.720933
346.000000	2136.000000	5.759833
347.000000	2135.000000	5.758433
348.000000	2134.000000	5.746367
349.000000	2133.000000	5.792833
350.000000	2132.000000	5.823100
351.000000	2131.000000	5.819333
352.000000	2130.000000	5.845700
353.000000	2129.000000	5.858167
354.000000	2128.000000	5.881333
355.000000	2127.000000	5.855767
356.000000	2126.000000	5.879733
357.000000	2125.000000	5.950300
358.000000	2124.000000	5.953633
359.000000	2123.000000	5.965500
360.000000	2122.000000	5.978033
361.000000	2121.000000	5.953767
362.000000	2120.000000	5.953667
363.000000	2119.000000	6.005300
364.000000	2118.000000	6.058867
365.000000	2117.000000	6.024567
366.000000	2116.000000	5.999267
367.000000	2115.000000	6.022200
368.000000	2114.000000	5.994000
369.000000	2113.000000	5.982633
370.000000	2112.000000	6.038567
371.000000	2111.000000	6.076967
372.000000	2110.000000	6.073833
373.000000	2109.000000	6.090633
374.000000	2108.000000	6.122933
375.000000	2107.000000	6.176900
376.000000	2106.000000	6.204333
377.000000	2105.000000	6.237467
378.000000	2104.000000	6.261033
379.000000	2103.000000	6.263033
380.000000	2102.000000	6.285733
381.000000	2101.000000	6.304700
382.000000	2100.000000	6.325533
383.000000	2099.000000	6.337367
384.000000	2098.000000	6.371733
385.000000	2097.000000	6.398000
386.000000	2096.000000	6.421300
387.000000	2095.000000	6.429033
388.000000	2094.000000	6.447533
389.000000	2093.000000	6.468300
390.000000	2092.000000	6.484000
391.000000	2091.000000	6.498300
392.000000	2090.000000	6.518633
393.000000	2089.000000	6.539800
394.000000	2088.000000	6.554833
395.000000	2087.000000	6.574267
396.000000	2086.000000	6.593700
397.000000	2085.000000	6.625333
398.000000	2084.000000	6.647633
399.000000	2083.000000	6.677967
400.000000	2082.000000	6.693967
401.000000	2081.000000	6.729033
402.000000	2080.000000	6.768867
403.000000	2079.000000	6.798667
404.000000	2078.000000	6.835667
405.000000	2077.000000	6.881900
406.000000	2076.000000	6.940167
407.000000	2075.000000	6.993567
408.000000	2074.000000	7.049433
409.000000	2073.000000	7.118400
410.000000	2072.000000	7.197067
411.000000	2071.000000	7.279233
412.000000	2070.000000	7.385933
413.000000	2069.000000	7.495833
414.000000	2068.000000	7.601367
415.000000	2067.000000	7.732033
416.000000	2066.000000	7.873833
417.000000	2065.000000	8.045833
418.000000	2064.000000	8.217633
419.000000	2063.000000	8.417633
420.000000	2062.000000	8.609200
421.000000	2061.000000	8.836200
422.000000	2060.000000	9.098467
423.000000	2059.000000	9.371900
424.000000	2058.000000	9.678000
425.000000	2057.000000	9.991000
426.000000	2056.000000	10.322733
427.000000	2055.000000	10.696200
428.000000	2054.000000	11.092500
429.000000	2053.000000	11.516700
430.000000	2052.000000	11.936500
431.000000	2051.000000	12.394367
432.000000	2050.000000	12.873767
433.000000	2049.000000	13.380133
434.000000	2048.000000	13.901767
435.000000	2047.000000	14.433800
436.000000	2046.000000	14.973633
437.000000	2045.000000	15.527733
438.000000	2044.000000	16.103967
439.000000	2043.000000	16.658733
440.000000	2042.000000	17.256933
441.000000	2041.000000	17.816000
442.000000	2040.000000	18.408167
443.000000	2039.000000	18.955600
444.000000	2038.000000	19.537200
445.000000	2037.000000	20.063333
446.000000	2036.000000	20.581233
447.000000	2035.000000	21.125433
448.000000	2034.000000	21.602233
449.000000	2033.000000	22.081867
450.000000	2032.000000	22.526733
451.000000	2031.000000	22.985733
452.000000	2030.000000	23.409467
453.000000	2029.000000	23.805967
454.000000	2028.000000	24.199900
455.000000	2027.000000	24.582767
456.000000	2026.000000	24.925067
457.000000	2025.000000	25.278633
458.000000	2024.000000	25.583267
459.000000	2023.000000	25.893700
460.000000	2022.000000	26.169233
461.000000	2021.000000	26.468633
462.000000	2020.000000	26.764667
463.000000	2019.000000	27.030433
464.000000	2018.000000	27.285800
465.000000	2017.000000	27.550200
466.000000	2016.000000	27.800867
467.000000	2015.000000	28.047600
468.000000	2014.000000	28.294000
469.000000	2013.000000	28.531100
470.000000	2012.000000	28.767367
471.000000	2011.000000	29.013867
472.000000	2010.000000	29.230267
473.000000	2009.000000	29.460167
474.000000	2008.000000	29.671900
475.000000	2007.000000	29.902900
476.000000	2006.000000	30.119500
477.000000	2005.000000	30.336233
478.000000	2004.000000	30.518367
479.000000	2003.000000	30.721100
480.000000	2002.000000	30.931300
481.000000	2001.000000	31.110767
482.000000	2000.000000	31.265900
483.000000	1999.000000	31.422200
484.000000	1998.000000	31.540633
485.000000	1997.000000	31.664767
486.000000	1996.000000	31.743467
487.000000	1995.000000	31.811400
488.000000	1994.000000	31.870233
489.000000	1993.000000	31.919933
490.000000	1992.000000	31.935567
491.000000	1991.000000	31.932700
492.000000	1990.000000	31.948367
493.000000	1989.000000	31.922900
494.000000	1988.000000	31.895233
495.000000	1987.000000	31.871167
496.000000	1986.000000	31.819700
497.000000	1985.000000	31.806433
498.000000	1984.000000	31.811767
499.000000	1983.000000	31.848833
500.000000	1982.000000	31.890733
501.000000	1981.000000	31.957433
502.000000	1980.000000	32.077033
503.000000	1979.000000	32.287167
504.000000	1978.000000	32.536833
505.000000	1977.000000	32.860833
506.000000	1976.000000	33.273300
507.000000	1975.000000	33.752667
508.000000	1974.000000	34.327033
509.000000	1973.000000	34.981767
510.000000	1972.000000	35.740833
511.000000	1971.000000	36.604533
512.000000	1970.000000	37.561867
513.000000	1969.000000	38.589600
514.000000	1968.000000	39.731633
515.000000	1967.000000	40.943433
516.000000	1966.000000	42.196067
517.000000	1965.000000	43.501667
518.000000	1964.000000	44.868533
519.000000	1963.000000	46.267233
520.000000	1962.000000	47.699967
521.000000	1961.000000	49.200800
522.000000	1960.000000	50.690400
523.000000	1959.000000	52.178700
524.000000	1958.000000	53.674667
525.000000	1957.000000	55.132467
526.000000	1956.000000	56.585900
527.000000	1955.000000	58.027433
528.000000	1954.000000	59.416000
529.000000	1953.000000	60.823800
530.000000	1952.000000	62.164933
531.000000	1951.000000	63.514867
532.000000	1950.000000	64.821200
533.000000	1949.000000	66.093100
534.000000	1948.000000	67.306900
535.000000	1947.000000	68.490733
536.000000	1946.000000	69.616900
537.000000	1945.000000	70.717833
538.000000	1944.000000	71.783567
539.000000	1943.000000	72.798300
540.000000	1942.000000	73.787900
541.000000	1941.000000	74.770100
542.000000	1940.000000	75.708267
543.000000	1939.000000	76.608133
544.000000	1938.000000	77.495733
545.000000	1937.000000	78.322933
546.000000	1936.000000	79.139800
547.000000	1935.000000	79.922267
548.000000	1934.000000	80.675933
549.000000	1933.000000	81.399300
550.000000	1932.000000	82.118267
551.000000	1931.000000	82.792233
552.000000	1930.000000	83.461567
553.000000	1929.000000	84.086167
554.000000	1928.000000	84.686333
555.000000	1927.000000	85.252533
556.000000	1926.000000	85.788600
557.000000	1925.000000	86.287767
558.000000	1924.000000	86.725000
559.000000	1923.000000	87.174867
560.000000	1922.000000	87.600700
561.000000	1921.000000	87.981000
562.000000	1920.000000	88.330600
563.000000	1919.000000	88.665033
564.000000	1918.000000	88.964900
565.000000	1917.000000	89.231900
566.000000	1916.000000	89.477067
567.000000	1915.000000	89.713467
568.000000	1914.000000	89.907467
569.000000	1913.000000	90.093600
570.000000	1912.000000	90.233000
571.000000	1911.000000	90.395533
572.000000	1910.000000	90.512300
573.000000	1909.000000	90.617233
574.000000	1908.000000	90.705133
575.000000	1907.000000	90.825600
576.000000	1906.000000	90.903867
577.000000	1905.000000	90.961200
578.000000	1904.000000	91.012267
579.000000	1903.000000	91.059667
580.000000	1902.000000	91.091067
581.000000	1901.000000	91.105833
582.000000	1900.000000	91.090400
583.000000	1899.000000	91.062667
584.000000	1898.000000	91.059500
585.000000	1897.000000	91.029400
586.000000	1896.000000	90.972167
587.000000	1895.000000	90.879267
588.000000	1894.000000	90.815267
589.000000	1893.000000	90.717400
590.000000	1892.000000	90.535567
591.000000	1891.000000	90.357467
592.000000	1890.000000	90.145767
593.000000	1889.000000	89.917233
594.000000	1888.000000	89.655733
595.000000	1887.000000	89.365100
596.000000	1886.000000	89.047067
597.000000	1885.000000	88.708000
598.000000	1884.000000	88.329400
599.000000	1883.000000	87.905233
600.000000	1882.000000	87.486367
601.000000	1881.000000	86.990467
602.000000	1880.000000	86.461933
603.000000	1879.000000	85.922167
604.000000	1878.000000	85.329633
605.000000	1877.000000	84.772600
606.000000	1876.000000	84.129200
607.000000	1875.000000	83.454600
608.000000	1874.000000	82.766567
609.000000	1873.000000	82.026200
610.000000	1872.000000	81.269767
611.000000	1871.000000	80.474900
612.000000	1870.000000	79.605300
613.000000	1869.000000	78.678967
614.000000	1868.000000	77.751567
615.000000	1867.000000	76.789900
616.000000	1866.000000	75.771000
617.000000	1865.000000	74.708933
618.000000	1864.000000	73.617233
619.000000	1863.000000	72.482200
620.000000	1862.000000	71.312167
621.000000	1861.000000	70.120833
622.000000	1860.000000	68.908033
623.000000	1859.000000	67.686367
624.000000	1858.000000	66.464767
625.000000	1857.000000	65.269667
626.000000	1856.000000	64.080633
627.000000	1855.000000	62.940033
628.000000	1854.000000	61.842767
629.000000	1853.000000	60.782333
630.000000	1852.000000	59.768000
631.000000	1851.000000	58.802200
632.000000	1850.000000	57.912533
633.000000	1849.000000	57.098467
634.000000	1848.000000	56.346700
635.000000	1847.000000	55.679733
636.000000	1846.000000	55.101933
637.000000	1845.000000	54.620367
638.000000	1844.000000	54.217667
639.000000	1843.000000	53.867833
640.000000	1842.000000	53.627167
641.000000	1841.000000	53.506667
642.000000	1840.000000	53.449833
643.000000	1839.000000	53.494067
644.000000	1838.000000	53.660067
645.000000	1837.000000	53.934900
646.000000	1836.000000	54.286067
647.000000	1835.000000	54.737133
648.000000	1834.000000	55.291867
649.000000	1833.000000	55.906900
650.000000	1832.000000	56.583800
651.000000	1831.000000	57.337667
652.000000	1830.000000	58.107067
653.000000	1829.000000	58.883633
654.000000	1828.000000	59.694400
655.000000	1827.000000	60.461267
656.000000	1826.000000	61.184667
657.000000	1825.000000	61.873167
658.000000	1824.000000	62.528667
659.000000	1823.000000	63.146867
660.000000	1822.000000	63.710267
661.000000	1821.000000	64.204733
662.000000	1820.000000	64.696833
663.000000	1819.000000	65.116800
664.000000	1818.000000	65.477200
665.000000	1817.000000	65.815567
666.000000	1816.000000	66.108867
667.000000	1815.000000	66.382933
668.000000	1814.000000	66.636933
669.000000	1813.000000	66.901967
670.000000	1812.000000	67.139233
671.000000	1811.000000	67.335833
672.000000	1810.000000	67.517633
673.000000	1809.000000	67.663833
674.000000	1808.000000	67.794933
675.000000	1807.000000	67.935900
676.000000	1806.000000	68.016533
677.000000	1805.000000	68.056133
678.000000	1804.000000	68.120900
679.000000	1803.000000	68.148033
680.000000	1802.000000	68.175333
681.000000	1801.000000	68.192500
682.000000	1800.000000	68.188667
683.000000	1799.000000	68.219200
684.000000	1798.000000	68.246167
685.000000	1797.000000	68.227200
686.000000	1796.000000	68.260467
687.000000	1795.000000	68.288200
688.000000	1794.000000	68.343000
689.000000	1793.000000	68.481267
690.000000	1792.000000	68.542933
691.000000	1791.000000	68.659167
692.000000	1790.000000	68.825567
693.000000	1789.000000	68.965167
694.000000	1788.000000	69.167533
695.000000	1787.000000	69.357900
696.000000	1786.000000	69.555667
697.000000	1785.000000	69.776500
698.000000	1784.000000	69.994133
699.000000	1783.000000	70.270800
700.000000	1782.000000	70.559633
701.000000	1781.000000	70.811433
702.000000	1780.000000	71.149300
703.000000	1779.000000	71.488133
704.000000	1778.000000	71.846867
705.000000	1777.000000	72.263933
706.000000	1776.000000	72.650800
707.000000	1775.000000	73.103933
708.000000	1774.000000	73.549967
709.000000	1773.000000	74.065833
710.000000	1772.000000	74.622067
711.000000	1771.000000	75.097033
712.000000	1770.000000	75.637133
713.000000	1769.000000	76.231267
714.000000	1768.000000	76.788400
715.000000	1767.000000	77.314233
716.000000	1766.000000	77.922033
717.000000	1765.000000	78.485067
718.000000	1764.000000	79.035767
719.000000	1763.000000	79.616267
720.000000	1762.000000	80.102900
721.000000	1761.000000	80.576533
722.000000	1760.000000	81.111200
723.000000	1759.000000	81.563900
724.000000	1758.000000	82.133967
725.000000	1757.000000	82.483367
726.000000	1756.000000	82.865100
727.000000	1755.000000	83.279400
728.000000	1754.000000	83.748867
729.000000	1753.000000	84.066033
730.000000	1752.000000	84.337133
731.000000	1751.000000	84.655100
732.000000	1750.000000	84.940033
733.000000	1749.000000	85.175300
734.000000	1748.000000	85.453900
735.000000	1747.000000	85.686533
736.000000	1746.000000	85.897767
737.000000	1745.000000	86.095633
738.000000	1744.000000	86.284933
739.000000	1743.000000	86.401800
740.000000	1742.000000	86.563600
741.000000	1741.000000	86.704300
742.000000	1740.000000	86.821833
743.000000	1739.000000	86.950100
744.000000	1738.000000	87.003767
745.000000	1737.000000	87.088400
746.000000	1736.000000	87.122333
747.000000	1735.000000	87.128567
748.000000	1734.000000	87.241000
749.000000	1733.000000	87.324167
750.000000	1732.000000	87.343767
751.000000	1731.000000	87.348400
752.000000	1730.000000	87.278267
753.000000	1729.000000	87.190133
754.000000	1728.000000	87.222633
755.000000	1727.000000	87.216100
756.000000	1726.000000	87.160133
757.000000	1725.000000	87.095267
758.000000	1724.000000	87.094867
759.000000	1723.000000	86.957600
760.000000	1722.000000	87.003800
761.000000	1721.000000	86.891900
762.000000	1720.000000	86.867300
763.000000	1719.000000	86.772833
764.000000	1718.000000	86.632667
765.000000	1717.000000	86.588933
766.000000	1716.000000	86.462867
767.000000	1715.000000	86.365933
768.000000	1714.000000	86.345633
769.000000	1713.000000	86.277500
770.000000	1712.000000	86.181400
771.000000	1711.000000	86.113833
772.000000	1710.000000	86.039600
773.000000	1709.000000	86.031267
774.000000	1708.000000	85.836433
775.000000	1707.000000	85.790933
776.000000	1706.000000	85.721033
777.000000	1705.000000	85.615400
778.000000	1704.000000	85.495933
779.000000	1703.000000	85.453600
780.000000	1702.000000	85.339133
781.000000	1701.000000	85.224867
782.000000	1700.000000	84.964000
783.000000	1699.000000	84.876167
784.000000	1698.000000	84.645300
785.000000	1697.000000	84.377933
786.000000	1696.000000	84.275800
787.000000	1695.000000	84.012933
788.000000	1694.000000	83.797467
789.000000	1693.000000	83.655067
790.000000	1692.000000	83.470933
791.000000	1691.000000	83.343067
792.000000	1690.000000	83.066500
793.000000	1689.000000	82.906600
794.000000	1688.000000	82.667433
795.000000	1687.000000	82.531033
796.000000	1686.000000	82.324067
797.000000	1685.000000	82.051800
798.000000	1684.000000	81.777300
799.000000	1683.000000	81.627533
800.000000	1682.000000	81.411500
801.000000	1681.000000	81.260733
802.000000	1680.000000	80.993667
803.000000	1679.000000	80.769800
804.000000	1678.000000	80.558467
805.000000	1677.000000	80.341500
806.000000	1676.000000	80.009867
807.000000	1675.000000	79.678433
808.000000	1674.000000	79.491967
809.000000	1673.000000	79.259033
810.000000	1672.000000	78.946833
811.000000	1671.000000	78.667667
812.000000	1670.000000	78.290300
813.000000	1669.000000	77.865033
814.000000	1668.000000	77.608567
815.000000	1667.000000	77.243900
816.000000	1666.000000	76.958100
817.000000	1665.000000	76.489533
818.000000	1664.000000	76.193200
819.000000	1663.000000	75.901433
820.000000	1662.000000	75.485267
821.000000	1661.000000	75.123967
822.000000	1660.000000	74.791500
823.000000	1659.000000	74.475033
824.000000	1658.000000	74.064900
825.000000	1657.000000	73.708033
826.000000	1656.000000	73.444867
827.000000	1655.000000	73.038133
828.000000	1654.000000	72.717700
829.000000	1653.000000	72.657600
830.000000	1652.000000	72.323467
831.000000	1651.000000	72.222033
832.000000	1650.000000	71.828633
833.000000	1649.000000	71.948533
834.000000	1648.000000	71.923533
835.000000	1647.000000	71.717767
836.000000	1646.000000	71.641900
837.000000	1645.000000	71.551000
838.000000	1644.000000	71.605467
