PE UV       SUBTECH     SPECTRUM    ASCII       PEDS        4.00        
   -1
CICIMAUCR0209-3.ASC
24/06/06
17:01:56.00
24/06/06
17:01:56.00
Vinicio Soto Monge
C. cupreomarginata. Sex F. Dorsal
250,000000
1
Lambda 1050
1050L1511233
PerkinElmer UV WinLab 6.3.2.0749 / 2.02.05 Lambda 900 UV/VIS/NIR, Aug  7 2015 09:38:08

0
0
3350/servo 860,8/2
0
0
UV/VIS
1
1
1
DoubleDePol,CommonBeamDepol,RBeamAtt,SBeamAtt,60mm sphere, WB InGaAs Detector
0
0
0
0
Program
Program
3350/servo 860,8/2
3350/0,2 860,8/0,2
3350/0,2 860,8/0,2
0
15.00
 
 
 
0
 
860,8
319,2
860,8
Front
100
on
S:100 R:100
0
0
0
0
 
0
 
 
 
0
 
 
0
0
0
0
0
 
 
 
 
0
0


0
0
#HDR
-1
-1
#GR
nm
%R
1.0
0.0
2500,000000
-1,000000
2251
8
73,477300
5,040500
#DATA
250.000000	6.031700
251.000000	6.023000
252.000000	6.005300
253.000000	5.989200
254.000000	5.941067
255.000000	5.956000
256.000000	5.928700
257.000000	5.919700
258.000000	5.879500
259.000000	5.911500
260.000000	5.889900
261.000000	5.862167
262.000000	5.830100
263.000000	5.808867
264.000000	5.790433
265.000000	5.737967
266.000000	5.735400
267.000000	5.690567
268.000000	5.659633
269.000000	5.647467
270.000000	5.644000
271.000000	5.641800
272.000000	5.614633
273.000000	5.584833
274.000000	5.588733
275.000000	5.588333
276.000000	5.566500
277.000000	5.533500
278.000000	5.507333
279.000000	5.501567
280.000000	5.478033
281.000000	5.486133
282.000000	5.483033
283.000000	5.468433
284.000000	5.463600
285.000000	5.432333
286.000000	5.402100
287.000000	5.390567
288.000000	5.374433
289.000000	5.378833
290.000000	5.380700
291.000000	5.377833
292.000000	5.361767
293.000000	5.347767
294.000000	5.335500
295.000000	5.323067
296.000000	5.293900
297.000000	5.305067
298.000000	5.300433
299.000000	5.264100
300.000000	5.263067
301.000000	5.274000
302.000000	5.277233
303.000000	5.277367
304.000000	5.249033
305.000000	5.257600
306.000000	5.246733
307.000000	5.232767
308.000000	5.242067
309.000000	5.223033
310.000000	5.215267
311.000000	5.206900
312.000000	5.198233
313.000000	5.188300
314.000000	5.200200
315.000000	5.210967
316.000000	5.652100
317.000000	6.258400
318.000000	6.133633
319.000000	5.823167
320.000000	5.674400
321.000000	5.567400
322.000000	5.440567
323.000000	5.513400
324.000000	5.587800
325.000000	5.510733
326.000000	5.646200
327.000000	5.673533
328.000000	5.414433
329.000000	5.402933
330.000000	5.491900
331.000000	5.393167
332.000000	5.374700
333.000000	5.350433
334.000000	5.298300
335.000000	5.229033
336.000000	5.217333
337.000000	5.288000
338.000000	5.346400
339.000000	5.492767
340.000000	5.469167
341.000000	5.329767
342.000000	5.369933
343.000000	5.414067
344.000000	5.486367
345.000000	5.454200
346.000000	5.262033
347.000000	5.267633
348.000000	5.331500
349.000000	5.386433
350.000000	5.414967
351.000000	5.306000
352.000000	5.317400
353.000000	5.395800
354.000000	5.386033
355.000000	5.349533
356.000000	5.328667
357.000000	5.347267
358.000000	5.374067
359.000000	5.400900
360.000000	5.404100
361.000000	5.381400
362.000000	5.470400
363.000000	5.487933
364.000000	5.380900
365.000000	5.454000
366.000000	5.481700
367.000000	5.464833
368.000000	5.503567
369.000000	5.525933
370.000000	5.431467
371.000000	5.409733
372.000000	5.495300
373.000000	5.553967
374.000000	5.470700
375.000000	5.593933
376.000000	5.704433
377.000000	5.715000
378.000000	5.735100
379.000000	5.758567
380.000000	5.782733
381.000000	5.825167
382.000000	5.842000
383.000000	5.865600
384.000000	5.901833
385.000000	5.941833
386.000000	5.967333
387.000000	5.999067
388.000000	6.021400
389.000000	6.043867
390.000000	6.076800
391.000000	6.104100
392.000000	6.131500
393.000000	6.167433
394.000000	6.207900
395.000000	6.246367
396.000000	6.272333
397.000000	6.306100
398.000000	6.337667
399.000000	6.371033
400.000000	6.407433
401.000000	6.447367
402.000000	6.479300
403.000000	6.512233
404.000000	6.553000
405.000000	6.591867
406.000000	6.624867
407.000000	6.662833
408.000000	6.699700
409.000000	6.745833
410.000000	6.777467
411.000000	6.828733
412.000000	6.880067
413.000000	6.926400
414.000000	6.981433
415.000000	7.032933
416.000000	7.084333
417.000000	7.148367
418.000000	7.208667
419.000000	7.258400
420.000000	7.340867
421.000000	7.415867
422.000000	7.486333
423.000000	7.556200
424.000000	7.646433
425.000000	7.730967
426.000000	7.815300
427.000000	7.919167
428.000000	8.017300
429.000000	8.111733
430.000000	8.204900
431.000000	8.314000
432.000000	8.443100
433.000000	8.556967
434.000000	8.667200
435.000000	8.791167
436.000000	8.925667
437.000000	9.050133
438.000000	9.180133
439.000000	9.322333
440.000000	9.457800
441.000000	9.587000
442.000000	9.736533
443.000000	9.886733
444.000000	10.018933
445.000000	10.158267
446.000000	10.313400
447.000000	10.463533
448.000000	10.614433
449.000000	10.763867
450.000000	10.906300
451.000000	11.067967
452.000000	11.211500
453.000000	11.352900
454.000000	11.506067
455.000000	11.662700
456.000000	11.815300
457.000000	11.957400
458.000000	12.103667
459.000000	12.274133
460.000000	12.416567
461.000000	12.574067
462.000000	12.748833
463.000000	12.910800
464.000000	13.065300
465.000000	13.232433
466.000000	13.400400
467.000000	13.559500
468.000000	13.756967
469.000000	13.912633
470.000000	14.083400
471.000000	14.249500
472.000000	14.431667
473.000000	14.609567
474.000000	14.813900
475.000000	15.004267
476.000000	15.170700
477.000000	15.356200
478.000000	15.550333
479.000000	15.738433
480.000000	15.934067
481.000000	16.125733
482.000000	16.319400
483.000000	16.512600
484.000000	16.703633
485.000000	16.897533
486.000000	17.090867
487.000000	17.271067
488.000000	17.485533
489.000000	17.683200
490.000000	17.863700
491.000000	18.084000
492.000000	18.300967
493.000000	18.503200
494.000000	18.710167
495.000000	18.971867
496.000000	19.184967
497.000000	19.424267
498.000000	19.650033
499.000000	19.910733
500.000000	20.173133
501.000000	20.435400
502.000000	20.698267
503.000000	20.992167
504.000000	21.270100
505.000000	21.581167
506.000000	21.884100
507.000000	22.221867
508.000000	22.547233
509.000000	22.892700
510.000000	23.270000
511.000000	23.636300
512.000000	24.022800
513.000000	24.423900
514.000000	24.831967
515.000000	25.250533
516.000000	25.699367
517.000000	26.159267
518.000000	26.631133
519.000000	27.118033
520.000000	27.621567
521.000000	28.118700
522.000000	28.648400
523.000000	29.196967
524.000000	29.782867
525.000000	30.386500
526.000000	30.992133
527.000000	31.624233
528.000000	32.255667
529.000000	32.922767
530.000000	33.599900
531.000000	34.318800
532.000000	35.043167
533.000000	35.789333
534.000000	36.557133
535.000000	37.341300
536.000000	38.129367
537.000000	38.922600
538.000000	39.717233
539.000000	40.536967
540.000000	41.376267
541.000000	42.221000
542.000000	43.080200
543.000000	43.931467
544.000000	44.812233
545.000000	45.657333
546.000000	46.480233
547.000000	47.290233
548.000000	48.068133
549.000000	48.841200
550.000000	49.590567
551.000000	50.314700
552.000000	51.050467
553.000000	51.736567
554.000000	52.391200
555.000000	52.998367
556.000000	53.588033
557.000000	54.133033
558.000000	54.628533
559.000000	55.118267
560.000000	55.644333
561.000000	56.093500
562.000000	56.506833
563.000000	56.882100
564.000000	57.236467
565.000000	57.570033
566.000000	57.873833
567.000000	58.169000
568.000000	58.445233
569.000000	58.715400
570.000000	58.976967
571.000000	59.210633
572.000000	59.426800
573.000000	59.624100
574.000000	59.819667
575.000000	59.976933
576.000000	60.114900
577.000000	60.225833
578.000000	60.327767
579.000000	60.426167
580.000000	60.509567
581.000000	60.574100
582.000000	60.625600
583.000000	60.689933
584.000000	60.732833
585.000000	60.761067
586.000000	60.803133
587.000000	60.831567
588.000000	60.851567
589.000000	60.866500
590.000000	60.862100
591.000000	60.853900
592.000000	60.819400
593.000000	60.764667
594.000000	60.707967
595.000000	60.612500
596.000000	60.516233
597.000000	60.374867
598.000000	60.225933
599.000000	60.062133
600.000000	59.889167
601.000000	59.699800
602.000000	59.491567
603.000000	59.279300
604.000000	59.044200
605.000000	58.816167
606.000000	58.563067
607.000000	58.315600
608.000000	58.081800
609.000000	57.828233
610.000000	57.559133
611.000000	57.286200
612.000000	57.006800
613.000000	56.690100
614.000000	56.338333
615.000000	55.981800
616.000000	55.642000
617.000000	55.269567
618.000000	54.888700
619.000000	54.527467
620.000000	54.140433
621.000000	53.723667
622.000000	53.304933
623.000000	52.892600
624.000000	52.468400
625.000000	52.052900
626.000000	51.645567
627.000000	51.228500
628.000000	50.827867
629.000000	50.443867
630.000000	50.065900
631.000000	49.704067
632.000000	49.339300
633.000000	48.990833
634.000000	48.670633
635.000000	48.369067
636.000000	48.082133
637.000000	47.821867
638.000000	47.585267
639.000000	47.361067
640.000000	47.175533
641.000000	47.012900
642.000000	46.882667
643.000000	46.785233
644.000000	46.699600
645.000000	46.665467
646.000000	46.666100
647.000000	46.664067
648.000000	46.694800
649.000000	46.758867
650.000000	46.831567
651.000000	46.940667
652.000000	47.047367
653.000000	47.147467
654.000000	47.265233
655.000000	47.389467
656.000000	47.517867
657.000000	47.644833
658.000000	47.761400
659.000000	47.887733
660.000000	47.996033
661.000000	48.073767
662.000000	48.140200
663.000000	48.213000
664.000000	48.272900
665.000000	48.314967
666.000000	48.334767
667.000000	48.360267
668.000000	48.378700
669.000000	48.353633
670.000000	48.323000
671.000000	48.268367
672.000000	48.209467
673.000000	48.152400
674.000000	48.037967
675.000000	47.948333
676.000000	47.866100
677.000000	47.764200
678.000000	47.661500
679.000000	47.536933
680.000000	47.412967
681.000000	47.309233
682.000000	47.224800
683.000000	47.105733
684.000000	46.998633
685.000000	46.866533
686.000000	46.747367
687.000000	46.643467
688.000000	46.531133
689.000000	46.455800
690.000000	46.344600
691.000000	46.286000
692.000000	46.222567
693.000000	46.155233
694.000000	46.124633
695.000000	46.094033
696.000000	46.037567
697.000000	46.015733
698.000000	46.017667
699.000000	46.039500
700.000000	46.055200
701.000000	46.100300
702.000000	46.160400
703.000000	46.230300
704.000000	46.288800
705.000000	46.402233
706.000000	46.497167
707.000000	46.609433
708.000000	46.719500
709.000000	46.847033
710.000000	46.962633
711.000000	47.096067
712.000000	47.243600
713.000000	47.387400
714.000000	47.565800
715.000000	47.730033
716.000000	47.870833
717.000000	48.019733
718.000000	48.158767
719.000000	48.348267
720.000000	48.510233
721.000000	48.672467
722.000000	48.786133
723.000000	48.926900
724.000000	49.106433
725.000000	49.239633
726.000000	49.412500
727.000000	49.497333
728.000000	49.665133
729.000000	49.825400
730.000000	49.951133
731.000000	50.101767
732.000000	50.260833
733.000000	50.386833
734.000000	50.506367
735.000000	50.658600
736.000000	50.844633
737.000000	50.961700
738.000000	51.067767
739.000000	51.215467
740.000000	51.385500
741.000000	51.485467
742.000000	51.651000
743.000000	51.772933
744.000000	51.915367
745.000000	52.113533
746.000000	52.244233
747.000000	52.400200
748.000000	52.593467
749.000000	52.691833
750.000000	52.923200
751.000000	53.109400
752.000000	53.228167
753.000000	53.467567
754.000000	53.658333
755.000000	53.815500
756.000000	53.997200
757.000000	54.160100
758.000000	54.417933
759.000000	54.605633
760.000000	54.742933
761.000000	54.927833
762.000000	55.107267
763.000000	55.365467
764.000000	55.540200
765.000000	55.730533
766.000000	55.884033
767.000000	56.144533
768.000000	56.395267
769.000000	56.559733
770.000000	56.799267
771.000000	56.995700
772.000000	57.192867
773.000000	57.369133
774.000000	57.660800
775.000000	57.857767
776.000000	58.042167
777.000000	58.267067
778.000000	58.472133
779.000000	58.650800
780.000000	58.890900
781.000000	59.099567
782.000000	59.408333
783.000000	59.563167
784.000000	59.710500
785.000000	60.029700
786.000000	60.129867
787.000000	60.385400
788.000000	60.628067
789.000000	60.808833
790.000000	61.020300
791.000000	61.116700
792.000000	61.381733
793.000000	61.597033
794.000000	61.824367
795.000000	61.968167
796.000000	62.087767
797.000000	62.248800
798.000000	62.432600
799.000000	62.652567
800.000000	62.802033
801.000000	62.909500
802.000000	63.130867
803.000000	63.324733
804.000000	63.439433
805.000000	63.609667
806.000000	63.794233
807.000000	63.844767
808.000000	64.116233
809.000000	64.157467
810.000000	64.336733
811.000000	64.573867
812.000000	64.710533
813.000000	64.954167
814.000000	64.960367
815.000000	65.099233
816.000000	65.354000
817.000000	65.531300
818.000000	65.721867
819.000000	65.790533
820.000000	65.824500
821.000000	66.042033
822.000000	66.225933
823.000000	66.369633
824.000000	66.521767
825.000000	66.694367
826.000000	66.711867
827.000000	66.890500
828.000000	67.177900
829.000000	67.246600
830.000000	67.323700
831.000000	67.629867
832.000000	67.795067
833.000000	67.862467
834.000000	68.005033
835.000000	68.186200
836.000000	68.223000
837.000000	68.425967
838.000000	68.680167
839.000000	68.888000
840.000000	68.859733
841.000000	69.064233
842.000000	69.080300
843.000000	69.139300
844.000000	69.222800
845.000000	69.500667
846.000000	69.585267
847.000000	69.792567
848.000000	69.922600
849.000000	69.844133
850.000000	70.204633
851.000000	70.273100
852.000000	70.328500
853.000000	70.587567
854.000000	70.858733
855.000000	70.707567
856.000000	70.890300
857.000000	71.320133
858.000000	70.972667
859.000000	71.021594
860.000000	71.081274
861.000000	71.143646
862.000000	71.186368
863.000000	71.236836
864.000000	71.287652
865.000000	71.339494
866.000000	71.363495
867.000000	71.392193
868.000000	71.394003
869.000000	71.428540
870.000000	71.472333
871.000000	71.559157
872.000000	71.704655
873.000000	71.843248
874.000000	71.942864
875.000000	72.018006
876.000000	72.068247
877.000000	72.105437
878.000000	72.132182
879.000000	72.136587
880.000000	72.137693
881.000000	72.138413
882.000000	72.130570
883.000000	72.129611
884.000000	72.115718
885.000000	72.100497
886.000000	72.078451
887.000000	72.064602
888.000000	72.035504
889.000000	72.002046
890.000000	71.971951
891.000000	71.939847
892.000000	71.902971
893.000000	71.871514
894.000000	71.822595
895.000000	71.768455
896.000000	71.712458
897.000000	71.662497
898.000000	71.616102
899.000000	71.551539
900.000000	71.487942
901.000000	71.429235
902.000000	71.367253
903.000000	71.307832
904.000000	71.248916
905.000000	71.192573
906.000000	71.145080
907.000000	71.098352
908.000000	71.055613
909.000000	71.011371
910.000000	70.963466
911.000000	70.924999
912.000000	70.884764
913.000000	70.843100
914.000000	70.807756
915.000000	70.761337
916.000000	70.720508
917.000000	70.675849
918.000000	70.624332
919.000000	70.564379
920.000000	70.503864
921.000000	70.447116
922.000000	70.384180
923.000000	70.316849
924.000000	70.247083
925.000000	70.177831
926.000000	70.113552
927.000000	70.045683
928.000000	69.981758
929.000000	69.905809
930.000000	69.826739
931.000000	69.752494
932.000000	69.672174
933.000000	69.590178
934.000000	69.502986
935.000000	69.411148
936.000000	69.327438
937.000000	69.238623
938.000000	69.146044
939.000000	69.057590
940.000000	68.966815
941.000000	68.873042
942.000000	68.782111
943.000000	68.686507
944.000000	68.583438
945.000000	68.483920
946.000000	68.376147
947.000000	68.271048
948.000000	68.166523
949.000000	68.053730
950.000000	67.941732
951.000000	67.831548
952.000000	67.715243
953.000000	67.599686
954.000000	67.485064
955.000000	67.365522
956.000000	67.255498
957.000000	67.148187
958.000000	67.030004
959.000000	66.908677
960.000000	66.795411
961.000000	66.683187
962.000000	66.571881
963.000000	66.456398
964.000000	66.344605
965.000000	66.248555
966.000000	66.146260
967.000000	66.045273
968.000000	65.949263
969.000000	65.850249
970.000000	65.755135
971.000000	65.665011
972.000000	65.571354
973.000000	65.481443
974.000000	65.390260
975.000000	65.303368
976.000000	65.223098
977.000000	65.129167
978.000000	65.046118
979.000000	64.964715
980.000000	64.880895
981.000000	64.801852
982.000000	64.726709
983.000000	64.644611
984.000000	64.560251
985.000000	64.489724
986.000000	64.426962
987.000000	64.358607
988.000000	64.287926
989.000000	64.222173
990.000000	64.156814
991.000000	64.106872
992.000000	64.052195
993.000000	63.993359
994.000000	63.936554
995.000000	63.889214
996.000000	63.843099
997.000000	63.798955
998.000000	63.751552
999.000000	63.710318
1000.000000	63.668819
1001.000000	63.640575
1002.000000	63.590360
1003.000000	63.546669
1004.000000	63.509568
1005.000000	63.475780
1006.000000	63.439420
1007.000000	63.393160
1008.000000	63.361390
1009.000000	63.341076
1010.000000	63.315890
1011.000000	63.286593
1012.000000	63.276758
1013.000000	63.268442
1014.000000	63.265507
1015.000000	63.268088
1016.000000	63.266206
1017.000000	63.282059
1018.000000	63.299688
1019.000000	63.323501
1020.000000	63.336975
1021.000000	63.366698
1022.000000	63.390972
1023.000000	63.416693
1024.000000	63.445505
1025.000000	63.467631
1026.000000	63.499650
1027.000000	63.522932
1028.000000	63.547587
1029.000000	63.571357
1030.000000	63.592789
1031.000000	63.617858
1032.000000	63.629366
1033.000000	63.647399
1034.000000	63.673350
1035.000000	63.688286
1036.000000	63.714675
1037.000000	63.736774
1038.000000	63.747088
1039.000000	63.759705
1040.000000	63.770492
1041.000000	63.785218
1042.000000	63.794632
1043.000000	63.805647
1044.000000	63.822570
1045.000000	63.838115
1046.000000	63.856402
1047.000000	63.870946
1048.000000	63.890905
1049.000000	63.904781
1050.000000	63.937028
1051.000000	63.959219
1052.000000	63.994231
1053.000000	64.009784
1054.000000	64.048272
1055.000000	64.074246
1056.000000	64.102953
1057.000000	64.129045
1058.000000	64.177709
1059.000000	64.208670
1060.000000	64.233311
1061.000000	64.266801
1062.000000	64.296439
1063.000000	64.326241
1064.000000	64.356597
1065.000000	64.383911
1066.000000	64.417848
1067.000000	64.434362
1068.000000	64.466132
1069.000000	64.493398
1070.000000	64.529614
1071.000000	64.550055
1072.000000	64.572012
1073.000000	64.615200
1074.000000	64.649979
1075.000000	64.680919
1076.000000	64.712056
1077.000000	64.724368
1078.000000	64.762535
1079.000000	64.782118
1080.000000	64.825869
1081.000000	64.858814
1082.000000	64.875447
1083.000000	64.910743
1084.000000	64.947171
1085.000000	64.968972
1086.000000	64.996076
1087.000000	65.025206
1088.000000	65.041940
1089.000000	65.074505
1090.000000	65.099780
1091.000000	65.106451
1092.000000	65.131592
1093.000000	65.149841
1094.000000	65.167674
1095.000000	65.175089
1096.000000	65.180255
1097.000000	65.187363
1098.000000	65.190156
1099.000000	65.185718
1100.000000	65.189664
1101.000000	65.188739
1102.000000	65.195376
1103.000000	65.187052
1104.000000	65.196141
1105.000000	65.189636
1106.000000	65.192391
1107.000000	65.186581
1108.000000	65.175943
1109.000000	65.173093
1110.000000	65.174448
1111.000000	65.165466
1112.000000	65.161088
1113.000000	65.156477
1114.000000	65.153587
1115.000000	65.127975
1116.000000	65.115269
1117.000000	65.088958
1118.000000	65.044417
1119.000000	65.004868
1120.000000	64.957212
1121.000000	64.898567
1122.000000	64.831168
1123.000000	64.743615
1124.000000	64.628575
1125.000000	64.513376
1126.000000	64.375387
1127.000000	64.202101
1128.000000	64.004115
1129.000000	63.763726
1130.000000	63.483159
1131.000000	63.189442
1132.000000	62.864918
1133.000000	62.552281
1134.000000	62.181606
1135.000000	61.783227
1136.000000	61.395764
1137.000000	61.017985
1138.000000	60.670705
1139.000000	60.334604
1140.000000	60.012504
1141.000000	59.692478
1142.000000	59.404236
1143.000000	59.136592
1144.000000	58.911147
1145.000000	58.718812
1146.000000	58.573058
1147.000000	58.443947
1148.000000	58.343998
1149.000000	58.232314
1150.000000	58.125649
1151.000000	58.004079
1152.000000	57.864698
1153.000000	57.684419
1154.000000	57.471426
1155.000000	57.235036
1156.000000	56.975257
1157.000000	56.695253
1158.000000	56.394641
1159.000000	56.093347
1160.000000	55.790465
1161.000000	55.474247
1162.000000	55.163925
1163.000000	54.850476
1164.000000	54.554101
1165.000000	54.256550
1166.000000	53.970093
1167.000000	53.687745
1168.000000	53.409859
