PE UV       SUBTECH     SPECTRUM    ASCII       PEDS        4.00        
   -1
CICIMAUCR0248-3.Sample.ASC
24/06/24
17:40:12.00
24/06/24
17:40:12.00
Vinicio Soto Monge
C. resplendens. Sex F.Dorsal.  
250,000000
1
Lambda 1050
1050L1511233
PerkinElmer UV WinLab 6.3.2.0749 / 2.02.05 Lambda 900 UV/VIS/NIR, Aug  7 2015 09:38:08

0
0
3350/servo 860,8/2
0
0
UV/VIS
1
1
1
DoubleDePol,CommonBeamDepol,RBeamAtt,SBeamAtt,60mm sphere, WB InGaAs Detector
0
0
0
0
Program
Program
3350/servo 860,8/2
3350/0,2 860,8/0,2
3350/0,2 860,8/0,2
0
15.00
 
 
 
0
 
860,8
319,2
860,8
Front
100
on
S:100 R:100
0
0
0
0
 
0
 
 
 
0
 
 
0
0
0
0
0
 
 
 
 
0
0


0
0
#HDR
-1
-1
#GR
nm
%R
1.0
0.0
2500,000000
-1,000000
2251
8
91,661300
5,768300
#DATA
250.000000	2232.000000	6.535667
251.000000	2231.000000	6.529233
252.000000	2230.000000	6.519067
253.000000	2229.000000	6.503300
254.000000	2228.000000	6.480267
255.000000	2227.000000	6.455767
256.000000	2226.000000	6.436600
257.000000	2225.000000	6.445833
258.000000	2224.000000	6.419467
259.000000	2223.000000	6.394100
260.000000	2222.000000	6.385333
261.000000	2221.000000	6.359567
262.000000	2220.000000	6.329700
263.000000	2219.000000	6.294700
264.000000	2218.000000	6.277833
265.000000	2217.000000	6.258467
266.000000	2216.000000	6.233600
267.000000	2215.000000	6.201600
268.000000	2214.000000	6.173233
269.000000	2213.000000	6.167233
270.000000	2212.000000	6.134333
271.000000	2211.000000	6.109367
272.000000	2210.000000	6.104933
273.000000	2209.000000	6.071200
274.000000	2208.000000	6.070533
275.000000	2207.000000	6.061633
276.000000	2206.000000	6.055733
277.000000	2205.000000	6.050100
278.000000	2204.000000	6.031100
279.000000	2203.000000	6.015667
280.000000	2202.000000	6.013267
281.000000	2201.000000	6.005067
282.000000	2200.000000	5.994900
283.000000	2199.000000	5.978833
284.000000	2198.000000	5.953733
285.000000	2197.000000	5.959467
286.000000	2196.000000	5.959067
287.000000	2195.000000	5.955833
288.000000	2194.000000	5.949000
289.000000	2193.000000	5.948967
290.000000	2192.000000	5.920900
291.000000	2191.000000	5.909533
292.000000	2190.000000	5.910867
293.000000	2189.000000	5.898800
294.000000	2188.000000	5.878800
295.000000	2187.000000	5.886033
296.000000	2186.000000	5.886100
297.000000	2185.000000	5.886833
298.000000	2184.000000	5.881600
299.000000	2183.000000	5.873600
300.000000	2182.000000	5.860767
301.000000	2181.000000	5.849700
302.000000	2180.000000	5.856567
303.000000	2179.000000	5.861667
304.000000	2178.000000	5.853533
305.000000	2177.000000	5.841467
306.000000	2176.000000	5.834067
307.000000	2175.000000	5.810700
308.000000	2174.000000	5.804500
309.000000	2173.000000	5.795633
310.000000	2172.000000	5.805067
311.000000	2171.000000	5.797167
312.000000	2170.000000	5.821667
313.000000	2169.000000	5.824533
314.000000	2168.000000	5.796233
315.000000	2167.000000	5.799800
316.000000	2166.000000	5.892333
317.000000	2165.000000	6.016533
318.000000	2164.000000	5.919467
319.000000	2163.000000	5.856267
320.000000	2162.000000	5.985500
321.000000	2161.000000	5.933233
322.000000	2160.000000	5.794600
323.000000	2159.000000	5.720333
324.000000	2158.000000	5.734367
325.000000	2157.000000	5.833333
326.000000	2156.000000	5.882967
327.000000	2155.000000	5.892000
328.000000	2154.000000	5.806733
329.000000	2153.000000	5.762800
330.000000	2152.000000	5.851200
331.000000	2151.000000	5.841600
332.000000	2150.000000	5.746167
333.000000	2149.000000	5.695200
334.000000	2148.000000	5.725867
335.000000	2147.000000	5.716333
336.000000	2146.000000	5.703300
337.000000	2145.000000	5.707667
338.000000	2144.000000	5.738133
339.000000	2143.000000	5.778167
340.000000	2142.000000	5.742767
341.000000	2141.000000	5.768433
342.000000	2140.000000	5.754700
343.000000	2139.000000	5.749533
344.000000	2138.000000	5.799733
345.000000	2137.000000	5.816933
346.000000	2136.000000	5.805167
347.000000	2135.000000	5.786533
348.000000	2134.000000	5.799867
349.000000	2133.000000	5.829367
350.000000	2132.000000	5.815467
351.000000	2131.000000	5.818933
352.000000	2130.000000	5.860900
353.000000	2129.000000	5.894100
354.000000	2128.000000	5.936633
355.000000	2127.000000	5.960733
356.000000	2126.000000	6.000167
357.000000	2125.000000	6.047267
358.000000	2124.000000	6.040933
359.000000	2123.000000	5.979133
360.000000	2122.000000	6.025867
361.000000	2121.000000	6.066367
362.000000	2120.000000	6.060133
363.000000	2119.000000	6.098367
364.000000	2118.000000	6.167467
365.000000	2117.000000	6.187033
366.000000	2116.000000	6.167967
367.000000	2115.000000	6.188167
368.000000	2114.000000	6.200700
369.000000	2113.000000	6.224233
370.000000	2112.000000	6.296000
371.000000	2111.000000	6.285533
372.000000	2110.000000	6.318667
373.000000	2109.000000	6.288067
374.000000	2108.000000	6.326233
375.000000	2107.000000	6.399267
376.000000	2106.000000	6.439200
377.000000	2105.000000	6.473467
378.000000	2104.000000	6.494333
379.000000	2103.000000	6.523300
380.000000	2102.000000	6.546067
381.000000	2101.000000	6.580600
382.000000	2100.000000	6.618467
383.000000	2099.000000	6.645500
384.000000	2098.000000	6.679133
385.000000	2097.000000	6.717267
386.000000	2096.000000	6.744333
387.000000	2095.000000	6.772467
388.000000	2094.000000	6.813167
389.000000	2093.000000	6.845833
390.000000	2092.000000	6.883167
391.000000	2091.000000	6.924900
392.000000	2090.000000	6.971767
393.000000	2089.000000	7.011633
394.000000	2088.000000	7.042633
395.000000	2087.000000	7.079467
396.000000	2086.000000	7.128800
397.000000	2085.000000	7.181000
398.000000	2084.000000	7.224967
399.000000	2083.000000	7.284633
400.000000	2082.000000	7.342800
401.000000	2081.000000	7.400600
402.000000	2080.000000	7.467500
403.000000	2079.000000	7.559567
404.000000	2078.000000	7.639500
405.000000	2077.000000	7.725600
406.000000	2076.000000	7.825700
407.000000	2075.000000	7.937233
408.000000	2074.000000	8.060667
409.000000	2073.000000	8.188567
410.000000	2072.000000	8.339233
411.000000	2071.000000	8.513500
412.000000	2070.000000	8.696567
413.000000	2069.000000	8.899067
414.000000	2068.000000	9.117433
415.000000	2067.000000	9.366067
416.000000	2066.000000	9.620233
417.000000	2065.000000	9.889200
418.000000	2064.000000	10.195733
419.000000	2063.000000	10.539967
420.000000	2062.000000	10.886433
421.000000	2061.000000	11.283867
422.000000	2060.000000	11.689833
423.000000	2059.000000	12.115267
424.000000	2058.000000	12.557667
425.000000	2057.000000	13.065700
426.000000	2056.000000	13.580033
427.000000	2055.000000	14.093033
428.000000	2054.000000	14.644500
429.000000	2053.000000	15.206667
430.000000	2052.000000	15.793967
431.000000	2051.000000	16.398100
432.000000	2050.000000	16.979200
433.000000	2049.000000	17.599633
434.000000	2048.000000	18.225400
435.000000	2047.000000	18.838933
436.000000	2046.000000	19.444667
437.000000	2045.000000	20.057367
438.000000	2044.000000	20.668300
439.000000	2043.000000	21.215800
440.000000	2042.000000	21.796233
441.000000	2041.000000	22.366000
442.000000	2040.000000	22.906867
443.000000	2039.000000	23.443667
444.000000	2038.000000	23.942667
445.000000	2037.000000	24.415967
446.000000	2036.000000	24.875500
447.000000	2035.000000	25.299500
448.000000	2034.000000	25.718367
449.000000	2033.000000	26.100333
450.000000	2032.000000	26.493633
451.000000	2031.000000	26.843633
452.000000	2030.000000	27.183867
453.000000	2029.000000	27.513767
454.000000	2028.000000	27.811600
455.000000	2027.000000	28.089400
456.000000	2026.000000	28.352867
457.000000	2025.000000	28.639633
458.000000	2024.000000	28.857233
459.000000	2023.000000	29.103467
460.000000	2022.000000	29.326600
461.000000	2021.000000	29.557800
462.000000	2020.000000	29.763367
463.000000	2019.000000	29.949433
464.000000	2018.000000	30.165600
465.000000	2017.000000	30.336733
466.000000	2016.000000	30.527067
467.000000	2015.000000	30.692367
468.000000	2014.000000	30.861133
469.000000	2013.000000	31.016833
470.000000	2012.000000	31.188900
471.000000	2011.000000	31.344067
472.000000	2010.000000	31.511133
473.000000	2009.000000	31.644533
474.000000	2008.000000	31.792133
475.000000	2007.000000	31.923200
476.000000	2006.000000	32.050833
477.000000	2005.000000	32.175100
478.000000	2004.000000	32.303533
479.000000	2003.000000	32.401067
480.000000	2002.000000	32.485167
481.000000	2001.000000	32.576100
482.000000	2000.000000	32.644400
483.000000	1999.000000	32.715333
484.000000	1998.000000	32.740400
485.000000	1997.000000	32.748400
486.000000	1996.000000	32.745967
487.000000	1995.000000	32.691967
488.000000	1994.000000	32.664433
489.000000	1993.000000	32.616500
490.000000	1992.000000	32.555633
491.000000	1991.000000	32.491933
492.000000	1990.000000	32.399067
493.000000	1989.000000	32.288200
494.000000	1988.000000	32.209333
495.000000	1987.000000	32.134433
496.000000	1986.000000	32.087033
497.000000	1985.000000	32.037167
498.000000	1984.000000	32.014333
499.000000	1983.000000	32.032067
500.000000	1982.000000	32.084667
501.000000	1981.000000	32.197133
502.000000	1980.000000	32.367700
503.000000	1979.000000	32.562367
504.000000	1978.000000	32.839167
505.000000	1977.000000	33.170800
506.000000	1976.000000	33.549867
507.000000	1975.000000	33.962567
508.000000	1974.000000	34.417567
509.000000	1973.000000	34.909500
510.000000	1972.000000	35.456833
511.000000	1971.000000	36.010300
512.000000	1970.000000	36.614267
513.000000	1969.000000	37.240000
514.000000	1968.000000	37.870767
515.000000	1967.000000	38.536000
516.000000	1966.000000	39.186800
517.000000	1965.000000	39.854633
518.000000	1964.000000	40.526867
519.000000	1963.000000	41.215333
520.000000	1962.000000	41.965700
521.000000	1961.000000	42.723900
522.000000	1960.000000	43.486200
523.000000	1959.000000	44.293700
524.000000	1958.000000	45.117600
525.000000	1957.000000	45.972300
526.000000	1956.000000	46.820300
527.000000	1955.000000	47.704033
528.000000	1954.000000	48.633867
529.000000	1953.000000	49.588600
530.000000	1952.000000	50.573867
531.000000	1951.000000	51.604933
532.000000	1950.000000	52.648000
533.000000	1949.000000	53.737467
534.000000	1948.000000	54.809100
535.000000	1947.000000	55.933100
536.000000	1946.000000	57.077367
537.000000	1945.000000	58.233133
538.000000	1944.000000	59.414567
539.000000	1943.000000	60.639500
540.000000	1942.000000	61.863533
541.000000	1941.000000	63.126867
542.000000	1940.000000	64.382667
543.000000	1939.000000	65.656233
544.000000	1938.000000	66.889233
545.000000	1937.000000	68.113867
546.000000	1936.000000	69.307733
547.000000	1935.000000	70.478967
548.000000	1934.000000	71.598967
549.000000	1933.000000	72.674000
550.000000	1932.000000	73.724367
551.000000	1931.000000	74.755433
552.000000	1930.000000	75.723800
553.000000	1929.000000	76.650800
554.000000	1928.000000	77.492033
555.000000	1927.000000	78.302667
556.000000	1926.000000	79.061733
557.000000	1925.000000	79.776433
558.000000	1924.000000	80.463433
559.000000	1923.000000	81.111567
560.000000	1922.000000	81.801400
561.000000	1921.000000	82.379267
562.000000	1920.000000	82.917700
563.000000	1919.000000	83.414400
564.000000	1918.000000	83.907367
565.000000	1917.000000	84.340867
566.000000	1916.000000	84.772700
567.000000	1915.000000	85.170700
568.000000	1914.000000	85.542300
569.000000	1913.000000	85.895700
570.000000	1912.000000	86.258533
571.000000	1911.000000	86.582767
572.000000	1910.000000	86.905833
573.000000	1909.000000	87.215967
574.000000	1908.000000	87.519667
575.000000	1907.000000	87.813467
576.000000	1906.000000	88.071833
577.000000	1905.000000	88.349233
578.000000	1904.000000	88.584933
579.000000	1903.000000	88.820700
580.000000	1902.000000	89.045467
581.000000	1901.000000	89.252867
582.000000	1900.000000	89.464733
583.000000	1899.000000	89.659167
584.000000	1898.000000	89.833867
585.000000	1897.000000	89.958467
586.000000	1896.000000	90.100633
587.000000	1895.000000	90.205567
588.000000	1894.000000	90.302500
589.000000	1893.000000	90.382400
590.000000	1892.000000	90.449067
591.000000	1891.000000	90.488633
592.000000	1890.000000	90.508700
593.000000	1889.000000	90.534833
594.000000	1888.000000	90.528767
595.000000	1887.000000	90.517067
596.000000	1886.000000	90.488600
597.000000	1885.000000	90.447433
598.000000	1884.000000	90.376567
599.000000	1883.000000	90.337900
600.000000	1882.000000	90.269400
601.000000	1881.000000	90.172200
602.000000	1880.000000	90.079733
603.000000	1879.000000	89.961500
604.000000	1878.000000	89.820833
605.000000	1877.000000	89.672500
606.000000	1876.000000	89.517400
607.000000	1875.000000	89.365400
608.000000	1874.000000	89.178833
609.000000	1873.000000	88.968633
610.000000	1872.000000	88.755633
611.000000	1871.000000	88.524900
612.000000	1870.000000	88.264433
613.000000	1869.000000	87.987333
614.000000	1868.000000	87.659633
615.000000	1867.000000	87.336600
616.000000	1866.000000	86.980967
617.000000	1865.000000	86.616733
618.000000	1864.000000	86.194000
619.000000	1863.000000	85.750900
620.000000	1862.000000	85.311733
621.000000	1861.000000	84.831900
622.000000	1860.000000	84.333000
623.000000	1859.000000	83.805167
624.000000	1858.000000	83.232400
625.000000	1857.000000	82.663333
626.000000	1856.000000	82.086667
627.000000	1855.000000	81.484833
628.000000	1854.000000	80.832800
629.000000	1853.000000	80.150700
630.000000	1852.000000	79.461367
631.000000	1851.000000	78.739367
632.000000	1850.000000	77.991167
633.000000	1849.000000	77.221300
634.000000	1848.000000	76.418600
635.000000	1847.000000	75.601200
636.000000	1846.000000	74.751033
637.000000	1845.000000	73.890667
638.000000	1844.000000	73.015933
639.000000	1843.000000	72.095800
640.000000	1842.000000	71.163033
641.000000	1841.000000	70.236900
642.000000	1840.000000	69.299500
643.000000	1839.000000	68.357467
644.000000	1838.000000	67.423667
645.000000	1837.000000	66.498533
646.000000	1836.000000	65.626867
647.000000	1835.000000	64.778667
648.000000	1834.000000	63.948767
649.000000	1833.000000	63.160633
650.000000	1832.000000	62.410133
651.000000	1831.000000	61.723267
652.000000	1830.000000	61.075533
653.000000	1829.000000	60.453033
654.000000	1828.000000	59.901500
655.000000	1827.000000	59.421767
656.000000	1826.000000	58.987400
657.000000	1825.000000	58.612100
658.000000	1824.000000	58.286300
659.000000	1823.000000	58.010333
660.000000	1822.000000	57.820167
661.000000	1821.000000	57.709300
662.000000	1820.000000	57.669200
663.000000	1819.000000	57.717067
664.000000	1818.000000	57.831267
665.000000	1817.000000	58.017167
666.000000	1816.000000	58.295200
667.000000	1815.000000	58.650133
668.000000	1814.000000	59.068367
669.000000	1813.000000	59.522167
670.000000	1812.000000	60.035033
671.000000	1811.000000	60.629567
672.000000	1810.000000	61.204100
673.000000	1809.000000	61.842967
674.000000	1808.000000	62.475400
675.000000	1807.000000	63.102667
676.000000	1806.000000	63.732833
677.000000	1805.000000	64.368500
678.000000	1804.000000	64.976700
679.000000	1803.000000	65.570033
680.000000	1802.000000	66.162633
681.000000	1801.000000	66.712933
682.000000	1800.000000	67.252833
683.000000	1799.000000	67.775100
684.000000	1798.000000	68.316200
685.000000	1797.000000	68.824200
686.000000	1796.000000	69.314733
687.000000	1795.000000	69.756733
688.000000	1794.000000	70.202800
689.000000	1793.000000	70.647233
690.000000	1792.000000	71.054400
691.000000	1791.000000	71.495633
692.000000	1790.000000	71.884900
693.000000	1789.000000	72.263900
694.000000	1788.000000	72.643833
695.000000	1787.000000	72.980100
696.000000	1786.000000	73.261400
697.000000	1785.000000	73.538300
698.000000	1784.000000	73.811267
699.000000	1783.000000	74.115367
700.000000	1782.000000	74.339567
701.000000	1781.000000	74.492400
702.000000	1780.000000	74.684467
703.000000	1779.000000	74.874800
704.000000	1778.000000	75.033833
705.000000	1777.000000	75.143367
706.000000	1776.000000	75.271500
707.000000	1775.000000	75.330633
708.000000	1774.000000	75.400367
709.000000	1773.000000	75.462033
710.000000	1772.000000	75.478433
711.000000	1771.000000	75.551067
712.000000	1770.000000	75.583700
713.000000	1769.000000	75.577833
714.000000	1768.000000	75.603567
715.000000	1767.000000	75.594400
716.000000	1766.000000	75.565167
717.000000	1765.000000	75.582633
718.000000	1764.000000	75.564800
719.000000	1763.000000	75.507900
720.000000	1762.000000	75.482533
721.000000	1761.000000	75.469967
722.000000	1760.000000	75.466933
723.000000	1759.000000	75.483867
724.000000	1758.000000	75.506000
725.000000	1757.000000	75.559433
726.000000	1756.000000	75.606533
727.000000	1755.000000	75.703633
728.000000	1754.000000	75.744900
729.000000	1753.000000	75.880100
730.000000	1752.000000	75.978633
731.000000	1751.000000	76.096333
732.000000	1750.000000	76.256633
733.000000	1749.000000	76.417100
734.000000	1748.000000	76.546100
735.000000	1747.000000	76.819833
736.000000	1746.000000	77.038500
737.000000	1745.000000	77.234200
738.000000	1744.000000	77.428433
739.000000	1743.000000	77.632133
740.000000	1742.000000	77.887633
741.000000	1741.000000	78.120233
742.000000	1740.000000	78.401300
743.000000	1739.000000	78.637533
744.000000	1738.000000	78.974133
745.000000	1737.000000	79.173600
746.000000	1736.000000	79.405767
747.000000	1735.000000	79.677133
748.000000	1734.000000	79.957200
749.000000	1733.000000	80.262300
750.000000	1732.000000	80.557133
751.000000	1731.000000	80.735900
752.000000	1730.000000	80.968767
753.000000	1729.000000	81.143933
754.000000	1728.000000	81.468200
755.000000	1727.000000	81.752067
756.000000	1726.000000	82.021500
757.000000	1725.000000	82.218533
758.000000	1724.000000	82.420333
759.000000	1723.000000	82.656300
760.000000	1722.000000	82.897133
761.000000	1721.000000	83.127467
762.000000	1720.000000	83.399667
763.000000	1719.000000	83.536333
764.000000	1718.000000	83.778633
765.000000	1717.000000	83.904867
766.000000	1716.000000	84.056400
767.000000	1715.000000	84.144400
768.000000	1714.000000	84.270167
769.000000	1713.000000	84.301833
770.000000	1712.000000	84.529900
771.000000	1711.000000	84.619867
772.000000	1710.000000	84.721233
773.000000	1709.000000	84.674767
774.000000	1708.000000	84.831567
775.000000	1707.000000	84.837700
776.000000	1706.000000	84.878900
777.000000	1705.000000	84.945567
778.000000	1704.000000	84.922633
779.000000	1703.000000	84.872867
780.000000	1702.000000	84.927433
781.000000	1701.000000	84.959133
782.000000	1700.000000	84.911333
783.000000	1699.000000	84.976367
784.000000	1698.000000	85.012400
785.000000	1697.000000	85.084900
786.000000	1696.000000	85.017433
787.000000	1695.000000	85.086667
788.000000	1694.000000	85.038667
789.000000	1693.000000	85.173567
790.000000	1692.000000	85.199933
791.000000	1691.000000	85.256500
792.000000	1690.000000	85.395867
793.000000	1689.000000	85.433267
794.000000	1688.000000	85.475600
795.000000	1687.000000	85.534900
796.000000	1686.000000	85.664600
797.000000	1685.000000	85.690067
798.000000	1684.000000	85.787600
799.000000	1683.000000	85.859433
800.000000	1682.000000	85.818833
801.000000	1681.000000	86.060667
802.000000	1680.000000	85.969633
803.000000	1679.000000	85.997933
804.000000	1678.000000	85.980467
805.000000	1677.000000	86.056167
806.000000	1676.000000	86.005467
807.000000	1675.000000	85.957967
808.000000	1674.000000	85.887600
809.000000	1673.000000	85.900500
810.000000	1672.000000	85.904267
811.000000	1671.000000	85.886933
812.000000	1670.000000	85.708567
813.000000	1669.000000	85.623033
814.000000	1668.000000	85.540400
815.000000	1667.000000	85.444267
816.000000	1666.000000	85.448367
817.000000	1665.000000	85.248133
818.000000	1664.000000	85.089933
819.000000	1663.000000	85.007100
820.000000	1662.000000	84.932133
821.000000	1661.000000	84.843400
822.000000	1660.000000	84.725200
823.000000	1659.000000	84.556533
824.000000	1658.000000	84.628767
825.000000	1657.000000	84.484467
826.000000	1656.000000	84.483033
827.000000	1655.000000	84.452933
828.000000	1654.000000	84.403133
829.000000	1653.000000	84.355133
830.000000	1652.000000	84.374367
831.000000	1651.000000	84.373200
832.000000	1650.000000	84.403333
833.000000	1649.000000	84.374300
834.000000	1648.000000	84.430400
835.000000	1647.000000	84.440467
836.000000	1646.000000	84.528767
837.000000	1645.000000	84.308500
838.000000	1644.000000	84.097767
