PE UV       SUBTECH     SPECTRUM    ASCII       PEDS        4.00        
   -1
CICIMAUCR0238-3.Sample.ASC
24/06/20
12:09:23.00
24/06/20
12:09:23.00
Vinicio Soto Monge
C. cupreomarginata. Sex M. Dorsal.
250,000000
1
Lambda 1050
1050L1511233
PerkinElmer UV WinLab 6.3.2.0749 / 2.02.05 Lambda 900 UV/VIS/NIR, Aug  7 2015 09:38:08

0
0
3350/servo 860,8/2
0
0
UV/VIS
1
1
1
DoubleDePol,CommonBeamDepol,RBeamAtt,SBeamAtt,60mm sphere, WB InGaAs Detector
0
0
0
0
Program
Program
3350/servo 860,8/2
3350/0,2 860,8/0,2
3350/0,2 860,8/0,2
0
15.00
 
 
 
0
 
860,8
319,2
860,8
Front
100
on
S:100 R:100
0
0
0
0
 
0
 
 
 
0
 
 
0
0
0
0
0
 
 
 
 
0
0


0
0
#HDR
-1
-1
#GR
nm
%R
1.0
0.0
2500,000000
-1,000000
2251
8
74,014800
5,227200
#DATA
250.000000	5.975200
251.000000	5.947400
252.000000	5.932267
253.000000	5.934833
254.000000	5.944667
255.000000	5.919633
256.000000	5.925633
257.000000	5.918400
258.000000	5.892467
259.000000	5.870600
260.000000	5.857100
261.000000	5.859900
262.000000	5.817600
263.000000	5.797333
264.000000	5.772467
265.000000	5.765033
266.000000	5.737000
267.000000	5.698833
268.000000	5.667100
269.000000	5.681033
270.000000	5.671333
271.000000	5.631933
272.000000	5.627433
273.000000	5.613967
274.000000	5.596800
275.000000	5.572233
276.000000	5.576600
277.000000	5.568633
278.000000	5.542033
279.000000	5.543867
280.000000	5.524333
281.000000	5.505067
282.000000	5.494433
283.000000	5.487533
284.000000	5.474900
285.000000	5.456500
286.000000	5.440433
287.000000	5.437733
288.000000	5.403900
289.000000	5.387567
290.000000	5.395267
291.000000	5.405000
292.000000	5.399267
293.000000	5.376033
294.000000	5.377433
295.000000	5.372800
296.000000	5.371700
297.000000	5.344933
298.000000	5.340600
299.000000	5.344167
300.000000	5.333400
301.000000	5.318467
302.000000	5.315067
303.000000	5.318700
304.000000	5.306567
305.000000	5.313733
306.000000	5.304000
307.000000	5.306567
308.000000	5.314967
309.000000	5.301567
310.000000	5.301700
311.000000	5.291600
312.000000	5.299567
313.000000	5.297733
314.000000	5.269067
315.000000	5.239833
316.000000	5.584367
317.000000	5.835533
318.000000	5.792267
319.000000	6.059700
320.000000	5.956767
321.000000	5.982433
322.000000	6.084967
323.000000	5.686600
324.000000	5.593200
325.000000	5.791700
326.000000	5.620833
327.000000	5.507300
328.000000	5.668533
329.000000	5.820733
330.000000	5.711133
331.000000	5.572067
332.000000	5.531767
333.000000	5.432000
334.000000	5.389800
335.000000	5.395600
336.000000	5.292733
337.000000	5.289100
338.000000	5.416167
339.000000	5.373500
340.000000	5.401433
341.000000	5.390033
342.000000	5.394433
343.000000	5.429700
344.000000	5.376467
345.000000	5.467867
346.000000	5.478233
347.000000	5.422867
348.000000	5.374367
349.000000	5.346933
350.000000	5.409033
351.000000	5.488867
352.000000	5.439733
353.000000	5.385200
354.000000	5.404233
355.000000	5.393167
356.000000	5.363433
357.000000	5.444633
358.000000	5.392200
359.000000	5.349167
360.000000	5.378000
361.000000	5.351367
362.000000	5.373100
363.000000	5.453133
364.000000	5.403033
365.000000	5.429533
366.000000	5.361767
367.000000	5.381833
368.000000	5.365667
369.000000	5.290400
370.000000	5.384300
371.000000	5.385833
372.000000	5.336933
373.000000	5.357200
374.000000	5.271533
375.000000	5.385233
376.000000	5.537767
377.000000	5.578733
378.000000	5.612067
379.000000	5.626067
380.000000	5.645433
381.000000	5.668100
382.000000	5.678400
383.000000	5.709933
384.000000	5.737533
385.000000	5.758433
386.000000	5.791133
387.000000	5.834933
388.000000	5.856900
389.000000	5.891267
390.000000	5.925767
391.000000	5.970233
392.000000	6.013533
393.000000	6.078133
394.000000	6.132600
395.000000	6.186233
396.000000	6.244233
397.000000	6.331767
398.000000	6.402500
399.000000	6.476167
400.000000	6.578133
401.000000	6.666300
402.000000	6.774000
403.000000	6.900133
404.000000	7.026033
405.000000	7.166867
406.000000	7.313300
407.000000	7.474000
408.000000	7.635333
409.000000	7.806267
410.000000	8.000233
411.000000	8.208200
412.000000	8.428467
413.000000	8.645933
414.000000	8.892867
415.000000	9.134133
416.000000	9.393900
417.000000	9.653633
418.000000	9.929367
419.000000	10.222867
420.000000	10.511500
421.000000	10.787500
422.000000	11.075167
423.000000	11.371167
424.000000	11.677733
425.000000	11.968700
426.000000	12.251267
427.000000	12.543033
428.000000	12.839467
429.000000	13.123367
430.000000	13.405200
431.000000	13.697100
432.000000	13.995167
433.000000	14.285967
434.000000	14.566400
435.000000	14.844933
436.000000	15.116367
437.000000	15.360767
438.000000	15.657367
439.000000	15.905967
440.000000	16.133133
441.000000	16.374867
442.000000	16.609100
443.000000	16.874700
444.000000	17.094800
445.000000	17.298433
446.000000	17.516133
447.000000	17.713767
448.000000	17.926167
449.000000	18.109167
450.000000	18.291600
451.000000	18.449600
452.000000	18.610367
453.000000	18.761767
454.000000	18.905100
455.000000	19.023333
456.000000	19.131633
457.000000	19.235067
458.000000	19.342800
459.000000	19.448567
460.000000	19.523633
461.000000	19.588467
462.000000	19.656067
463.000000	19.707200
464.000000	19.744100
465.000000	19.799167
466.000000	19.858767
467.000000	19.874633
468.000000	19.885000
469.000000	19.918033
470.000000	19.935000
471.000000	19.933667
472.000000	19.932967
473.000000	19.940800
474.000000	19.926100
475.000000	19.912767
476.000000	19.907433
477.000000	19.932400
478.000000	19.972267
479.000000	20.008733
480.000000	20.081400
481.000000	20.158400
482.000000	20.278700
483.000000	20.430000
484.000000	20.628333
485.000000	20.866767
486.000000	21.149533
487.000000	21.463667
488.000000	21.816433
489.000000	22.212833
490.000000	22.658767
491.000000	23.143533
492.000000	23.662400
493.000000	24.223067
494.000000	24.772600
495.000000	25.313200
496.000000	25.833467
497.000000	26.388967
498.000000	26.957300
499.000000	27.499533
500.000000	28.044867
501.000000	28.568867
502.000000	29.122767
503.000000	29.616933
504.000000	30.109267
505.000000	30.641933
506.000000	31.143233
507.000000	31.648700
508.000000	32.155167
509.000000	32.663367
510.000000	33.172267
511.000000	33.682733
512.000000	34.203133
513.000000	34.738700
514.000000	35.299000
515.000000	35.867733
516.000000	36.433667
517.000000	37.054467
518.000000	37.661033
519.000000	38.295900
520.000000	38.953633
521.000000	39.630100
522.000000	40.359667
523.000000	41.136233
524.000000	41.949567
525.000000	42.806700
526.000000	43.679567
527.000000	44.587667
528.000000	45.521733
529.000000	46.499600
530.000000	47.518067
531.000000	48.555100
532.000000	49.650833
533.000000	50.775367
534.000000	51.885000
535.000000	53.022767
536.000000	54.135833
537.000000	55.228467
538.000000	56.320600
539.000000	57.400800
540.000000	58.456800
541.000000	59.506767
542.000000	60.503133
543.000000	61.482300
544.000000	62.412467
545.000000	63.311733
546.000000	64.149567
547.000000	64.931567
548.000000	65.653633
549.000000	66.345100
550.000000	66.993367
551.000000	67.585467
552.000000	68.142100
553.000000	68.675133
554.000000	69.170667
555.000000	69.645667
556.000000	70.087633
557.000000	70.520567
558.000000	70.930767
559.000000	71.384067
560.000000	71.885167
561.000000	72.271933
562.000000	72.629567
563.000000	72.960533
564.000000	73.232000
565.000000	73.485833
566.000000	73.671400
567.000000	73.802033
568.000000	73.924533
569.000000	73.998700
570.000000	74.010400
571.000000	74.016167
572.000000	74.007167
573.000000	74.009767
574.000000	73.969100
575.000000	73.926000
576.000000	73.918600
577.000000	73.925033
578.000000	73.916333
579.000000	73.937333
580.000000	73.982900
581.000000	74.008633
582.000000	74.042033
583.000000	74.070533
584.000000	74.090733
585.000000	74.058367
586.000000	74.016067
587.000000	73.922267
588.000000	73.761867
589.000000	73.582333
590.000000	73.366300
591.000000	73.100600
592.000000	72.778033
593.000000	72.427167
594.000000	72.056433
595.000000	71.683300
596.000000	71.317633
597.000000	70.953900
598.000000	70.624167
599.000000	70.322167
600.000000	70.046833
601.000000	69.817933
602.000000	69.585800
603.000000	69.380567
604.000000	69.181433
605.000000	68.992500
606.000000	68.771167
607.000000	68.527933
608.000000	68.296600
609.000000	68.016133
610.000000	67.657933
611.000000	67.277233
612.000000	66.835333
613.000000	66.318133
614.000000	65.761567
615.000000	65.158500
616.000000	64.544600
617.000000	63.906967
618.000000	63.255933
619.000000	62.636133
620.000000	62.021767
621.000000	61.430733
622.000000	60.842667
623.000000	60.247367
624.000000	59.665900
625.000000	59.123300
626.000000	58.553267
627.000000	57.998933
628.000000	57.449600
629.000000	56.856933
630.000000	56.269000
631.000000	55.673733
632.000000	55.082000
633.000000	54.490267
634.000000	53.918067
635.000000	53.379533
636.000000	52.891300
637.000000	52.482867
638.000000	52.124533
639.000000	51.833667
640.000000	51.637600
641.000000	51.502167
642.000000	51.429933
643.000000	51.446600
644.000000	51.524467
645.000000	51.671800
646.000000	51.866000
647.000000	52.069967
648.000000	52.320700
649.000000	52.602700
650.000000	52.892900
651.000000	53.202300
652.000000	53.542000
653.000000	53.870967
654.000000	54.204033
655.000000	54.546033
656.000000	54.847067
657.000000	55.148167
658.000000	55.474433
659.000000	55.747933
660.000000	56.007233
661.000000	56.266633
662.000000	56.519433
663.000000	56.767967
664.000000	56.975600
665.000000	57.177500
666.000000	57.376100
667.000000	57.547667
668.000000	57.703367
669.000000	57.820267
670.000000	57.892067
671.000000	57.930067
672.000000	57.985667
673.000000	58.014167
674.000000	57.986167
675.000000	57.968733
676.000000	57.948167
677.000000	57.935467
678.000000	57.895967
679.000000	57.843500
680.000000	57.790600
681.000000	57.737700
682.000000	57.715500
683.000000	57.672567
684.000000	57.619533
685.000000	57.554133
686.000000	57.489267
687.000000	57.440000
688.000000	57.384400
689.000000	57.332567
690.000000	57.246700
691.000000	57.189900
692.000000	57.157067
693.000000	57.098467
694.000000	57.096267
695.000000	57.109000
696.000000	57.131867
697.000000	57.115867
698.000000	57.128833
699.000000	57.191600
700.000000	57.253600
701.000000	57.326733
702.000000	57.413933
703.000000	57.489367
704.000000	57.573100
705.000000	57.694933
706.000000	57.811433
707.000000	57.915933
708.000000	58.039833
709.000000	58.185733
710.000000	58.332333
711.000000	58.484833
712.000000	58.637867
713.000000	58.762667
714.000000	58.923067
715.000000	59.079733
716.000000	59.235933
717.000000	59.390200
718.000000	59.503067
719.000000	59.670667
720.000000	59.831667
721.000000	60.029000
722.000000	60.185433
723.000000	60.325667
724.000000	60.463433
725.000000	60.574933
726.000000	60.724933
727.000000	60.873033
728.000000	61.000900
729.000000	61.103867
730.000000	61.252667
731.000000	61.327933
732.000000	61.386733
733.000000	61.490033
734.000000	61.552100
735.000000	61.668233
736.000000	61.731133
737.000000	61.795733
738.000000	61.879633
739.000000	61.960133
740.000000	62.023567
741.000000	62.104900
742.000000	62.182900
743.000000	62.244700
744.000000	62.323067
745.000000	62.376667
746.000000	62.468533
747.000000	62.535767
748.000000	62.585900
749.000000	62.697400
750.000000	62.697533
751.000000	62.801633
752.000000	62.821733
753.000000	62.903800
754.000000	62.965600
755.000000	62.962567
756.000000	63.099667
757.000000	63.243933
758.000000	63.261767
759.000000	63.377033
760.000000	63.528667
761.000000	63.638333
762.000000	63.704467
763.000000	63.823700
764.000000	63.895600
765.000000	63.931233
766.000000	63.974367
767.000000	64.069567
768.000000	64.166767
769.000000	64.222367
770.000000	64.277567
771.000000	64.347133
772.000000	64.442733
773.000000	64.493567
774.000000	64.677833
775.000000	64.721933
776.000000	64.863200
777.000000	64.889300
778.000000	65.093033
779.000000	65.263500
780.000000	65.312800
781.000000	65.517767
782.000000	65.659500
783.000000	65.790833
784.000000	65.917067
785.000000	65.969300
786.000000	66.116367
787.000000	66.217167
788.000000	66.416533
789.000000	66.409700
790.000000	66.651733
791.000000	66.808433
792.000000	66.959533
793.000000	66.990233
794.000000	67.269100
795.000000	67.407500
796.000000	67.495100
797.000000	67.669167
798.000000	67.879100
799.000000	67.889733
800.000000	68.088567
801.000000	68.172067
802.000000	68.271867
803.000000	68.349400
804.000000	68.445267
805.000000	68.546433
806.000000	68.655300
807.000000	68.783500
808.000000	68.905300
809.000000	69.001767
810.000000	69.165400
811.000000	69.187367
812.000000	69.390067
813.000000	69.469133
814.000000	69.595667
815.000000	69.534067
816.000000	69.690700
817.000000	69.685833
818.000000	69.759467
819.000000	69.784267
820.000000	69.875533
821.000000	69.854867
822.000000	69.915800
823.000000	69.971933
824.000000	70.059800
825.000000	70.198667
826.000000	70.199967
827.000000	70.270300
828.000000	70.298000
829.000000	70.353567
830.000000	70.379267
831.000000	70.598033
832.000000	70.595067
833.000000	70.558733
834.000000	70.637167
835.000000	70.528133
836.000000	70.526567
837.000000	70.474567
838.000000	70.572733
839.000000	70.488267
840.000000	70.611667
841.000000	70.640100
842.000000	70.361067
843.000000	70.232700
844.000000	70.454767
845.000000	70.348933
846.000000	70.383400
847.000000	70.148567
848.000000	70.540867
849.000000	70.554633
850.000000	70.385800
851.000000	70.280600
852.000000	70.320400
853.000000	69.977533
854.000000	70.185700
855.000000	70.232900
856.000000	69.788000
857.000000	69.517233
858.000000	69.846045
859.000000	69.766934
860.000000	69.678575
861.000000	69.593012
862.000000	69.509232
863.000000	69.412244
864.000000	69.321499
865.000000	69.244530
866.000000	69.154894
867.000000	69.059586
868.000000	68.943535
869.000000	68.819831
870.000000	68.718565
871.000000	68.667125
872.000000	68.694751
873.000000	68.809028
874.000000	68.967446
875.000000	69.091926
876.000000	69.177963
877.000000	69.246754
878.000000	69.298809
879.000000	69.308429
880.000000	69.294833
881.000000	69.288558
882.000000	69.280775
883.000000	69.250220
884.000000	69.233219
885.000000	69.202056
886.000000	69.179648
887.000000	69.130336
888.000000	69.078101
889.000000	69.020842
890.000000	68.969549
891.000000	68.907892
892.000000	68.829512
893.000000	68.742923
894.000000	68.673354
895.000000	68.585881
896.000000	68.487776
897.000000	68.391527
898.000000	68.295064
899.000000	68.204225
900.000000	68.119206
901.000000	68.028037
902.000000	67.935471
903.000000	67.849006
904.000000	67.768648
905.000000	67.687793
906.000000	67.604854
907.000000	67.512916
908.000000	67.444641
909.000000	67.371516
910.000000	67.321505
911.000000	67.270354
912.000000	67.210283
913.000000	67.151889
914.000000	67.097022
915.000000	67.035147
916.000000	66.983768
917.000000	66.924116
918.000000	66.862968
919.000000	66.811750
920.000000	66.768356
921.000000	66.706064
922.000000	66.638441
923.000000	66.579594
924.000000	66.520933
925.000000	66.456922
926.000000	66.402853
927.000000	66.352721
928.000000	66.282163
929.000000	66.207742
930.000000	66.151462
931.000000	66.070958
932.000000	65.987694
933.000000	65.904551
934.000000	65.826829
935.000000	65.762078
936.000000	65.692848
937.000000	65.609138
938.000000	65.529500
939.000000	65.464552
940.000000	65.402971
941.000000	65.336924
942.000000	65.270400
943.000000	65.212203
944.000000	65.144441
945.000000	65.068941
946.000000	64.999965
947.000000	64.934113
948.000000	64.870964
949.000000	64.797585
950.000000	64.731076
951.000000	64.664569
952.000000	64.590582
953.000000	64.524479
954.000000	64.465012
955.000000	64.393742
956.000000	64.324152
957.000000	64.261261
958.000000	64.199802
959.000000	64.149149
960.000000	64.086967
961.000000	64.026931
962.000000	63.967806
963.000000	63.918305
964.000000	63.879375
965.000000	63.844586
966.000000	63.810786
967.000000	63.778905
968.000000	63.744389
969.000000	63.723358
970.000000	63.700387
971.000000	63.677829
972.000000	63.657340
973.000000	63.644090
974.000000	63.615605
975.000000	63.591393
976.000000	63.572824
977.000000	63.556309
978.000000	63.541788
979.000000	63.523122
980.000000	63.510143
981.000000	63.485747
982.000000	63.470989
983.000000	63.458626
984.000000	63.438213
985.000000	63.425931
986.000000	63.416729
987.000000	63.410555
988.000000	63.393217
989.000000	63.379319
990.000000	63.372455
991.000000	63.359529
992.000000	63.360494
993.000000	63.356660
994.000000	63.344240
995.000000	63.331044
996.000000	63.315831
997.000000	63.308830
998.000000	63.310270
999.000000	63.301280
1000.000000	63.286112
1001.000000	63.288196
1002.000000	63.288854
1003.000000	63.289899
1004.000000	63.289550
1005.000000	63.298633
1006.000000	63.294723
1007.000000	63.284927
1008.000000	63.282894
1009.000000	63.290991
1010.000000	63.295843
1011.000000	63.299689
1012.000000	63.325606
1013.000000	63.347533
1014.000000	63.371343
1015.000000	63.406139
1016.000000	63.459799
1017.000000	63.508441
1018.000000	63.550064
1019.000000	63.598882
1020.000000	63.660218
1021.000000	63.726704
1022.000000	63.790994
1023.000000	63.849970
1024.000000	63.917047
1025.000000	63.976868
1026.000000	64.049411
1027.000000	64.112738
1028.000000	64.173341
1029.000000	64.233389
1030.000000	64.293266
1031.000000	64.361793
1032.000000	64.408194
1033.000000	64.472739
1034.000000	64.529181
1035.000000	64.583789
1036.000000	64.644870
1037.000000	64.708056
1038.000000	64.756969
1039.000000	64.804152
1040.000000	64.857985
1041.000000	64.918421
1042.000000	64.965107
1043.000000	65.025889
1044.000000	65.056027
1045.000000	65.123100
1046.000000	65.174612
1047.000000	65.224789
1048.000000	65.274620
1049.000000	65.343025
1050.000000	65.397993
1051.000000	65.445347
1052.000000	65.510371
1053.000000	65.579083
1054.000000	65.649811
1055.000000	65.713522
1056.000000	65.780889
1057.000000	65.850126
1058.000000	65.907043
1059.000000	65.969630
1060.000000	66.035286
1061.000000	66.100782
1062.000000	66.152218
1063.000000	66.210511
1064.000000	66.269234
1065.000000	66.325570
1066.000000	66.367372
1067.000000	66.421958
1068.000000	66.477144
1069.000000	66.525855
1070.000000	66.577104
1071.000000	66.629264
1072.000000	66.682003
1073.000000	66.724687
1074.000000	66.771150
1075.000000	66.823290
1076.000000	66.868669
1077.000000	66.895302
1078.000000	66.946063
1079.000000	66.993223
1080.000000	67.042904
1081.000000	67.072659
1082.000000	67.119158
1083.000000	67.159065
1084.000000	67.207277
1085.000000	67.228995
1086.000000	67.270338
1087.000000	67.309390
1088.000000	67.336255
1089.000000	67.378032
1090.000000	67.409593
1091.000000	67.424328
1092.000000	67.457496
1093.000000	67.482763
1094.000000	67.496131
1095.000000	67.524271
1096.000000	67.527191
1097.000000	67.554097
1098.000000	67.561888
1099.000000	67.580302
1100.000000	67.581372
1101.000000	67.577458
1102.000000	67.580929
1103.000000	67.599955
1104.000000	67.594577
1105.000000	67.597915
1106.000000	67.601115
1107.000000	67.611724
1108.000000	67.601499
1109.000000	67.603321
1110.000000	67.618247
1111.000000	67.618691
1112.000000	67.623434
1113.000000	67.627074
1114.000000	67.631398
1115.000000	67.632131
1116.000000	67.629404
1117.000000	67.621025
1118.000000	67.615831
1119.000000	67.585770
1120.000000	67.543540
1121.000000	67.520820
1122.000000	67.468676
1123.000000	67.392911
1124.000000	67.321843
1125.000000	67.237263
1126.000000	67.125003
1127.000000	66.994718
1128.000000	66.832255
1129.000000	66.640863
1130.000000	66.407084
1131.000000	66.157076
1132.000000	65.862999
1133.000000	65.602310
1134.000000	65.276944
1135.000000	64.915135
1136.000000	64.557570
1137.000000	64.202658
1138.000000	63.869035
1139.000000	63.558719
1140.000000	63.258258
1141.000000	62.964108
1142.000000	62.687301
1143.000000	62.430640
1144.000000	62.219793
1145.000000	62.034534
1146.000000	61.898905
1147.000000	61.811841
1148.000000	61.732538
1149.000000	61.684301
1150.000000	61.636853
1151.000000	61.572460
1152.000000	61.478824
1153.000000	61.358251
1154.000000	61.199914
1155.000000	61.010420
1156.000000	60.792497
1157.000000	60.530649
1158.000000	60.263104
1159.000000	59.979776
1160.000000	59.685035
1161.000000	59.393183
1162.000000	59.083388
1163.000000	58.769023
1164.000000	58.473440
1165.000000	58.179562
1166.000000	57.882090
1167.000000	57.594453
