PE UV       SUBTECH     SPECTRUM    ASCII       PEDS        4.00        
   -1
INBUCR0144-2.Sample.ASC
24/04/29
13:43:37.00
24/04/29
13:43:37.00
Vinicio Soto Monge
C. cupreomarginata
250,000000
1
Lambda 1050
1050L1511233
PerkinElmer UV WinLab 6.3.2.0749 / 2.02.05 Lambda 900 UV/VIS/NIR, Aug  7 2015 09:38:08

0
0
3350/servo 860,8/2
0
0
UV/VIS
1
1
1
DoubleDePol,CommonBeamDepol,RBeamAtt,SBeamAtt,60mm sphere, WB InGaAs Detector
0
0
0
0
Program
Program
3350/servo 860,8/2
3350/0,2 860,8/0,2
3350/0,2 860,8/0,2
0
15.00
 
 
 
0
 
860,8
319,2
860,8
Front
100
on
S:100 R:100
0
0
0
0
 
0
 
 
 
0
 
 
0
0
0
0
0
 
 
 
 
0
0


0
0
#HDR
-1
-1
#GR
nm
%R
1.0
0.0
2500,000000
-1,000000
2251
8
79,805300
5,674900
#DATA
2482.000000	15.622380
2481.000000	15.617420
2480.000000	15.651350
2479.000000	15.637034
2478.000000	15.645037
2477.000000	15.720337
2476.000000	15.641768
2475.000000	15.726086
2474.000000	15.805781
2473.000000	15.814236
2472.000000	15.794960
2471.000000	15.905767
2470.000000	15.920309
2469.000000	15.980728
2468.000000	16.000230
2467.000000	16.063017
2466.000000	16.166384
2465.000000	16.210347
2464.000000	16.301202
2463.000000	16.321718
2462.000000	16.353280
2461.000000	16.415278
2460.000000	16.498130
2459.000000	16.581771
2458.000000	16.663496
2457.000000	16.739472
2456.000000	16.870006
2455.000000	16.944516
2454.000000	17.026128
2453.000000	17.136034
2452.000000	17.277277
2451.000000	17.366779
2450.000000	17.454027
2449.000000	17.596848
2448.000000	17.684322
2447.000000	17.836499
2446.000000	17.961960
2445.000000	18.077390
2444.000000	18.214800
2443.000000	18.336767
2442.000000	18.473501
2441.000000	18.603697
2440.000000	18.754634
2439.000000	18.846053
2438.000000	18.969823
2437.000000	19.072965
2436.000000	19.200794
2435.000000	19.326481
2434.000000	19.460059
2433.000000	19.605021
2432.000000	19.702866
2431.000000	19.816040
2430.000000	19.915350
2429.000000	20.025030
2428.000000	20.118140
2427.000000	20.235485
2426.000000	20.339867
2425.000000	20.425988
2424.000000	20.527327
2423.000000	20.625735
2422.000000	20.704303
2421.000000	20.786817
2420.000000	20.877785
2419.000000	20.950717
2418.000000	21.036049
2417.000000	21.120704
2416.000000	21.186761
2415.000000	21.241770
2414.000000	21.309291
2413.000000	21.376362
2412.000000	21.437120
2411.000000	21.486718
2410.000000	21.520535
2409.000000	21.581744
2408.000000	21.619394
2407.000000	21.653549
2406.000000	21.709799
2405.000000	21.747899
2404.000000	21.753761
2403.000000	21.787803
2402.000000	21.833118
2401.000000	21.899964
2400.000000	21.999273
2399.000000	22.086070
2398.000000	22.198005
2397.000000	22.256509
2396.000000	22.273868
2395.000000	22.292918
2394.000000	22.300133
2393.000000	22.323692
2392.000000	22.344095
2391.000000	22.415224
2390.000000	22.444983
2389.000000	22.453437
2388.000000	22.478800
2387.000000	22.492214
2386.000000	22.501119
2385.000000	22.493003
2384.000000	22.512279
2383.000000	22.533471
2382.000000	22.519042
2381.000000	22.512504
2380.000000	22.528511
2379.000000	22.513631
2378.000000	22.523889
2377.000000	22.532907
2376.000000	22.518929
2375.000000	22.506981
2374.000000	22.494243
2373.000000	22.478236
2372.000000	22.476207
2371.000000	22.498977
2370.000000	22.482520
2369.000000	22.450957
2368.000000	22.467527
2367.000000	22.481618
2366.000000	22.501457
2365.000000	22.515660
2364.000000	22.498977
2363.000000	22.492778
2362.000000	22.493792
2361.000000	22.493341
2360.000000	22.496047
2359.000000	22.477898
2358.000000	22.480603
2357.000000	22.479363
2356.000000	22.453324
2355.000000	22.449379
2354.000000	22.438670
2353.000000	22.418605
2352.000000	22.428638
2351.000000	22.434950
2350.000000	22.402035
2349.000000	22.388734
2348.000000	22.380843
2347.000000	22.374305
2346.000000	22.378476
2345.000000	22.362582
2344.000000	22.360553
2343.000000	22.386366
2342.000000	22.387268
2341.000000	22.369232
2340.000000	22.373403
2339.000000	22.398991
2338.000000	22.415787
2337.000000	22.408460
2336.000000	22.405417
2335.000000	22.432019
2334.000000	22.467415
2333.000000	22.506530
2332.000000	22.518028
2331.000000	22.545194
2330.000000	22.576757
2329.000000	22.616097
2328.000000	22.649576
2327.000000	22.670656
2326.000000	22.710560
2325.000000	22.758918
2324.000000	22.783154
2323.000000	22.797695
2322.000000	22.809982
2321.000000	22.838163
2320.000000	22.843686
2319.000000	22.850337
2318.000000	22.831738
2317.000000	22.821142
2316.000000	22.807164
2315.000000	22.780899
2314.000000	22.735697
2313.000000	22.714054
2312.000000	22.687000
2311.000000	22.651042
2310.000000	22.603359
2309.000000	22.573150
2308.000000	22.547899
2307.000000	22.536740
2306.000000	22.493679
2305.000000	22.462455
2304.000000	22.447801
2303.000000	22.434048
2302.000000	22.425481
2301.000000	22.405642
2300.000000	22.419169
2299.000000	22.436303
2298.000000	22.441150
2297.000000	22.467415
2296.000000	22.452986
2295.000000	22.478011
2294.000000	22.494243
2293.000000	22.561201
2292.000000	22.591524
2291.000000	22.619254
2290.000000	22.681702
2289.000000	22.718225
2288.000000	22.727919
2287.000000	22.797357
2286.000000	22.850788
2285.000000	22.912561
2284.000000	22.952803
2283.000000	23.016943
2282.000000	23.085253
2281.000000	23.140601
2280.000000	23.207108
2279.000000	23.279476
2278.000000	23.321635
2277.000000	23.342376
2276.000000	23.395582
2275.000000	23.462201
2274.000000	23.522734
2273.000000	23.553846
2272.000000	23.601528
2271.000000	23.665781
2270.000000	23.713237
2269.000000	23.779519
2268.000000	23.849633
2267.000000	23.959877
2266.000000	24.046899
2265.000000	24.171121
2264.000000	24.264118
2263.000000	24.401303
2262.000000	24.549422
2261.000000	24.692243
2260.000000	24.873502
2259.000000	25.057918
2258.000000	25.251352
2257.000000	25.454142
2256.000000	25.652761
2255.000000	25.853861
2254.000000	26.086184
2253.000000	26.344434
2252.000000	26.534825
2251.000000	26.748211
2250.000000	26.953593
2249.000000	27.180055
2248.000000	27.366275
2247.000000	27.559821
2246.000000	27.715831
2245.000000	27.881535
2244.000000	28.070009
2243.000000	28.186114
2242.000000	28.303009
2241.000000	28.435572
2240.000000	28.521580
2239.000000	28.613788
2238.000000	28.666655
2237.000000	28.725497
2236.000000	28.767205
2235.000000	28.794371
2234.000000	28.839123
2233.000000	28.836417
2232.000000	28.824243
2231.000000	28.809025
2230.000000	28.790877
2229.000000	28.734177
2228.000000	28.690102
2227.000000	28.650423
2226.000000	28.587185
2225.000000	28.488552
2224.000000	28.425427
2223.000000	28.339531
2222.000000	28.270093
2221.000000	28.176533
2220.000000	28.049042
2219.000000	27.946802
2218.000000	27.871390
2217.000000	27.775124
2216.000000	27.649437
2215.000000	27.540320
2214.000000	27.456792
2213.000000	27.374391
2212.000000	27.288270
2211.000000	27.190313
2210.000000	27.095850
2209.000000	27.036220
2208.000000	26.973094
2207.000000	26.882352
2206.000000	26.818550
2205.000000	26.770981
2204.000000	26.688918
2203.000000	26.651043
2202.000000	26.594455
2201.000000	26.556918
2200.000000	26.514985
2199.000000	26.472601
2198.000000	26.424919
2197.000000	26.381971
2196.000000	26.358412
2195.000000	26.319410
2194.000000	26.278153
2193.000000	26.265189
2192.000000	26.254932
2191.000000	26.245575
2190.000000	26.211082
2189.000000	26.177603
2188.000000	26.174785
2187.000000	26.130372
2186.000000	26.097231
2185.000000	26.080548
2184.000000	26.052931
2183.000000	26.031175
2182.000000	26.045716
2181.000000	26.010208
2180.000000	25.983042
2179.000000	25.949450
2178.000000	25.950578
2177.000000	25.934571
2176.000000	25.950465
2175.000000	25.938854
2174.000000	25.943476
2173.000000	25.958806
2172.000000	25.960948
2171.000000	25.999500
2170.000000	26.032528
2169.000000	26.067810
2168.000000	26.109180
2167.000000	26.147731
2166.000000	26.208828
2165.000000	26.268233
2164.000000	26.326624
2163.000000	26.402938
2162.000000	26.477223
2161.000000	26.544631
2160.000000	26.644167
2159.000000	26.754072
2158.000000	26.865443
2157.000000	26.967458
2156.000000	27.080745
2155.000000	27.212632
2154.000000	27.348239
2153.000000	27.478097
2152.000000	27.641321
2151.000000	27.791919
2150.000000	27.927526
2149.000000	28.071925
2148.000000	28.220946
2147.000000	28.374476
2146.000000	28.532852
2145.000000	28.655158
2144.000000	28.804178
2143.000000	28.943956
2142.000000	29.074941
2141.000000	29.215056
2140.000000	29.357314
2139.000000	29.506560
2138.000000	29.629316
2137.000000	29.746549
2136.000000	29.873926
2135.000000	29.986650
2134.000000	30.126315
2133.000000	30.247380
2132.000000	30.331472
2131.000000	30.433149
2130.000000	30.539109
2129.000000	30.630979
2128.000000	30.698951
2127.000000	30.785636
2126.000000	30.860597
2125.000000	30.909632
2124.000000	30.969488
2123.000000	31.027541
2122.000000	31.083903
2121.000000	31.147592
2120.000000	31.184452
2119.000000	31.218946
2118.000000	31.241040
2117.000000	31.260428
2116.000000	31.291427
2115.000000	31.324793
2114.000000	31.351396
2113.000000	31.363570
2112.000000	31.385551
2111.000000	31.392991
2110.000000	31.392991
2109.000000	31.397387
2108.000000	31.391639
2107.000000	31.380817
2106.000000	31.385664
2105.000000	31.399980
2104.000000	31.394908
2103.000000	31.381268
2102.000000	31.387130
2101.000000	31.395697
2100.000000	31.397387
2099.000000	31.383861
2098.000000	31.397387
2097.000000	31.427372
2096.000000	31.433346
2095.000000	31.433121
2094.000000	31.457018
2093.000000	31.486214
2092.000000	31.518565
2091.000000	31.527358
2090.000000	31.549790
2089.000000	31.586087
2088.000000	31.597810
2087.000000	31.590032
2086.000000	31.588680
2085.000000	31.593865
2084.000000	31.591610
2083.000000	31.553961
2082.000000	31.502108
2081.000000	31.465022
2080.000000	31.418918
2079.000000	31.359738
2078.000000	31.275759
2077.000000	31.167093
2076.000000	31.067671
2075.000000	30.958441
2074.000000	30.841321
2073.000000	30.710787
2072.000000	30.575519
2071.000000	30.440025
2070.000000	30.290102
2069.000000	30.125751
2068.000000	29.962302
2067.000000	29.810914
2066.000000	29.627738
2065.000000	29.459441
2064.000000	29.291370
2063.000000	29.130626
2062.000000	28.984762
2061.000000	28.841941
2060.000000	28.702389
2059.000000	28.577942
2058.000000	28.481789
2057.000000	28.400177
2056.000000	28.351142
2055.000000	28.292525
2054.000000	28.270544
2053.000000	28.311012
2052.000000	28.369741
2051.000000	28.418212
2050.000000	28.533529
2049.000000	28.675561
2048.000000	28.815113
2047.000000	28.979013
2046.000000	29.176167
2045.000000	29.380986
2044.000000	29.618044
2043.000000	29.859498
2042.000000	30.064993
2041.000000	30.259216
2040.000000	30.479027
2039.000000	30.716874
2038.000000	30.928119
2037.000000	31.113211
2036.000000	31.307885
2035.000000	31.488355
2034.000000	31.679197
2033.000000	31.847268
2032.000000	32.027964
2031.000000	32.160865
2030.000000	32.300643
2029.000000	32.441660
2028.000000	32.566445
2027.000000	32.692921
2026.000000	32.794485
2025.000000	32.913972
2024.000000	33.012380
2023.000000	33.116537
2022.000000	33.210774
2021.000000	33.294866
2020.000000	33.357202
2019.000000	33.423596
2018.000000	33.490103
2017.000000	33.532487
2016.000000	33.584002
2015.000000	33.604743
2014.000000	33.657836
2013.000000	33.663021
2012.000000	33.680944
2011.000000	33.688159
2010.000000	33.688159
2009.000000	33.696500
2008.000000	33.673843
2007.000000	33.634728
2006.000000	33.618383
2005.000000	33.579155
2004.000000	33.537109
2003.000000	33.493147
2002.000000	33.444450
2001.000000	33.364416
2000.000000	33.262063
1999.000000	33.171997
1998.000000	33.105941
1997.000000	33.015875
1996.000000	32.905067
1995.000000	32.826273
1994.000000	32.704983
1993.000000	32.611309
1992.000000	32.482240
1991.000000	32.396345
1990.000000	32.265924
1989.000000	32.149142
1988.000000	32.006321
1987.000000	31.903742
1986.000000	31.779070
1985.000000	31.653158
1984.000000	31.524540
1983.000000	31.403136
1982.000000	31.257159
1981.000000	31.143421
1980.000000	31.004207
1979.000000	30.891709
1978.000000	30.755539
1977.000000	30.632557
1976.000000	30.519270
1975.000000	30.389074
1974.000000	30.272292
1973.000000	30.173321
1972.000000	30.043688
1971.000000	29.913380
1970.000000	29.836277
1969.000000	29.714310
1968.000000	29.593244
1967.000000	29.508476
1966.000000	29.394287
1965.000000	29.268713
1964.000000	29.160611
1963.000000	29.034586
1962.000000	28.919495
1961.000000	28.823116
1960.000000	28.729217
1959.000000	28.606799
1958.000000	28.475476
1957.000000	28.358807
1956.000000	28.229513
1955.000000	28.146774
1954.000000	28.014549
1953.000000	27.917155
1952.000000	27.791694
1951.000000	27.681225
1950.000000	27.583831
1949.000000	27.500641
1948.000000	27.414182
1947.000000	27.322200
1946.000000	27.225483
1945.000000	27.170023
1944.000000	27.110843
1943.000000	27.041179
1942.000000	27.028104
1941.000000	26.973207
1940.000000	26.929696
1939.000000	26.898697
1938.000000	26.912449
1937.000000	26.893060
1936.000000	26.895540
1935.000000	26.920791
1934.000000	26.941644
1933.000000	27.008490
1932.000000	27.083789
1931.000000	27.146689
1930.000000	27.239799
1929.000000	27.353537
1928.000000	27.474940
1927.000000	27.612463
1926.000000	27.758779
1925.000000	27.925835
1924.000000	28.105517
1923.000000	28.298838
1922.000000	28.535220
1921.000000	28.778139
1920.000000	29.051156
1919.000000	29.266571
1918.000000	29.581634
1917.000000	29.895457
1916.000000	30.203869
1915.000000	30.553989
1914.000000	30.960696
1913.000000	31.370108
1912.000000	31.811309
1911.000000	32.218580
1910.000000	32.661584
1909.000000	33.113606
1908.000000	33.618496
1907.000000	34.184594
1906.000000	34.840533
1905.000000	35.483397
1904.000000	36.100897
1903.000000	36.745564
1902.000000	37.439040
1901.000000	38.139844
1900.000000	38.923161
1899.000000	39.721132
1898.000000	40.479763
1897.000000	41.183835
1896.000000	41.865475
1895.000000	42.553766
1894.000000	43.251301
1893.000000	44.024134
1892.000000	44.852992
1891.000000	45.656825
1890.000000	46.361010
1889.000000	47.042199
1888.000000	47.716174
1887.000000	48.349682
1886.000000	48.964026
1885.000000	49.571269
1884.000000	50.179751
1883.000000	50.698055
1882.000000	51.165182
1881.000000	51.629040
1880.000000	52.032816
1879.000000	52.429604
1878.000000	52.827068
1877.000000	53.211005
1876.000000	53.574651
1875.000000	53.910681
1874.000000	54.255953
1873.000000	54.584769
1872.000000	54.863985
1871.000000	55.113894
1870.000000	55.324011
1869.000000	55.528491
1868.000000	55.658913
1867.000000	55.760702
1866.000000	55.840736
1865.000000	55.932493
1864.000000	56.019178
1863.000000	56.134381
1862.000000	56.269875
1861.000000	56.393195
1860.000000	56.522264
1859.000000	56.599029
1858.000000	56.677372
1857.000000	56.751093
1856.000000	56.771834
1855.000000	56.813655
1854.000000	56.874525
1853.000000	56.876103
1852.000000	56.886361
1851.000000	56.924913
1850.000000	56.966170
1849.000000	56.988376
1848.000000	57.015205
1847.000000	56.964028
1846.000000	56.892674
1845.000000	56.863817
1844.000000	56.823574
1843.000000	56.871933
1842.000000	56.891434
1841.000000	56.838116
1840.000000	56.794830
1839.000000	56.735199
1838.000000	56.686051
1837.000000	56.637242
1836.000000	56.568931
1835.000000	56.487883
1834.000000	56.403566
1833.000000	56.342131
1832.000000	56.310230
1831.000000	56.281373
1830.000000	56.242145
1829.000000	56.196492
1828.000000	56.128633
1827.000000	56.090645
1826.000000	56.070016
1825.000000	56.033719
1824.000000	56.016698
1823.000000	56.060435
1822.000000	56.116007
1821.000000	56.137200
1820.000000	56.111273
1819.000000	56.039355
1818.000000	56.019854
1817.000000	56.028647
1816.000000	56.020869
1815.000000	55.990659
1814.000000	55.970594
1813.000000	55.956165
1812.000000	55.930352
1811.000000	55.886389
1810.000000	55.833296
1809.000000	55.797225
1808.000000	55.758110
1807.000000	55.744357
1806.000000	55.714260
1805.000000	55.658575
1804.000000	55.636255
1803.000000	55.636368
1802.000000	55.622616
1801.000000	55.572905
1800.000000	55.524208
1799.000000	55.502678
1798.000000	55.468748
1797.000000	55.436734
1796.000000	55.412386
1795.000000	55.371918
1794.000000	55.349937
1793.000000	55.327392
1792.000000	55.315105
1791.000000	55.311498
1790.000000	55.299211
1789.000000	55.305524
1788.000000	55.304848
1787.000000	55.294590
1786.000000	55.309920
1785.000000	55.326265
1784.000000	55.307328
1783.000000	55.278808
1782.000000	55.257955
1781.000000	55.228534
1780.000000	55.204298
1779.000000	55.170255
1778.000000	55.114119
1777.000000	55.058772
1776.000000	54.998465
1775.000000	54.937481
1774.000000	54.892279
1773.000000	54.824194
1772.000000	54.743033
1771.000000	54.676638
1770.000000	54.614866
1769.000000	54.566169
1768.000000	54.500338
1767.000000	54.425490
1766.000000	54.392011
1765.000000	54.342976
1764.000000	54.334296
1763.000000	54.287291
1762.000000	54.258884
1761.000000	54.266099
1760.000000	54.258433
1759.000000	54.242990
1758.000000	54.229463
1757.000000	54.231718
1756.000000	54.247725
1755.000000	54.238594
1754.000000	54.225969
1753.000000	54.221573
1752.000000	54.173440
1751.000000	54.136466
1750.000000	54.102875
1749.000000	54.055193
1748.000000	53.992631
1747.000000	53.890729
1746.000000	53.795477
1745.000000	53.697520
1744.000000	53.598549
1743.000000	53.458771
1742.000000	53.362167
1741.000000	53.216528
1740.000000	53.082387
1739.000000	52.976765
1738.000000	52.863139
1737.000000	52.759659
1736.000000	52.666211
1735.000000	52.572988
1734.000000	52.482020
1733.000000	52.424306
1732.000000	52.334916
1731.000000	52.262660
1730.000000	52.196942
1729.000000	52.127392
1728.000000	52.062688
1727.000000	51.993025
1726.000000	51.965633
1725.000000	51.944554
1724.000000	51.954699
1723.000000	52.038002
1722.000000	52.181048
1721.000000	52.375496
1720.000000	52.628336
1719.000000	52.920516
1718.000000	53.248767
1717.000000	53.589531
1716.000000	53.894787
1715.000000	54.209962
1714.000000	54.504284
1713.000000	54.760392
1712.000000	55.010639
1711.000000	55.223461
1710.000000	55.411146
1709.000000	55.568396
1708.000000	55.728012
1707.000000	55.865084
1706.000000	55.980852
1705.000000	56.066296
1704.000000	56.114317
1703.000000	56.169664
1702.000000	56.208441
1701.000000	56.262436
1700.000000	56.271115
1699.000000	56.284980
1698.000000	56.273933
1697.000000	56.272355
1696.000000	56.225913
1695.000000	56.173384
1694.000000	56.075765
1693.000000	55.976005
1692.000000	55.860125
1691.000000	55.775356
1690.000000	55.712682
1689.000000	55.687094
1688.000000	55.739285
1687.000000	55.873651
1686.000000	56.070242
1685.000000	56.304143
1684.000000	56.587531
1683.000000	56.883092
1682.000000	57.200973
1681.000000	57.495069
1680.000000	57.811710
1679.000000	58.119446
1678.000000	58.369016
1677.000000	58.644175
1676.000000	58.894985
1675.000000	59.139145
1674.000000	59.358731
1673.000000	59.596127
1672.000000	59.854602
1671.000000	60.086362
1670.000000	60.335820
1669.000000	60.561831
1668.000000	60.791224
1667.000000	61.046205
1666.000000	61.221377
1665.000000	61.426760
1664.000000	61.613994
1663.000000	61.778120
1662.000000	61.938864
1661.000000	62.109415
1660.000000	62.225971
1659.000000	62.356280
1658.000000	62.448826
1657.000000	62.556139
1656.000000	62.635271
1655.000000	62.679797
1654.000000	62.721617
1653.000000	62.755660
1652.000000	62.778994
1651.000000	62.817545
1650.000000	62.821490
1649.000000	62.810444
1648.000000	62.813262
1647.000000	62.804807
1646.000000	62.790041
1645.000000	62.768398
1644.000000	62.754307
1643.000000	62.740668
1642.000000	62.726239
1641.000000	62.718574
1640.000000	62.690956
1639.000000	62.677542
1638.000000	62.645416
1637.000000	62.637187
1636.000000	62.604497
1635.000000	62.598523
1634.000000	62.565269
1633.000000	62.512289
1632.000000	62.456378
1631.000000	62.407794
1630.000000	62.361127
1629.000000	62.304314
1628.000000	62.251447
1627.000000	62.199143
1626.000000	62.135454
1625.000000	62.084616
1624.000000	62.020025
1623.000000	61.986433
1622.000000	61.941682
1621.000000	61.894451
1620.000000	61.843725
1619.000000	61.796606
1618.000000	61.744866
1617.000000	61.698424
1616.000000	61.647360
1615.000000	61.608245
1614.000000	61.574992
1613.000000	61.519982
1612.000000	61.451334
1611.000000	61.391365
1610.000000	61.317982
1609.000000	61.241555
1608.000000	61.161408
1607.000000	61.074836
1606.000000	60.980374
