PE UV       SUBTECH     SPECTRUM    ASCII       PEDS        4.00        
   -1
CICIMAUCR0215-1.Sample.ASC
24/06/13
12:50:09.00
24/06/13
12:50:09.00
Vinicio Soto Monge
C. cupreomarginata. Sex M. Ventral 
250,000000
1
Lambda 1050
1050L1511233
PerkinElmer UV WinLab 6.3.2.0749 / 2.02.05 Lambda 900 UV/VIS/NIR, Aug  7 2015 09:38:08

0
0
3350/servo 860,8/2
0
0
UV/VIS
1
1
1
DoubleDePol,CommonBeamDepol,RBeamAtt,SBeamAtt,60mm sphere, WB InGaAs Detector
0
0
0
0
Program
Program
3350/servo 860,8/2
3350/0,2 860,8/0,2
3350/0,2 860,8/0,2
0
15.00
 
 
 
0
 
860,8
319,2
860,8
Front
100
on
S:100 R:100
0
0
0
0
 
0
 
 
 
0
 
 
0
0
0
0
0
 
 
 
 
0
0


0
0
#HDR
-1
-1
#GR
nm
%R
1.0
0.0
2500,000000
-1,000000
2251
8
60,327600
4,064900
#DATA
2482.000000	7.937556
2481.000000	7.845951
2480.000000	7.878093
2479.000000	7.946280
2478.000000	7.874649
2477.000000	7.827699
2476.000000	7.876027
2475.000000	7.815531
2474.000000	7.919533
2473.000000	7.909317
2472.000000	7.867073
2471.000000	7.914827
2470.000000	7.859152
2469.000000	7.876256
2468.000000	7.842278
2467.000000	7.857545
2466.000000	7.880848
2465.000000	7.901166
2464.000000	7.936982
2463.000000	7.902888
2462.000000	7.931701
2461.000000	7.971993
2460.000000	7.990016
2459.000000	7.987031
2458.000000	8.012974
2457.000000	8.028930
2456.000000	8.049364
2455.000000	8.071174
2454.000000	8.117780
2453.000000	8.132703
2452.000000	8.195265
2451.000000	8.259663
2450.000000	8.240952
2449.000000	8.285033
2448.000000	8.325899
2447.000000	8.360451
2446.000000	8.396726
2445.000000	8.421750
2444.000000	8.454007
2443.000000	8.489248
2442.000000	8.548022
2441.000000	8.575113
2440.000000	8.602089
2439.000000	8.643874
2438.000000	8.674064
2437.000000	8.727328
2436.000000	8.745810
2435.000000	8.793334
2434.000000	8.821917
2433.000000	8.832822
2432.000000	8.895269
2431.000000	8.918113
2430.000000	8.966211
2429.000000	8.971606
2428.000000	8.984578
2427.000000	9.028543
2426.000000	9.060456
2425.000000	9.075264
2424.000000	9.102011
2423.000000	9.132545
2422.000000	9.160096
2421.000000	9.170083
2420.000000	9.189827
2419.000000	9.237007
2418.000000	9.257669
2417.000000	9.269837
2416.000000	9.300257
2415.000000	9.319198
2414.000000	9.331136
2413.000000	9.367870
2412.000000	9.385318
2411.000000	9.395305
2410.000000	9.429858
2409.000000	9.449832
2408.000000	9.450176
2407.000000	9.460852
2406.000000	9.490009
2405.000000	9.520314
2404.000000	9.532253
2403.000000	9.540403
2402.000000	9.553834
2401.000000	9.576104
2400.000000	9.616511
2399.000000	9.656803
2398.000000	9.660820
2397.000000	9.661050
2396.000000	9.692044
2395.000000	9.720857
2394.000000	9.741979
2393.000000	9.755639
2392.000000	9.770906
2391.000000	9.787322
2390.000000	9.799490
2389.000000	9.817742
2388.000000	9.840126
2387.000000	9.839323
2386.000000	9.853327
2385.000000	9.874334
2384.000000	9.874449
2383.000000	9.869169
2382.000000	9.885814
2381.000000	9.886847
2380.000000	9.876630
2379.000000	9.890635
2378.000000	9.890061
2377.000000	9.876745
2376.000000	9.872957
2375.000000	9.875138
2374.000000	9.867102
2373.000000	9.860330
2372.000000	9.845981
2371.000000	9.845522
2370.000000	9.845292
2369.000000	9.831861
2368.000000	9.822678
2367.000000	9.806951
2366.000000	9.781123
2365.000000	9.761149
2364.000000	9.758624
2363.000000	9.744963
2362.000000	9.711214
2361.000000	9.686419
2360.000000	9.674710
2359.000000	9.656343
2358.000000	9.625350
2357.000000	9.606753
2356.000000	9.588731
2355.000000	9.583106
2354.000000	9.572430
2353.000000	9.556015
2352.000000	9.546028
2351.000000	9.558540
2350.000000	9.567379
2349.000000	9.563247
2348.000000	9.572660
2347.000000	9.586320
2346.000000	9.599636
2345.000000	9.626497
2344.000000	9.632926
2343.000000	9.647734
2342.000000	9.673448
2341.000000	9.695373
2340.000000	9.710526
2339.000000	9.730844
2338.000000	9.733140
2337.000000	9.720283
2336.000000	9.723038
2335.000000	9.740716
2334.000000	9.734517
2333.000000	9.720972
2332.000000	9.729696
2331.000000	9.717872
2330.000000	9.694684
2329.000000	9.685156
2328.000000	9.654736
2327.000000	9.627416
2326.000000	9.599177
2325.000000	9.585631
2324.000000	9.543273
2323.000000	9.505736
2322.000000	9.485532
2321.000000	9.447077
2320.000000	9.401619
2319.000000	9.335843
2318.000000	9.300716
2317.000000	9.256751
2316.000000	9.202684
2315.000000	9.166524
2314.000000	9.109587
2313.000000	9.045074
2312.000000	8.985381
2311.000000	8.944056
2310.000000	8.914440
2309.000000	8.870015
2308.000000	8.834315
2307.000000	8.814226
2306.000000	8.808027
2305.000000	8.798958
2304.000000	8.794022
2303.000000	8.793104
2302.000000	8.809979
2301.000000	8.830067
2300.000000	8.840743
2299.000000	8.894236
2298.000000	8.920294
2297.000000	8.957372
2296.000000	8.999271
2295.000000	9.035661
2294.000000	9.068836
2293.000000	9.104536
2292.000000	9.122903
2291.000000	9.145861
2290.000000	9.169049
2289.000000	9.186842
2288.000000	9.216574
2287.000000	9.208194
2286.000000	9.199699
2285.000000	9.195796
2284.000000	9.187301
2283.000000	9.187646
2282.000000	9.204979
2281.000000	9.169623
2280.000000	9.126117
2279.000000	9.093631
2278.000000	9.086514
2277.000000	9.060111
2276.000000	9.062292
2275.000000	9.004207
2274.000000	9.011210
2273.000000	8.986529
2272.000000	8.971377
2271.000000	8.982167
2270.000000	8.968163
2269.000000	8.987677
2268.000000	9.023722
2267.000000	9.027625
2266.000000	9.087317
2265.000000	9.115671
2264.000000	9.170886
2263.000000	9.264786
2262.000000	9.329759
2261.000000	9.423200
2260.000000	9.518019
2259.000000	9.623398
2258.000000	9.747718
2257.000000	9.873531
2256.000000	9.972482
2255.000000	10.134913
2254.000000	10.253953
2253.000000	10.382521
2252.000000	10.514647
2251.000000	10.658597
2250.000000	10.784524
2249.000000	10.915847
2248.000000	11.020423
2247.000000	11.108009
2246.000000	11.223376
2245.000000	11.322786
2244.000000	11.411291
2243.000000	11.507487
2242.000000	11.586579
2241.000000	11.663605
2240.000000	11.718705
2239.000000	11.783104
2238.000000	11.840385
2237.000000	11.889631
2236.000000	11.952423
2235.000000	11.974004
2234.000000	12.006146
2233.000000	12.057343
2232.000000	12.071233
2231.000000	12.093732
2230.000000	12.116576
2229.000000	12.126219
2228.000000	12.121742
2227.000000	12.141486
2226.000000	12.140108
2225.000000	12.136320
2224.000000	12.131155
2223.000000	12.127481
2222.000000	12.115772
2221.000000	12.092814
2220.000000	12.079842
2219.000000	12.074332
2218.000000	12.041042
2217.000000	12.015329
2216.000000	11.996962
2215.000000	11.972856
2214.000000	11.947601
2213.000000	11.902258
2212.000000	11.910753
2211.000000	11.865984
2210.000000	11.849569
2209.000000	11.856915
2208.000000	11.835794
2207.000000	11.813639
2206.000000	11.768066
2205.000000	11.775527
2204.000000	11.757735
2203.000000	11.764393
2202.000000	11.758997
2201.000000	11.725937
2200.000000	11.705848
2199.000000	11.696206
2198.000000	11.681742
2197.000000	11.660850
2196.000000	11.671181
2195.000000	11.659817
2194.000000	11.650748
2193.000000	11.644894
2192.000000	11.634218
2191.000000	11.632152
2190.000000	11.638121
2189.000000	11.605175
2188.000000	11.595074
2187.000000	11.596451
2186.000000	11.595188
2185.000000	11.579118
2184.000000	11.571082
2183.000000	11.551108
2182.000000	11.537677
2181.000000	11.543417
2180.000000	11.514719
2179.000000	11.514145
2178.000000	11.529068
2177.000000	11.505880
2176.000000	11.489235
2175.000000	11.493827
2174.000000	11.498304
2173.000000	11.493023
2172.000000	11.488317
2171.000000	11.504043
2170.000000	11.505421
2169.000000	11.524017
2168.000000	11.526543
2167.000000	11.534578
2166.000000	11.527691
2165.000000	11.556274
2164.000000	11.573608
2163.000000	11.585661
2162.000000	11.593581
2161.000000	11.611948
2160.000000	11.634792
2159.000000	11.668770
2158.000000	11.671296
2157.000000	11.708489
2156.000000	11.721116
2155.000000	11.748896
2154.000000	11.773002
2153.000000	11.801471
2152.000000	11.844059
2151.000000	11.875512
2150.000000	11.899389
2149.000000	11.927054
2148.000000	11.956900
2147.000000	11.992715
2146.000000	11.999143
2145.000000	12.022561
2144.000000	12.067674
2143.000000	12.096832
2142.000000	12.137927
2141.000000	12.146192
2140.000000	12.179367
2139.000000	12.216445
2138.000000	12.236534
2137.000000	12.249161
2136.000000	12.255819
2135.000000	12.278548
2134.000000	12.305065
2133.000000	12.316659
2132.000000	12.314019
2131.000000	12.336863
2130.000000	12.340995
2129.000000	12.343062
2128.000000	12.365216
2127.000000	12.381517
2126.000000	12.383928
2125.000000	12.372563
2124.000000	12.373482
2123.000000	12.364183
2122.000000	12.369808
2121.000000	12.356148
2120.000000	12.352360
2119.000000	12.335256
2118.000000	12.327909
2117.000000	12.314363
2116.000000	12.300014
2115.000000	12.294390
2114.000000	12.288420
2113.000000	12.264888
2112.000000	12.249620
2111.000000	12.241126
2110.000000	12.218626
2109.000000	12.206573
2108.000000	12.184877
2107.000000	12.157672
2106.000000	12.141830
2105.000000	12.141371
2104.000000	12.125185
2103.000000	12.079268
2102.000000	12.062394
2101.000000	12.056999
2100.000000	12.043912
2099.000000	12.013722
2098.000000	11.994896
2097.000000	11.971593
2096.000000	11.949668
2095.000000	11.939222
2094.000000	11.915230
2093.000000	11.912475
2092.000000	11.910638
2091.000000	11.882284
2090.000000	11.868165
2089.000000	11.872527
2088.000000	11.852438
2087.000000	11.830628
2086.000000	11.808129
2085.000000	11.793550
2084.000000	11.791024
2083.000000	11.766229
2082.000000	11.745911
2081.000000	11.747174
2080.000000	11.730299
2079.000000	11.698502
2078.000000	11.643746
2077.000000	11.613326
2076.000000	11.592204
2075.000000	11.562128
2074.000000	11.545254
2073.000000	11.516900
2072.000000	11.478330
2071.000000	11.428165
2070.000000	11.392006
2069.000000	11.367211
2068.000000	11.319687
2067.000000	11.274114
2066.000000	11.234740
2065.000000	11.193530
2064.000000	11.161043
2063.000000	11.135674
2062.000000	11.095152
2061.000000	11.065880
2060.000000	11.047858
2059.000000	11.027195
2058.000000	10.995742
2057.000000	10.982885
2056.000000	10.982771
2055.000000	10.964174
2054.000000	10.954991
2053.000000	10.968422
2052.000000	10.987592
2051.000000	11.015831
2050.000000	11.031672
2049.000000	11.056927
2048.000000	11.107091
2047.000000	11.133034
2046.000000	11.166668
2045.000000	11.221424
2044.000000	11.264931
2043.000000	11.309470
2042.000000	11.369851
2041.000000	11.405092
2040.000000	11.442285
2039.000000	11.493253
2038.000000	11.539055
2037.000000	11.580380
2036.000000	11.625149
2035.000000	11.657636
2034.000000	11.695747
2033.000000	11.723986
2032.000000	11.751651
2031.000000	11.795272
2030.000000	11.836138
2029.000000	11.834072
2028.000000	11.838089
2027.000000	11.864836
2026.000000	11.894797
2025.000000	11.908802
2024.000000	11.915689
2023.000000	11.927283
2022.000000	11.934400
2021.000000	11.949553
2020.000000	11.945306
2019.000000	11.958048
2018.000000	11.956326
2017.000000	11.955293
2016.000000	11.958966
2015.000000	11.946109
2014.000000	11.926824
2013.000000	11.920166
2012.000000	11.915919
2011.000000	11.902832
2010.000000	11.893534
2009.000000	11.871379
2008.000000	11.854160
2007.000000	11.839008
2006.000000	11.793779
2005.000000	11.769788
2004.000000	11.742008
2003.000000	11.722953
2002.000000	11.698387
2001.000000	11.638580
2000.000000	11.615851
1999.000000	11.590826
1998.000000	11.533889
1997.000000	11.505880
1996.000000	11.464555
1995.000000	11.397631
1994.000000	11.370884
1993.000000	11.329788
1992.000000	11.281805
1991.000000	11.238299
1990.000000	11.181362
1989.000000	11.117422
1988.000000	11.079311
1987.000000	11.032935
1986.000000	10.995742
1985.000000	10.941101
1984.000000	10.891740
1983.000000	10.837903
1982.000000	10.776259
1981.000000	10.723569
1980.000000	10.687295
1979.000000	10.625651
1978.000000	10.581686
1977.000000	10.525782
1976.000000	10.474355
1975.000000	10.438769
1974.000000	10.399854
1973.000000	10.351642
1972.000000	10.314104
1971.000000	10.249476
1970.000000	10.214694
1969.000000	10.163497
1968.000000	10.131125
1967.000000	10.074877
1966.000000	10.052378
1965.000000	10.003591
1964.000000	9.952279
1963.000000	9.898900
1962.000000	9.889028
1961.000000	9.870317
1960.000000	9.801786
1959.000000	9.772399
1958.000000	9.714084
1957.000000	9.691355
1956.000000	9.650604
1955.000000	9.609508
1954.000000	9.589993
1953.000000	9.550390
1952.000000	9.528579
1951.000000	9.504588
1950.000000	9.475660
1949.000000	9.428825
1948.000000	9.413902
1947.000000	9.353062
1946.000000	9.353177
1945.000000	9.335843
1944.000000	9.313458
1943.000000	9.293370
1942.000000	9.268689
1941.000000	9.262490
1940.000000	9.245846
1939.000000	9.250667
1938.000000	9.242861
1937.000000	9.249289
1936.000000	9.235285
1935.000000	9.212556
1934.000000	9.213015
1933.000000	9.277758
1932.000000	9.312081
1931.000000	9.325971
1930.000000	9.345026
1929.000000	9.356620
1928.000000	9.396568
1927.000000	9.422856
1926.000000	9.478415
1925.000000	9.517904
1924.000000	9.577596
1923.000000	9.622824
1922.000000	9.664149
1921.000000	9.739338
1920.000000	9.821874
1919.000000	9.908428
1918.000000	9.978796
1917.000000	10.071433
1916.000000	10.147081
1915.000000	10.208725
1914.000000	10.318581
1913.000000	10.427405
1912.000000	10.565844
1911.000000	10.681555
1910.000000	10.787623
1909.000000	10.906434
1908.000000	10.983000
1907.000000	11.124539
1906.000000	11.292481
1905.000000	11.431839
1904.000000	11.635710
1903.000000	11.797338
1902.000000	11.966657
1901.000000	12.145389
1900.000000	12.326302
1899.000000	12.570121
1898.000000	12.785013
1897.000000	13.027225
1896.000000	13.254743
1895.000000	13.444381
1894.000000	13.658583
1893.000000	13.909290
1892.000000	14.168836
1891.000000	14.512295
1890.000000	14.840257
1889.000000	15.177747
1888.000000	15.505250
1887.000000	15.830342
1886.000000	16.185510
1885.000000	16.567540
1884.000000	17.016149
1883.000000	17.464069
1882.000000	17.908545
1881.000000	18.369667
1880.000000	18.807026
1879.000000	19.224297
1878.000000	19.676809
1877.000000	20.126910
1876.000000	20.558071
1875.000000	21.006794
1874.000000	21.407420
1873.000000	21.854307
1872.000000	22.304409
1871.000000	22.663020
1870.000000	23.045509
1869.000000	23.428457
1868.000000	23.778115
1867.000000	24.049714
1866.000000	24.285727
1865.000000	24.467903
1864.000000	24.657195
1863.000000	24.818364
1862.000000	24.948309
1861.000000	25.160446
1860.000000	25.331142
1859.000000	25.495180
1858.000000	25.646362
1857.000000	25.769649
1856.000000	25.863664
1855.000000	25.927718
1854.000000	26.002334
1853.000000	26.080163
1852.000000	26.106910
1851.000000	26.128605
1850.000000	26.148350
1849.000000	26.161321
1848.000000	26.207812
1847.000000	26.258895
1846.000000	26.262453
1845.000000	26.226294
1844.000000	26.193119
1843.000000	26.145824
1842.000000	26.145021
1841.000000	26.175785
1840.000000	26.179803
1839.000000	26.190249
1838.000000	26.166487
1837.000000	26.136411
1836.000000	26.115060
1835.000000	26.085099
1834.000000	26.031032
1833.000000	25.955843
1832.000000	25.899480
1831.000000	25.843461
1830.000000	25.792952
1829.000000	25.743017
1828.000000	25.692509
1827.000000	25.633505
1826.000000	25.565089
1825.000000	25.532603
1824.000000	25.468434
1823.000000	25.395770
1822.000000	25.374304
1821.000000	25.374189
1820.000000	25.369483
1819.000000	25.341359
1818.000000	25.294179
1817.000000	25.266284
1816.000000	25.232076
1815.000000	25.201312
1814.000000	25.180305
1813.000000	25.170777
1812.000000	25.148278
1811.000000	25.126008
1810.000000	25.108445
1809.000000	25.070448
1808.000000	25.015463
1807.000000	24.966905
1806.000000	24.936371
1805.000000	24.891602
1804.000000	24.831336
1803.000000	24.786911
1802.000000	24.745012
1801.000000	24.702194
1800.000000	24.648012
1799.000000	24.591993
1798.000000	24.548142
1797.000000	24.494764
1796.000000	24.442304
1795.000000	24.383989
1794.000000	24.339909
1793.000000	24.307537
1792.000000	24.259095
1791.000000	24.204339
1790.000000	24.161636
1789.000000	24.118015
1788.000000	24.058093
1787.000000	24.009651
1786.000000	23.950992
1785.000000	23.879132
1784.000000	23.823113
1783.000000	23.763077
1782.000000	23.707517
1781.000000	23.656434
1780.000000	23.581360
1779.000000	23.521324
1778.000000	23.475522
1777.000000	23.412500
1776.000000	23.328243
1775.000000	23.240197
1774.000000	23.159268
1773.000000	23.082357
1772.000000	22.992130
1771.000000	22.904773
1770.000000	22.794343
1769.000000	22.694588
1768.000000	22.609986
1767.000000	22.513790
1766.000000	22.424482
1765.000000	22.359050
1764.000000	22.295455
1763.000000	22.266068
1762.000000	22.258492
1761.000000	22.276629
1760.000000	22.293848
1759.000000	22.330926
1758.000000	22.380516
1757.000000	22.436535
1756.000000	22.502655
1755.000000	22.571301
1754.000000	22.612626
1753.000000	22.650623
1752.000000	22.673007
1751.000000	22.692063
1750.000000	22.692981
1749.000000	22.661643
1748.000000	22.632141
1747.000000	22.605968
1746.000000	22.564873
1745.000000	22.499671
1744.000000	22.422645
1743.000000	22.312444
1742.000000	22.172053
1741.000000	22.036024
1740.000000	21.877840
1739.000000	21.713572
1738.000000	21.540809
1737.000000	21.386528
1736.000000	21.232247
1735.000000	21.101269
1734.000000	21.001514
1733.000000	20.951120
1732.000000	20.927014
1731.000000	20.937689
1730.000000	21.006335
1729.000000	21.051908
1728.000000	21.104483
1727.000000	21.202630
1726.000000	21.273113
1725.000000	21.357945
1724.000000	21.421310
1723.000000	21.486168
1722.000000	21.532314
1721.000000	21.601305
1720.000000	21.648944
1719.000000	21.708636
1718.000000	21.764769
1717.000000	21.840647
1716.000000	21.920543
1715.000000	21.995961
1714.000000	22.077923
1713.000000	22.168380
1712.000000	22.247586
1711.000000	22.311755
1710.000000	22.376384
1709.000000	22.427237
1708.000000	22.437568
1707.000000	22.420349
1706.000000	22.406689
1705.000000	22.395554
1704.000000	22.348374
1703.000000	22.317839
1702.000000	22.239207
1701.000000	22.137041
1700.000000	22.033498
1699.000000	21.910900
1698.000000	21.782218
1697.000000	21.663981
1696.000000	21.563997
1695.000000	21.492711
1694.000000	21.506486
1693.000000	21.510274
1692.000000	21.570885
1691.000000	21.666277
1690.000000	21.787039
1689.000000	21.899191
1688.000000	22.015591
1687.000000	22.097667
1686.000000	22.181122
1685.000000	22.241617
1684.000000	22.333336
1683.000000	22.449277
1682.000000	22.641784
1681.000000	22.901903
1680.000000	23.226537
1679.000000	23.647710
1678.000000	24.102518
1677.000000	24.551242
1676.000000	24.992849
1675.000000	25.397836
1674.000000	25.763565
1673.000000	26.108976
1672.000000	26.391939
1671.000000	26.644712
1670.000000	26.852716
1669.000000	27.066460
1668.000000	27.258163
1667.000000	27.421628
1666.000000	27.548244
1665.000000	27.655575
1664.000000	27.767612
1663.000000	27.872533
1662.000000	27.948870
1661.000000	28.032324
1660.000000	28.093049
1659.000000	28.145394
1658.000000	28.191656
1657.000000	28.204283
1656.000000	28.254906
1655.000000	28.280505
1654.000000	28.249970
1653.000000	28.274192
1652.000000	28.274306
1651.000000	28.257317
1650.000000	28.219436
1649.000000	28.197740
1648.000000	28.146772
1647.000000	28.100970
1646.000000	28.056086
1645.000000	28.009021
1644.000000	27.953806
1643.000000	27.915121
1642.000000	27.849574
1641.000000	27.816399
1640.000000	27.759577
1639.000000	27.687258
1638.000000	27.650294
1637.000000	27.588077
1636.000000	27.510936
1635.000000	27.424727
1634.000000	27.380762
1633.000000	27.310738
1632.000000	27.236008
1631.000000	27.144404
1630.000000	27.088844
1629.000000	27.005964
1628.000000	26.919526
1627.000000	26.849732
1626.000000	26.769492
1625.000000	26.703830
1624.000000	26.592941
1623.000000	26.535430
1622.000000	26.446236
1621.000000	26.365422
1620.000000	26.255221
1619.000000	26.186231
1618.000000	26.131131
1617.000000	26.044692
1616.000000	25.959516
1615.000000	25.904301
1614.000000	25.835655
1613.000000	25.756104
1612.000000	25.683670
1611.000000	25.610432
1610.000000	25.553954
1609.000000	25.484964
1608.000000	25.393933
1607.000000	25.307150
1606.000000	25.232880
1605.000000	25.172958
1604.000000	25.101901
1603.000000	25.027286
1602.000000	24.945669
1601.000000	24.858656
1600.000000	24.774743
1599.000000	24.711263
1598.000000	24.626890
1597.000000	24.550783
1596.000000	24.479841
1595.000000	24.415098
