PE UV       SUBTECH     SPECTRUM    ASCII       PEDS        4.00        
   -1
CICIMAUCR0019-7.Sample.ASC
24/04/25
16:57:29.00
24/04/25
16:57:29.00
Vinicio Soto Monge
C. cupreomarginata
250,000000
1
Lambda 1050
1050L1511233
PerkinElmer UV WinLab 6.3.2.0749 / 2.02.05 Lambda 900 UV/VIS/NIR, Aug  7 2015 09:38:08

0
0
3350/servo 860,8/2
0
0
UV/VIS
1
1
1
DoubleDePol,CommonBeamDepol,RBeamAtt,SBeamAtt,60mm sphere, WB InGaAs Detector
0
0
0
0
Program
Program
3350/servo 860,8/2
3350/0,2 860,8/0,2
3350/0,2 860,8/0,2
0
15.00
 
 
 
0
 
860,8
319,2
860,8
Front
100
on
S:100 R:100
0
0
0
0
 
0
 
 
 
0
 
 
0
0
0
0
0
 
 
 
 
0
0


0
0
#HDR
-1
-1
#GR
nm
%R
1.0
0.0
2500,000000
-1,000000
2251
8
70,963300
5,343700
#DATA
250.000000	0.349823
251.000000	0.339578
252.000000	0.366956
253.000000	0.344163
254.000000	0.337939
255.000000	0.321368
256.000000	0.321682
257.000000	0.350758
258.000000	0.318744
259.000000	0.330334
260.000000	0.319709
261.000000	0.289288
262.000000	0.301812
263.000000	0.335014
264.000000	0.319010
265.000000	0.293508
266.000000	0.249048
267.000000	0.326190
268.000000	0.272475
269.000000	0.290537
270.000000	0.315208
271.000000	0.310466
272.000000	0.288613
273.000000	0.278192
274.000000	0.332749
275.000000	0.268654
276.000000	0.273219
277.000000	0.304318
278.000000	0.285728
279.000000	0.305365
280.000000	0.297913
281.000000	0.294474
282.000000	0.290531
283.000000	0.268080
284.000000	0.287143
285.000000	0.276352
286.000000	0.298687
287.000000	0.298779
288.000000	0.310502
289.000000	0.321600
290.000000	0.344228
291.000000	0.314876
292.000000	0.287928
293.000000	0.321799
294.000000	0.312869
295.000000	0.294143
296.000000	0.352744
297.000000	0.320503
298.000000	0.289801
299.000000	0.329294
300.000000	0.305272
301.000000	0.305338
302.000000	0.325056
303.000000	0.319998
304.000000	0.310063
305.000000	0.301214
306.000000	0.309491
307.000000	0.319665
308.000000	0.309755
309.000000	0.283172
310.000000	0.305880
311.000000	0.321247
312.000000	0.273406
313.000000	0.281949
314.000000	0.286933
315.000000	0.311043
316.000000	0.332721
317.000000	0.736060
318.000000	0.435120
319.000000	0.351279
320.000000	0.569939
321.000000	0.451940
322.000000	0.544264
323.000000	0.456185
324.000000	0.278715
325.000000	0.386937
326.000000	0.440399
327.000000	0.341292
328.000000	0.426220
329.000000	0.346822
330.000000	0.452833
331.000000	0.413455
332.000000	0.427153
333.000000	0.341129
334.000000	0.519360
335.000000	0.384239
336.000000	0.429338
337.000000	0.373032
338.000000	0.302269
339.000000	0.333907
340.000000	0.324899
341.000000	0.375014
342.000000	0.334264
343.000000	0.413916
344.000000	0.257913
345.000000	0.383688
346.000000	0.383596
347.000000	0.346954
348.000000	0.308835
349.000000	0.300445
350.000000	0.401368
351.000000	0.324876
352.000000	0.297233
353.000000	0.295493
354.000000	0.390026
355.000000	0.360514
356.000000	0.348693
357.000000	0.324105
358.000000	0.396022
359.000000	0.388929
360.000000	0.351423
361.000000	0.375182
362.000000	0.389658
363.000000	0.369465
364.000000	0.408351
365.000000	0.402917
366.000000	0.359624
367.000000	0.462744
368.000000	0.499846
369.000000	0.547236
370.000000	0.438525
371.000000	0.492698
372.000000	0.581921
373.000000	0.668409
374.000000	0.689843
375.000000	0.580956
376.000000	0.628326
377.000000	0.699500
378.000000	0.729543
379.000000	0.750711
380.000000	0.777964
381.000000	0.813825
382.000000	0.836776
383.000000	0.859522
384.000000	0.888410
385.000000	0.916734
386.000000	0.940241
387.000000	0.959699
388.000000	0.978909
389.000000	0.992827
390.000000	1.002252
391.000000	1.026126
392.000000	1.030657
393.000000	1.042793
394.000000	1.048865
395.000000	1.055234
396.000000	1.061298
397.000000	1.052838
398.000000	1.048675
399.000000	1.040680
400.000000	1.033385
401.000000	1.005587
402.000000	0.992036
403.000000	0.976678
404.000000	0.963892
405.000000	0.954036
406.000000	0.926003
407.000000	0.904410
408.000000	0.898924
409.000000	0.875418
410.000000	0.842697
411.000000	0.814907
412.000000	0.796147
413.000000	0.776010
414.000000	0.760634
415.000000	0.740554
416.000000	0.716892
417.000000	0.694421
418.000000	0.676713
419.000000	0.657048
420.000000	0.635814
421.000000	0.617984
422.000000	0.607696
423.000000	0.598797
424.000000	0.589849
425.000000	0.581870
426.000000	0.574363
427.000000	0.580028
428.000000	0.585903
429.000000	0.583070
430.000000	0.589113
431.000000	0.592698
432.000000	0.592463
433.000000	0.596005
434.000000	0.596658
435.000000	0.596316
436.000000	0.592274
437.000000	0.597345
438.000000	0.603517
439.000000	0.606742
440.000000	0.604877
441.000000	0.606550
442.000000	0.611724
443.000000	0.616266
444.000000	0.632969
445.000000	0.664175
446.000000	0.692819
447.000000	0.728646
448.000000	0.775736
449.000000	0.832029
450.000000	0.899622
451.000000	0.972778
452.000000	1.044362
453.000000	1.110643
454.000000	1.193610
455.000000	1.286701
456.000000	1.362639
457.000000	1.427900
458.000000	1.487306
459.000000	1.547327
460.000000	1.613725
461.000000	1.663096
462.000000	1.691362
463.000000	1.720280
464.000000	1.744481
465.000000	1.758586
466.000000	1.762331
467.000000	1.756053
468.000000	1.762130
469.000000	1.762833
470.000000	1.748539
471.000000	1.726338
472.000000	1.703013
473.000000	1.685126
474.000000	1.671092
475.000000	1.652672
476.000000	1.646421
477.000000	1.640805
478.000000	1.635030
479.000000	1.649241
480.000000	1.665037
481.000000	1.694849
482.000000	1.728982
483.000000	1.766774
484.000000	1.804153
485.000000	1.838616
486.000000	1.890044
487.000000	1.951742
488.000000	2.003884
489.000000	2.061855
490.000000	2.126292
491.000000	2.190839
492.000000	2.251882
493.000000	2.304535
494.000000	2.363462
495.000000	2.425704
496.000000	2.490434
497.000000	2.544678
498.000000	2.611275
499.000000	2.699123
500.000000	2.782703
501.000000	2.867538
502.000000	2.963439
503.000000	3.055126
504.000000	3.156146
505.000000	3.268921
506.000000	3.397458
507.000000	3.508209
508.000000	3.622418
509.000000	3.751965
510.000000	3.889338
511.000000	4.018415
512.000000	4.160021
513.000000	4.298446
514.000000	4.427255
515.000000	4.565654
516.000000	4.694096
517.000000	4.823840
518.000000	4.939520
519.000000	5.056538
520.000000	5.162505
521.000000	5.261205
522.000000	5.339561
523.000000	5.429378
524.000000	5.492537
525.000000	5.530520
526.000000	5.552411
527.000000	5.562716
528.000000	5.555673
529.000000	5.525179
530.000000	5.473188
531.000000	5.408067
532.000000	5.302738
533.000000	5.189291
534.000000	5.049058
535.000000	4.876344
536.000000	4.711973
537.000000	4.538135
538.000000	4.360900
539.000000	4.173213
540.000000	4.010120
541.000000	3.872251
542.000000	3.730403
543.000000	3.631259
544.000000	3.533795
545.000000	3.437212
546.000000	3.402757
547.000000	3.377449
548.000000	3.322555
549.000000	3.264128
550.000000	3.230297
551.000000	3.155710
552.000000	3.097445
553.000000	3.008510
554.000000	2.924872
555.000000	2.848409
556.000000	2.801885
557.000000	2.709185
558.000000	2.655642
559.000000	2.592162
560.000000	2.462681
561.000000	2.451290
562.000000	2.424102
563.000000	2.388675
564.000000	2.428894
565.000000	2.421216
566.000000	2.417847
567.000000	2.410604
568.000000	2.410506
569.000000	2.424507
570.000000	2.389569
571.000000	2.385427
572.000000	2.344605
573.000000	2.244785
574.000000	2.192105
575.000000	2.123376
576.000000	2.074209
577.000000	2.000793
578.000000	1.955040
579.000000	1.898931
580.000000	1.889817
581.000000	1.869138
582.000000	1.821951
583.000000	1.825549
584.000000	1.821884
585.000000	1.825320
586.000000	1.802406
587.000000	1.842637
588.000000	1.849510
589.000000	1.871385
590.000000	1.884269
591.000000	1.926088
592.000000	1.980292
593.000000	2.038415
594.000000	2.153074
595.000000	2.201950
596.000000	2.345841
597.000000	2.418015
598.000000	2.546650
599.000000	2.664948
600.000000	2.766153
601.000000	2.892810
602.000000	3.009894
603.000000	3.123858
604.000000	3.224222
605.000000	3.267926
606.000000	3.335168
607.000000	3.340285
608.000000	3.360636
609.000000	3.313794
610.000000	3.301654
611.000000	3.240732
612.000000	3.204899
613.000000	3.141827
614.000000	3.089254
615.000000	2.977453
616.000000	2.922492
617.000000	2.816602
618.000000	2.706903
619.000000	2.614284
620.000000	2.499266
621.000000	2.401869
622.000000	2.296878
623.000000	2.227846
624.000000	2.177853
625.000000	2.200669
626.000000	2.275783
627.000000	2.366288
628.000000	2.502654
629.000000	2.713338
630.000000	2.925987
631.000000	3.145570
632.000000	3.339455
633.000000	3.520536
634.000000	3.698921
635.000000	3.837299
636.000000	3.936807
637.000000	4.036311
638.000000	4.091754
639.000000	4.124809
640.000000	4.149527
641.000000	4.125942
642.000000	4.098136
643.000000	4.072823
644.000000	4.036006
645.000000	3.965352
646.000000	3.923782
647.000000	3.857753
648.000000	3.763784
649.000000	3.693706
650.000000	3.606063
651.000000	3.527304
652.000000	3.451545
653.000000	3.372134
654.000000	3.270169
655.000000	3.214056
656.000000	3.132153
657.000000	3.106280
658.000000	3.085367
659.000000	3.060834
660.000000	3.041791
661.000000	3.042595
662.000000	3.050812
663.000000	3.030268
664.000000	3.028347
665.000000	3.047831
666.000000	3.048106
667.000000	3.041344
668.000000	3.047833
669.000000	3.095293
670.000000	3.101471
671.000000	3.082208
672.000000	3.112490
673.000000	3.117422
674.000000	3.120348
675.000000	3.133348
676.000000	3.154215
677.000000	3.159067
678.000000	3.170504
679.000000	3.177800
680.000000	3.215536
681.000000	3.257875
682.000000	3.300291
683.000000	3.327409
684.000000	3.337144
685.000000	3.372069
686.000000	3.410973
687.000000	3.454225
688.000000	3.477357
689.000000	3.497607
690.000000	3.529610
691.000000	3.549346
692.000000	3.569746
693.000000	3.594576
694.000000	3.600795
695.000000	3.599688
696.000000	3.568408
697.000000	3.562562
698.000000	3.540421
699.000000	3.562595
700.000000	3.564464
701.000000	3.535656
702.000000	3.514095
703.000000	3.502769
704.000000	3.453861
705.000000	3.422907
706.000000	3.379174
707.000000	3.356023
708.000000	3.333523
709.000000	3.323445
710.000000	3.302097
711.000000	3.283176
712.000000	3.275286
713.000000	3.269744
714.000000	3.267977
715.000000	3.243494
716.000000	3.239330
717.000000	3.221689
718.000000	3.188513
719.000000	3.199627
720.000000	3.205920
721.000000	3.209812
722.000000	3.174632
723.000000	3.144338
724.000000	3.149393
725.000000	3.152667
726.000000	3.147056
727.000000	3.121749
728.000000	3.143301
729.000000	3.140462
730.000000	3.129732
731.000000	3.155986
732.000000	3.179019
733.000000	3.182709
734.000000	3.154452
735.000000	3.151505
736.000000	3.168345
737.000000	3.187328
738.000000	3.208007
739.000000	3.239834
740.000000	3.230722
741.000000	3.234287
742.000000	3.223668
743.000000	3.254291
744.000000	3.283402
745.000000	3.284494
746.000000	3.300382
747.000000	3.302939
748.000000	3.351227
749.000000	3.413708
750.000000	3.409635
751.000000	3.411696
752.000000	3.460041
753.000000	3.479224
754.000000	3.508999
755.000000	3.578090
756.000000	3.584922
757.000000	3.580201
758.000000	3.603701
759.000000	3.647861
760.000000	3.685773
761.000000	3.691063
762.000000	3.710997
763.000000	3.795272
764.000000	3.851444
765.000000	3.871108
766.000000	3.874409
767.000000	3.922691
768.000000	3.977098
769.000000	4.003355
770.000000	4.034433
771.000000	4.018431
772.000000	4.056686
773.000000	4.153888
774.000000	4.224388
775.000000	4.188988
776.000000	4.151161
777.000000	4.135412
778.000000	4.165273
779.000000	4.212505
780.000000	4.193406
781.000000	4.219143
782.000000	4.279940
783.000000	4.255180
784.000000	4.235534
785.000000	4.297588
786.000000	4.302343
787.000000	4.308206
788.000000	4.281963
789.000000	4.320988
790.000000	4.283297
791.000000	4.249949
792.000000	4.301977
793.000000	4.330402
794.000000	4.273519
795.000000	4.289013
796.000000	4.285208
797.000000	4.315347
798.000000	4.308610
799.000000	4.305613
800.000000	4.335297
801.000000	4.358862
802.000000	4.416130
803.000000	4.328080
804.000000	4.363354
805.000000	4.365970
806.000000	4.333752
807.000000	4.344062
808.000000	4.291698
809.000000	4.364221
810.000000	4.382412
811.000000	4.364928
812.000000	4.379929
813.000000	4.338142
814.000000	4.423166
815.000000	4.485584
816.000000	4.461797
817.000000	4.477213
818.000000	4.463870
819.000000	4.543373
820.000000	4.579272
821.000000	4.505967
822.000000	4.461774
823.000000	4.559914
824.000000	4.469563
825.000000	4.606275
826.000000	4.586648
827.000000	4.580494
828.000000	4.607742
829.000000	4.577343
830.000000	4.654033
831.000000	4.639203
832.000000	4.564696
833.000000	4.658645
834.000000	4.737030
835.000000	4.763567
836.000000	4.703921
837.000000	4.643544
838.000000	4.702111
839.000000	4.699479
840.000000	4.674707
841.000000	4.706541
842.000000	4.630977
843.000000	4.567704
844.000000	4.646746
845.000000	4.608791
846.000000	4.777974
847.000000	4.577617
848.000000	4.770525
849.000000	4.645035
850.000000	4.578798
851.000000	4.774009
852.000000	4.895562
853.000000	4.913563
854.000000	4.733378
855.000000	4.823650
856.000000	4.725893
857.000000	4.500418
858.000000	4.671005
859.000000	5.040586
860.000000	5.049488
861.000000	5.058165
862.000000	5.060123
863.000000	5.056004
864.000000	5.076856
865.000000	5.147371
866.000000	5.304396
867.000000	5.473138
868.000000	5.454125
869.000000	5.422059
870.000000	5.485640
871.000000	5.449258
872.000000	5.316937
873.000000	5.239604
874.000000	5.203725
875.000000	5.131398
876.000000	5.094698
877.000000	5.050665
878.000000	5.002702
879.000000	4.961597
880.000000	4.947599
881.000000	4.879564
882.000000	4.866472
883.000000	4.867177
884.000000	4.822630
885.000000	4.802470
886.000000	4.741807
887.000000	4.724611
888.000000	4.787809
889.000000	4.766388
890.000000	4.711547
891.000000	4.756179
892.000000	4.795969
893.000000	4.778286
894.000000	4.744079
895.000000	4.742925
896.000000	4.757959
897.000000	4.781939
898.000000	4.842021
899.000000	4.865568
900.000000	4.903191
901.000000	4.912505
902.000000	4.953158
903.000000	4.930995
904.000000	4.966276
905.000000	5.000111
906.000000	5.032625
907.000000	5.031218
908.000000	5.067990
909.000000	5.111199
910.000000	5.132726
911.000000	5.159692
912.000000	5.190433
913.000000	5.237433
914.000000	5.220567
915.000000	5.253265
916.000000	5.277237
917.000000	5.368873
918.000000	5.394877
919.000000	5.402799
920.000000	5.420307
921.000000	5.492919
922.000000	5.533512
923.000000	5.570892
924.000000	5.593911
925.000000	5.617944
926.000000	5.660200
927.000000	5.735490
928.000000	5.770271
929.000000	5.816605
930.000000	5.853602
931.000000	5.896821
932.000000	5.955723
933.000000	5.993233
934.000000	6.062588
935.000000	6.116171
936.000000	6.171568
937.000000	6.202793
938.000000	6.254860
939.000000	6.302228
940.000000	6.374521
941.000000	6.445913
942.000000	6.500021
943.000000	6.542092
944.000000	6.613274
945.000000	6.667143
946.000000	6.711537
947.000000	6.790985
948.000000	6.847245
949.000000	6.899718
950.000000	6.977821
951.000000	7.040385
952.000000	7.098536
953.000000	7.147625
954.000000	7.214552
955.000000	7.295376
956.000000	7.369905
957.000000	7.420173
958.000000	7.496548
959.000000	7.551559
960.000000	7.636379
961.000000	7.704685
962.000000	7.760483
963.000000	7.829434
964.000000	7.889398
965.000000	7.947794
966.000000	8.018206
967.000000	8.088161
968.000000	8.131729
969.000000	8.181451
970.000000	8.257787
971.000000	8.326117
972.000000	8.373263
973.000000	8.439482
974.000000	8.491108
975.000000	8.555185
976.000000	8.609388
977.000000	8.658176
978.000000	8.720848
979.000000	8.770794
980.000000	8.822272
981.000000	8.861844
982.000000	8.919086
983.000000	8.955800
984.000000	9.001917
985.000000	9.052224
986.000000	9.097658
987.000000	9.126136
988.000000	9.169173
989.000000	9.217473
990.000000	9.243177
991.000000	9.284102
992.000000	9.321300
993.000000	9.361717
994.000000	9.389117
995.000000	9.406633
996.000000	9.433029
997.000000	9.474321
998.000000	9.509457
999.000000	9.525755
1000.000000	9.543862
1001.000000	9.572500
1002.000000	9.603140
1003.000000	9.624781
1004.000000	9.645817
1005.000000	9.677032
1006.000000	9.708207
1007.000000	9.729946
1008.000000	9.757166
1009.000000	9.788248
1010.000000	9.815080
1011.000000	9.846866
1012.000000	9.872362
1013.000000	9.882494
1014.000000	9.902899
1015.000000	9.932777
1016.000000	9.957232
1017.000000	9.981469
1018.000000	10.012172
1019.000000	10.031026
1020.000000	10.048869
1021.000000	10.073776
1022.000000	10.090270
1023.000000	10.115498
1024.000000	10.135072
1025.000000	10.164905
1026.000000	10.211862
1027.000000	10.240722
1028.000000	10.267545
1029.000000	10.291849
1030.000000	10.321263
1031.000000	10.362776
1032.000000	10.400951
1033.000000	10.429186
1034.000000	10.460510
1035.000000	10.499595
1036.000000	10.534742
1037.000000	10.574125
1038.000000	10.609874
1039.000000	10.647910
1040.000000	10.679153
1041.000000	10.711984
1042.000000	10.751552
1043.000000	10.783271
1044.000000	10.817253
1045.000000	10.852569
1046.000000	10.884816
1047.000000	10.911801
1048.000000	10.942540
1049.000000	10.985712
1050.000000	11.012219
1051.000000	11.032828
1052.000000	11.073523
1053.000000	11.103564
1054.000000	11.127028
1055.000000	11.153684
1056.000000	11.187606
1057.000000	11.210163
1058.000000	11.234890
1059.000000	11.261543
1060.000000	11.285563
1061.000000	11.302054
1062.000000	11.325561
1063.000000	11.348864
1064.000000	11.363151
1065.000000	11.373041
1066.000000	11.395976
1067.000000	11.418708
1068.000000	11.427287
1069.000000	11.443992
1070.000000	11.449097
1071.000000	11.460320
1072.000000	11.469632
1073.000000	11.484132
1074.000000	11.502677
1075.000000	11.504291
1076.000000	11.505906
1077.000000	11.524866
1078.000000	11.524106
1079.000000	11.519182
1080.000000	11.527560
1081.000000	11.534843
1082.000000	11.546439
1083.000000	11.543682
1084.000000	11.548765
1085.000000	11.563144
1086.000000	11.573124
1087.000000	11.571410
1088.000000	11.566748
1089.000000	11.574929
1090.000000	11.576479
1091.000000	11.585571
1092.000000	11.594141
1093.000000	11.591965
1094.000000	11.598228
1095.000000	11.606673
1096.000000	11.612445
1097.000000	11.612971
1098.000000	11.611467
1099.000000	11.630156
1100.000000	11.640162
1101.000000	11.644123
1102.000000	11.647074
1103.000000	11.663002
1104.000000	11.670840
1105.000000	11.682093
1106.000000	11.689992
1107.000000	11.696936
1108.000000	11.722664
1109.000000	11.736695
1110.000000	11.743868
1111.000000	11.753966
1112.000000	11.762494
1113.000000	11.778417
1114.000000	11.796830
1115.000000	11.815526
1116.000000	11.837249
1117.000000	11.837693
1118.000000	11.864420
1119.000000	11.880415
1120.000000	11.893107
1121.000000	11.919002
1122.000000	11.932486
1123.000000	11.943825
1124.000000	11.973935
1125.000000	11.984568
1126.000000	11.994730
1127.000000	12.006491
1128.000000	12.009599
1129.000000	12.032744
1130.000000	12.050265
1131.000000	12.062582
1132.000000	12.091200
1133.000000	12.098495
1134.000000	12.120507
1135.000000	12.148186
1136.000000	12.163490
1137.000000	12.198646
1138.000000	12.229708
1139.000000	12.265767
1140.000000	12.288200
1141.000000	12.319094
1142.000000	12.349720
1143.000000	12.398389
1144.000000	12.424128
1145.000000	12.458590
1146.000000	12.482544
1147.000000	12.500868
1148.000000	12.510630
1149.000000	12.497119
1150.000000	12.482899
1151.000000	12.483589
1152.000000	12.474273
1153.000000	12.475590
1154.000000	12.465288
1155.000000	12.450100
1156.000000	12.463105
1157.000000	12.469729
1158.000000	12.465040
1159.000000	12.490258
1160.000000	12.485910
1161.000000	12.502779
1162.000000	12.512495
1163.000000	12.526792
1164.000000	12.541623
1165.000000	12.536823
1166.000000	12.554211
1167.000000	12.557848
1168.000000	12.558988
1169.000000	12.573130
1170.000000	12.580197
1171.000000	12.591704
1172.000000	12.605676
1173.000000	12.607811
1174.000000	12.626269
1175.000000	12.613623
1176.000000	12.650138
1177.000000	12.657414
1178.000000	12.669284
1179.000000	12.691996
1180.000000	12.711000
1181.000000	12.740231
1182.000000	12.771465
1183.000000	12.783898
1184.000000	12.809004
1185.000000	12.828879
1186.000000	12.829709
1187.000000	12.826701
1188.000000	12.823827
1189.000000	12.796931
1190.000000	12.768933
1191.000000	12.734787
1192.000000	12.717558
1193.000000	12.687887
1194.000000	12.662056
