PE UV       SUBTECH     SPECTRUM    ASCII       PEDS        4.00        
   -1
CICIMAUCR0108-3.Sample.ASC
24/04/22
10:06:33.00
24/04/22
10:06:33.00
Vinicio Soto Monge
C. resplendens
250,000000
1
Lambda 1050
1050L1511233
PerkinElmer UV WinLab 6.3.2.0749 / 2.02.05 Lambda 900 UV/VIS/NIR, Aug  7 2015 09:38:08

0
0
3350/servo 860,8/2
0
0
UV/VIS
1
1
1
DoubleDePol,CommonBeamDepol,RBeamAtt,SBeamAtt,60mm sphere, WB InGaAs Detector
0
0
0
0
Program
Program
3350/servo 860,8/2
3350/0,2 860,8/0,2
3350/0,2 860,8/0,2
0
15.00
 
 
 
0
 
860,8
319,2
860,8
Front
100
on
S:100 R:100
0
0
0
0
 
0
 
 
 
0
 
 
0
0
0
0
0
 
 
 
 
0
0


0
0
#HDR
-1
-1
#GR
nm
%R
1.0
0.0
2500,000000
-1,000000
2251
8
82,967800
5,292400
#DATA
250.000000	0.377823
251.000000	0.401071
252.000000	0.405186
253.000000	0.378942
254.000000	0.372598
255.000000	0.391263
256.000000	0.364544
257.000000	0.375115
258.000000	0.339540
259.000000	0.373273
260.000000	0.374740
261.000000	0.410216
262.000000	0.367234
263.000000	0.376015
264.000000	0.384902
265.000000	0.386105
266.000000	0.360257
267.000000	0.380217
268.000000	0.388158
269.000000	0.334432
270.000000	0.373560
271.000000	0.382267
272.000000	0.368060
273.000000	0.371649
274.000000	0.360726
275.000000	0.351545
276.000000	0.331856
277.000000	0.375773
278.000000	0.357938
279.000000	0.372119
280.000000	0.355710
281.000000	0.349749
282.000000	0.322016
283.000000	0.351520
284.000000	0.388931
285.000000	0.374024
286.000000	0.347414
287.000000	0.363908
288.000000	0.328477
289.000000	0.375109
290.000000	0.365803
291.000000	0.357903
292.000000	0.331556
293.000000	0.364066
294.000000	0.356231
295.000000	0.363374
296.000000	0.355275
297.000000	0.361245
298.000000	0.360862
299.000000	0.342611
300.000000	0.373635
301.000000	0.339715
302.000000	0.336682
303.000000	0.369518
304.000000	0.371313
305.000000	0.344364
306.000000	0.347657
307.000000	0.379789
308.000000	0.358994
309.000000	0.364397
310.000000	0.349363
311.000000	0.379798
312.000000	0.363778
313.000000	0.356262
314.000000	0.366757
315.000000	0.376109
316.000000	0.401075
317.000000	0.769425
318.000000	0.758664
319.000000	0.610031
320.000000	0.494184
321.000000	0.595822
322.000000	0.500147
323.000000	0.569482
324.000000	0.500329
325.000000	0.488874
326.000000	0.508105
327.000000	0.464130
328.000000	0.496708
329.000000	0.434284
330.000000	0.404512
331.000000	0.384574
332.000000	0.483165
333.000000	0.489206
334.000000	0.460824
335.000000	0.476505
336.000000	0.417260
337.000000	0.487819
338.000000	0.432153
339.000000	0.409447
340.000000	0.415668
341.000000	0.426457
342.000000	0.394119
343.000000	0.463050
344.000000	0.415845
345.000000	0.394745
346.000000	0.482671
347.000000	0.451056
348.000000	0.406941
349.000000	0.370357
350.000000	0.388009
351.000000	0.368662
352.000000	0.423818
353.000000	0.413818
354.000000	0.401329
355.000000	0.415720
356.000000	0.380985
357.000000	0.386719
358.000000	0.346417
359.000000	0.367707
360.000000	0.377971
361.000000	0.336776
362.000000	0.370677
363.000000	0.406948
364.000000	0.410159
365.000000	0.379909
366.000000	0.348425
367.000000	0.342695
368.000000	0.361609
369.000000	0.358776
370.000000	0.345267
371.000000	0.355753
372.000000	0.346376
373.000000	0.331361
374.000000	0.329239
375.000000	0.319867
376.000000	0.335581
377.000000	0.394057
378.000000	0.394945
379.000000	0.395780
380.000000	0.406066
381.000000	0.408295
382.000000	0.397374
383.000000	0.404645
384.000000	0.407275
385.000000	0.404937
386.000000	0.401440
387.000000	0.399040
388.000000	0.394841
389.000000	0.399954
390.000000	0.403394
391.000000	0.401475
392.000000	0.393889
393.000000	0.405879
394.000000	0.407876
395.000000	0.409215
396.000000	0.413343
397.000000	0.400933
398.000000	0.405739
399.000000	0.423592
400.000000	0.416635
401.000000	0.422351
402.000000	0.438782
403.000000	0.440797
404.000000	0.443622
405.000000	0.452821
406.000000	0.458164
407.000000	0.478399
408.000000	0.501099
409.000000	0.506930
410.000000	0.522273
411.000000	0.543989
412.000000	0.560178
413.000000	0.557722
414.000000	0.570945
415.000000	0.591504
416.000000	0.597290
417.000000	0.601896
418.000000	0.620999
419.000000	0.622034
420.000000	0.624293
421.000000	0.617973
422.000000	0.600645
423.000000	0.591953
424.000000	0.582696
425.000000	0.565391
426.000000	0.535462
427.000000	0.509093
428.000000	0.491120
429.000000	0.456630
430.000000	0.423596
431.000000	0.404048
432.000000	0.357402
433.000000	0.318123
434.000000	0.303776
435.000000	0.294528
436.000000	0.280767
437.000000	0.276128
438.000000	0.298419
439.000000	0.325820
440.000000	0.361674
441.000000	0.408116
442.000000	0.449440
443.000000	0.488317
444.000000	0.534555
445.000000	0.592017
446.000000	0.632739
447.000000	0.671458
448.000000	0.718432
449.000000	0.761186
450.000000	0.803058
451.000000	0.852697
452.000000	0.900672
453.000000	0.958528
454.000000	0.998263
455.000000	1.027857
456.000000	1.068088
457.000000	1.118469
458.000000	1.154103
459.000000	1.201985
460.000000	1.238293
461.000000	1.262408
462.000000	1.299263
463.000000	1.326145
464.000000	1.378924
465.000000	1.400660
466.000000	1.420678
467.000000	1.453207
468.000000	1.474184
469.000000	1.497764
470.000000	1.511652
471.000000	1.528089
472.000000	1.546817
473.000000	1.563186
474.000000	1.575314
475.000000	1.567672
476.000000	1.560417
477.000000	1.546845
478.000000	1.538946
479.000000	1.528527
480.000000	1.484004
481.000000	1.434410
482.000000	1.399669
483.000000	1.351041
484.000000	1.295368
485.000000	1.225371
486.000000	1.159545
487.000000	1.089589
488.000000	1.009345
489.000000	0.924387
490.000000	0.865122
491.000000	0.793585
492.000000	0.721086
493.000000	0.658018
494.000000	0.591723
495.000000	0.534028
496.000000	0.478775
497.000000	0.457581
498.000000	0.442324
499.000000	0.435480
500.000000	0.438113
501.000000	0.464686
502.000000	0.496191
503.000000	0.518427
504.000000	0.539233
505.000000	0.564900
506.000000	0.566971
507.000000	0.577516
508.000000	0.599343
509.000000	0.610238
510.000000	0.617610
511.000000	0.624104
512.000000	0.645277
513.000000	0.666035
514.000000	0.722672
515.000000	0.774089
516.000000	0.828686
517.000000	0.900030
518.000000	0.983125
519.000000	1.093622
520.000000	1.189186
521.000000	1.265225
522.000000	1.337756
523.000000	1.412928
524.000000	1.480017
525.000000	1.519570
526.000000	1.559751
527.000000	1.572375
528.000000	1.556654
529.000000	1.512418
530.000000	1.430855
531.000000	1.353465
532.000000	1.242042
533.000000	1.090617
534.000000	0.901894
535.000000	0.716576
536.000000	0.529294
537.000000	0.332991
538.000000	0.103543
539.000000	0.101201
540.000000	0.345317
541.000000	0.566054
542.000000	0.785977
543.000000	0.989369
544.000000	1.230977
545.000000	1.421461
546.000000	1.602111
547.000000	1.791344
548.000000	1.940908
549.000000	2.078625
550.000000	2.258175
551.000000	2.391069
552.000000	2.550163
553.000000	2.676148
554.000000	2.790528
555.000000	2.919564
556.000000	3.010315
557.000000	3.084441
558.000000	3.180996
559.000000	3.285269
560.000000	3.437816
561.000000	3.482110
562.000000	3.542732
563.000000	3.596064
564.000000	3.654024
565.000000	3.693112
566.000000	3.733882
567.000000	3.800327
568.000000	3.843096
569.000000	3.872420
570.000000	3.915213
571.000000	3.932852
572.000000	3.984713
573.000000	4.029967
574.000000	4.085137
575.000000	4.123152
576.000000	4.161494
577.000000	4.203406
578.000000	4.254673
579.000000	4.285533
580.000000	4.333245
581.000000	4.357200
582.000000	4.408891
583.000000	4.472469
584.000000	4.517227
585.000000	4.545191
586.000000	4.586581
587.000000	4.616636
588.000000	4.645714
589.000000	4.699244
590.000000	4.741946
591.000000	4.766939
592.000000	4.826659
593.000000	4.871134
594.000000	4.971909
595.000000	5.010631
596.000000	5.049358
597.000000	5.123337
598.000000	5.136417
599.000000	5.210420
600.000000	5.257497
601.000000	5.333928
602.000000	5.351386
603.000000	5.414515
604.000000	5.493179
605.000000	5.592548
606.000000	5.636117
607.000000	5.709055
608.000000	5.780187
609.000000	5.815174
610.000000	5.915934
611.000000	5.991672
612.000000	6.080935
613.000000	6.157562
614.000000	6.189841
615.000000	6.219688
616.000000	6.291973
617.000000	6.317090
618.000000	6.330048
619.000000	6.343011
620.000000	6.349283
621.000000	6.337084
622.000000	6.320481
623.000000	6.312311
624.000000	6.274389
625.000000	6.275629
626.000000	6.197904
627.000000	6.146110
628.000000	6.122462
629.000000	6.056197
630.000000	5.977793
631.000000	5.875558
632.000000	5.785864
633.000000	5.704548
634.000000	5.539580
635.000000	5.369287
636.000000	5.175711
637.000000	4.946220
638.000000	4.738714
639.000000	4.432848
640.000000	4.165220
641.000000	3.832204
642.000000	3.530315
643.000000	3.230718
644.000000	2.949810
645.000000	2.653814
646.000000	2.421581
647.000000	2.157267
648.000000	1.930695
649.000000	1.731073
650.000000	1.549335
651.000000	1.391325
652.000000	1.248777
653.000000	1.127691
654.000000	1.030811
655.000000	0.975365
656.000000	0.949848
657.000000	0.918533
658.000000	0.939387
659.000000	0.952481
660.000000	0.959129
661.000000	0.961698
662.000000	0.960207
663.000000	0.955361
664.000000	0.953920
665.000000	0.975366
666.000000	0.957010
667.000000	0.979016
668.000000	1.038847
669.000000	1.083639
670.000000	1.147098
671.000000	1.263493
672.000000	1.338963
673.000000	1.470089
674.000000	1.542265
675.000000	1.645061
676.000000	1.738966
677.000000	1.817241
678.000000	1.919883
679.000000	1.976155
680.000000	2.027942
681.000000	2.114156
682.000000	2.180063
683.000000	2.225872
684.000000	2.303962
685.000000	2.351379
686.000000	2.387296
687.000000	2.438437
688.000000	2.511404
689.000000	2.570426
690.000000	2.601624
691.000000	2.624596
692.000000	2.698605
693.000000	2.731423
694.000000	2.736012
695.000000	2.814093
696.000000	2.786826
697.000000	2.790315
698.000000	2.798581
699.000000	2.773337
700.000000	2.796084
701.000000	2.740770
702.000000	2.688397
703.000000	2.692936
704.000000	2.668451
705.000000	2.613949
706.000000	2.544130
707.000000	2.504920
708.000000	2.450177
709.000000	2.388423
710.000000	2.333955
711.000000	2.255815
712.000000	2.202745
713.000000	2.174829
714.000000	2.128157
715.000000	2.029978
716.000000	1.960284
717.000000	1.955014
718.000000	1.943975
719.000000	1.893826
720.000000	1.842639
721.000000	1.778609
722.000000	1.746349
723.000000	1.738431
724.000000	1.707324
725.000000	1.685370
726.000000	1.718213
727.000000	1.727245
728.000000	1.711910
729.000000	1.684864
730.000000	1.703271
731.000000	1.710912
732.000000	1.779850
733.000000	1.840168
734.000000	1.817827
735.000000	1.828732
736.000000	1.912819
737.000000	1.962487
738.000000	1.970424
739.000000	1.976563
740.000000	2.066648
741.000000	2.090187
742.000000	2.092602
743.000000	2.152322
744.000000	2.208242
745.000000	2.254952
746.000000	2.284133
747.000000	2.366140
748.000000	2.390785
749.000000	2.368564
750.000000	2.403956
751.000000	2.441357
752.000000	2.475644
753.000000	2.533415
754.000000	2.590197
755.000000	2.612797
756.000000	2.657289
757.000000	2.702779
758.000000	2.719321
759.000000	2.731926
760.000000	2.756679
761.000000	2.798959
762.000000	2.829350
763.000000	2.860082
764.000000	2.880501
765.000000	2.903071
766.000000	2.913197
767.000000	2.908373
768.000000	2.958666
769.000000	3.038360
770.000000	3.129693
771.000000	3.152832
772.000000	3.155588
773.000000	3.154657
774.000000	3.152119
775.000000	3.202410
776.000000	3.264783
777.000000	3.268755
778.000000	3.269740
779.000000	3.340841
780.000000	3.336692
781.000000	3.281451
782.000000	3.303354
783.000000	3.259977
784.000000	3.234819
785.000000	3.239945
786.000000	3.195452
787.000000	3.213778
788.000000	3.185064
789.000000	3.109486
790.000000	3.157592
791.000000	3.214076
792.000000	3.195743
793.000000	3.141135
794.000000	3.130832
795.000000	3.111309
796.000000	3.162383
797.000000	3.135020
798.000000	3.031097
799.000000	3.068412
800.000000	3.071907
801.000000	3.013324
802.000000	3.097523
803.000000	3.048136
804.000000	3.099955
805.000000	3.134225
806.000000	3.141549
807.000000	3.230306
808.000000	3.253497
809.000000	3.229936
810.000000	3.296073
811.000000	3.413318
812.000000	3.415372
813.000000	3.401802
814.000000	3.467900
815.000000	3.615222
816.000000	3.554576
817.000000	3.652742
818.000000	3.783159
819.000000	3.872742
820.000000	3.874665
821.000000	3.941737
822.000000	3.958121
823.000000	3.951569
824.000000	3.939121
825.000000	4.114187
826.000000	4.183606
827.000000	4.093231
828.000000	4.231012
829.000000	4.146225
830.000000	4.253761
831.000000	4.161680
832.000000	4.225790
833.000000	4.170209
834.000000	4.164373
835.000000	4.282090
836.000000	4.397946
837.000000	4.236842
838.000000	4.227357
839.000000	4.111051
840.000000	4.181624
841.000000	4.335580
842.000000	4.459350
843.000000	4.436363
844.000000	4.547734
845.000000	4.532760
846.000000	4.409687
847.000000	4.430844
848.000000	4.466068
849.000000	4.417902
850.000000	4.531963
851.000000	4.654496
852.000000	4.665284
853.000000	4.628766
854.000000	4.617968
855.000000	4.601220
856.000000	4.782121
857.000000	4.573459
858.000000	4.340557
859.000000	4.726415
860.000000	4.600298
861.000000	4.487871
862.000000	4.453626
863.000000	4.393258
864.000000	4.344034
865.000000	4.265884
866.000000	4.218735
867.000000	4.174273
868.000000	4.117457
869.000000	4.062779
870.000000	4.030984
871.000000	3.976911
872.000000	3.950732
873.000000	3.921321
874.000000	3.858693
875.000000	3.833138
876.000000	3.782446
877.000000	3.758324
878.000000	3.738860
879.000000	3.725842
880.000000	3.689283
881.000000	3.655616
882.000000	3.642113
883.000000	3.601085
884.000000	3.583085
885.000000	3.578064
886.000000	3.565159
887.000000	3.557298
888.000000	3.551049
889.000000	3.538837
890.000000	3.525523
891.000000	3.546960
892.000000	3.530855
893.000000	3.537693
894.000000	3.547358
895.000000	3.561734
896.000000	3.570738
897.000000	3.563582
898.000000	3.586349
899.000000	3.594389
900.000000	3.619849
901.000000	3.634437
902.000000	3.647850
903.000000	3.659753
904.000000	3.660321
905.000000	3.670855
906.000000	3.670999
907.000000	3.678188
908.000000	3.732321
909.000000	3.725678
910.000000	3.696715
911.000000	3.683855
912.000000	3.683274
913.000000	3.719228
914.000000	3.704602
915.000000	3.708104
916.000000	3.700609
917.000000	3.691092
918.000000	3.691304
919.000000	3.680871
920.000000	3.668867
921.000000	3.675177
922.000000	3.715485
923.000000	3.702762
924.000000	3.698694
925.000000	3.702044
926.000000	3.698292
927.000000	3.716425
928.000000	3.738224
929.000000	3.753200
930.000000	3.767239
931.000000	3.807204
932.000000	3.822548
933.000000	3.827913
934.000000	3.857935
935.000000	3.875179
936.000000	3.906809
937.000000	3.944111
938.000000	3.962530
939.000000	4.007122
940.000000	4.014449
941.000000	4.040626
942.000000	4.095315
943.000000	4.108073
944.000000	4.137616
945.000000	4.165163
946.000000	4.209454
947.000000	4.243426
948.000000	4.289999
949.000000	4.325427
950.000000	4.358137
951.000000	4.430402
952.000000	4.454261
953.000000	4.488830
954.000000	4.536288
955.000000	4.586574
956.000000	4.648092
957.000000	4.685234
958.000000	4.730056
959.000000	4.769191
960.000000	4.829336
961.000000	4.878097
962.000000	4.926985
963.000000	4.973053
964.000000	5.017117
965.000000	5.070186
966.000000	5.114816
967.000000	5.163372
968.000000	5.201755
969.000000	5.258380
970.000000	5.293390
971.000000	5.328410
972.000000	5.368495
973.000000	5.413864
974.000000	5.454214
975.000000	5.482762
976.000000	5.526745
977.000000	5.557992
978.000000	5.589928
979.000000	5.614230
980.000000	5.648581
981.000000	5.679344
982.000000	5.724867
983.000000	5.747272
984.000000	5.769529
985.000000	5.801570
986.000000	5.833380
987.000000	5.868998
988.000000	5.901028
989.000000	5.924652
990.000000	5.944851
991.000000	5.961564
992.000000	5.996491
993.000000	6.024570
994.000000	6.038079
995.000000	6.061242
996.000000	6.083527
997.000000	6.111371
998.000000	6.129129
999.000000	6.155866
1000.000000	6.181746
1001.000000	6.192350
1002.000000	6.225303
1003.000000	6.247131
1004.000000	6.260503
1005.000000	6.291781
1006.000000	6.321034
1007.000000	6.342448
1008.000000	6.368106
1009.000000	6.401351
1010.000000	6.420567
1011.000000	6.448024
1012.000000	6.479138
1013.000000	6.513954
1014.000000	6.542488
1015.000000	6.560623
1016.000000	6.584007
1017.000000	6.605684
1018.000000	6.629565
1019.000000	6.665840
1020.000000	6.686306
1021.000000	6.702040
1022.000000	6.727095
1023.000000	6.753609
1024.000000	6.782108
1025.000000	6.800436
1026.000000	6.817536
1027.000000	6.837509
1028.000000	6.857251
1029.000000	6.890979
1030.000000	6.919054
1031.000000	6.935665
1032.000000	6.972235
1033.000000	6.998751
1034.000000	7.016674
1035.000000	7.042804
1036.000000	7.071923
1037.000000	7.096623
1038.000000	7.115959
1039.000000	7.135746
1040.000000	7.158861
1041.000000	7.178808
1042.000000	7.188393
1043.000000	7.205909
1044.000000	7.229952
1045.000000	7.243134
1046.000000	7.255329
1047.000000	7.277265
1048.000000	7.298127
1049.000000	7.299625
1050.000000	7.299947
1051.000000	7.311398
1052.000000	7.323460
1053.000000	7.332578
1054.000000	7.340948
1055.000000	7.338309
1056.000000	7.348439
1057.000000	7.359452
1058.000000	7.356893
1059.000000	7.364408
1060.000000	7.369334
1061.000000	7.377907
1062.000000	7.378063
1063.000000	7.387299
1064.000000	7.395900
1065.000000	7.400994
1066.000000	7.407958
1067.000000	7.418016
1068.000000	7.430815
1069.000000	7.441960
1070.000000	7.450379
1071.000000	7.466544
1072.000000	7.474731
1073.000000	7.484675
1074.000000	7.498035
1075.000000	7.506118
1076.000000	7.514985
1077.000000	7.523775
1078.000000	7.534877
1079.000000	7.551514
1080.000000	7.575804
1081.000000	7.581757
1082.000000	7.593389
1083.000000	7.609897
1084.000000	7.619116
1085.000000	7.627589
1086.000000	7.636911
1087.000000	7.645061
1088.000000	7.661170
1089.000000	7.668518
1090.000000	7.662994
1091.000000	7.674199
1092.000000	7.680783
1093.000000	7.704704
1094.000000	7.717398
1095.000000	7.717067
1096.000000	7.723343
1097.000000	7.733576
1098.000000	7.748025
1099.000000	7.760541
1100.000000	7.762862
1101.000000	7.778575
1102.000000	7.791744
1103.000000	7.795890
1104.000000	7.811963
1105.000000	7.818933
1106.000000	7.819772
1107.000000	7.842609
1108.000000	7.850834
1109.000000	7.868607
1110.000000	7.868154
1111.000000	7.880231
1112.000000	7.883605
1113.000000	7.892431
1114.000000	7.903664
1115.000000	7.914467
1116.000000	7.921157
1117.000000	7.939628
1118.000000	7.960620
1119.000000	7.975892
1120.000000	7.975487
1121.000000	7.992039
1122.000000	8.003009
1123.000000	8.041695
1124.000000	8.061903
1125.000000	8.077744
1126.000000	8.104868
1127.000000	8.121565
1128.000000	8.144667
1129.000000	8.189173
1130.000000	8.230204
1131.000000	8.292618
1132.000000	8.346693
1133.000000	8.427185
1134.000000	8.508560
1135.000000	8.609043
1136.000000	8.723071
1137.000000	8.819095
1138.000000	8.933114
1139.000000	9.060029
1140.000000	9.156332
1141.000000	9.287912
1142.000000	9.412624
1143.000000	9.525563
1144.000000	9.644576
1145.000000	9.753280
1146.000000	9.832934
1147.000000	9.873443
1148.000000	9.890649
1149.000000	9.865807
1150.000000	9.835681
1151.000000	9.805433
1152.000000	9.783793
1153.000000	9.786338
1154.000000	9.778208
1155.000000	9.781757
1156.000000	9.842628
1157.000000	9.905705
1158.000000	9.995263
1159.000000	10.103435
1160.000000	10.191473
1161.000000	10.295270
1162.000000	10.418830
1163.000000	10.533166
1164.000000	10.648680
1165.000000	10.770601
1166.000000	10.895811
1167.000000	11.009419
1168.000000	11.133326
1169.000000	11.254234
1170.000000	11.369102
1171.000000	11.489537
1172.000000	11.633115
1173.000000	11.760917
1174.000000	11.878335
1175.000000	11.984274
1176.000000	12.105792
1177.000000	12.235963
1178.000000	12.382062
1179.000000	12.555464
1180.000000	12.773891
1181.000000	12.994841
1182.000000	13.238379
1183.000000	13.438918
1184.000000	13.621958
1185.000000	13.752251
1186.000000	13.820581
1187.000000	13.827560
1188.000000	13.766315
1189.000000	13.665364
1190.000000	13.506264
1191.000000	13.330113
1192.000000	13.127347
1193.000000	12.966266
1194.000000	12.803387
1195.000000	12.695613
1196.000000	12.612943
1197.000000	12.551763
1198.000000	12.527064
1199.000000	12.513987
1200.000000	12.513894
1201.000000	12.527248
