PE UV       SUBTECH     SPECTRUM    ASCII       PEDS        4.00        
   -1
CICIMAUCR0097-3.Sample.ASC
24/04/18
13:31:23.00
24/04/18
13:31:23.00
Vinicio Soto Monge
C. kalinini
250,000000
1
Lambda 1050
1050L1511233
PerkinElmer UV WinLab 6.3.2.0749 / 2.02.05 Lambda 900 UV/VIS/NIR, Aug  7 2015 09:38:08

0
0
3350/servo 860,8/2
0
0
UV/VIS
1
1
1
DoubleDePol,CommonBeamDepol,RBeamAtt,SBeamAtt,60mm sphere, WB InGaAs Detector
0
0
0
0
Program
Program
3350/servo 860,8/2
3350/0,2 860,8/0,2
3350/0,2 860,8/0,2
0
15.00
 
 
 
0
 
860,8
319,2
860,8
Front
100
on
S:100 R:100
0
0
0
0
 
0
 
 
 
0
 
 
0
0
0
0
0
 
 
 
 
0
0


0
0
#HDR
-1
-1
#GR
nm
%R
1.0
0.0
2500,000000
-1,000000
2251
8
97,988000
5,671400
#DATA
250.000000	0.682320
251.000000	0.680131
252.000000	0.685062
253.000000	0.648604
254.000000	0.643605
255.000000	0.667264
256.000000	0.647970
257.000000	0.651863
258.000000	0.649570
259.000000	0.648193
260.000000	0.638119
261.000000	0.634257
262.000000	0.653800
263.000000	0.654765
264.000000	0.640365
265.000000	0.614113
266.000000	0.628944
267.000000	0.634075
268.000000	0.637385
269.000000	0.603423
270.000000	0.638311
271.000000	0.615720
272.000000	0.608385
273.000000	0.593868
274.000000	0.603867
275.000000	0.611273
276.000000	0.575070
277.000000	0.604228
278.000000	0.610536
279.000000	0.618072
280.000000	0.639926
281.000000	0.590738
282.000000	0.580502
283.000000	0.567803
284.000000	0.604117
285.000000	0.612786
286.000000	0.602044
287.000000	0.606734
288.000000	0.627028
289.000000	0.600895
290.000000	0.656838
291.000000	0.626135
292.000000	0.616098
293.000000	0.616769
294.000000	0.577388
295.000000	0.582833
296.000000	0.566800
297.000000	0.631333
298.000000	0.594338
299.000000	0.615789
300.000000	0.585631
301.000000	0.631014
302.000000	0.621246
303.000000	0.602794
304.000000	0.595541
305.000000	0.620056
306.000000	0.604278
307.000000	0.614373
308.000000	0.607525
309.000000	0.597703
310.000000	0.600495
311.000000	0.609455
312.000000	0.568915
313.000000	0.581489
314.000000	0.601910
315.000000	0.646677
316.000000	0.572159
317.000000	0.534003
318.000000	0.531519
319.000000	0.471084
320.000000	0.522299
321.000000	0.361063
322.000000	0.706219
323.000000	0.625535
324.000000	0.590537
325.000000	0.617026
326.000000	0.531323
327.000000	0.576125
328.000000	0.599855
329.000000	0.587502
330.000000	0.576553
331.000000	0.584814
332.000000	0.572908
333.000000	0.444657
334.000000	0.580966
335.000000	0.572145
336.000000	0.661405
337.000000	0.676721
338.000000	0.554243
339.000000	0.672644
340.000000	1.053430
341.000000	0.573326
342.000000	0.632299
343.000000	0.541836
344.000000	0.512463
345.000000	0.604364
346.000000	0.636159
347.000000	0.614941
348.000000	0.656032
349.000000	0.617173
350.000000	0.606695
351.000000	0.584782
352.000000	0.606430
353.000000	0.631960
354.000000	0.627525
355.000000	0.597836
356.000000	0.614689
357.000000	0.620609
358.000000	0.645185
359.000000	0.630085
360.000000	0.642164
361.000000	0.703209
362.000000	0.672354
363.000000	0.639602
364.000000	0.676060
365.000000	0.684894
366.000000	0.747328
367.000000	0.746125
368.000000	0.714486
369.000000	0.682094
370.000000	0.753212
371.000000	0.769456
372.000000	0.744922
373.000000	0.803351
374.000000	0.804540
375.000000	0.782418
376.000000	0.705586
377.000000	0.747108
378.000000	0.749373
379.000000	0.759286
380.000000	0.764279
381.000000	0.774760
382.000000	0.776611
383.000000	0.784488
384.000000	0.788821
385.000000	0.790898
386.000000	0.801461
387.000000	0.825205
388.000000	0.842534
389.000000	0.843792
390.000000	0.862371
391.000000	0.876718
392.000000	0.879715
393.000000	0.905399
394.000000	0.920758
395.000000	0.940252
396.000000	0.971505
397.000000	0.993035
398.000000	1.015716
399.000000	1.043470
400.000000	1.073581
401.000000	1.109015
402.000000	1.140133
403.000000	1.165656
404.000000	1.194741
405.000000	1.245476
406.000000	1.282047
407.000000	1.314533
408.000000	1.366269
409.000000	1.404882
410.000000	1.449287
411.000000	1.503897
412.000000	1.547180
413.000000	1.605383
414.000000	1.657219
415.000000	1.695141
416.000000	1.740225
417.000000	1.788334
418.000000	1.841053
419.000000	1.895190
420.000000	1.944504
421.000000	1.985058
422.000000	2.029395
423.000000	2.077805
424.000000	2.120027
425.000000	2.158225
426.000000	2.202346
427.000000	2.241554
428.000000	2.267361
429.000000	2.289977
430.000000	2.317962
431.000000	2.342538
432.000000	2.355144
433.000000	2.360595
434.000000	2.370540
435.000000	2.383125
436.000000	2.389520
437.000000	2.381880
438.000000	2.375988
439.000000	2.383762
440.000000	2.388317
441.000000	2.379292
442.000000	2.368111
443.000000	2.371314
444.000000	2.368047
445.000000	2.347489
446.000000	2.324637
447.000000	2.306030
448.000000	2.303323
449.000000	2.294508
450.000000	2.270885
451.000000	2.262105
452.000000	2.257759
453.000000	2.234573
454.000000	2.214721
455.000000	2.198976
456.000000	2.185486
457.000000	2.182277
458.000000	2.164879
459.000000	2.143523
460.000000	2.131964
461.000000	2.133506
462.000000	2.124868
463.000000	2.116583
464.000000	2.104552
465.000000	2.093811
466.000000	2.086174
467.000000	2.080547
468.000000	2.094686
469.000000	2.111536
470.000000	2.116643
471.000000	2.124887
472.000000	2.137345
473.000000	2.159260
474.000000	2.196781
475.000000	2.234531
476.000000	2.256227
477.000000	2.284374
478.000000	2.326862
479.000000	2.369248
480.000000	2.428502
481.000000	2.514596
482.000000	2.606836
483.000000	2.668450
484.000000	2.709766
485.000000	2.736378
486.000000	2.763399
487.000000	2.787894
488.000000	2.812093
489.000000	2.841820
490.000000	2.862649
491.000000	2.874332
492.000000	2.884921
493.000000	2.893932
494.000000	2.889401
495.000000	2.895685
496.000000	2.894682
497.000000	2.900284
498.000000	2.885953
499.000000	2.878290
500.000000	2.876356
501.000000	2.888124
502.000000	2.899171
503.000000	2.926175
504.000000	2.962902
505.000000	3.019423
506.000000	3.070352
507.000000	3.127566
508.000000	3.208216
509.000000	3.297104
510.000000	3.399949
511.000000	3.492107
512.000000	3.585385
513.000000	3.678492
514.000000	3.792811
515.000000	3.893982
516.000000	4.011590
517.000000	4.120054
518.000000	4.213382
519.000000	4.328568
520.000000	4.445379
521.000000	4.557771
522.000000	4.659861
523.000000	4.784010
524.000000	4.907097
525.000000	5.022967
526.000000	5.140457
527.000000	5.249572
528.000000	5.360386
529.000000	5.486464
530.000000	5.623125
531.000000	5.734298
532.000000	5.845766
533.000000	5.945127
534.000000	6.031654
535.000000	6.130848
536.000000	6.213716
537.000000	6.298756
538.000000	6.385101
539.000000	6.443123
540.000000	6.503180
541.000000	6.557170
542.000000	6.598319
543.000000	6.620101
544.000000	6.650112
545.000000	6.656899
546.000000	6.679331
547.000000	6.691630
548.000000	6.700175
549.000000	6.670641
550.000000	6.655710
551.000000	6.664587
552.000000	6.662359
553.000000	6.640389
554.000000	6.632324
555.000000	6.611426
556.000000	6.587100
557.000000	6.556492
558.000000	6.538787
559.000000	6.529282
560.000000	6.475269
561.000000	6.445907
562.000000	6.431362
563.000000	6.413831
564.000000	6.411826
565.000000	6.399794
566.000000	6.406109
567.000000	6.398864
568.000000	6.390101
569.000000	6.368681
570.000000	6.361280
571.000000	6.379940
572.000000	6.380555
573.000000	6.387727
574.000000	6.389339
575.000000	6.394976
576.000000	6.379695
577.000000	6.374022
578.000000	6.329620
579.000000	6.324795
580.000000	6.310619
581.000000	6.303913
582.000000	6.283669
583.000000	6.247725
584.000000	6.252304
585.000000	6.230798
586.000000	6.202557
587.000000	6.139943
588.000000	6.129087
589.000000	6.078003
590.000000	6.011608
591.000000	5.962070
592.000000	5.943424
593.000000	5.886229
594.000000	5.828387
595.000000	5.792459
596.000000	5.764016
597.000000	5.688134
598.000000	5.672730
599.000000	5.615862
600.000000	5.555141
601.000000	5.511662
602.000000	5.468617
603.000000	5.407053
604.000000	5.358618
605.000000	5.296706
606.000000	5.292578
607.000000	5.198640
608.000000	5.160055
609.000000	5.085197
610.000000	5.047432
611.000000	4.969193
612.000000	4.896867
613.000000	4.837965
614.000000	4.731776
615.000000	4.631957
616.000000	4.547853
617.000000	4.464645
618.000000	4.356997
619.000000	4.279136
620.000000	4.248444
621.000000	4.135226
622.000000	4.072433
623.000000	4.024554
624.000000	3.973420
625.000000	3.945833
626.000000	3.925029
627.000000	3.912116
628.000000	3.941141
629.000000	3.963476
630.000000	4.025672
631.000000	4.107664
632.000000	4.205383
633.000000	4.261153
634.000000	4.410789
635.000000	4.519060
636.000000	4.629342
637.000000	4.786046
638.000000	4.925884
639.000000	5.045877
640.000000	5.174104
641.000000	5.286597
642.000000	5.424872
643.000000	5.570744
644.000000	5.688687
645.000000	5.798494
646.000000	5.881949
647.000000	5.953611
648.000000	6.057577
649.000000	6.112214
650.000000	6.179403
651.000000	6.284881
652.000000	6.321874
653.000000	6.382410
654.000000	6.425757
655.000000	6.485403
656.000000	6.515496
657.000000	6.549167
658.000000	6.605762
659.000000	6.627745
660.000000	6.620671
661.000000	6.633872
662.000000	6.612040
663.000000	6.627774
664.000000	6.610938
665.000000	6.588743
666.000000	6.568543
667.000000	6.528115
668.000000	6.511470
669.000000	6.526840
670.000000	6.481142
671.000000	6.452458
672.000000	6.426537
673.000000	6.443518
674.000000	6.456674
675.000000	6.460790
676.000000	6.507207
677.000000	6.523889
678.000000	6.571097
679.000000	6.649319
680.000000	6.742403
681.000000	6.829265
682.000000	6.929169
683.000000	7.014913
684.000000	7.122862
685.000000	7.238069
686.000000	7.346577
687.000000	7.455170
688.000000	7.595343
689.000000	7.721835
690.000000	7.804246
691.000000	7.937442
692.000000	7.974756
693.000000	8.011207
694.000000	8.114754
695.000000	8.149915
696.000000	8.242863
697.000000	8.291694
698.000000	8.289880
699.000000	8.341730
700.000000	8.409096
701.000000	8.448559
702.000000	8.465982
703.000000	8.495975
704.000000	8.526549
705.000000	8.573139
706.000000	8.598801
707.000000	8.656698
708.000000	8.711784
709.000000	8.752648
710.000000	8.826044
711.000000	8.927923
712.000000	8.953610
713.000000	8.989655
714.000000	9.075978
715.000000	9.138278
716.000000	9.220738
717.000000	9.274452
718.000000	9.345423
719.000000	9.354963
720.000000	9.394078
721.000000	9.437394
722.000000	9.439395
723.000000	9.454825
724.000000	9.453233
725.000000	9.455235
726.000000	9.511107
727.000000	9.522851
728.000000	9.493996
729.000000	9.521645
730.000000	9.555840
731.000000	9.532752
732.000000	9.526571
733.000000	9.500362
734.000000	9.461340
735.000000	9.434662
736.000000	9.429200
737.000000	9.410220
738.000000	9.376678
739.000000	9.319840
740.000000	9.273515
741.000000	9.252370
742.000000	9.191664
743.000000	9.133334
744.000000	9.083137
745.000000	8.998256
746.000000	8.961051
747.000000	8.961626
748.000000	8.888210
749.000000	8.783310
750.000000	8.704481
751.000000	8.623109
752.000000	8.559145
753.000000	8.471280
754.000000	8.413571
755.000000	8.363638
756.000000	8.370140
757.000000	8.355054
758.000000	8.282264
759.000000	8.268877
760.000000	8.242635
761.000000	8.232330
762.000000	8.247046
763.000000	8.224611
764.000000	8.170573
765.000000	8.118831
766.000000	8.135284
767.000000	8.110035
768.000000	8.098679
769.000000	8.184060
770.000000	8.240490
771.000000	8.189639
772.000000	8.191361
773.000000	8.189630
774.000000	8.175354
775.000000	8.152140
776.000000	8.146932
777.000000	8.152248
778.000000	8.184460
779.000000	8.169928
780.000000	8.198319
781.000000	8.238992
782.000000	8.292333
783.000000	8.316044
784.000000	8.340776
785.000000	8.352867
786.000000	8.287481
787.000000	8.310908
788.000000	8.350932
789.000000	8.388656
790.000000	8.395272
791.000000	8.477812
792.000000	8.576820
793.000000	8.529051
794.000000	8.591231
795.000000	8.620715
796.000000	8.649056
797.000000	8.734636
798.000000	8.777616
799.000000	8.731624
800.000000	8.783426
801.000000	8.838609
802.000000	8.817498
803.000000	8.843382
804.000000	8.881020
805.000000	8.873016
806.000000	8.857341
807.000000	8.880648
808.000000	8.762903
809.000000	8.835887
810.000000	8.822130
811.000000	8.776982
812.000000	8.811765
813.000000	8.849340
814.000000	8.931221
815.000000	8.920085
816.000000	8.891636
817.000000	8.856994
818.000000	8.904669
819.000000	8.950884
820.000000	8.986288
821.000000	8.999178
822.000000	9.026455
823.000000	9.028908
824.000000	9.055679
825.000000	9.017114
826.000000	8.961015
827.000000	9.048090
828.000000	8.993317
829.000000	8.974860
830.000000	9.090932
831.000000	9.139843
832.000000	9.173632
833.000000	9.082550
834.000000	9.097320
835.000000	9.219850
836.000000	9.106187
837.000000	9.206274
838.000000	9.235245
839.000000	9.237279
840.000000	9.189424
841.000000	9.289530
842.000000	9.234188
843.000000	9.263590
844.000000	9.415378
845.000000	9.314062
846.000000	9.159093
847.000000	9.306424
848.000000	9.325516
849.000000	9.593415
850.000000	9.368457
851.000000	9.567845
852.000000	9.707030
853.000000	9.476534
854.000000	9.733736
855.000000	9.635886
856.000000	9.534347
857.000000	9.420519
858.000000	9.529580
859.000000	8.441882
860.000000	8.738015
861.000000	9.096023
862.000000	9.483800
863.000000	9.797148
864.000000	10.121738
865.000000	10.396138
866.000000	10.673268
867.000000	10.948049
868.000000	11.220410
869.000000	11.463703
870.000000	11.711186
871.000000	11.926975
872.000000	12.194749
873.000000	12.374238
874.000000	12.595453
875.000000	12.827820
876.000000	13.042090
877.000000	13.244398
878.000000	13.418367
879.000000	13.552261
880.000000	13.757446
881.000000	13.904070
882.000000	14.080851
883.000000	14.276976
884.000000	14.438962
885.000000	14.630970
886.000000	14.798782
887.000000	14.942031
888.000000	15.074375
889.000000	15.259670
890.000000	15.426758
891.000000	15.588961
892.000000	15.721152
893.000000	15.909386
894.000000	16.060494
895.000000	16.203763
896.000000	16.337572
897.000000	16.460764
898.000000	16.589268
899.000000	16.733363
900.000000	16.864009
901.000000	16.977038
902.000000	17.059290
903.000000	17.174764
904.000000	17.277482
905.000000	17.412403
906.000000	17.544845
907.000000	17.645145
908.000000	17.672775
909.000000	17.776454
910.000000	17.883893
911.000000	17.948981
912.000000	18.032625
913.000000	18.086438
914.000000	18.174241
915.000000	18.247231
916.000000	18.304123
917.000000	18.402631
918.000000	18.478292
919.000000	18.509704
920.000000	18.585476
921.000000	18.620375
922.000000	18.676045
923.000000	18.737895
924.000000	18.794972
925.000000	18.813914
926.000000	18.861725
927.000000	18.912191
928.000000	18.947472
929.000000	18.993216
930.000000	19.008408
931.000000	19.047677
932.000000	19.038431
933.000000	19.086797
934.000000	19.118177
935.000000	19.125305
936.000000	19.125142
937.000000	19.154832
938.000000	19.195626
939.000000	19.227532
940.000000	19.283866
941.000000	19.311317
942.000000	19.333216
943.000000	19.375061
944.000000	19.383968
945.000000	19.425894
946.000000	19.442699
947.000000	19.450915
948.000000	19.464659
949.000000	19.495179
950.000000	19.519323
951.000000	19.527335
952.000000	19.517965
953.000000	19.529884
954.000000	19.530218
955.000000	19.550231
956.000000	19.553292
957.000000	19.540117
958.000000	19.525538
959.000000	19.519817
960.000000	19.535293
961.000000	19.521920
962.000000	19.506207
963.000000	19.494076
964.000000	19.484901
965.000000	19.477209
966.000000	19.450462
967.000000	19.464719
968.000000	19.470011
969.000000	19.465175
970.000000	19.448099
971.000000	19.449153
972.000000	19.438792
973.000000	19.438736
974.000000	19.451463
975.000000	19.442815
976.000000	19.435420
977.000000	19.441587
978.000000	19.454498
979.000000	19.441635
980.000000	19.443407
981.000000	19.442347
982.000000	19.439627
983.000000	19.445639
984.000000	19.453673
985.000000	19.441907
986.000000	19.442378
987.000000	19.455071
988.000000	19.464808
989.000000	19.468354
990.000000	19.472373
991.000000	19.478082
992.000000	19.480740
993.000000	19.480725
994.000000	19.492521
995.000000	19.513805
996.000000	19.532207
997.000000	19.535766
998.000000	19.541822
999.000000	19.553456
1000.000000	19.561857
1001.000000	19.569334
1002.000000	19.562916
1003.000000	19.579856
1004.000000	19.595243
1005.000000	19.584111
1006.000000	19.579781
1007.000000	19.590651
1008.000000	19.603607
1009.000000	19.609273
1010.000000	19.603307
1011.000000	19.607774
1012.000000	19.617026
1013.000000	19.628680
1014.000000	19.635435
1015.000000	19.633442
1016.000000	19.644957
1017.000000	19.650480
1018.000000	19.658663
1019.000000	19.674703
1020.000000	19.693607
1021.000000	19.705138
1022.000000	19.711349
1023.000000	19.720258
1024.000000	19.723121
1025.000000	19.738926
1026.000000	19.759236
1027.000000	19.760921
1028.000000	19.772380
1029.000000	19.788568
1030.000000	19.804315
1031.000000	19.821734
1032.000000	19.831857
1033.000000	19.842751
1034.000000	19.846555
1035.000000	19.862022
1036.000000	19.889906
1037.000000	19.912583
1038.000000	19.919102
1039.000000	19.926918
1040.000000	19.944668
1041.000000	19.958206
1042.000000	19.973825
1043.000000	19.987453
1044.000000	20.009092
1045.000000	20.022079
1046.000000	20.026816
1047.000000	20.040948
1048.000000	20.058895
1049.000000	20.080330
1050.000000	20.099467
1051.000000	20.108537
1052.000000	20.117608
1053.000000	20.125526
1054.000000	20.132098
1055.000000	20.147213
1056.000000	20.168538
1057.000000	20.181848
1058.000000	20.192002
1059.000000	20.204789
1060.000000	20.199246
1061.000000	20.196161
1062.000000	20.211804
1063.000000	20.227060
1064.000000	20.234731
1065.000000	20.239093
1066.000000	20.247409
1067.000000	20.248109
1068.000000	20.253605
1069.000000	20.249968
1070.000000	20.254468
1071.000000	20.253062
1072.000000	20.250475
1073.000000	20.249371
1074.000000	20.247724
1075.000000	20.251748
1076.000000	20.259521
1077.000000	20.261203
1078.000000	20.250542
1079.000000	20.252604
1080.000000	20.257505
1081.000000	20.263612
1082.000000	20.248573
1083.000000	20.244304
1084.000000	20.241022
1085.000000	20.239026
1086.000000	20.237195
1087.000000	20.225225
1088.000000	20.213247
1089.000000	20.209914
1090.000000	20.212743
1091.000000	20.202276
1092.000000	20.190108
1093.000000	20.200989
1094.000000	20.191075
1095.000000	20.188264
1096.000000	20.173781
1097.000000	20.160316
1098.000000	20.158088
1099.000000	20.148227
1100.000000	20.147498
1101.000000	20.141557
1102.000000	20.134560
1103.000000	20.125815
1104.000000	20.119063
1105.000000	20.112839
1106.000000	20.097459
1107.000000	20.088421
1108.000000	20.083831
1109.000000	20.073021
1110.000000	20.073016
1111.000000	20.067432
1112.000000	20.069268
1113.000000	20.060063
1114.000000	20.049439
1115.000000	20.050416
1116.000000	20.056534
1117.000000	20.063450
1118.000000	20.050390
1119.000000	20.041258
1120.000000	20.055349
1121.000000	20.074800
1122.000000	20.076323
1123.000000	20.093652
1124.000000	20.101976
1125.000000	20.106000
1126.000000	20.109416
1127.000000	20.129256
1128.000000	20.146365
1129.000000	20.176231
1130.000000	20.200897
1131.000000	20.223050
1132.000000	20.271088
1133.000000	20.328788
1134.000000	20.397197
1135.000000	20.433605
1136.000000	20.486269
1137.000000	20.529995
1138.000000	20.588047
1139.000000	20.642735
1140.000000	20.711247
1141.000000	20.771840
1142.000000	20.822317
1143.000000	20.891434
1144.000000	20.936881
1145.000000	20.997114
1146.000000	21.022285
1147.000000	21.018318
1148.000000	21.005431
1149.000000	20.978969
1150.000000	20.961266
1151.000000	20.945891
1152.000000	20.920990
1153.000000	20.888401
1154.000000	20.876890
1155.000000	20.890827
1156.000000	20.905853
1157.000000	20.941956
1158.000000	20.978065
1159.000000	21.011852
1160.000000	21.051776
1161.000000	21.110714
1162.000000	21.169963
1163.000000	21.225643
1164.000000	21.280839
1165.000000	21.335527
1166.000000	21.382305
1167.000000	21.452952
1168.000000	21.511210
1169.000000	21.593491
1170.000000	21.656627
1171.000000	21.737885
1172.000000	21.819654
1173.000000	21.883297
1174.000000	21.981243
1175.000000	22.043065
1176.000000	22.143421
1177.000000	22.232833
1178.000000	22.355809
1179.000000	22.486844
1180.000000	22.647686
1181.000000	22.832848
1182.000000	23.013965
1183.000000	23.163208
1184.000000	23.284966
1185.000000	23.364243
1186.000000	23.404914
1187.000000	23.376788
1188.000000	23.342749
