PE UV       SUBTECH     SPECTRUM    ASCII       PEDS        4.00        
   -1
CICIMAUCR0112-3.Sample.ASC
24/04/22
10:19:40.00
24/04/22
10:19:40.00
Vinicio Soto Monge
C. resplendens
250,000000
1
Lambda 1050
1050L1511233
PerkinElmer UV WinLab 6.3.2.0749 / 2.02.05 Lambda 900 UV/VIS/NIR, Aug  7 2015 09:38:08

0
0
3350/servo 860,8/2
0
0
UV/VIS
1
1
1
DoubleDePol,CommonBeamDepol,RBeamAtt,SBeamAtt,60mm sphere, WB InGaAs Detector
0
0
0
0
Program
Program
3350/servo 860,8/2
3350/0,2 860,8/0,2
3350/0,2 860,8/0,2
0
15.00
 
 
 
0
 
860,8
319,2
860,8
Front
100
on
S:100 R:100
0
0
0
0
 
0
 
 
 
0
 
 
0
0
0
0
0
 
 
 
 
0
0


0
0
#HDR
-1
-1
#GR
nm
%R
1.0
0.0
2500,000000
-1,000000
2251
8
88,787000
5,681000
#DATA
250.000000	0.103403
251.000000	0.108765
252.000000	0.098069
253.000000	0.091334
254.000000	0.091790
255.000000	0.131816
256.000000	0.111843
257.000000	0.092575
258.000000	0.104385
259.000000	0.090428
260.000000	0.064269
261.000000	0.129037
262.000000	0.134083
263.000000	0.101779
264.000000	0.082925
265.000000	0.104185
266.000000	0.079904
267.000000	0.087428
268.000000	0.083787
269.000000	0.063911
270.000000	0.091181
271.000000	0.089224
272.000000	0.078297
273.000000	0.087406
274.000000	0.090057
275.000000	0.070140
276.000000	0.064150
277.000000	0.074913
278.000000	0.102701
279.000000	0.068686
280.000000	0.064331
281.000000	0.091973
282.000000	0.084965
283.000000	0.088554
284.000000	0.071189
285.000000	0.086302
286.000000	0.066566
287.000000	0.095667
288.000000	0.086115
289.000000	0.100694
290.000000	0.090141
291.000000	0.087087
292.000000	0.112334
293.000000	0.110791
294.000000	0.149378
295.000000	0.105792
296.000000	0.097354
297.000000	0.136573
298.000000	0.127198
299.000000	0.144020
300.000000	0.122451
301.000000	0.149081
302.000000	0.105699
303.000000	0.149698
304.000000	0.116732
305.000000	0.156767
306.000000	0.119408
307.000000	0.132034
308.000000	0.139093
309.000000	0.178751
310.000000	0.151021
311.000000	0.137488
312.000000	0.131705
313.000000	0.166952
314.000000	0.142714
315.000000	0.153713
316.000000	0.154239
317.000000	0.192193
318.000000	0.152109
319.000000	0.134651
320.000000	0.136427
321.000000	0.198809
322.000000	0.282811
323.000000	0.122213
324.000000	0.198172
325.000000	0.169428
326.000000	0.127658
327.000000	0.155185
328.000000	0.157768
329.000000	0.175128
330.000000	0.151599
331.000000	0.159831
332.000000	0.174536
333.000000	0.161352
334.000000	0.169615
335.000000	0.194514
336.000000	0.221578
337.000000	0.172539
338.000000	0.225030
339.000000	0.187295
340.000000	0.165280
341.000000	0.124004
342.000000	0.129986
343.000000	0.157306
344.000000	0.161137
345.000000	0.186024
346.000000	0.197858
347.000000	0.143288
348.000000	0.165659
349.000000	0.156645
350.000000	0.170614
351.000000	0.174301
352.000000	0.132771
353.000000	0.176677
354.000000	0.162134
355.000000	0.177119
356.000000	0.150091
357.000000	0.144327
358.000000	0.165853
359.000000	0.167360
360.000000	0.168151
361.000000	0.162871
362.000000	0.158753
363.000000	0.191901
364.000000	0.195296
365.000000	0.191186
366.000000	0.168096
367.000000	0.169928
368.000000	0.176015
369.000000	0.151010
370.000000	0.173460
371.000000	0.172851
372.000000	0.209527
373.000000	0.227088
374.000000	0.197308
375.000000	0.168589
376.000000	0.153005
377.000000	0.159013
378.000000	0.146497
379.000000	0.134066
380.000000	0.137774
381.000000	0.143935
382.000000	0.135218
383.000000	0.138165
384.000000	0.140873
385.000000	0.133054
386.000000	0.136258
387.000000	0.138888
388.000000	0.139925
389.000000	0.142737
390.000000	0.144426
391.000000	0.145767
392.000000	0.144363
393.000000	0.143929
394.000000	0.151798
395.000000	0.169340
396.000000	0.184508
397.000000	0.191517
398.000000	0.217445
399.000000	0.245820
400.000000	0.263065
401.000000	0.299482
402.000000	0.337936
403.000000	0.386420
404.000000	0.438043
405.000000	0.490219
406.000000	0.540402
407.000000	0.606306
408.000000	0.675493
409.000000	0.758310
410.000000	0.836434
411.000000	0.909451
412.000000	0.993332
413.000000	1.082149
414.000000	1.173519
415.000000	1.255954
416.000000	1.343859
417.000000	1.436002
418.000000	1.523830
419.000000	1.596449
420.000000	1.677611
421.000000	1.756800
422.000000	1.829252
423.000000	1.887384
424.000000	1.933450
425.000000	1.967946
426.000000	2.000614
427.000000	2.026118
428.000000	2.045205
429.000000	2.057404
430.000000	2.047403
431.000000	2.017978
432.000000	1.989688
433.000000	1.968382
434.000000	1.945017
435.000000	1.902715
436.000000	1.835932
437.000000	1.780380
438.000000	1.741767
439.000000	1.686409
440.000000	1.612808
441.000000	1.553075
442.000000	1.498550
443.000000	1.443860
444.000000	1.395792
445.000000	1.326718
446.000000	1.292534
447.000000	1.262074
448.000000	1.199549
449.000000	1.152177
450.000000	1.102175
451.000000	1.061957
452.000000	1.030698
453.000000	0.989629
454.000000	0.962734
455.000000	0.925709
456.000000	0.899214
457.000000	0.866487
458.000000	0.839478
459.000000	0.818440
460.000000	0.785966
461.000000	0.766722
462.000000	0.742459
463.000000	0.715896
464.000000	0.681268
465.000000	0.633524
466.000000	0.593950
467.000000	0.557474
468.000000	0.515130
469.000000	0.470471
470.000000	0.419148
471.000000	0.368766
472.000000	0.322659
473.000000	0.263937
474.000000	0.223357
475.000000	0.177221
476.000000	0.101183
477.000000	0.037087
478.000000	0.037565
479.000000	0.116863
480.000000	0.185703
481.000000	0.246525
482.000000	0.301068
483.000000	0.357061
484.000000	0.404293
485.000000	0.432503
486.000000	0.449237
487.000000	0.448164
488.000000	0.441861
489.000000	0.445141
490.000000	0.474643
491.000000	0.553041
492.000000	0.693871
493.000000	0.881337
494.000000	1.121826
495.000000	1.410114
496.000000	1.740601
497.000000	2.076641
498.000000	2.413071
499.000000	2.782231
500.000000	3.166119
501.000000	3.548390
502.000000	3.928386
503.000000	4.288198
504.000000	4.617244
505.000000	4.911951
506.000000	5.168343
507.000000	5.397330
508.000000	5.575866
509.000000	5.716298
510.000000	5.810786
511.000000	5.896576
512.000000	5.920453
513.000000	5.915447
514.000000	5.876851
515.000000	5.806969
516.000000	5.737152
517.000000	5.638979
518.000000	5.517093
519.000000	5.397379
520.000000	5.249929
521.000000	5.113802
522.000000	4.965015
523.000000	4.856612
524.000000	4.706059
525.000000	4.562146
526.000000	4.433427
527.000000	4.348439
528.000000	4.250144
529.000000	4.136905
530.000000	4.010661
531.000000	3.901853
532.000000	3.791994
533.000000	3.673729
534.000000	3.565013
535.000000	3.421100
536.000000	3.290984
537.000000	3.166527
538.000000	3.048669
539.000000	2.930340
540.000000	2.828712
541.000000	2.695333
542.000000	2.584295
543.000000	2.497640
544.000000	2.428121
545.000000	2.335374
546.000000	2.262939
547.000000	2.186257
548.000000	2.094221
549.000000	2.027632
550.000000	1.965758
551.000000	1.921689
552.000000	1.847186
553.000000	1.773584
554.000000	1.697342
555.000000	1.623051
556.000000	1.596403
557.000000	1.513308
558.000000	1.474908
559.000000	1.415290
560.000000	1.359054
561.000000	1.311699
562.000000	1.294496
563.000000	1.277389
564.000000	1.231837
565.000000	1.194363
566.000000	1.194764
567.000000	1.175703
568.000000	1.159398
569.000000	1.148383
570.000000	1.150878
571.000000	1.155428
572.000000	1.154684
573.000000	1.154762
574.000000	1.159414
575.000000	1.195822
576.000000	1.160319
577.000000	1.178494
578.000000	1.193766
579.000000	1.196096
580.000000	1.200069
581.000000	1.243149
582.000000	1.269847
583.000000	1.259473
584.000000	1.317242
585.000000	1.396345
586.000000	1.483518
587.000000	1.515767
588.000000	1.586259
589.000000	1.663688
590.000000	1.733294
591.000000	1.800812
592.000000	1.857961
593.000000	1.941898
594.000000	1.963193
595.000000	2.054497
596.000000	2.160350
597.000000	2.217747
598.000000	2.299330
599.000000	2.394103
600.000000	2.521799
601.000000	2.624921
602.000000	2.727314
603.000000	2.876001
604.000000	2.989922
605.000000	3.146443
606.000000	3.283929
607.000000	3.452645
608.000000	3.600786
609.000000	3.786714
610.000000	3.919337
611.000000	4.081314
612.000000	4.187007
613.000000	4.321014
614.000000	4.387044
615.000000	4.448899
616.000000	4.456757
617.000000	4.435857
618.000000	4.439314
619.000000	4.373739
620.000000	4.296766
621.000000	4.213335
622.000000	4.136071
623.000000	4.024852
624.000000	3.959913
625.000000	3.901179
626.000000	3.828414
627.000000	3.770728
628.000000	3.716392
629.000000	3.619394
630.000000	3.461976
631.000000	3.354403
632.000000	3.155418
633.000000	2.824633
634.000000	2.488891
635.000000	2.076920
636.000000	1.624904
637.000000	1.150622
638.000000	0.659039
639.000000	0.411855
640.000000	0.676160
641.000000	1.104840
642.000000	1.537241
643.000000	1.915876
644.000000	2.230018
645.000000	2.454686
646.000000	2.626328
647.000000	2.728105
648.000000	2.811084
649.000000	2.851513
650.000000	2.859002
651.000000	2.871796
652.000000	2.920696
653.000000	2.994061
654.000000	3.052685
655.000000	3.113615
656.000000	3.206464
657.000000	3.262256
658.000000	3.339007
659.000000	3.405119
660.000000	3.411700
661.000000	3.402315
662.000000	3.374670
663.000000	3.298392
664.000000	3.128778
665.000000	2.949617
666.000000	2.718352
667.000000	2.490075
668.000000	2.248326
669.000000	1.987086
670.000000	1.775415
671.000000	1.584560
672.000000	1.433239
673.000000	1.349407
674.000000	1.303078
675.000000	1.301877
676.000000	1.375914
677.000000	1.415433
678.000000	1.514455
679.000000	1.566621
680.000000	1.638951
681.000000	1.652245
682.000000	1.690105
683.000000	1.672165
684.000000	1.644531
685.000000	1.576337
686.000000	1.491438
687.000000	1.349466
688.000000	1.263449
689.000000	1.159907
690.000000	1.059593
691.000000	0.937304
692.000000	0.867055
693.000000	0.831001
694.000000	0.815330
695.000000	0.815020
696.000000	0.867566
697.000000	0.921229
698.000000	0.951538
699.000000	0.989125
700.000000	1.035406
701.000000	1.085341
702.000000	1.134271
703.000000	1.205186
704.000000	1.184260
705.000000	1.180821
706.000000	1.138877
707.000000	1.121381
708.000000	1.115508
709.000000	1.039228
710.000000	1.011021
711.000000	0.950070
712.000000	0.896581
713.000000	0.932259
714.000000	0.963958
715.000000	1.049088
716.000000	1.163232
717.000000	1.273679
718.000000	1.429238
719.000000	1.585279
720.000000	1.742403
721.000000	1.911180
722.000000	2.061583
723.000000	2.240790
724.000000	2.349907
725.000000	2.445535
726.000000	2.566219
727.000000	2.660887
728.000000	2.742771
729.000000	2.756033
730.000000	2.783962
731.000000	2.856686
732.000000	2.891770
733.000000	2.900788
734.000000	2.931323
735.000000	2.999912
736.000000	2.996401
737.000000	3.021218
738.000000	3.064504
739.000000	3.072680
740.000000	3.086517
741.000000	3.137624
742.000000	3.167164
743.000000	3.197772
744.000000	3.220748
745.000000	3.182457
746.000000	3.190590
747.000000	3.166192
748.000000	3.085860
749.000000	3.017119
750.000000	2.899436
751.000000	2.779350
752.000000	2.691288
753.000000	2.603444
754.000000	2.504587
755.000000	2.399256
756.000000	2.272091
757.000000	2.172312
758.000000	2.086090
759.000000	2.058326
760.000000	2.027150
761.000000	1.926589
762.000000	1.912022
763.000000	1.920244
764.000000	1.863300
765.000000	1.839950
766.000000	1.848634
767.000000	1.862349
768.000000	1.841008
769.000000	1.873081
770.000000	1.861461
771.000000	1.722344
772.000000	1.658984
773.000000	1.703429
774.000000	1.685942
775.000000	1.670018
776.000000	1.594382
777.000000	1.548560
778.000000	1.483352
779.000000	1.373775
780.000000	1.358632
781.000000	1.446083
782.000000	1.432410
783.000000	1.332569
784.000000	1.291735
785.000000	1.279716
786.000000	1.237475
787.000000	1.204646
788.000000	1.110864
789.000000	1.042877
790.000000	1.030858
791.000000	1.032897
792.000000	0.966589
793.000000	0.848575
794.000000	0.788305
795.000000	0.744589
796.000000	0.760857
797.000000	0.669765
798.000000	0.635391
799.000000	0.634140
800.000000	0.517828
801.000000	0.534424
802.000000	0.432940
803.000000	0.408608
804.000000	0.468379
805.000000	0.378505
806.000000	0.265507
807.000000	0.354313
808.000000	0.305433
809.000000	0.293799
810.000000	0.329129
811.000000	0.270578
812.000000	0.285373
813.000000	0.386346
814.000000	0.422971
815.000000	0.385812
816.000000	0.294903
817.000000	0.265885
818.000000	0.358240
819.000000	0.479537
820.000000	0.567122
821.000000	0.464655
822.000000	0.516187
823.000000	0.603806
824.000000	0.517005
825.000000	0.565932
826.000000	0.608564
827.000000	0.807306
828.000000	0.871252
829.000000	0.846297
830.000000	0.878763
831.000000	0.964032
832.000000	1.065839
833.000000	1.165525
834.000000	1.250141
835.000000	1.496667
836.000000	1.582235
837.000000	1.793355
838.000000	1.721208
839.000000	1.671602
840.000000	1.845405
841.000000	2.064235
842.000000	2.118767
843.000000	2.200529
844.000000	2.281328
845.000000	2.305809
846.000000	2.281554
847.000000	2.554935
848.000000	2.588881
849.000000	2.509591
850.000000	2.604210
851.000000	2.676218
852.000000	2.368974
853.000000	2.903993
854.000000	2.617225
855.000000	2.665589
856.000000	2.711093
857.000000	2.425418
858.000000	2.600579
859.000000	3.010946
860.000000	2.858577
861.000000	2.713004
862.000000	2.629810
863.000000	2.502936
864.000000	2.406031
865.000000	2.313581
866.000000	2.238823
867.000000	2.156269
868.000000	2.061375
869.000000	1.984256
870.000000	1.930029
871.000000	1.844557
872.000000	1.767341
873.000000	1.693693
874.000000	1.648305
875.000000	1.569343
876.000000	1.511280
877.000000	1.485181
878.000000	1.454363
879.000000	1.386983
880.000000	1.353764
881.000000	1.352610
882.000000	1.318928
883.000000	1.307772
884.000000	1.315269
885.000000	1.301871
886.000000	1.284386
887.000000	1.304487
888.000000	1.316379
889.000000	1.335357
890.000000	1.354634
891.000000	1.356873
892.000000	1.378231
893.000000	1.387751
894.000000	1.414962
895.000000	1.398808
896.000000	1.383316
897.000000	1.386753
898.000000	1.395589
899.000000	1.402223
900.000000	1.414246
901.000000	1.412092
902.000000	1.423003
903.000000	1.431883
904.000000	1.450335
905.000000	1.456688
906.000000	1.455284
907.000000	1.473139
908.000000	1.494245
909.000000	1.497049
910.000000	1.497086
911.000000	1.511655
912.000000	1.512726
913.000000	1.515765
914.000000	1.534047
915.000000	1.528498
916.000000	1.540008
917.000000	1.538785
918.000000	1.554681
919.000000	1.553503
920.000000	1.545051
921.000000	1.543055
922.000000	1.554688
923.000000	1.560761
924.000000	1.571631
925.000000	1.585474
926.000000	1.572720
927.000000	1.592735
928.000000	1.612629
929.000000	1.621754
930.000000	1.623656
931.000000	1.629694
932.000000	1.642064
933.000000	1.641774
934.000000	1.656243
935.000000	1.663443
936.000000	1.675297
937.000000	1.645669
938.000000	1.664786
939.000000	1.682575
940.000000	1.672520
941.000000	1.671014
942.000000	1.686189
943.000000	1.708989
944.000000	1.686380
945.000000	1.697659
946.000000	1.713845
947.000000	1.733102
948.000000	1.721653
949.000000	1.735915
950.000000	1.735125
951.000000	1.739134
952.000000	1.732844
953.000000	1.744058
954.000000	1.747194
955.000000	1.750890
956.000000	1.762131
957.000000	1.742024
958.000000	1.720604
959.000000	1.711483
960.000000	1.725383
961.000000	1.749480
962.000000	1.738071
963.000000	1.712722
964.000000	1.715650
965.000000	1.732137
966.000000	1.770289
967.000000	1.765554
968.000000	1.757218
969.000000	1.769226
970.000000	1.778854
971.000000	1.778469
972.000000	1.789423
973.000000	1.784368
974.000000	1.786740
975.000000	1.781538
976.000000	1.791287
977.000000	1.792660
978.000000	1.798188
979.000000	1.785316
980.000000	1.789017
981.000000	1.804325
982.000000	1.801494
983.000000	1.793928
984.000000	1.804862
985.000000	1.829319
986.000000	1.825625
987.000000	1.827830
988.000000	1.841751
989.000000	1.862492
990.000000	1.878087
991.000000	1.872992
992.000000	1.868569
993.000000	1.898565
994.000000	1.928003
995.000000	1.936610
996.000000	1.948746
997.000000	1.962388
998.000000	1.989989
999.000000	2.010079
1000.000000	2.020383
1001.000000	2.025183
1002.000000	2.042776
1003.000000	2.063997
1004.000000	2.085974
1005.000000	2.104528
1006.000000	2.115226
1007.000000	2.133744
1008.000000	2.160065
1009.000000	2.192315
1010.000000	2.217775
1011.000000	2.242969
1012.000000	2.268161
1013.000000	2.279117
1014.000000	2.301725
1015.000000	2.317889
1016.000000	2.329268
1017.000000	2.343077
1018.000000	2.340235
1019.000000	2.334252
1020.000000	2.338109
1021.000000	2.340805
1022.000000	2.332336
1023.000000	2.331920
1024.000000	2.330077
1025.000000	2.321521
1026.000000	2.311504
1027.000000	2.300134
1028.000000	2.306154
1029.000000	2.316497
1030.000000	2.311889
1031.000000	2.311534
1032.000000	2.315548
1033.000000	2.312976
1034.000000	2.314033
1035.000000	2.327676
1036.000000	2.333453
1037.000000	2.329137
1038.000000	2.334354
1039.000000	2.342375
1040.000000	2.344698
1041.000000	2.354636
1042.000000	2.363921
1043.000000	2.371052
1044.000000	2.373765
1045.000000	2.374829
1046.000000	2.375481
1047.000000	2.376065
1048.000000	2.379095
1049.000000	2.381463
1050.000000	2.375782
1051.000000	2.373429
1052.000000	2.382031
1053.000000	2.378840
1054.000000	2.365017
1055.000000	2.360355
1056.000000	2.357357
1057.000000	2.345787
1058.000000	2.341386
1059.000000	2.339121
1060.000000	2.328340
1061.000000	2.325963
1062.000000	2.320116
1063.000000	2.308655
1064.000000	2.303431
1065.000000	2.298656
1066.000000	2.299870
1067.000000	2.302601
1068.000000	2.297081
1069.000000	2.298784
1070.000000	2.294797
1071.000000	2.289224
1072.000000	2.286195
1073.000000	2.293796
1074.000000	2.293834
1075.000000	2.287313
1076.000000	2.277974
1077.000000	2.269618
1078.000000	2.268868
1079.000000	2.271592
1080.000000	2.265561
1081.000000	2.260527
1082.000000	2.255459
1083.000000	2.261276
1084.000000	2.250431
1085.000000	2.242200
1086.000000	2.219134
1087.000000	2.216464
1088.000000	2.205497
1089.000000	2.202233
1090.000000	2.184576
1091.000000	2.182050
1092.000000	2.179137
1093.000000	2.170744
1094.000000	2.161194
1095.000000	2.153515
1096.000000	2.151505
1097.000000	2.145781
1098.000000	2.138429
1099.000000	2.141468
1100.000000	2.148936
1101.000000	2.143163
1102.000000	2.139449
1103.000000	2.136679
1104.000000	2.138595
1105.000000	2.146424
1106.000000	2.158034
1107.000000	2.170530
1108.000000	2.164816
1109.000000	2.166569
1110.000000	2.169688
1111.000000	2.176495
1112.000000	2.184248
1113.000000	2.198589
1114.000000	2.199825
1115.000000	2.196178
1116.000000	2.201553
1117.000000	2.228365
1118.000000	2.241454
1119.000000	2.256725
1120.000000	2.280678
1121.000000	2.313754
1122.000000	2.348053
1123.000000	2.397205
1124.000000	2.437947
1125.000000	2.474642
1126.000000	2.502581
1127.000000	2.559631
1128.000000	2.612054
1129.000000	2.696930
1130.000000	2.804310
1131.000000	2.904817
1132.000000	3.066227
1133.000000	3.196698
1134.000000	3.359658
1135.000000	3.546473
1136.000000	3.771758
1137.000000	3.976802
1138.000000	4.166782
1139.000000	4.374642
1140.000000	4.572552
1141.000000	4.793268
1142.000000	4.992029
1143.000000	5.183190
1144.000000	5.357521
1145.000000	5.530790
1146.000000	5.655791
1147.000000	5.732656
1148.000000	5.732653
1149.000000	5.691742
1150.000000	5.657926
1151.000000	5.624203
1152.000000	5.579116
1153.000000	5.556610
1154.000000	5.569913
1155.000000	5.601405
1156.000000	5.690445
1157.000000	5.793889
1158.000000	5.918428
1159.000000	6.094791
1160.000000	6.254175
1161.000000	6.419525
1162.000000	6.614091
1163.000000	6.778808
1164.000000	6.974510
1165.000000	7.150161
1166.000000	7.336797
1167.000000	7.514608
1168.000000	7.675401
1169.000000	7.859804
1170.000000	8.030237
1171.000000	8.203623
1172.000000	8.387205
1173.000000	8.557619
1174.000000	8.730152
1175.000000	8.873770
1176.000000	9.026526
1177.000000	9.200125
1178.000000	9.385952
1179.000000	9.613895
1180.000000	9.871033
1181.000000	10.141007
1182.000000	10.442555
1183.000000	10.699915
1184.000000	10.912347
1185.000000	11.053860
1186.000000	11.129664
1187.000000	11.128525
1188.000000	11.048686
1189.000000	10.917472
1190.000000	10.720944
1191.000000	10.494516
1192.000000	10.242474
1193.000000	10.017225
1194.000000	9.810853
1195.000000	9.648358
1196.000000	9.535817
1197.000000	9.467929
1198.000000	9.411517
1199.000000	9.393369
1200.000000	9.380147
1201.000000	9.383807
1202.000000	9.412653
1203.000000	9.444443
