PE UV       SUBTECH     SPECTRUM    ASCII       PEDS        4.00        
   -1
CICIMAUCR0097-3.Sample.ASC
24/04/18
13:31:23.00
24/04/18
13:31:23.00
Vinicio Soto Monge
C. kalinini
250,000000
1
Lambda 1050
1050L1511233
PerkinElmer UV WinLab 6.3.2.0749 / 2.02.05 Lambda 900 UV/VIS/NIR, Aug  7 2015 09:38:08

0
0
3350/servo 860,8/2
0
0
UV/VIS
1
1
1
DoubleDePol,CommonBeamDepol,RBeamAtt,SBeamAtt,60mm sphere, WB InGaAs Detector
0
0
0
0
Program
Program
3350/servo 860,8/2
3350/0,2 860,8/0,2
3350/0,2 860,8/0,2
0
15.00
 
 
 
0
 
860,8
319,2
860,8
Front
100
on
S:100 R:100
0
0
0
0
 
0
 
 
 
0
 
 
0
0
0
0
0
 
 
 
 
0
0


0
0
#HDR
-1
-1
#GR
nm
%R
1.0
0.0
2500,000000
-1,000000
2251
8
97,988000
5,671400
#DATA
250.000000	0.283512
251.000000	0.284824
252.000000	0.260226
253.000000	0.253807
254.000000	0.240235
255.000000	0.263585
256.000000	0.269091
257.000000	0.272987
258.000000	0.281743
259.000000	0.271034
260.000000	0.249311
261.000000	0.233153
262.000000	0.247735
263.000000	0.270124
264.000000	0.248956
265.000000	0.222563
266.000000	0.258397
267.000000	0.254485
268.000000	0.248425
269.000000	0.219650
270.000000	0.235352
271.000000	0.243653
272.000000	0.222025
273.000000	0.246440
274.000000	0.231512
275.000000	0.234655
276.000000	0.200944
277.000000	0.234322
278.000000	0.236436
279.000000	0.226504
280.000000	0.255133
281.000000	0.213456
282.000000	0.213416
283.000000	0.214763
284.000000	0.227562
285.000000	0.233922
286.000000	0.236493
287.000000	0.229180
288.000000	0.234761
289.000000	0.238471
290.000000	0.254850
291.000000	0.212240
292.000000	0.226222
293.000000	0.237263
294.000000	0.183163
295.000000	0.205364
296.000000	0.193964
297.000000	0.249858
298.000000	0.204706
299.000000	0.228632
300.000000	0.221780
301.000000	0.240150
302.000000	0.207647
303.000000	0.218387
304.000000	0.216083
305.000000	0.241369
306.000000	0.214076
307.000000	0.246745
308.000000	0.220657
309.000000	0.202042
310.000000	0.205651
311.000000	0.218342
312.000000	0.214624
313.000000	0.233135
314.000000	0.233639
315.000000	0.234567
316.000000	0.214929
317.000000	0.373080
318.000000	0.271787
319.000000	0.180716
320.000000	0.265992
321.000000	0.296914
322.000000	0.338519
323.000000	0.322535
324.000000	0.340689
325.000000	0.209462
326.000000	0.210799
327.000000	0.274150
328.000000	0.286610
329.000000	0.269305
330.000000	0.265000
331.000000	0.260744
332.000000	0.190173
333.000000	0.215807
334.000000	0.200104
335.000000	0.163817
336.000000	0.286414
337.000000	0.306364
338.000000	0.175503
339.000000	0.315400
340.000000	0.653982
341.000000	0.210029
342.000000	0.236855
343.000000	0.220754
344.000000	0.200446
345.000000	0.252213
346.000000	0.263060
347.000000	0.231583
348.000000	0.235763
349.000000	0.204593
350.000000	0.212628
351.000000	0.192142
352.000000	0.205430
353.000000	0.211618
354.000000	0.256542
355.000000	0.200891
356.000000	0.217530
357.000000	0.184236
358.000000	0.184701
359.000000	0.193263
360.000000	0.209816
361.000000	0.227207
362.000000	0.221924
363.000000	0.220433
364.000000	0.223142
365.000000	0.225260
366.000000	0.258049
367.000000	0.254525
368.000000	0.229237
369.000000	0.205446
370.000000	0.251714
371.000000	0.261873
372.000000	0.259811
373.000000	0.295288
374.000000	0.299626
375.000000	0.269095
376.000000	0.228108
377.000000	0.283262
378.000000	0.285660
379.000000	0.300099
380.000000	0.305792
381.000000	0.302787
382.000000	0.311789
383.000000	0.318994
384.000000	0.321568
385.000000	0.322168
386.000000	0.325971
387.000000	0.353005
388.000000	0.367380
389.000000	0.370037
390.000000	0.383883
391.000000	0.391539
392.000000	0.397731
393.000000	0.422306
394.000000	0.436005
395.000000	0.454597
396.000000	0.482395
397.000000	0.499552
398.000000	0.523180
399.000000	0.554409
400.000000	0.576530
401.000000	0.609269
402.000000	0.639972
403.000000	0.664638
404.000000	0.692480
405.000000	0.736899
406.000000	0.772126
407.000000	0.805204
408.000000	0.850631
409.000000	0.887009
410.000000	0.925972
411.000000	0.974585
412.000000	1.016309
413.000000	1.067044
414.000000	1.112240
415.000000	1.153452
416.000000	1.196368
417.000000	1.235929
418.000000	1.281966
419.000000	1.331836
420.000000	1.377719
421.000000	1.413683
422.000000	1.452523
423.000000	1.494981
424.000000	1.527373
425.000000	1.555010
426.000000	1.589072
427.000000	1.620213
428.000000	1.635836
429.000000	1.652710
430.000000	1.670105
431.000000	1.680358
432.000000	1.679222
433.000000	1.670623
434.000000	1.671481
435.000000	1.672657
436.000000	1.668142
437.000000	1.644855
438.000000	1.624615
439.000000	1.612283
440.000000	1.594972
441.000000	1.573621
442.000000	1.544302
443.000000	1.510769
444.000000	1.490275
445.000000	1.468939
446.000000	1.432297
447.000000	1.410188
448.000000	1.387424
449.000000	1.361430
450.000000	1.331104
451.000000	1.292598
452.000000	1.250356
453.000000	1.217203
454.000000	1.185417
455.000000	1.155084
456.000000	1.127385
457.000000	1.092367
458.000000	1.058120
459.000000	1.027986
460.000000	0.996365
461.000000	0.956683
462.000000	0.919760
463.000000	0.895861
464.000000	0.869158
465.000000	0.825604
466.000000	0.798086
467.000000	0.762646
468.000000	0.723456
469.000000	0.682758
470.000000	0.636915
471.000000	0.602555
472.000000	0.568224
473.000000	0.529700
474.000000	0.476668
475.000000	0.423388
476.000000	0.381804
477.000000	0.338889
478.000000	0.298177
479.000000	0.251273
480.000000	0.190441
481.000000	0.135817
482.000000	0.141551
483.000000	0.178639
484.000000	0.211707
485.000000	0.241346
486.000000	0.269582
487.000000	0.296720
488.000000	0.325775
489.000000	0.359424
490.000000	0.381937
491.000000	0.395245
492.000000	0.407169
493.000000	0.418524
494.000000	0.417563
495.000000	0.432858
496.000000	0.447057
497.000000	0.484426
498.000000	0.509487
499.000000	0.564431
500.000000	0.645416
501.000000	0.740291
502.000000	0.831820
503.000000	0.954606
504.000000	1.068851
505.000000	1.194240
506.000000	1.313089
507.000000	1.434488
508.000000	1.560068
509.000000	1.669423
510.000000	1.779068
511.000000	1.879265
512.000000	1.966725
513.000000	2.036626
514.000000	2.114237
515.000000	2.164436
516.000000	2.216559
517.000000	2.245973
518.000000	2.260449
519.000000	2.273855
520.000000	2.282801
521.000000	2.285506
522.000000	2.272596
523.000000	2.279448
524.000000	2.273579
525.000000	2.259585
526.000000	2.246960
527.000000	2.230402
528.000000	2.215216
529.000000	2.218224
530.000000	2.236842
531.000000	2.243042
532.000000	2.246884
533.000000	2.242805
534.000000	2.241465
535.000000	2.253733
536.000000	2.256219
537.000000	2.264974
538.000000	2.275776
539.000000	2.276459
540.000000	2.279154
541.000000	2.283506
542.000000	2.280594
543.000000	2.270951
544.000000	2.267538
545.000000	2.259834
546.000000	2.269433
547.000000	2.262840
548.000000	2.274949
549.000000	2.254827
550.000000	2.257067
551.000000	2.275828
552.000000	2.300890
553.000000	2.306805
554.000000	2.312838
555.000000	2.300012
556.000000	2.316081
557.000000	2.323882
558.000000	2.341083
559.000000	2.383774
560.000000	2.412849
561.000000	2.441344
562.000000	2.468162
563.000000	2.498650
564.000000	2.527419
565.000000	2.568170
566.000000	2.573340
567.000000	2.611113
568.000000	2.618460
569.000000	2.660521
570.000000	2.636046
571.000000	2.671433
572.000000	2.695675
573.000000	2.689048
574.000000	2.720833
575.000000	2.715061
576.000000	2.708699
577.000000	2.719436
578.000000	2.709068
579.000000	2.714186
580.000000	2.699313
581.000000	2.715765
582.000000	2.710640
583.000000	2.702724
584.000000	2.702195
585.000000	2.730913
586.000000	2.763034
587.000000	2.748216
588.000000	2.769978
589.000000	2.792035
590.000000	2.818654
591.000000	2.811477
592.000000	2.807061
593.000000	2.843943
594.000000	2.881570
595.000000	2.869361
596.000000	2.900364
597.000000	2.925508
598.000000	2.962238
599.000000	2.958956
600.000000	2.914896
601.000000	2.941258
602.000000	2.917374
603.000000	2.923556
604.000000	2.881536
605.000000	2.871152
606.000000	2.839667
607.000000	2.828621
608.000000	2.802864
609.000000	2.746872
610.000000	2.679728
611.000000	2.660208
612.000000	2.640021
613.000000	2.577471
614.000000	2.600360
615.000000	2.560259
616.000000	2.572251
617.000000	2.549280
618.000000	2.542380
619.000000	2.530184
620.000000	2.526274
621.000000	2.569484
622.000000	2.554019
623.000000	2.584579
624.000000	2.587695
625.000000	2.591977
626.000000	2.579702
627.000000	2.551437
628.000000	2.481760
629.000000	2.435843
630.000000	2.398031
631.000000	2.347476
632.000000	2.263354
633.000000	2.222877
634.000000	2.154361
635.000000	2.089282
636.000000	2.013621
637.000000	2.023032
638.000000	1.999916
639.000000	2.019944
640.000000	2.013760
641.000000	2.014201
642.000000	2.048483
643.000000	2.090153
644.000000	2.131732
645.000000	2.176733
646.000000	2.226090
647.000000	2.288381
648.000000	2.312758
649.000000	2.339954
650.000000	2.380811
651.000000	2.416907
652.000000	2.441507
653.000000	2.458899
654.000000	2.441406
655.000000	2.465846
656.000000	2.438978
657.000000	2.402415
658.000000	2.391042
659.000000	2.371080
660.000000	2.329521
661.000000	2.318741
662.000000	2.249254
663.000000	2.219674
664.000000	2.198955
665.000000	2.161554
666.000000	2.112201
667.000000	2.070185
668.000000	2.074607
669.000000	2.083619
670.000000	2.050227
671.000000	2.042430
672.000000	2.039636
673.000000	2.088915
674.000000	2.126330
675.000000	2.152272
676.000000	2.188457
677.000000	2.208577
678.000000	2.275543
679.000000	2.336095
680.000000	2.399849
681.000000	2.446578
682.000000	2.484371
683.000000	2.545355
684.000000	2.586374
685.000000	2.638887
686.000000	2.706748
687.000000	2.756504
688.000000	2.849169
689.000000	2.941953
690.000000	2.971923
691.000000	3.059774
692.000000	3.071206
693.000000	3.077797
694.000000	3.143598
695.000000	3.137246
696.000000	3.209433
697.000000	3.232367
698.000000	3.247812
699.000000	3.288672
700.000000	3.357317
701.000000	3.396726
702.000000	3.429312
703.000000	3.483946
704.000000	3.550166
705.000000	3.601687
706.000000	3.634137
707.000000	3.719692
708.000000	3.791299
709.000000	3.863107
710.000000	3.931259
711.000000	4.053783
712.000000	4.097224
713.000000	4.118827
714.000000	4.185231
715.000000	4.256714
716.000000	4.334617
717.000000	4.349755
718.000000	4.370557
719.000000	4.338204
720.000000	4.326780
721.000000	4.334527
722.000000	4.282752
723.000000	4.253585
724.000000	4.223103
725.000000	4.191766
726.000000	4.148781
727.000000	4.112403
728.000000	4.045003
729.000000	3.993337
730.000000	3.976125
731.000000	3.954025
732.000000	3.907660
733.000000	3.825042
734.000000	3.775413
735.000000	3.722691
736.000000	3.675371
737.000000	3.639701
738.000000	3.610829
739.000000	3.560893
740.000000	3.485798
741.000000	3.460534
742.000000	3.422333
743.000000	3.389454
744.000000	3.385710
745.000000	3.301638
746.000000	3.265083
747.000000	3.316450
748.000000	3.278970
749.000000	3.197992
750.000000	3.197690
751.000000	3.166381
752.000000	3.151930
753.000000	3.145185
754.000000	3.121784
755.000000	3.089677
756.000000	3.074216
757.000000	3.100519
758.000000	3.101852
759.000000	3.083432
760.000000	3.070622
761.000000	3.086770
762.000000	3.138890
763.000000	3.143683
764.000000	3.192413
765.000000	3.175407
766.000000	3.177268
767.000000	3.202780
768.000000	3.187766
769.000000	3.189528
770.000000	3.194465
771.000000	3.236286
772.000000	3.302260
773.000000	3.318267
774.000000	3.359883
775.000000	3.400063
776.000000	3.377594
777.000000	3.401877
778.000000	3.419623
779.000000	3.425466
780.000000	3.406999
781.000000	3.402053
782.000000	3.447371
783.000000	3.487205
784.000000	3.558008
785.000000	3.588339
786.000000	3.481606
787.000000	3.424072
788.000000	3.435315
789.000000	3.410479
790.000000	3.462971
791.000000	3.487481
792.000000	3.496492
793.000000	3.575391
794.000000	3.537921
795.000000	3.469323
796.000000	3.507950
797.000000	3.513436
798.000000	3.478107
799.000000	3.511736
800.000000	3.472788
801.000000	3.510700
802.000000	3.443656
803.000000	3.458401
804.000000	3.437890
805.000000	3.474398
806.000000	3.469339
807.000000	3.515137
808.000000	3.414720
809.000000	3.404995
810.000000	3.421001
811.000000	3.381442
812.000000	3.367927
813.000000	3.418092
814.000000	3.423546
815.000000	3.403838
816.000000	3.392580
817.000000	3.397023
818.000000	3.299335
819.000000	3.352943
820.000000	3.364888
821.000000	3.281906
822.000000	3.162732
823.000000	3.186575
824.000000	3.091267
825.000000	3.004305
826.000000	3.052457
827.000000	3.033179
828.000000	2.973222
829.000000	2.929863
830.000000	2.941135
831.000000	2.832056
832.000000	2.939927
833.000000	2.772102
834.000000	2.834863
835.000000	2.905682
836.000000	2.801402
837.000000	2.672585
838.000000	2.705087
839.000000	2.762148
840.000000	2.634565
841.000000	2.655899
842.000000	2.710485
843.000000	2.605033
844.000000	2.534831
845.000000	2.623546
846.000000	2.442872
847.000000	2.596688
848.000000	2.541653
849.000000	2.724244
850.000000	2.580635
851.000000	2.652268
852.000000	2.871106
853.000000	2.579502
854.000000	2.819632
855.000000	2.864569
856.000000	2.656469
857.000000	2.603141
858.000000	2.972425
859.000000	2.447452
860.000000	2.556980
861.000000	2.782223
862.000000	3.049850
863.000000	3.235055
864.000000	3.512875
865.000000	3.723536
866.000000	3.988066
867.000000	4.214035
868.000000	4.473684
869.000000	4.686053
870.000000	4.928512
871.000000	5.145031
872.000000	5.391714
873.000000	5.565764
874.000000	5.762096
875.000000	5.994834
876.000000	6.192751
877.000000	6.394207
878.000000	6.578977
879.000000	6.717440
880.000000	6.908148
881.000000	7.057315
882.000000	7.235976
883.000000	7.422927
884.000000	7.583842
885.000000	7.782933
886.000000	7.960867
887.000000	8.109986
888.000000	8.249560
889.000000	8.430696
890.000000	8.597729
891.000000	8.761739
892.000000	8.902220
893.000000	9.097608
894.000000	9.255200
895.000000	9.402570
896.000000	9.543779
897.000000	9.673254
898.000000	9.801079
899.000000	9.952273
900.000000	10.087939
901.000000	10.207926
902.000000	10.298591
903.000000	10.420825
904.000000	10.531236
905.000000	10.671770
906.000000	10.808787
907.000000	10.916085
908.000000	10.949334
909.000000	11.062473
910.000000	11.172820
911.000000	11.255945
912.000000	11.346219
913.000000	11.408152
914.000000	11.500399
915.000000	11.579668
916.000000	11.652853
917.000000	11.759406
918.000000	11.844329
919.000000	11.884931
920.000000	11.969190
921.000000	12.016565
922.000000	12.081843
923.000000	12.154755
924.000000	12.227973
925.000000	12.253094
926.000000	12.313521
927.000000	12.374151
928.000000	12.425470
929.000000	12.481447
930.000000	12.508344
931.000000	12.558185
932.000000	12.565098
933.000000	12.624465
934.000000	12.669059
935.000000	12.694377
936.000000	12.708217
937.000000	12.751995
938.000000	12.806714
939.000000	12.851351
940.000000	12.918626
941.000000	12.961291
942.000000	12.998058
943.000000	13.053174
944.000000	13.076579
945.000000	13.129870
946.000000	13.162924
947.000000	13.184924
948.000000	13.212553
949.000000	13.258796
950.000000	13.295932
951.000000	13.319292
952.000000	13.327419
953.000000	13.354608
954.000000	13.368004
955.000000	13.403865
956.000000	13.421974
957.000000	13.426229
958.000000	13.427491
959.000000	13.437710
960.000000	13.467715
961.000000	13.472362
962.000000	13.473430
963.000000	13.476195
964.000000	13.482038
965.000000	13.490929
966.000000	13.483408
967.000000	13.514658
968.000000	13.534280
969.000000	13.544506
970.000000	13.546534
971.000000	13.563299
972.000000	13.568928
973.000000	13.584158
974.000000	13.611385
975.000000	13.620717
976.000000	13.631659
977.000000	13.653377
978.000000	13.680968
979.000000	13.685300
980.000000	13.704974
981.000000	13.721190
982.000000	13.733834
983.000000	13.755743
984.000000	13.780758
985.000000	13.785550
986.000000	13.801787
987.000000	13.829905
988.000000	13.855846
989.000000	13.876342
990.000000	13.895658
991.000000	13.916838
992.000000	13.935678
993.000000	13.951497
994.000000	13.978555
995.000000	14.014755
996.000000	14.047625
997.000000	14.066106
998.000000	14.086538
999.000000	14.112011
1000.000000	14.134190
1001.000000	14.155772
1002.000000	14.164321
1003.000000	14.196002
1004.000000	14.223890
1005.000000	14.225416
1006.000000	14.234173
1007.000000	14.257479
1008.000000	14.282325
1009.000000	14.299106
1010.000000	14.305447
1011.000000	14.322439
1012.000000	14.342397
1013.000000	14.363923
1014.000000	14.380384
1015.000000	14.388767
1016.000000	14.409869
1017.000000	14.424790
1018.000000	14.441846
1019.000000	14.466818
1020.000000	14.493911
1021.000000	14.512631
1022.000000	14.526181
1023.000000	14.542282
1024.000000	14.552440
1025.000000	14.574408
1026.000000	14.600842
1027.000000	14.609636
1028.000000	14.626974
1029.000000	14.647858
1030.000000	14.667815
1031.000000	14.689272
1032.000000	14.703500
1033.000000	14.718935
1034.000000	14.726599
1035.000000	14.744193
1036.000000	14.774133
1037.000000	14.799009
1038.000000	14.808507
1039.000000	14.819066
1040.000000	14.838978
1041.000000	14.853906
1042.000000	14.871086
1043.000000	14.885885
1044.000000	14.907506
1045.000000	14.921321
1046.000000	14.927617
1047.000000	14.942245
1048.000000	14.959973
1049.000000	14.981422
1050.000000	15.000150
1051.000000	15.008498
1052.000000	15.016419
1053.000000	15.023511
1054.000000	15.029600
1055.000000	15.043301
1056.000000	15.062332
1057.000000	15.073124
1058.000000	15.080770
1059.000000	15.092081
1060.000000	15.085457
1061.000000	15.080433
1062.000000	15.093443
1063.000000	15.106144
1064.000000	15.111885
1065.000000	15.113970
1066.000000	15.120097
1067.000000	15.118534
1068.000000	15.120518
1069.000000	15.113734
1070.000000	15.115557
1071.000000	15.111099
1072.000000	15.106090
1073.000000	15.102713
1074.000000	15.098141
1075.000000	15.099068
1076.000000	15.103884
1077.000000	15.102543
1078.000000	15.088350
1079.000000	15.087832
1080.000000	15.088742
1081.000000	15.091381
1082.000000	15.073762
1083.000000	15.066897
1084.000000	15.061223
1085.000000	15.054961
1086.000000	15.050497
1087.000000	15.035112
1088.000000	15.019668
1089.000000	15.013920
1090.000000	15.013496
1091.000000	14.999356
1092.000000	14.984239
1093.000000	14.991345
1094.000000	14.977911
1095.000000	14.971673
1096.000000	14.954755
1097.000000	14.938560
1098.000000	14.932293
1099.000000	14.918881
1100.000000	14.915558
1101.000000	14.906741
1102.000000	14.897368
1103.000000	14.885192
1104.000000	14.874920
1105.000000	14.867077
1106.000000	14.848793
1107.000000	14.836048
1108.000000	14.828488
1109.000000	14.814558
1110.000000	14.812107
1111.000000	14.803235
1112.000000	14.801232
1113.000000	14.788656
1114.000000	14.775136
1115.000000	14.773953
1116.000000	14.776991
1117.000000	14.779494
1118.000000	14.764837
1119.000000	14.752194
1120.000000	14.762176
1121.000000	14.777925
1122.000000	14.775311
1123.000000	14.789678
1124.000000	14.796145
1125.000000	14.799099
1126.000000	14.801233
1127.000000	14.819259
1128.000000	14.833827
1129.000000	14.860617
1130.000000	14.886417
1131.000000	14.908644
1132.000000	14.956552
1133.000000	15.012036
1134.000000	15.075345
1135.000000	15.112755
1136.000000	15.166567
1137.000000	15.212470
1138.000000	15.271944
1139.000000	15.327548
1140.000000	15.396566
1141.000000	15.456537
1142.000000	15.508058
1143.000000	15.575890
1144.000000	15.619706
1145.000000	15.679062
1146.000000	15.703440
1147.000000	15.698700
1148.000000	15.686782
1149.000000	15.659528
1150.000000	15.642050
1151.000000	15.625247
1152.000000	15.600383
1153.000000	15.567864
1154.000000	15.557108
1155.000000	15.571939
1156.000000	15.588675
1157.000000	15.626177
1158.000000	15.665331
1159.000000	15.701963
1160.000000	15.745492
1161.000000	15.807267
1162.000000	15.869777
1163.000000	15.928610
1164.000000	15.988594
1165.000000	16.048336
1166.000000	16.098211
1167.000000	16.171927
1168.000000	16.234974
1169.000000	16.319209
1170.000000	16.384633
1171.000000	16.468212
1172.000000	16.552216
1173.000000	16.618341
1174.000000	16.716631
1175.000000	16.780473
1176.000000	16.881248
1177.000000	16.973234
1178.000000	17.097279
1179.000000	17.229432
1180.000000	17.391560
1181.000000	17.579412
1182.000000	17.762710
1183.000000	17.912745
1184.000000	18.034892
1185.000000	18.114552
1186.000000	18.151802
1187.000000	18.121107
1188.000000	18.082532
1189.000000	17.982635
