PE UV       SUBTECH     SPECTRUM    ASCII       PEDS        4.00        
   -1
CICIMAUCR0018-5.Sample.ASC
24/04/25
10:17:18.00
24/04/25
10:17:18.00
Vinicio Soto Monge
C. cupreomarginata
250,000000
1
Lambda 1050
1050L1511233
PerkinElmer UV WinLab 6.3.2.0749 / 2.02.05 Lambda 900 UV/VIS/NIR, Aug  7 2015 09:38:08

0
0
3350/servo 860,8/2
0
0
UV/VIS
1
1
1
DoubleDePol,CommonBeamDepol,RBeamAtt,SBeamAtt,60mm sphere, WB InGaAs Detector
0
0
0
0
Program
Program
3350/servo 860,8/2
3350/0,2 860,8/0,2
3350/0,2 860,8/0,2
0
15.00
 
 
 
0
 
860,8
319,2
860,8
Front
100
on
S:100 R:100
0
0
0
0
 
0
 
 
 
0
 
 
0
0
0
0
0
 
 
 
 
0
0


0
0
#HDR
-1
-1
#GR
nm
%R
1.0
0.0
2500,000000
-1,000000
2251
8
70,377300
5,315300
#DATA
250.000000	1.820089
251.000000	1.803883
252.000000	1.791329
253.000000	1.784721
254.000000	1.748667
255.000000	1.765032
256.000000	1.754414
257.000000	1.753860
258.000000	1.753815
259.000000	1.724883
260.000000	1.728122
261.000000	1.723376
262.000000	1.711635
263.000000	1.695292
264.000000	1.667089
265.000000	1.675170
266.000000	1.664356
267.000000	1.650270
268.000000	1.641681
269.000000	1.637139
270.000000	1.654334
271.000000	1.634373
272.000000	1.614571
273.000000	1.609634
274.000000	1.622018
275.000000	1.598874
276.000000	1.605389
277.000000	1.590554
278.000000	1.598025
279.000000	1.602075
280.000000	1.595114
281.000000	1.580452
282.000000	1.575625
283.000000	1.586787
284.000000	1.578333
285.000000	1.571039
286.000000	1.560211
287.000000	1.566711
288.000000	1.574333
289.000000	1.577983
290.000000	1.552244
291.000000	1.573722
292.000000	1.568352
293.000000	1.549172
294.000000	1.540010
295.000000	1.554436
296.000000	1.527160
297.000000	1.532089
298.000000	1.526974
299.000000	1.516598
300.000000	1.513582
301.000000	1.511775
302.000000	1.499917
303.000000	1.500037
304.000000	1.513849
305.000000	1.521449
306.000000	1.498477
307.000000	1.505890
308.000000	1.495111
309.000000	1.486252
310.000000	1.483110
311.000000	1.501654
312.000000	1.484879
313.000000	1.478943
314.000000	1.462306
315.000000	1.453966
316.000000	1.512081
317.000000	1.940027
318.000000	1.739534
319.000000	1.788206
320.000000	1.830258
321.000000	1.607798
322.000000	1.652209
323.000000	1.761681
324.000000	1.702479
325.000000	1.630163
326.000000	1.634694
327.000000	1.566458
328.000000	1.462040
329.000000	1.558675
330.000000	1.500847
331.000000	1.422045
332.000000	1.506304
333.000000	1.489468
334.000000	1.453432
335.000000	1.483742
336.000000	1.514394
337.000000	1.504057
338.000000	1.475406
339.000000	1.424097
340.000000	1.470443
341.000000	1.418434
342.000000	1.486063
343.000000	1.430723
344.000000	1.436606
345.000000	1.411423
346.000000	1.349922
347.000000	1.398464
348.000000	1.464123
349.000000	1.372975
350.000000	1.386547
351.000000	1.418208
352.000000	1.403585
353.000000	1.386834
354.000000	1.368210
355.000000	1.347598
356.000000	1.344036
357.000000	1.347308
358.000000	1.362688
359.000000	1.386773
360.000000	1.360886
361.000000	1.349905
362.000000	1.346536
363.000000	1.318009
364.000000	1.344022
365.000000	1.322604
366.000000	1.305037
367.000000	1.357260
368.000000	1.352839
369.000000	1.321259
370.000000	1.268103
371.000000	1.264883
372.000000	1.268700
373.000000	1.249173
374.000000	1.211301
375.000000	1.262332
376.000000	1.389158
377.000000	1.417282
378.000000	1.428819
379.000000	1.447814
380.000000	1.463906
381.000000	1.475608
382.000000	1.492978
383.000000	1.517711
384.000000	1.543031
385.000000	1.572623
386.000000	1.600139
387.000000	1.638003
388.000000	1.674947
389.000000	1.710940
390.000000	1.755114
391.000000	1.798243
392.000000	1.852908
393.000000	1.910469
394.000000	1.965125
395.000000	2.024553
396.000000	2.088689
397.000000	2.151240
398.000000	2.216603
399.000000	2.291243
400.000000	2.367087
401.000000	2.442589
402.000000	2.520617
403.000000	2.597251
404.000000	2.680388
405.000000	2.759407
406.000000	2.843428
407.000000	2.923188
408.000000	2.998837
409.000000	3.080156
410.000000	3.165956
411.000000	3.241340
412.000000	3.314514
413.000000	3.391850
414.000000	3.468463
415.000000	3.541544
416.000000	3.607644
417.000000	3.675757
418.000000	3.739626
419.000000	3.803854
420.000000	3.866680
421.000000	3.926541
422.000000	3.987519
423.000000	4.041849
424.000000	4.090916
425.000000	4.138613
426.000000	4.189290
427.000000	4.240863
428.000000	4.285054
429.000000	4.331193
430.000000	4.375221
431.000000	4.414147
432.000000	4.453191
433.000000	4.488649
434.000000	4.522658
435.000000	4.554693
436.000000	4.578537
437.000000	4.598549
438.000000	4.625901
439.000000	4.652188
440.000000	4.668149
441.000000	4.679170
442.000000	4.681501
443.000000	4.672195
444.000000	4.670408
445.000000	4.661703
446.000000	4.641999
447.000000	4.625193
448.000000	4.598759
449.000000	4.568662
450.000000	4.539839
451.000000	4.508916
452.000000	4.482788
453.000000	4.454773
454.000000	4.429402
455.000000	4.404746
456.000000	4.385550
457.000000	4.378531
458.000000	4.368953
459.000000	4.366780
460.000000	4.375179
461.000000	4.394393
462.000000	4.422529
463.000000	4.454240
464.000000	4.498400
465.000000	4.555467
466.000000	4.618543
467.000000	4.686083
468.000000	4.761785
469.000000	4.849220
470.000000	4.950872
471.000000	5.059511
472.000000	5.173748
473.000000	5.294537
474.000000	5.422802
475.000000	5.552006
476.000000	5.681898
477.000000	5.817254
478.000000	5.949158
479.000000	6.073422
480.000000	6.190585
481.000000	6.301410
482.000000	6.410077
483.000000	6.514889
484.000000	6.616585
485.000000	6.701560
486.000000	6.786290
487.000000	6.869851
488.000000	6.950245
489.000000	7.031584
490.000000	7.117713
491.000000	7.201336
492.000000	7.281589
493.000000	7.366328
494.000000	7.453623
495.000000	7.549613
496.000000	7.650965
497.000000	7.754975
498.000000	7.865207
499.000000	7.983567
500.000000	8.110326
501.000000	8.237605
502.000000	8.375599
503.000000	8.519882
504.000000	8.673656
505.000000	8.834256
506.000000	9.000642
507.000000	9.173943
508.000000	9.345116
509.000000	9.533072
510.000000	9.726458
511.000000	9.923639
512.000000	10.129708
513.000000	10.343715
514.000000	10.569088
515.000000	10.788775
516.000000	11.023002
517.000000	11.252772
518.000000	11.488885
519.000000	11.740820
520.000000	11.998859
521.000000	12.271758
522.000000	12.545659
523.000000	12.829136
524.000000	13.116146
525.000000	13.412522
526.000000	13.717027
527.000000	14.026538
528.000000	14.341413
529.000000	14.677389
530.000000	15.022068
531.000000	15.374444
532.000000	15.743674
533.000000	16.120596
534.000000	16.498991
535.000000	16.877312
536.000000	17.253517
537.000000	17.626412
538.000000	18.005937
539.000000	18.380714
540.000000	18.732453
541.000000	19.080628
542.000000	19.419974
543.000000	19.735270
544.000000	20.030638
545.000000	20.306756
546.000000	20.560860
547.000000	20.792479
548.000000	20.998768
549.000000	21.184388
550.000000	21.346259
551.000000	21.498204
552.000000	21.619474
553.000000	21.747282
554.000000	21.850705
555.000000	21.938661
556.000000	22.023256
557.000000	22.121946
558.000000	22.190574
559.000000	22.257034
560.000000	22.353296
561.000000	22.412136
562.000000	22.476201
563.000000	22.525005
564.000000	22.555483
565.000000	22.588790
566.000000	22.612694
567.000000	22.626345
568.000000	22.637453
569.000000	22.646011
570.000000	22.641612
571.000000	22.631194
572.000000	22.606144
573.000000	22.599835
574.000000	22.565617
575.000000	22.533905
576.000000	22.522995
577.000000	22.491840
578.000000	22.475330
579.000000	22.464989
580.000000	22.442417
581.000000	22.427951
582.000000	22.420061
583.000000	22.401158
584.000000	22.399111
585.000000	22.365424
586.000000	22.363007
587.000000	22.346739
588.000000	22.306190
589.000000	22.263359
590.000000	22.207557
591.000000	22.139167
592.000000	22.055746
593.000000	21.981845
594.000000	21.888611
595.000000	21.785536
596.000000	21.686661
597.000000	21.582459
598.000000	21.475885
599.000000	21.375436
600.000000	21.263386
601.000000	21.143376
602.000000	21.040436
603.000000	20.912665
604.000000	20.792957
605.000000	20.670172
606.000000	20.551636
607.000000	20.407726
608.000000	20.256271
609.000000	20.101108
610.000000	19.918454
611.000000	19.725826
612.000000	19.506340
613.000000	19.267096
614.000000	19.015259
615.000000	18.748469
616.000000	18.470511
617.000000	18.171188
618.000000	17.863175
619.000000	17.532618
620.000000	17.220135
621.000000	16.895471
622.000000	16.560161
623.000000	16.244216
624.000000	15.928815
625.000000	15.621230
626.000000	15.330778
627.000000	15.047294
628.000000	14.783094
629.000000	14.548386
630.000000	14.334495
631.000000	14.129969
632.000000	13.955800
633.000000	13.810732
634.000000	13.677324
635.000000	13.588756
636.000000	13.525484
637.000000	13.464796
638.000000	13.441089
639.000000	13.456066
640.000000	13.474604
641.000000	13.519263
642.000000	13.588638
643.000000	13.666946
644.000000	13.776540
645.000000	13.887580
646.000000	14.018609
647.000000	14.156815
648.000000	14.283473
649.000000	14.430604
650.000000	14.581485
651.000000	14.716209
652.000000	14.850983
653.000000	14.969285
654.000000	15.090324
655.000000	15.182654
656.000000	15.274288
657.000000	15.366170
658.000000	15.430949
659.000000	15.480279
660.000000	15.533206
661.000000	15.555501
662.000000	15.596166
663.000000	15.618496
664.000000	15.640918
665.000000	15.656686
666.000000	15.648518
667.000000	15.650941
668.000000	15.661503
669.000000	15.664797
670.000000	15.661449
671.000000	15.648658
672.000000	15.633170
673.000000	15.605335
674.000000	15.589470
675.000000	15.563933
676.000000	15.544362
677.000000	15.516530
678.000000	15.476606
679.000000	15.437580
680.000000	15.393541
681.000000	15.358675
682.000000	15.329256
683.000000	15.298907
684.000000	15.262652
685.000000	15.241167
686.000000	15.241479
687.000000	15.231858
688.000000	15.221260
689.000000	15.235630
690.000000	15.239830
691.000000	15.255181
692.000000	15.257262
693.000000	15.285340
694.000000	15.319152
695.000000	15.353464
696.000000	15.373110
697.000000	15.400417
698.000000	15.433589
699.000000	15.460609
700.000000	15.496302
701.000000	15.523955
702.000000	15.563374
703.000000	15.599241
704.000000	15.623345
705.000000	15.660893
706.000000	15.694947
707.000000	15.735174
708.000000	15.782319
709.000000	15.811191
710.000000	15.847259
711.000000	15.880479
712.000000	15.921114
713.000000	15.954834
714.000000	15.995846
715.000000	16.031958
716.000000	16.075615
717.000000	16.111648
718.000000	16.133628
719.000000	16.161958
720.000000	16.200528
721.000000	16.233078
722.000000	16.268336
723.000000	16.295582
724.000000	16.319775
725.000000	16.352320
726.000000	16.368910
727.000000	16.369140
728.000000	16.379130
729.000000	16.385176
730.000000	16.404553
731.000000	16.433528
732.000000	16.450474
733.000000	16.457365
734.000000	16.464987
735.000000	16.472774
736.000000	16.491667
737.000000	16.509806
738.000000	16.531850
739.000000	16.534465
740.000000	16.542016
741.000000	16.561818
742.000000	16.552382
743.000000	16.556472
744.000000	16.562598
745.000000	16.548244
746.000000	16.541459
747.000000	16.540895
748.000000	16.545208
749.000000	16.552377
750.000000	16.553893
751.000000	16.540411
752.000000	16.530121
753.000000	16.519314
754.000000	16.530502
755.000000	16.552451
756.000000	16.551360
757.000000	16.551805
758.000000	16.563654
759.000000	16.563504
760.000000	16.570743
761.000000	16.588285
762.000000	16.589488
763.000000	16.596515
764.000000	16.602769
765.000000	16.620655
766.000000	16.637857
767.000000	16.634485
768.000000	16.643717
769.000000	16.668737
770.000000	16.689157
771.000000	16.698619
772.000000	16.713606
773.000000	16.739282
774.000000	16.765861
775.000000	16.778024
776.000000	16.809324
777.000000	16.830606
778.000000	16.848232
779.000000	16.876273
780.000000	16.915174
781.000000	16.922108
782.000000	16.944202
783.000000	17.017215
784.000000	17.023597
785.000000	17.038934
786.000000	17.080612
787.000000	17.097676
788.000000	17.122220
789.000000	17.156412
790.000000	17.176469
791.000000	17.200576
792.000000	17.238286
793.000000	17.276830
794.000000	17.313785
795.000000	17.333015
796.000000	17.352998
797.000000	17.400411
798.000000	17.460239
799.000000	17.456547
800.000000	17.493512
801.000000	17.527466
802.000000	17.534569
803.000000	17.566340
804.000000	17.617469
805.000000	17.620134
806.000000	17.645936
807.000000	17.653875
808.000000	17.672007
809.000000	17.706874
810.000000	17.731095
811.000000	17.791560
812.000000	17.794593
813.000000	17.765599
814.000000	17.762774
815.000000	17.757126
816.000000	17.807395
817.000000	17.825270
818.000000	17.828375
819.000000	17.817629
820.000000	17.844512
821.000000	17.815208
822.000000	17.823442
823.000000	17.810966
824.000000	17.820113
825.000000	17.862026
826.000000	17.872437
827.000000	17.826078
828.000000	17.808379
829.000000	17.820462
830.000000	17.801871
831.000000	17.782151
832.000000	17.791221
833.000000	17.791312
834.000000	17.784239
835.000000	17.811416
836.000000	17.796963
837.000000	17.821869
838.000000	17.799929
839.000000	17.814040
840.000000	17.809757
841.000000	17.723038
842.000000	17.782794
843.000000	17.841086
844.000000	17.768273
845.000000	17.759224
846.000000	17.750258
847.000000	17.749085
848.000000	17.625861
849.000000	17.695819
850.000000	17.623976
851.000000	17.598514
852.000000	17.685033
853.000000	17.547007
854.000000	17.412937
855.000000	17.443559
856.000000	17.581002
857.000000	17.683049
858.000000	17.876419
859.000000	17.667945
860.000000	17.624308
861.000000	17.586726
862.000000	17.553980
863.000000	17.497120
864.000000	17.435590
865.000000	17.363702
866.000000	17.295933
867.000000	17.223192
868.000000	17.218280
869.000000	17.254963
870.000000	17.356653
871.000000	17.460307
872.000000	17.521527
873.000000	17.585933
874.000000	17.608049
875.000000	17.679866
876.000000	17.724715
877.000000	17.749494
878.000000	17.764966
879.000000	17.791218
880.000000	17.797448
881.000000	17.772559
882.000000	17.790471
883.000000	17.799101
884.000000	17.797331
885.000000	17.810717
886.000000	17.781058
887.000000	17.760586
888.000000	17.747273
889.000000	17.711358
890.000000	17.678941
891.000000	17.652542
892.000000	17.603385
893.000000	17.574468
894.000000	17.500563
895.000000	17.441016
896.000000	17.391598
897.000000	17.313928
898.000000	17.253961
899.000000	17.191334
900.000000	17.110737
901.000000	17.046395
902.000000	16.985667
903.000000	16.907856
904.000000	16.851697
905.000000	16.760870
906.000000	16.693188
907.000000	16.623071
908.000000	16.541534
909.000000	16.466143
910.000000	16.403432
911.000000	16.329497
912.000000	16.298280
913.000000	16.230608
914.000000	16.174489
915.000000	16.075297
916.000000	16.001945
917.000000	15.987439
918.000000	15.927164
919.000000	15.862893
920.000000	15.807794
921.000000	15.752990
922.000000	15.693590
923.000000	15.621592
924.000000	15.604021
925.000000	15.550950
926.000000	15.519479
927.000000	15.439970
928.000000	15.391909
929.000000	15.359829
930.000000	15.300858
931.000000	15.288017
932.000000	15.224873
933.000000	15.170030
934.000000	15.166215
935.000000	15.129719
936.000000	15.070721
937.000000	15.011834
938.000000	14.952522
939.000000	14.932049
940.000000	14.878443
941.000000	14.830434
942.000000	14.775391
943.000000	14.775967
944.000000	14.730001
945.000000	14.688258
946.000000	14.664228
947.000000	14.606024
948.000000	14.550987
949.000000	14.494848
950.000000	14.468936
951.000000	14.449326
952.000000	14.403184
953.000000	14.356432
954.000000	14.312478
955.000000	14.276163
956.000000	14.223598
957.000000	14.197998
958.000000	14.148442
959.000000	14.098191
960.000000	14.039481
961.000000	14.008005
962.000000	13.981481
963.000000	13.947733
964.000000	13.903019
965.000000	13.858212
966.000000	13.825372
967.000000	13.809192
968.000000	13.764535
969.000000	13.729234
970.000000	13.707428
971.000000	13.659760
972.000000	13.633205
973.000000	13.602432
974.000000	13.586078
975.000000	13.554880
976.000000	13.544882
977.000000	13.511537
978.000000	13.470993
979.000000	13.465509
980.000000	13.453485
981.000000	13.412234
982.000000	13.377602
983.000000	13.378086
984.000000	13.365602
985.000000	13.351075
986.000000	13.336974
987.000000	13.296947
988.000000	13.290696
989.000000	13.292731
990.000000	13.296021
991.000000	13.294363
992.000000	13.274538
993.000000	13.255508
994.000000	13.271391
995.000000	13.269485
996.000000	13.262730
997.000000	13.248259
998.000000	13.240148
999.000000	13.248917
1000.000000	13.250668
1001.000000	13.248642
1002.000000	13.245303
1003.000000	13.231212
1004.000000	13.211732
1005.000000	13.223694
1006.000000	13.225488
1007.000000	13.212546
1008.000000	13.206481
1009.000000	13.206117
1010.000000	13.209372
1011.000000	13.199921
1012.000000	13.204063
1013.000000	13.200549
1014.000000	13.172030
1015.000000	13.160729
1016.000000	13.177036
1017.000000	13.187149
1018.000000	13.177707
1019.000000	13.170790
1020.000000	13.175322
1021.000000	13.165975
1022.000000	13.171641
1023.000000	13.183082
1024.000000	13.181247
1025.000000	13.174837
1026.000000	13.168034
1027.000000	13.168595
1028.000000	13.181654
1029.000000	13.192779
1030.000000	13.193036
1031.000000	13.193224
1032.000000	13.198502
1033.000000	13.187416
1034.000000	13.183305
1035.000000	13.194841
1036.000000	13.202803
1037.000000	13.196053
1038.000000	13.189050
1039.000000	13.195214
1040.000000	13.205872
1041.000000	13.205772
1042.000000	13.202602
1043.000000	13.204417
1044.000000	13.219638
1045.000000	13.240677
1046.000000	13.244514
1047.000000	13.239584
1048.000000	13.232708
1049.000000	13.234532
1050.000000	13.247971
1051.000000	13.247667
1052.000000	13.248385
1053.000000	13.250301
1054.000000	13.247915
1055.000000	13.253238
1056.000000	13.266330
1057.000000	13.282431
1058.000000	13.285741
1059.000000	13.301347
1060.000000	13.310609
1061.000000	13.306713
1062.000000	13.309732
1063.000000	13.314116
1064.000000	13.330457
1065.000000	13.349002
1066.000000	13.349829
1067.000000	13.350357
1068.000000	13.364181
1069.000000	13.380198
1070.000000	13.392817
1071.000000	13.393231
1072.000000	13.402964
1073.000000	13.423957
1074.000000	13.444163
1075.000000	13.448513
1076.000000	13.445682
1077.000000	13.441246
1078.000000	13.442879
1079.000000	13.450338
1080.000000	13.460054
1081.000000	13.469352
1082.000000	13.488024
1083.000000	13.500009
1084.000000	13.510655
1085.000000	13.513726
1086.000000	13.528147
1087.000000	13.522528
1088.000000	13.539081
1089.000000	13.555555
1090.000000	13.569865
1091.000000	13.575588
1092.000000	13.579033
1093.000000	13.590633
1094.000000	13.584578
1095.000000	13.607637
1096.000000	13.611675
1097.000000	13.603176
1098.000000	13.607862
1099.000000	13.618951
1100.000000	13.618631
1101.000000	13.608654
1102.000000	13.611708
1103.000000	13.614593
1104.000000	13.618368
1105.000000	13.624786
1106.000000	13.618149
1107.000000	13.615219
1108.000000	13.606828
1109.000000	13.598136
1110.000000	13.603233
1111.000000	13.612738
1112.000000	13.628124
1113.000000	13.626715
1114.000000	13.619031
1115.000000	13.616278
1116.000000	13.614177
1117.000000	13.625954
1118.000000	13.638382
1119.000000	13.635472
1120.000000	13.620316
1121.000000	13.601856
1122.000000	13.596312
1123.000000	13.581675
1124.000000	13.593699
1125.000000	13.583778
1126.000000	13.589284
1127.000000	13.572071
1128.000000	13.552105
1129.000000	13.524408
1130.000000	13.496944
1131.000000	13.467247
1132.000000	13.449377
1133.000000	13.429277
1134.000000	13.402650
1135.000000	13.377733
1136.000000	13.324881
1137.000000	13.281032
1138.000000	13.254074
1139.000000	13.219856
1140.000000	13.201456
1141.000000	13.185789
1142.000000	13.167908
1143.000000	13.159521
1144.000000	13.130175
1145.000000	13.102576
1146.000000	13.108638
1147.000000	13.096292
1148.000000	13.074172
1149.000000	13.066607
1150.000000	13.045950
1151.000000	13.047325
1152.000000	13.038452
1153.000000	13.022444
1154.000000	13.010110
1155.000000	12.984476
1156.000000	12.974420
1157.000000	12.956644
1158.000000	12.955754
1159.000000	12.936962
1160.000000	12.916996
1161.000000	12.903563
1162.000000	12.890451
1163.000000	12.878317
1164.000000	12.876988
1165.000000	12.847846
1166.000000	12.831684
1167.000000	12.820865
1168.000000	12.814267
1169.000000	12.801623
1170.000000	12.808963
1171.000000	12.823052
