PE UV       SUBTECH     SPECTRUM    ASCII       PEDS        4.00        
   -1
CICIMAUCR0113-6.Sample.ASC
24/04/25
11:40:20.00
24/04/25
11:40:20.00
Vinicio Soto Monge
C. kalinini
250,000000
1
Lambda 1050
1050L1511233
PerkinElmer UV WinLab 6.3.2.0749 / 2.02.05 Lambda 900 UV/VIS/NIR, Aug  7 2015 09:38:08

0
0
3350/servo 860,8/2
0
0
UV/VIS
1
1
1
DoubleDePol,CommonBeamDepol,RBeamAtt,SBeamAtt,60mm sphere, WB InGaAs Detector
0
0
0
0
Program
Program
3350/servo 860,8/2
3350/0,2 860,8/0,2
3350/0,2 860,8/0,2
0
15.00
 
 
 
0
 
860,8
319,2
860,8
Front
100
on
S:100 R:100
0
0
0
0
 
0
 
 
 
0
 
 
0
0
0
0
0
 
 
 
 
0
0


0
0
#HDR
-1
-1
#GR
nm
%R
1.0
0.0
2500,000000
-1,000000
2251
8
101,774400
5,807200
#DATA
250.000000	1.106175
251.000000	1.096487
252.000000	1.089178
253.000000	1.085807
254.000000	1.082212
255.000000	1.062682
256.000000	1.058098
257.000000	1.066925
258.000000	1.064704
259.000000	1.051063
260.000000	1.052075
261.000000	1.030649
262.000000	1.026744
263.000000	1.023524
264.000000	1.014990
265.000000	1.031364
266.000000	1.010002
267.000000	0.998274
268.000000	0.986470
269.000000	0.996672
270.000000	0.984943
271.000000	0.990481
272.000000	0.985018
273.000000	0.993577
274.000000	0.969158
275.000000	0.989803
276.000000	0.982498
277.000000	0.976246
278.000000	0.961618
279.000000	0.958214
280.000000	0.945239
281.000000	0.960327
282.000000	0.959450
283.000000	0.941410
284.000000	0.969672
285.000000	0.957194
286.000000	0.948158
287.000000	0.952508
288.000000	0.948268
289.000000	0.940980
290.000000	0.935115
291.000000	0.944312
292.000000	0.930019
293.000000	0.935491
294.000000	0.901968
295.000000	0.925336
296.000000	0.925855
297.000000	0.916821
298.000000	0.911265
299.000000	0.908853
300.000000	0.911935
301.000000	0.920115
302.000000	0.909232
303.000000	0.901246
304.000000	0.930898
305.000000	0.882420
306.000000	0.922875
307.000000	0.909926
308.000000	0.884034
309.000000	0.879598
310.000000	0.872310
311.000000	0.895173
312.000000	0.893384
313.000000	0.872946
314.000000	0.887866
315.000000	0.852277
316.000000	0.845884
317.000000	0.652250
318.000000	0.855811
319.000000	0.852699
320.000000	0.662864
321.000000	0.655606
322.000000	0.847452
323.000000	0.926316
324.000000	0.768181
325.000000	0.726334
326.000000	0.894835
327.000000	0.735346
328.000000	0.885592
329.000000	0.886383
330.000000	0.848214
331.000000	0.814781
332.000000	0.805330
333.000000	0.846840
334.000000	0.801100
335.000000	0.718763
336.000000	0.790450
337.000000	0.782398
338.000000	0.753503
339.000000	0.738590
340.000000	0.792963
341.000000	0.711775
342.000000	0.790447
343.000000	0.810264
344.000000	0.797188
345.000000	0.786195
346.000000	0.846658
347.000000	0.779241
348.000000	0.784798
349.000000	0.752911
350.000000	0.773164
351.000000	0.827547
352.000000	0.836367
353.000000	0.792361
354.000000	0.826458
355.000000	0.814799
356.000000	0.778934
357.000000	0.764906
358.000000	0.783589
359.000000	0.789033
360.000000	0.760261
361.000000	0.767767
362.000000	0.730085
363.000000	0.775581
364.000000	0.781121
365.000000	0.762400
366.000000	0.754746
367.000000	0.752881
368.000000	0.752971
369.000000	0.820386
370.000000	0.816781
371.000000	0.761072
372.000000	0.785398
373.000000	0.805961
374.000000	0.789294
375.000000	0.766129
376.000000	0.769847
377.000000	0.793438
378.000000	0.792643
379.000000	0.779907
380.000000	0.769411
381.000000	0.764915
382.000000	0.747801
383.000000	0.731227
384.000000	0.719298
385.000000	0.706662
386.000000	0.694726
387.000000	0.680371
388.000000	0.665958
389.000000	0.653730
390.000000	0.644460
391.000000	0.626561
392.000000	0.612925
393.000000	0.600442
394.000000	0.587008
395.000000	0.574831
396.000000	0.572654
397.000000	0.572299
398.000000	0.567524
399.000000	0.572803
400.000000	0.580447
401.000000	0.595423
402.000000	0.617365
403.000000	0.644276
404.000000	0.677985
405.000000	0.713691
406.000000	0.754813
407.000000	0.801020
408.000000	0.849629
409.000000	0.903665
410.000000	0.964104
411.000000	1.037244
412.000000	1.119782
413.000000	1.197022
414.000000	1.283608
415.000000	1.386722
416.000000	1.491779
417.000000	1.596059
418.000000	1.707031
419.000000	1.828813
420.000000	1.959379
421.000000	2.098599
422.000000	2.233641
423.000000	2.368959
424.000000	2.525382
425.000000	2.676906
426.000000	2.823381
427.000000	2.975626
428.000000	3.132230
429.000000	3.287794
430.000000	3.443966
431.000000	3.605533
432.000000	3.759922
433.000000	3.912649
434.000000	4.068061
435.000000	4.219327
436.000000	4.361275
437.000000	4.507069
438.000000	4.648026
439.000000	4.773552
440.000000	4.905522
441.000000	5.042496
442.000000	5.168565
443.000000	5.283414
444.000000	5.389505
445.000000	5.492706
446.000000	5.601638
447.000000	5.705629
448.000000	5.802305
449.000000	5.895714
450.000000	5.993361
451.000000	6.084744
452.000000	6.165811
453.000000	6.243189
454.000000	6.316459
455.000000	6.391171
456.000000	6.466583
457.000000	6.531298
458.000000	6.585459
459.000000	6.646587
460.000000	6.702989
461.000000	6.749614
462.000000	6.799650
463.000000	6.844331
464.000000	6.884132
465.000000	6.917245
466.000000	6.942301
467.000000	6.971540
468.000000	6.995576
469.000000	7.009509
470.000000	7.016401
471.000000	7.018451
472.000000	7.015451
473.000000	7.002594
474.000000	6.983667
475.000000	6.962836
476.000000	6.926583
477.000000	6.877455
478.000000	6.818187
479.000000	6.749960
480.000000	6.688295
481.000000	6.623701
482.000000	6.542750
483.000000	6.444443
484.000000	6.327524
485.000000	6.207678
486.000000	6.080908
487.000000	5.953536
488.000000	5.829390
489.000000	5.700975
490.000000	5.567159
491.000000	5.445941
492.000000	5.327866
493.000000	5.228108
494.000000	5.144877
495.000000	5.072156
496.000000	5.013138
497.000000	4.984656
498.000000	4.975795
499.000000	4.993450
500.000000	5.030509
501.000000	5.102614
502.000000	5.199764
503.000000	5.317064
504.000000	5.461869
505.000000	5.629053
506.000000	5.806453
507.000000	6.002676
508.000000	6.226094
509.000000	6.450166
510.000000	6.689825
511.000000	6.941614
512.000000	7.192421
513.000000	7.442876
514.000000	7.691558
515.000000	7.945513
516.000000	8.199850
517.000000	8.459783
518.000000	8.710182
519.000000	8.957396
520.000000	9.212227
521.000000	9.458754
522.000000	9.708963
523.000000	9.947449
524.000000	10.182826
525.000000	10.408295
526.000000	10.642300
527.000000	10.881633
528.000000	11.107593
529.000000	11.332810
530.000000	11.555611
531.000000	11.786372
532.000000	12.010388
533.000000	12.234958
534.000000	12.461994
535.000000	12.679771
536.000000	12.910860
537.000000	13.137457
538.000000	13.363154
539.000000	13.603047
540.000000	13.850096
541.000000	14.083774
542.000000	14.320601
543.000000	14.552581
544.000000	14.799786
545.000000	15.041334
546.000000	15.266596
547.000000	15.501203
548.000000	15.724485
549.000000	15.934879
550.000000	16.149829
551.000000	16.376923
552.000000	16.574834
553.000000	16.777630
554.000000	16.976876
555.000000	17.159774
556.000000	17.362054
557.000000	17.546539
558.000000	17.725667
559.000000	17.895346
560.000000	18.131307
561.000000	18.305601
562.000000	18.437072
563.000000	18.571952
564.000000	18.716419
565.000000	18.845683
566.000000	18.979131
567.000000	19.085926
568.000000	19.177725
569.000000	19.286960
570.000000	19.388013
571.000000	19.491473
572.000000	19.590831
573.000000	19.660171
574.000000	19.759271
575.000000	19.837218
576.000000	19.928042
577.000000	19.998766
578.000000	20.061252
579.000000	20.116629
580.000000	20.191373
581.000000	20.236969
582.000000	20.282864
583.000000	20.346435
584.000000	20.389777
585.000000	20.417784
586.000000	20.448169
587.000000	20.472634
588.000000	20.491123
589.000000	20.492008
590.000000	20.496433
591.000000	20.481036
592.000000	20.451726
593.000000	20.429782
594.000000	20.373805
595.000000	20.315431
596.000000	20.274623
597.000000	20.194686
598.000000	20.103797
599.000000	20.017339
600.000000	19.916881
601.000000	19.807159
602.000000	19.672551
603.000000	19.546166
604.000000	19.394153
605.000000	19.243382
606.000000	19.099702
607.000000	18.951584
608.000000	18.804126
609.000000	18.651356
610.000000	18.466273
611.000000	18.288838
612.000000	18.124046
613.000000	17.944942
614.000000	17.748809
615.000000	17.555231
616.000000	17.356972
617.000000	17.174292
618.000000	16.966974
619.000000	16.750759
620.000000	16.557140
621.000000	16.347244
622.000000	16.132865
623.000000	15.909974
624.000000	15.702375
625.000000	15.491995
626.000000	15.277212
627.000000	15.074503
628.000000	14.879112
629.000000	14.693377
630.000000	14.523817
631.000000	14.346538
632.000000	14.195658
633.000000	14.067723
634.000000	13.947735
635.000000	13.832831
636.000000	13.728503
637.000000	13.635931
638.000000	13.563200
639.000000	13.510860
640.000000	13.441035
641.000000	13.394251
642.000000	13.368413
643.000000	13.332848
644.000000	13.301602
645.000000	13.284766
646.000000	13.257323
647.000000	13.251623
648.000000	13.244261
649.000000	13.255443
650.000000	13.247681
651.000000	13.282988
652.000000	13.312288
653.000000	13.368268
654.000000	13.433430
655.000000	13.519719
656.000000	13.597109
657.000000	13.702010
658.000000	13.812817
659.000000	13.928324
660.000000	14.054058
661.000000	14.188081
662.000000	14.321509
663.000000	14.475898
664.000000	14.612983
665.000000	14.747354
666.000000	14.866860
667.000000	14.984049
668.000000	15.115118
669.000000	15.246250
670.000000	15.352516
671.000000	15.462278
672.000000	15.582577
673.000000	15.691243
674.000000	15.771876
675.000000	15.844814
676.000000	15.942741
677.000000	16.027957
678.000000	16.096894
679.000000	16.162855
680.000000	16.218110
681.000000	16.265952
682.000000	16.320416
683.000000	16.344168
684.000000	16.364286
685.000000	16.389810
686.000000	16.400715
687.000000	16.406412
688.000000	16.422817
689.000000	16.405432
690.000000	16.385945
691.000000	16.363434
692.000000	16.354017
693.000000	16.329612
694.000000	16.315267
695.000000	16.305175
696.000000	16.299756
697.000000	16.290933
698.000000	16.295170
699.000000	16.343673
700.000000	16.372509
701.000000	16.414850
702.000000	16.481847
703.000000	16.556219
704.000000	16.623055
705.000000	16.701327
706.000000	16.795443
707.000000	16.916405
708.000000	17.026762
709.000000	17.143136
710.000000	17.286723
711.000000	17.418380
712.000000	17.535907
713.000000	17.664136
714.000000	17.810962
715.000000	17.954925
716.000000	18.102784
717.000000	18.242622
718.000000	18.381904
719.000000	18.523614
720.000000	18.693025
721.000000	18.861574
722.000000	19.014858
723.000000	19.166182
724.000000	19.316432
725.000000	19.474051
726.000000	19.605160
727.000000	19.753777
728.000000	19.911326
729.000000	20.032818
730.000000	20.154492
731.000000	20.276883
732.000000	20.408770
733.000000	20.527046
734.000000	20.628025
735.000000	20.723104
736.000000	20.825713
737.000000	20.942047
738.000000	21.022656
739.000000	21.093668
740.000000	21.211932
741.000000	21.284564
742.000000	21.362504
743.000000	21.448654
744.000000	21.509042
745.000000	21.549793
746.000000	21.603272
747.000000	21.656405
748.000000	21.693374
749.000000	21.741945
750.000000	21.773805
751.000000	21.814442
752.000000	21.885227
753.000000	21.930900
754.000000	21.949249
755.000000	21.964553
756.000000	21.976206
757.000000	21.998952
758.000000	22.030513
759.000000	22.055713
760.000000	22.055959
761.000000	22.056160
762.000000	22.060456
763.000000	22.068221
764.000000	22.094583
765.000000	22.112991
766.000000	22.103742
767.000000	22.104471
768.000000	22.119801
769.000000	22.142204
770.000000	22.142992
771.000000	22.138770
772.000000	22.107714
773.000000	22.134118
774.000000	22.186382
775.000000	22.190620
776.000000	22.179007
777.000000	22.165539
778.000000	22.178088
779.000000	22.151903
780.000000	22.177694
781.000000	22.221422
782.000000	22.190286
783.000000	22.147882
784.000000	22.130388
785.000000	22.114887
786.000000	22.114935
787.000000	22.102349
788.000000	22.065514
789.000000	22.071930
790.000000	22.071723
791.000000	22.022272
792.000000	21.962982
793.000000	21.923087
794.000000	21.887673
795.000000	21.847335
796.000000	21.803838
797.000000	21.751942
798.000000	21.713263
799.000000	21.680670
800.000000	21.609824
801.000000	21.573185
802.000000	21.514404
803.000000	21.383233
804.000000	21.310162
805.000000	21.247943
806.000000	21.156493
807.000000	21.075261
808.000000	20.972980
809.000000	20.807041
810.000000	20.716357
811.000000	20.640501
812.000000	20.507006
813.000000	20.346212
814.000000	20.243739
815.000000	20.083184
816.000000	20.031122
817.000000	19.936960
818.000000	19.812997
819.000000	19.665805
820.000000	19.535482
821.000000	19.385872
822.000000	19.234138
823.000000	19.098883
824.000000	18.963309
825.000000	18.782718
826.000000	18.589991
827.000000	18.478311
828.000000	18.282294
829.000000	18.127833
830.000000	18.026813
831.000000	17.889765
832.000000	17.748765
833.000000	17.536888
834.000000	17.388260
835.000000	17.235674
836.000000	17.120978
837.000000	16.978777
838.000000	16.784251
839.000000	16.674733
840.000000	16.548047
841.000000	16.441018
842.000000	16.272140
843.000000	16.175338
844.000000	15.956463
845.000000	15.788545
846.000000	15.702756
847.000000	15.536937
848.000000	15.321059
849.000000	15.295736
850.000000	15.233887
851.000000	15.104243
852.000000	14.982697
853.000000	14.914364
854.000000	14.652208
855.000000	14.742516
856.000000	14.571136
857.000000	14.433085
858.000000	15.585714
859.000000	14.213530
860.000000	14.127676
861.000000	14.035378
862.000000	13.977258
863.000000	13.907729
864.000000	13.845124
865.000000	13.778887
866.000000	13.734129
867.000000	13.792611
868.000000	13.976115
869.000000	14.182089
870.000000	14.345444
871.000000	14.559390
872.000000	14.734144
873.000000	14.903921
874.000000	15.018731
875.000000	15.179752
876.000000	15.287069
877.000000	15.418958
878.000000	15.522704
879.000000	15.643429
880.000000	15.723909
881.000000	15.837087
882.000000	15.906290
883.000000	16.011199
884.000000	16.060233
885.000000	16.121465
886.000000	16.152950
887.000000	16.188899
888.000000	16.207176
889.000000	16.237879
890.000000	16.263565
891.000000	16.248414
892.000000	16.238221
893.000000	16.225689
894.000000	16.228727
895.000000	16.211646
896.000000	16.162634
897.000000	16.107656
898.000000	16.045505
899.000000	15.979349
900.000000	15.925618
901.000000	15.848469
902.000000	15.808376
903.000000	15.731621
904.000000	15.637962
905.000000	15.551831
906.000000	15.472801
907.000000	15.387229
908.000000	15.308532
909.000000	15.218785
910.000000	15.130689
911.000000	15.031440
912.000000	14.947680
913.000000	14.853337
914.000000	14.770584
915.000000	14.671393
916.000000	14.570953
917.000000	14.490255
918.000000	14.379072
919.000000	14.282864
920.000000	14.193393
921.000000	14.086735
922.000000	13.990078
923.000000	13.856363
924.000000	13.749659
925.000000	13.639438
926.000000	13.528648
927.000000	13.435322
928.000000	13.323997
929.000000	13.197805
930.000000	13.102605
931.000000	12.997992
932.000000	12.871127
933.000000	12.760365
934.000000	12.661301
935.000000	12.560935
936.000000	12.447560
937.000000	12.335511
938.000000	12.244943
939.000000	12.149363
940.000000	12.061333
941.000000	11.958924
942.000000	11.865611
943.000000	11.796446
944.000000	11.707758
945.000000	11.618701
946.000000	11.550812
947.000000	11.475818
948.000000	11.375273
949.000000	11.317646
950.000000	11.247722
951.000000	11.178819
952.000000	11.111940
953.000000	11.037071
954.000000	10.977754
955.000000	10.920917
956.000000	10.843880
957.000000	10.766692
958.000000	10.718168
959.000000	10.663681
960.000000	10.593624
961.000000	10.533403
962.000000	10.456957
963.000000	10.410033
964.000000	10.365919
965.000000	10.310270
966.000000	10.257124
967.000000	10.192352
968.000000	10.151499
969.000000	10.117770
970.000000	10.065033
971.000000	10.015376
972.000000	9.973601
973.000000	9.938766
974.000000	9.892912
975.000000	9.852802
976.000000	9.819878
977.000000	9.783056
978.000000	9.738685
979.000000	9.705185
980.000000	9.669968
981.000000	9.640203
982.000000	9.610354
983.000000	9.566237
984.000000	9.541668
985.000000	9.507760
986.000000	9.482295
987.000000	9.448351
988.000000	9.416023
989.000000	9.394356
990.000000	9.365621
991.000000	9.338104
992.000000	9.314689
993.000000	9.290533
994.000000	9.263290
995.000000	9.242118
996.000000	9.220368
997.000000	9.201889
998.000000	9.184694
999.000000	9.164761
1000.000000	9.146945
1001.000000	9.125210
1002.000000	9.112374
1003.000000	9.096279
1004.000000	9.084121
1005.000000	9.072537
1006.000000	9.054453
1007.000000	9.037282
1008.000000	9.028958
1009.000000	9.021766
1010.000000	9.004191
1011.000000	8.988585
1012.000000	8.976014
1013.000000	8.970153
1014.000000	8.971248
1015.000000	8.967574
1016.000000	8.964537
1017.000000	8.966623
1018.000000	8.975847
1019.000000	8.982905
1020.000000	8.992371
1021.000000	9.003657
1022.000000	9.005322
1023.000000	9.008887
1024.000000	9.015323
1025.000000	9.019638
1026.000000	9.030044
1027.000000	9.044195
1028.000000	9.051610
1029.000000	9.057041
1030.000000	9.064988
1031.000000	9.071880
1032.000000	9.077692
1033.000000	9.078256
1034.000000	9.084036
1035.000000	9.086534
1036.000000	9.096156
1037.000000	9.109348
1038.000000	9.105045
1039.000000	9.098559
1040.000000	9.100826
1041.000000	9.101976
1042.000000	9.099678
1043.000000	9.107962
1044.000000	9.113977
1045.000000	9.113558
1046.000000	9.116914
1047.000000	9.122245
1048.000000	9.128714
1049.000000	9.137971
1050.000000	9.139710
1051.000000	9.149030
1052.000000	9.157593
1053.000000	9.169065
1054.000000	9.181254
1055.000000	9.193935
1056.000000	9.211296
1057.000000	9.227619
1058.000000	9.241052
1059.000000	9.256441
1060.000000	9.275299
1061.000000	9.292054
1062.000000	9.303664
1063.000000	9.319228
1064.000000	9.334355
1065.000000	9.351103
1066.000000	9.364206
1067.000000	9.378533
1068.000000	9.392675
1069.000000	9.405707
1070.000000	9.413694
1071.000000	9.428605
1072.000000	9.441543
1073.000000	9.449139
1074.000000	9.466696
1075.000000	9.478108
1076.000000	9.492378
1077.000000	9.506136
1078.000000	9.508578
1079.000000	9.511980
1080.000000	9.520222
1081.000000	9.533919
1082.000000	9.543044
1083.000000	9.561930
1084.000000	9.571856
1085.000000	9.577862
1086.000000	9.591167
1087.000000	9.602243
1088.000000	9.612316
1089.000000	9.617800
1090.000000	9.629730
1091.000000	9.642869
1092.000000	9.662674
1093.000000	9.667263
1094.000000	9.668244
1095.000000	9.679121
1096.000000	9.692787
1097.000000	9.698866
1098.000000	9.697781
1099.000000	9.709201
1100.000000	9.722157
1101.000000	9.730664
1102.000000	9.729965
1103.000000	9.732728
1104.000000	9.750295
1105.000000	9.744428
1106.000000	9.747670
1107.000000	9.749742
1108.000000	9.750841
1109.000000	9.755978
1110.000000	9.753180
1111.000000	9.759507
1112.000000	9.753376
1113.000000	9.745816
1114.000000	9.747530
1115.000000	9.754102
1116.000000	9.755766
1117.000000	9.755965
1118.000000	9.747828
1119.000000	9.745008
1120.000000	9.729891
1121.000000	9.719959
1122.000000	9.711727
1123.000000	9.691522
1124.000000	9.670416
1125.000000	9.635562
1126.000000	9.614209
1127.000000	9.585255
1128.000000	9.540017
1129.000000	9.508177
1130.000000	9.456001
1131.000000	9.381105
1132.000000	9.291104
1133.000000	9.203453
1134.000000	9.123551
1135.000000	9.039354
1136.000000	8.932181
1137.000000	8.821125
1138.000000	8.697130
1139.000000	8.590952
1140.000000	8.480981
1141.000000	8.390411
1142.000000	8.290317
1143.000000	8.205914
1144.000000	8.111791
1145.000000	8.042893
1146.000000	7.991268
1147.000000	7.947411
1148.000000	7.930734
1149.000000	7.919369
1150.000000	7.923504
1151.000000	7.934680
1152.000000	7.942573
1153.000000	7.940717
1154.000000	7.929649
1155.000000	7.905896
1156.000000	7.865157
1157.000000	7.810974
1158.000000	7.738470
1159.000000	7.661872
1160.000000	7.588655
1161.000000	7.511579
1162.000000	7.429100
1163.000000	7.346748
1164.000000	7.252092
1165.000000	7.175689
1166.000000	7.091091
1167.000000	7.008441
1168.000000	6.934375
1169.000000	6.866697
1170.000000	6.797475
1171.000000	6.725119
1172.000000	6.665887
1173.000000	6.602101
1174.000000	6.552331
1175.000000	6.498073
1176.000000	6.445452
1177.000000	6.401241
1178.000000	6.340623
1179.000000	6.278713
1180.000000	6.215892
1181.000000	6.160687
1182.000000	6.108112
