PE UV       SUBTECH     SPECTRUM    ASCII       PEDS        4.00        
   -1
CICIMAUCR0001-5.Sample.ASC
24/04/23
10:47:46.00
24/04/23
10:47:46.00
Vinicio Soto Monge
C. kalinini
250,000000
1
Lambda 1050
1050L1511233
PerkinElmer UV WinLab 6.3.2.0749 / 2.02.05 Lambda 900 UV/VIS/NIR, Aug  7 2015 09:38:08

0
0
3350/servo 860,8/2
0
0
UV/VIS
1
1
1
DoubleDePol,CommonBeamDepol,RBeamAtt,SBeamAtt,60mm sphere, WB InGaAs Detector
0
0
0
0
Program
Program
3350/servo 860,8/2
3350/0,2 860,8/0,2
3350/0,2 860,8/0,2
0
15.00
 
 
 
0
 
860,8
319,2
860,8
Front
100
on
S:100 R:100
0
0
0
0
 
0
 
 
 
0
 
 
0
0
0
0
0
 
 
 
 
0
0


0
0
#HDR
-1
-1
#GR
nm
%R
1.0
0.0
2500,000000
-1,000000
2251
8
101,472100
5,465400
#DATA
250.000000	0.736568
251.000000	0.739775
252.000000	0.733664
253.000000	0.712537
254.000000	0.719398
255.000000	0.739072
256.000000	0.716021
257.000000	0.713714
258.000000	0.714032
259.000000	0.721171
260.000000	0.735479
261.000000	0.712889
262.000000	0.685472
263.000000	0.693509
264.000000	0.685263
265.000000	0.687635
266.000000	0.683950
267.000000	0.660449
268.000000	0.653233
269.000000	0.677892
270.000000	0.676442
271.000000	0.674447
272.000000	0.669221
273.000000	0.679058
274.000000	0.654277
275.000000	0.647554
276.000000	0.638614
277.000000	0.672617
278.000000	0.666902
279.000000	0.651016
280.000000	0.629592
281.000000	0.607630
282.000000	0.648579
283.000000	0.657241
284.000000	0.644429
285.000000	0.606573
286.000000	0.627768
287.000000	0.632642
288.000000	0.645156
289.000000	0.638919
290.000000	0.608630
291.000000	0.613320
292.000000	0.621379
293.000000	0.641397
294.000000	0.651824
295.000000	0.618187
296.000000	0.569987
297.000000	0.573131
298.000000	0.592750
299.000000	0.603167
300.000000	0.573420
301.000000	0.562080
302.000000	0.561366
303.000000	0.568142
304.000000	0.584424
305.000000	0.576491
306.000000	0.600316
307.000000	0.616709
308.000000	0.603354
309.000000	0.590964
310.000000	0.575237
311.000000	0.579822
312.000000	0.584829
313.000000	0.601260
314.000000	0.593788
315.000000	0.567112
316.000000	0.622144
317.000000	0.592897
318.000000	0.440891
319.000000	0.517478
320.000000	0.557541
321.000000	0.529080
322.000000	0.555116
323.000000	0.629351
324.000000	0.614967
325.000000	0.521278
326.000000	0.523608
327.000000	0.518250
328.000000	0.567871
329.000000	0.558820
330.000000	0.575649
331.000000	0.631538
332.000000	0.602053
333.000000	0.627163
334.000000	0.638433
335.000000	0.585204
336.000000	0.552467
337.000000	0.575599
338.000000	0.608846
339.000000	0.599581
340.000000	0.635371
341.000000	0.579213
342.000000	0.478009
343.000000	0.549568
344.000000	0.588099
345.000000	0.573514
346.000000	0.641119
347.000000	0.626221
348.000000	0.641779
349.000000	0.617701
350.000000	0.581698
351.000000	0.574592
352.000000	0.575915
353.000000	0.621602
354.000000	0.626485
355.000000	0.624455
356.000000	0.612716
357.000000	0.612381
358.000000	0.636039
359.000000	0.620511
360.000000	0.616437
361.000000	0.620513
362.000000	0.628009
363.000000	0.588806
364.000000	0.643235
365.000000	0.684804
366.000000	0.655932
367.000000	0.640773
368.000000	0.626244
369.000000	0.630003
370.000000	0.668329
371.000000	0.606552
372.000000	0.680879
373.000000	0.725946
374.000000	0.665705
375.000000	0.583124
376.000000	0.588599
377.000000	0.593753
378.000000	0.606910
379.000000	0.606804
380.000000	0.603943
381.000000	0.598296
382.000000	0.604276
383.000000	0.614471
384.000000	0.617501
385.000000	0.610467
386.000000	0.598826
387.000000	0.605342
388.000000	0.610537
389.000000	0.601375
390.000000	0.592188
391.000000	0.590448
392.000000	0.584174
393.000000	0.587792
394.000000	0.590126
395.000000	0.577063
396.000000	0.569827
397.000000	0.560471
398.000000	0.558517
399.000000	0.561099
400.000000	0.547407
401.000000	0.548083
402.000000	0.542353
403.000000	0.553377
404.000000	0.561602
405.000000	0.560751
406.000000	0.570206
407.000000	0.582544
408.000000	0.590320
409.000000	0.613769
410.000000	0.640271
411.000000	0.660665
412.000000	0.683213
413.000000	0.713672
414.000000	0.742183
415.000000	0.771820
416.000000	0.811202
417.000000	0.846723
418.000000	0.887313
419.000000	0.927330
420.000000	0.967153
421.000000	1.005873
422.000000	1.036997
423.000000	1.076918
424.000000	1.117041
425.000000	1.154334
426.000000	1.183429
427.000000	1.228741
428.000000	1.266726
429.000000	1.296668
430.000000	1.337955
431.000000	1.375242
432.000000	1.408912
433.000000	1.448874
434.000000	1.497099
435.000000	1.536937
436.000000	1.588943
437.000000	1.634116
438.000000	1.678301
439.000000	1.727455
440.000000	1.784648
441.000000	1.853803
442.000000	1.910819
443.000000	1.982294
444.000000	2.036721
445.000000	2.131320
446.000000	2.236572
447.000000	2.317255
448.000000	2.404144
449.000000	2.488483
450.000000	2.547338
451.000000	2.633455
452.000000	2.713938
453.000000	2.800803
454.000000	2.895670
455.000000	2.967914
456.000000	3.029469
457.000000	3.106170
458.000000	3.178908
459.000000	3.252711
460.000000	3.311736
461.000000	3.378005
462.000000	3.412637
463.000000	3.456401
464.000000	3.508153
465.000000	3.550551
466.000000	3.587132
467.000000	3.604799
468.000000	3.630619
469.000000	3.648334
470.000000	3.664597
471.000000	3.679929
472.000000	3.684212
473.000000	3.699963
474.000000	3.711575
475.000000	3.705454
476.000000	3.714327
477.000000	3.725488
478.000000	3.729429
479.000000	3.730595
480.000000	3.711199
481.000000	3.640329
482.000000	3.601782
483.000000	3.572157
484.000000	3.574685
485.000000	3.558194
486.000000	3.574232
487.000000	3.578098
488.000000	3.576813
489.000000	3.585244
490.000000	3.602390
491.000000	3.607507
492.000000	3.631331
493.000000	3.637732
494.000000	3.645520
495.000000	3.680385
496.000000	3.705944
497.000000	3.733096
498.000000	3.768287
499.000000	3.801990
500.000000	3.846158
501.000000	3.901434
502.000000	3.955844
503.000000	4.006292
504.000000	4.052270
505.000000	4.100202
506.000000	4.172190
507.000000	4.237836
508.000000	4.309833
509.000000	4.384221
510.000000	4.470675
511.000000	4.542403
512.000000	4.632351
513.000000	4.725932
514.000000	4.821782
515.000000	4.913355
516.000000	5.025166
517.000000	5.135234
518.000000	5.237389
519.000000	5.359542
520.000000	5.478812
521.000000	5.604826
522.000000	5.748789
523.000000	5.895426
524.000000	6.051441
525.000000	6.211490
526.000000	6.375174
527.000000	6.588423
528.000000	6.781930
529.000000	7.010787
530.000000	7.219823
531.000000	7.448083
532.000000	7.672597
533.000000	7.910439
534.000000	8.133716
535.000000	8.352323
536.000000	8.569808
537.000000	8.773664
538.000000	8.985595
539.000000	9.169223
540.000000	9.346827
541.000000	9.528289
542.000000	9.671101
543.000000	9.816153
544.000000	9.947657
545.000000	10.056648
546.000000	10.198425
547.000000	10.342712
548.000000	10.438197
549.000000	10.558608
550.000000	10.677200
551.000000	10.805659
552.000000	10.917084
553.000000	11.047790
554.000000	11.167284
555.000000	11.269522
556.000000	11.360024
557.000000	11.466153
558.000000	11.557685
559.000000	11.650232
560.000000	11.741590
561.000000	11.816220
562.000000	11.889183
563.000000	11.977958
564.000000	12.026252
565.000000	12.090423
566.000000	12.147145
567.000000	12.172991
568.000000	12.232925
569.000000	12.282550
570.000000	12.304318
571.000000	12.329338
572.000000	12.379195
573.000000	12.404817
574.000000	12.419448
575.000000	12.450210
576.000000	12.468407
577.000000	12.469400
578.000000	12.504146
579.000000	12.513749
580.000000	12.511603
581.000000	12.485309
582.000000	12.490816
583.000000	12.477704
584.000000	12.434023
585.000000	12.390568
586.000000	12.354864
587.000000	12.303323
588.000000	12.251730
589.000000	12.160158
590.000000	12.092453
591.000000	11.992961
592.000000	11.870223
593.000000	11.738981
594.000000	11.594059
595.000000	11.419264
596.000000	11.259956
597.000000	11.088693
598.000000	10.903436
599.000000	10.702634
600.000000	10.478672
601.000000	10.237208
602.000000	10.000746
603.000000	9.759994
604.000000	9.519987
605.000000	9.286258
606.000000	9.049293
607.000000	8.837427
608.000000	8.641709
609.000000	8.466916
610.000000	8.313172
611.000000	8.170391
612.000000	8.034077
613.000000	7.903179
614.000000	7.788932
615.000000	7.672635
616.000000	7.557466
617.000000	7.457123
618.000000	7.365697
619.000000	7.281347
620.000000	7.188968
621.000000	7.105244
622.000000	7.026878
623.000000	6.948557
624.000000	6.885485
625.000000	6.833950
626.000000	6.797162
627.000000	6.775818
628.000000	6.758241
629.000000	6.772154
630.000000	6.806789
631.000000	6.859161
632.000000	6.924464
633.000000	7.006541
634.000000	7.083901
635.000000	7.172770
636.000000	7.283427
637.000000	7.387271
638.000000	7.473021
639.000000	7.551441
640.000000	7.612074
641.000000	7.654837
642.000000	7.707654
643.000000	7.731112
644.000000	7.701669
645.000000	7.670013
646.000000	7.608550
647.000000	7.528413
648.000000	7.473655
649.000000	7.415025
650.000000	7.351021
651.000000	7.291192
652.000000	7.245295
653.000000	7.199143
654.000000	7.160935
655.000000	7.133509
656.000000	7.081113
657.000000	7.055091
658.000000	7.041823
659.000000	7.020739
660.000000	7.022796
661.000000	7.013540
662.000000	7.031021
663.000000	7.073521
664.000000	7.091521
665.000000	7.111918
666.000000	7.166931
667.000000	7.233534
668.000000	7.273787
669.000000	7.315201
670.000000	7.369168
671.000000	7.430718
672.000000	7.515232
673.000000	7.580377
674.000000	7.656191
675.000000	7.721148
676.000000	7.795863
677.000000	7.854833
678.000000	7.911585
679.000000	8.019870
680.000000	8.102477
681.000000	8.206022
682.000000	8.317979
683.000000	8.373375
684.000000	8.444998
685.000000	8.516869
686.000000	8.635640
687.000000	8.721407
688.000000	8.810162
689.000000	8.887622
690.000000	8.956167
691.000000	9.011713
692.000000	9.066867
693.000000	9.097814
694.000000	9.143193
695.000000	9.208220
696.000000	9.268304
697.000000	9.273555
698.000000	9.318069
699.000000	9.382627
700.000000	9.402225
701.000000	9.466152
702.000000	9.561707
703.000000	9.628556
704.000000	9.690932
705.000000	9.793897
706.000000	9.862736
707.000000	9.940501
708.000000	10.015060
709.000000	10.090201
710.000000	10.178784
711.000000	10.282299
712.000000	10.333313
713.000000	10.379976
714.000000	10.482609
715.000000	10.565745
716.000000	10.628013
717.000000	10.717646
718.000000	10.763499
719.000000	10.877815
720.000000	10.967560
721.000000	11.059346
722.000000	11.095002
723.000000	11.184345
724.000000	11.304293
725.000000	11.387417
726.000000	11.456167
727.000000	11.485972
728.000000	11.604347
729.000000	11.699558
730.000000	11.730497
731.000000	11.832673
732.000000	12.002790
733.000000	12.034103
734.000000	12.071277
735.000000	12.148246
736.000000	12.240092
737.000000	12.357299
738.000000	12.381007
739.000000	12.445423
740.000000	12.471894
741.000000	12.549023
742.000000	12.614821
743.000000	12.633155
744.000000	12.690854
745.000000	12.758610
746.000000	12.776567
747.000000	12.882797
748.000000	12.907984
749.000000	12.991275
750.000000	13.012464
751.000000	12.954312
752.000000	13.117928
753.000000	13.185861
754.000000	13.286739
755.000000	13.364251
756.000000	13.431502
757.000000	13.483065
758.000000	13.519125
759.000000	13.611947
760.000000	13.723162
761.000000	13.782572
762.000000	13.848929
763.000000	13.855924
764.000000	13.928278
765.000000	14.001357
766.000000	14.034058
767.000000	14.040929
768.000000	14.157330
769.000000	14.131413
770.000000	14.137477
771.000000	14.259661
772.000000	14.193750
773.000000	14.241371
774.000000	14.319338
775.000000	14.428078
776.000000	14.524601
777.000000	14.533252
778.000000	14.528003
779.000000	14.565610
780.000000	14.618636
781.000000	14.713291
782.000000	14.732136
783.000000	14.740787
784.000000	14.790781
785.000000	14.791379
786.000000	14.843410
787.000000	14.875097
788.000000	14.952360
789.000000	14.947834
790.000000	14.840949
791.000000	14.839279
792.000000	14.949610
793.000000	14.936578
794.000000	14.821949
795.000000	14.844704
796.000000	14.922222
797.000000	14.876626
798.000000	14.886199
799.000000	14.834124
800.000000	14.739376
801.000000	14.808682
802.000000	14.779484
803.000000	14.745461
804.000000	14.675416
805.000000	14.696368
806.000000	14.675505
807.000000	14.554272
808.000000	14.625594
809.000000	14.603347
810.000000	14.489444
811.000000	14.545683
812.000000	14.497196
813.000000	14.416926
814.000000	14.445928
815.000000	14.288217
816.000000	14.158616
817.000000	14.199478
818.000000	14.189952
819.000000	13.881669
820.000000	13.887524
821.000000	13.787128
822.000000	13.600374
823.000000	13.496738
824.000000	13.452187
825.000000	13.358588
826.000000	13.109383
827.000000	13.025567
828.000000	12.813421
829.000000	12.809521
830.000000	12.663298
831.000000	12.535855
832.000000	12.270864
833.000000	12.243290
834.000000	11.955346
835.000000	11.950309
836.000000	11.956003
837.000000	11.832040
838.000000	11.681456
839.000000	11.705367
840.000000	11.531825
841.000000	11.437797
842.000000	11.239384
843.000000	10.955221
844.000000	11.080906
845.000000	11.006169
846.000000	11.023909
847.000000	10.854617
848.000000	10.842127
849.000000	10.838660
850.000000	10.919780
851.000000	10.854221
852.000000	10.795594
853.000000	10.701402
854.000000	10.551587
855.000000	10.526871
856.000000	10.608248
857.000000	10.551760
858.000000	11.061737
859.000000	10.444274
860.000000	10.464529
861.000000	10.516393
862.000000	10.451477
863.000000	10.155145
864.000000	9.972860
865.000000	10.457125
866.000000	10.481935
867.000000	10.268120
868.000000	10.543796
869.000000	10.346958
870.000000	10.370765
871.000000	9.811194
872.000000	10.135800
873.000000	10.203986
874.000000	9.848907
875.000000	10.149300
876.000000	10.224194
877.000000	10.387889
878.000000	10.368605
879.000000	10.287091
880.000000	10.296275
881.000000	10.211032
882.000000	10.136752
883.000000	10.169144
884.000000	10.142529
885.000000	9.997940
886.000000	10.013773
887.000000	10.229931
888.000000	10.055048
889.000000	10.002781
890.000000	10.201662
891.000000	10.059882
892.000000	10.115038
893.000000	10.064524
894.000000	10.078553
895.000000	9.960263
896.000000	10.092148
897.000000	10.176014
898.000000	10.106693
899.000000	10.046354
900.000000	9.995438
901.000000	9.938314
902.000000	9.982743
903.000000	9.975997
904.000000	9.922375
905.000000	9.828811
906.000000	9.803872
907.000000	9.987234
908.000000	10.015662
909.000000	10.012096
910.000000	9.921277
911.000000	9.838898
912.000000	9.946872
913.000000	9.917477
914.000000	9.892531
915.000000	9.919585
916.000000	9.930030
917.000000	9.909623
918.000000	9.870173
919.000000	9.858253
920.000000	9.823116
921.000000	9.879361
922.000000	9.813406
923.000000	9.789644
924.000000	9.859901
925.000000	9.844819
926.000000	9.843838
927.000000	9.834450
928.000000	9.842804
929.000000	9.819299
930.000000	9.824656
931.000000	9.891994
932.000000	9.863213
933.000000	9.823860
934.000000	9.885560
935.000000	9.920462
936.000000	9.957878
937.000000	9.956875
938.000000	9.953032
939.000000	9.885076
940.000000	9.872304
941.000000	9.901310
942.000000	9.874359
943.000000	9.890681
944.000000	9.848517
945.000000	9.851088
946.000000	9.874994
947.000000	9.925219
948.000000	9.942136
949.000000	9.934147
950.000000	9.894874
951.000000	9.888117
952.000000	9.909170
953.000000	9.882551
954.000000	9.927282
955.000000	9.954756
956.000000	9.946266
957.000000	9.950050
958.000000	9.922521
959.000000	9.916143
960.000000	9.926020
961.000000	9.931720
962.000000	9.949266
963.000000	9.951728
964.000000	9.931681
965.000000	9.902859
966.000000	9.918134
967.000000	9.922642
968.000000	9.905408
969.000000	9.910751
970.000000	9.945640
971.000000	9.928110
972.000000	9.924215
973.000000	9.881824
974.000000	9.917392
975.000000	9.913566
976.000000	9.891782
977.000000	9.874247
978.000000	9.862224
979.000000	9.889435
980.000000	9.877867
981.000000	9.866379
982.000000	9.879626
983.000000	9.914438
984.000000	9.885340
985.000000	9.885151
986.000000	9.912011
987.000000	9.907443
988.000000	9.904874
989.000000	9.882046
990.000000	9.884831
991.000000	9.871675
992.000000	9.876978
993.000000	9.878910
994.000000	9.869465
995.000000	9.889437
996.000000	9.877168
997.000000	9.898208
998.000000	9.843995
999.000000	9.837611
1000.000000	9.838702
1001.000000	9.834738
1002.000000	9.810490
1003.000000	9.815884
1004.000000	9.838000
1005.000000	9.834582
1006.000000	9.817357
1007.000000	9.797052
1008.000000	9.789642
1009.000000	9.812543
1010.000000	9.792124
1011.000000	9.785745
1012.000000	9.790704
1013.000000	9.772266
1014.000000	9.772999
1015.000000	9.763795
1016.000000	9.761534
1017.000000	9.736723
1018.000000	9.734323
1019.000000	9.732557
1020.000000	9.735533
1021.000000	9.738410
1022.000000	9.731878
1023.000000	9.727913
1024.000000	9.736920
1025.000000	9.717736
1026.000000	9.717220
1027.000000	9.710032
1028.000000	9.694397
1029.000000	9.674542
1030.000000	9.647830
1031.000000	9.670425
1032.000000	9.677841
1033.000000	9.669352
1034.000000	9.669143
1035.000000	9.666097
1036.000000	9.656985
1037.000000	9.634891
1038.000000	9.639914
1039.000000	9.667072
1040.000000	9.648169
1041.000000	9.666718
1042.000000	9.643474
1043.000000	9.681079
1044.000000	9.642920
1045.000000	9.654133
1046.000000	9.689654
1047.000000	9.652981
1048.000000	9.655486
1049.000000	9.634185
1050.000000	9.620103
1051.000000	9.624770
1052.000000	9.613698
1053.000000	9.632645
1054.000000	9.599364
1055.000000	9.621384
1056.000000	9.629715
1057.000000	9.572845
1058.000000	9.566179
1059.000000	9.578320
1060.000000	9.562596
1061.000000	9.559951
1062.000000	9.563783
1063.000000	9.556417
1064.000000	9.588106
1065.000000	9.553435
1066.000000	9.560435
1067.000000	9.549086
1068.000000	9.538948
1069.000000	9.554590
1070.000000	9.538182
1071.000000	9.539239
1072.000000	9.528483
1073.000000	9.538849
1074.000000	9.533409
1075.000000	9.538034
1076.000000	9.527281
1077.000000	9.550278
1078.000000	9.521683
1079.000000	9.538460
1080.000000	9.542613
1081.000000	9.529322
1082.000000	9.554714
1083.000000	9.560780
1084.000000	9.567374
1085.000000	9.554284
1086.000000	9.562985
1087.000000	9.588906
1088.000000	9.559427
1089.000000	9.585019
1090.000000	9.588593
1091.000000	9.588458
1092.000000	9.595072
1093.000000	9.577709
1094.000000	9.574767
1095.000000	9.591653
1096.000000	9.572465
1097.000000	9.577328
1098.000000	9.573954
1099.000000	9.570128
1100.000000	9.575904
1101.000000	9.576594
1102.000000	9.557388
1103.000000	9.557734
1104.000000	9.560095
1105.000000	9.559330
1106.000000	9.548054
1107.000000	9.542116
1108.000000	9.546318
1109.000000	9.542080
1110.000000	9.529219
1111.000000	9.517781
1112.000000	9.528295
1113.000000	9.535952
1114.000000	9.525477
1115.000000	9.531863
1116.000000	9.507955
1117.000000	9.525626
1118.000000	9.529511
1119.000000	9.521445
1120.000000	9.516006
1121.000000	9.503631
1122.000000	9.497213
1123.000000	9.482665
1124.000000	9.485914
1125.000000	9.479722
1126.000000	9.472480
1127.000000	9.462069
1128.000000	9.438842
1129.000000	9.445611
1130.000000	9.436450
1131.000000	9.416039
1132.000000	9.378253
1133.000000	9.344849
1134.000000	9.335344
1135.000000	9.333561
1136.000000	9.324336
1137.000000	9.294807
1138.000000	9.274962
1139.000000	9.254301
1140.000000	9.243474
1141.000000	9.238692
1142.000000	9.229483
1143.000000	9.206476
1144.000000	9.196760
1145.000000	9.182247
1146.000000	9.170940
1147.000000	9.158331
1148.000000	9.153308
1149.000000	9.146617
1150.000000	9.122800
1151.000000	9.114578
1152.000000	9.114224
1153.000000	9.108550
1154.000000	9.093370
1155.000000	9.086829
1156.000000	9.063395
1157.000000	9.041918
1158.000000	9.016241
1159.000000	8.986855
1160.000000	8.978431
1161.000000	8.946909
1162.000000	8.902985
1163.000000	8.883754
1164.000000	8.863278
1165.000000	8.831546
1166.000000	8.802384
1167.000000	8.771072
1168.000000	8.734802
1169.000000	8.701739
1170.000000	8.684907
1171.000000	8.663338
1172.000000	8.643681
1173.000000	8.617340
1174.000000	8.591587
1175.000000	8.574093
1176.000000	8.548245
1177.000000	8.534755
1178.000000	8.525308
1179.000000	8.506814
1180.000000	8.482663
1181.000000	8.465048
1182.000000	8.454913
1183.000000	8.436333
1184.000000	8.416218
1185.000000	8.396521
1186.000000	8.392342
1187.000000	8.397545
1188.000000	8.388377
1189.000000	8.392404
1190.000000	8.409579
1191.000000	8.416482
