PE UV       SUBTECH     SPECTRUM    ASCII       PEDS        4.00        
   -1
CICIMAUCR0019-7.Sample.ASC
24/04/25
16:57:29.00
24/04/25
16:57:29.00
Vinicio Soto Monge
C. cupreomarginata
250,000000
1
Lambda 1050
1050L1511233
PerkinElmer UV WinLab 6.3.2.0749 / 2.02.05 Lambda 900 UV/VIS/NIR, Aug  7 2015 09:38:08

0
0
3350/servo 860,8/2
0
0
UV/VIS
1
1
1
DoubleDePol,CommonBeamDepol,RBeamAtt,SBeamAtt,60mm sphere, WB InGaAs Detector
0
0
0
0
Program
Program
3350/servo 860,8/2
3350/0,2 860,8/0,2
3350/0,2 860,8/0,2
0
15.00
 
 
 
0
 
860,8
319,2
860,8
Front
100
on
S:100 R:100
0
0
0
0
 
0
 
 
 
0
 
 
0
0
0
0
0
 
 
 
 
0
0


0
0
#HDR
-1
-1
#GR
nm
%R
1.0
0.0
2500,000000
-1,000000
2251
8
70,963300
5,343700
#DATA
250.000000	0.529148
251.000000	0.529386
252.000000	0.555558
253.000000	0.528201
254.000000	0.524183
255.000000	0.509812
256.000000	0.509637
257.000000	0.529830
258.000000	0.503640
259.000000	0.503515
260.000000	0.494152
261.000000	0.468950
262.000000	0.489095
263.000000	0.503693
264.000000	0.494332
265.000000	0.471746
266.000000	0.434825
267.000000	0.489992
268.000000	0.443999
269.000000	0.471273
270.000000	0.490986
271.000000	0.474197
272.000000	0.462880
273.000000	0.453417
274.000000	0.487416
275.000000	0.443065
276.000000	0.445215
277.000000	0.469690
278.000000	0.457154
279.000000	0.461381
280.000000	0.460529
281.000000	0.455067
282.000000	0.461831
283.000000	0.449154
284.000000	0.451484
285.000000	0.440102
286.000000	0.457157
287.000000	0.462458
288.000000	0.469518
289.000000	0.462044
290.000000	0.484553
291.000000	0.458729
292.000000	0.439974
293.000000	0.452656
294.000000	0.449511
295.000000	0.438197
296.000000	0.491561
297.000000	0.456212
298.000000	0.441079
299.000000	0.467945
300.000000	0.455472
301.000000	0.443079
302.000000	0.449004
303.000000	0.449633
304.000000	0.440414
305.000000	0.440694
306.000000	0.447869
307.000000	0.452439
308.000000	0.441699
309.000000	0.426676
310.000000	0.435310
311.000000	0.464437
312.000000	0.425951
313.000000	0.415576
314.000000	0.412866
315.000000	0.432848
316.000000	0.440948
317.000000	0.606983
318.000000	0.390240
319.000000	0.437619
320.000000	0.468880
321.000000	0.468436
322.000000	0.528945
323.000000	0.477649
324.000000	0.322876
325.000000	0.448039
326.000000	0.469787
327.000000	0.364408
328.000000	0.418153
329.000000	0.403477
330.000000	0.535209
331.000000	0.478406
332.000000	0.440201
333.000000	0.391668
334.000000	0.562133
335.000000	0.437555
336.000000	0.497432
337.000000	0.412428
338.000000	0.384858
339.000000	0.437415
340.000000	0.416498
341.000000	0.433071
342.000000	0.426832
343.000000	0.488694
344.000000	0.368347
345.000000	0.457321
346.000000	0.456985
347.000000	0.451371
348.000000	0.410743
349.000000	0.398508
350.000000	0.485382
351.000000	0.397270
352.000000	0.400465
353.000000	0.397852
354.000000	0.469812
355.000000	0.433613
356.000000	0.442672
357.000000	0.433366
358.000000	0.480928
359.000000	0.502800
360.000000	0.454544
361.000000	0.473390
362.000000	0.501007
363.000000	0.471626
364.000000	0.469994
365.000000	0.492679
366.000000	0.448513
367.000000	0.525756
368.000000	0.563182
369.000000	0.620339
370.000000	0.535354
371.000000	0.580059
372.000000	0.673418
373.000000	0.747727
374.000000	0.755146
375.000000	0.654494
376.000000	0.668294
377.000000	0.732872
378.000000	0.756924
379.000000	0.776718
380.000000	0.800887
381.000000	0.831426
382.000000	0.853800
383.000000	0.875968
384.000000	0.899483
385.000000	0.921427
386.000000	0.946831
387.000000	0.965849
388.000000	0.983189
389.000000	0.997693
390.000000	1.008026
391.000000	1.028714
392.000000	1.033795
393.000000	1.047865
394.000000	1.053883
395.000000	1.061256
396.000000	1.070938
397.000000	1.066677
398.000000	1.061085
399.000000	1.055721
400.000000	1.051498
401.000000	1.026140
402.000000	1.013747
403.000000	1.002620
404.000000	0.991590
405.000000	0.986087
406.000000	0.965098
407.000000	0.941031
408.000000	0.935016
409.000000	0.912865
410.000000	0.884610
411.000000	0.855650
412.000000	0.834058
413.000000	0.815766
414.000000	0.792472
415.000000	0.774494
416.000000	0.751701
417.000000	0.732255
418.000000	0.713041
419.000000	0.691154
420.000000	0.664802
421.000000	0.637626
422.000000	0.623259
423.000000	0.602261
424.000000	0.580534
425.000000	0.568025
426.000000	0.555772
427.000000	0.540878
428.000000	0.524541
429.000000	0.509940
430.000000	0.501249
431.000000	0.488730
432.000000	0.476700
433.000000	0.479533
434.000000	0.485435
435.000000	0.485675
436.000000	0.483478
437.000000	0.488066
438.000000	0.494807
439.000000	0.508356
440.000000	0.534774
441.000000	0.562461
442.000000	0.590981
443.000000	0.626615
444.000000	0.667446
445.000000	0.723920
446.000000	0.782417
447.000000	0.843093
448.000000	0.913413
449.000000	0.985696
450.000000	1.061267
451.000000	1.139688
452.000000	1.211261
453.000000	1.281149
454.000000	1.364945
455.000000	1.450026
456.000000	1.523463
457.000000	1.586306
458.000000	1.642352
459.000000	1.700127
460.000000	1.761285
461.000000	1.805870
462.000000	1.832693
463.000000	1.861362
464.000000	1.885380
465.000000	1.898181
466.000000	1.900562
467.000000	1.895304
468.000000	1.897780
469.000000	1.897280
470.000000	1.885819
471.000000	1.865848
472.000000	1.847068
473.000000	1.833218
474.000000	1.820513
475.000000	1.805559
476.000000	1.800771
477.000000	1.798918
478.000000	1.796062
479.000000	1.809259
480.000000	1.823350
481.000000	1.848625
482.000000	1.872145
483.000000	1.897762
484.000000	1.927425
485.000000	1.956519
486.000000	1.999086
487.000000	2.049514
488.000000	2.092758
489.000000	2.142824
490.000000	2.201555
491.000000	2.259469
492.000000	2.316953
493.000000	2.370269
494.000000	2.426253
495.000000	2.488613
496.000000	2.561344
497.000000	2.612502
498.000000	2.682366
499.000000	2.764800
500.000000	2.843855
501.000000	2.930539
502.000000	3.025299
503.000000	3.120744
504.000000	3.220351
505.000000	3.323901
506.000000	3.443738
507.000000	3.550893
508.000000	3.669710
509.000000	3.796832
510.000000	3.934398
511.000000	4.065781
512.000000	4.209620
513.000000	4.353256
514.000000	4.489527
515.000000	4.631591
516.000000	4.771541
517.000000	4.915510
518.000000	5.044904
519.000000	5.175622
520.000000	5.300382
521.000000	5.422518
522.000000	5.525570
523.000000	5.632545
524.000000	5.717990
525.000000	5.789011
526.000000	5.841028
527.000000	5.878600
528.000000	5.901543
529.000000	5.901846
530.000000	5.885343
531.000000	5.853927
532.000000	5.792923
533.000000	5.719693
534.000000	5.623135
535.000000	5.499005
536.000000	5.385694
537.000000	5.253861
538.000000	5.128375
539.000000	4.981145
540.000000	4.861619
541.000000	4.752440
542.000000	4.639604
543.000000	4.543966
544.000000	4.458630
545.000000	4.392042
546.000000	4.341088
547.000000	4.298175
548.000000	4.235140
549.000000	4.172099
550.000000	4.120077
551.000000	4.025210
552.000000	3.947525
553.000000	3.862481
554.000000	3.792409
555.000000	3.704609
556.000000	3.622078
557.000000	3.559497
558.000000	3.516788
559.000000	3.479612
560.000000	3.499815
561.000000	3.493247
562.000000	3.486345
563.000000	3.492441
564.000000	3.525554
565.000000	3.548868
566.000000	3.552987
567.000000	3.569211
568.000000	3.556420
569.000000	3.534927
570.000000	3.500576
571.000000	3.448819
572.000000	3.406930
573.000000	3.320454
574.000000	3.220922
575.000000	3.125875
576.000000	3.025611
577.000000	2.912561
578.000000	2.789528
579.000000	2.688773
580.000000	2.560581
581.000000	2.434065
582.000000	2.364870
583.000000	2.286556
584.000000	2.203545
585.000000	2.138828
586.000000	2.110935
587.000000	2.022311
588.000000	1.970213
589.000000	1.911828
590.000000	1.864442
591.000000	1.802840
592.000000	1.726410
593.000000	1.650170
594.000000	1.528521
595.000000	1.459756
596.000000	1.318098
597.000000	1.234801
598.000000	1.118973
599.000000	1.006036
600.000000	0.916160
601.000000	0.804981
602.000000	0.725054
603.000000	0.635977
604.000000	0.580387
605.000000	0.574319
606.000000	0.497038
607.000000	0.516005
608.000000	0.461144
609.000000	0.464416
610.000000	0.407119
611.000000	0.385503
612.000000	0.355783
613.000000	0.362998
614.000000	0.365854
615.000000	0.417346
616.000000	0.471397
617.000000	0.557048
618.000000	0.660354
619.000000	0.772397
620.000000	0.925767
621.000000	1.123046
622.000000	1.319820
623.000000	1.531456
624.000000	1.787386
625.000000	2.046524
626.000000	2.346465
627.000000	2.630300
628.000000	2.898021
629.000000	3.206076
630.000000	3.487174
631.000000	3.745825
632.000000	3.980428
633.000000	4.186991
634.000000	4.372723
635.000000	4.522230
636.000000	4.629116
637.000000	4.735280
638.000000	4.790212
639.000000	4.825728
640.000000	4.852408
641.000000	4.833138
642.000000	4.802557
643.000000	4.780848
644.000000	4.736289
645.000000	4.669517
646.000000	4.617426
647.000000	4.545668
648.000000	4.451215
649.000000	4.365745
650.000000	4.262121
651.000000	4.166086
652.000000	4.076131
653.000000	3.962953
654.000000	3.855187
655.000000	3.769185
656.000000	3.650439
657.000000	3.571407
658.000000	3.515541
659.000000	3.444972
660.000000	3.372036
661.000000	3.338370
662.000000	3.319417
663.000000	3.289345
664.000000	3.270576
665.000000	3.273107
666.000000	3.297376
667.000000	3.302334
668.000000	3.325503
669.000000	3.360048
670.000000	3.402824
671.000000	3.435028
672.000000	3.488434
673.000000	3.524404
674.000000	3.564502
675.000000	3.597879
676.000000	3.648289
677.000000	3.684485
678.000000	3.742038
679.000000	3.785484
680.000000	3.843123
681.000000	3.911942
682.000000	3.975846
683.000000	4.031134
684.000000	4.072085
685.000000	4.131614
686.000000	4.207851
687.000000	4.270453
688.000000	4.319377
689.000000	4.368310
690.000000	4.413277
691.000000	4.441190
692.000000	4.473865
693.000000	4.514581
694.000000	4.548983
695.000000	4.568448
696.000000	4.571238
697.000000	4.581007
698.000000	4.569792
699.000000	4.585851
700.000000	4.583955
701.000000	4.583139
702.000000	4.560629
703.000000	4.543779
704.000000	4.507683
705.000000	4.477104
706.000000	4.435015
707.000000	4.413165
708.000000	4.396004
709.000000	4.386117
710.000000	4.369348
711.000000	4.344421
712.000000	4.337192
713.000000	4.339722
714.000000	4.332413
715.000000	4.308393
716.000000	4.299892
717.000000	4.279896
718.000000	4.255928
719.000000	4.255787
720.000000	4.277497
721.000000	4.285311
722.000000	4.249220
723.000000	4.241073
724.000000	4.242903
725.000000	4.246295
726.000000	4.265994
727.000000	4.271522
728.000000	4.294396
729.000000	4.289044
730.000000	4.300115
731.000000	4.341613
732.000000	4.361319
733.000000	4.374514
734.000000	4.382934
735.000000	4.409960
736.000000	4.444295
737.000000	4.485428
738.000000	4.518309
739.000000	4.535209
740.000000	4.548133
741.000000	4.567752
742.000000	4.572846
743.000000	4.608663
744.000000	4.634969
745.000000	4.635394
746.000000	4.657491
747.000000	4.677367
748.000000	4.724045
749.000000	4.782911
750.000000	4.799936
751.000000	4.823686
752.000000	4.867515
753.000000	4.876558
754.000000	4.905338
755.000000	4.984248
756.000000	5.003706
757.000000	4.996309
758.000000	5.028989
759.000000	5.069742
760.000000	5.118234
761.000000	5.124125
762.000000	5.152958
763.000000	5.230287
764.000000	5.276269
765.000000	5.310018
766.000000	5.330339
767.000000	5.377319
768.000000	5.422969
769.000000	5.459230
770.000000	5.497141
771.000000	5.509330
772.000000	5.532223
773.000000	5.601365
774.000000	5.672382
775.000000	5.638133
776.000000	5.625780
777.000000	5.626943
778.000000	5.649962
779.000000	5.676421
780.000000	5.669776
781.000000	5.704325
782.000000	5.768741
783.000000	5.761059
784.000000	5.724199
785.000000	5.774056
786.000000	5.779535
787.000000	5.764758
788.000000	5.764460
789.000000	5.800798
790.000000	5.774700
791.000000	5.760962
792.000000	5.781554
793.000000	5.809236
794.000000	5.767134
795.000000	5.774891
796.000000	5.800836
797.000000	5.821781
798.000000	5.815582
799.000000	5.837494
800.000000	5.857818
801.000000	5.881317
802.000000	5.932321
803.000000	5.893339
804.000000	5.921928
805.000000	5.935118
806.000000	5.938135
807.000000	5.933696
808.000000	5.926368
809.000000	5.995578
810.000000	5.999355
811.000000	5.978330
812.000000	6.023054
813.000000	6.014048
814.000000	6.113224
815.000000	6.153383
816.000000	6.175799
817.000000	6.195426
818.000000	6.198403
819.000000	6.268772
820.000000	6.299939
821.000000	6.263552
822.000000	6.230090
823.000000	6.322555
824.000000	6.296967
825.000000	6.380484
826.000000	6.371956
827.000000	6.380307
828.000000	6.418803
829.000000	6.401363
830.000000	6.426850
831.000000	6.414794
832.000000	6.416865
833.000000	6.450401
834.000000	6.505450
835.000000	6.523453
836.000000	6.505409
837.000000	6.491645
838.000000	6.546892
839.000000	6.542491
840.000000	6.547397
841.000000	6.571139
842.000000	6.524188
843.000000	6.444718
844.000000	6.535868
845.000000	6.506777
846.000000	6.710443
847.000000	6.541036
848.000000	6.657648
849.000000	6.584454
850.000000	6.491989
851.000000	6.671509
852.000000	6.789948
853.000000	6.816767
854.000000	6.703287
855.000000	6.756967
856.000000	6.670469
857.000000	6.321032
858.000000	6.040122
859.000000	6.383523
860.000000	6.396291
861.000000	6.406487
862.000000	6.412566
863.000000	6.411772
864.000000	6.429888
865.000000	6.485737
866.000000	6.593570
867.000000	6.707329
868.000000	6.684489
869.000000	6.649200
870.000000	6.693660
871.000000	6.653128
872.000000	6.532160
873.000000	6.455764
874.000000	6.419324
875.000000	6.346588
876.000000	6.309149
877.000000	6.263305
878.000000	6.218832
879.000000	6.172415
880.000000	6.156805
881.000000	6.104487
882.000000	6.087854
883.000000	6.090055
884.000000	6.045946
885.000000	6.022698
886.000000	5.974257
887.000000	5.964623
888.000000	6.010581
889.000000	6.006781
890.000000	5.956220
891.000000	5.981321
892.000000	6.014609
893.000000	6.015784
894.000000	5.982149
895.000000	5.980397
896.000000	5.992677
897.000000	6.012557
898.000000	6.054684
899.000000	6.071387
900.000000	6.104861
901.000000	6.125342
902.000000	6.150354
903.000000	6.131519
904.000000	6.165675
905.000000	6.190494
906.000000	6.220761
907.000000	6.220092
908.000000	6.255539
909.000000	6.292215
910.000000	6.314650
911.000000	6.343030
912.000000	6.368636
913.000000	6.410716
914.000000	6.404945
915.000000	6.437488
916.000000	6.461144
917.000000	6.543600
918.000000	6.567355
919.000000	6.575157
920.000000	6.597940
921.000000	6.656509
922.000000	6.692191
923.000000	6.722816
924.000000	6.749524
925.000000	6.768146
926.000000	6.804851
927.000000	6.865790
928.000000	6.896661
929.000000	6.934059
930.000000	6.967984
931.000000	7.002704
932.000000	7.052754
933.000000	7.088407
934.000000	7.142909
935.000000	7.189165
936.000000	7.236000
937.000000	7.264751
938.000000	7.307341
939.000000	7.349694
940.000000	7.411689
941.000000	7.465746
942.000000	7.509166
943.000000	7.545440
944.000000	7.604889
945.000000	7.648507
946.000000	7.688548
947.000000	7.750927
948.000000	7.799912
949.000000	7.843993
950.000000	7.907411
951.000000	7.955057
952.000000	8.007570
953.000000	8.045683
954.000000	8.099982
955.000000	8.168877
956.000000	8.223966
957.000000	8.266356
958.000000	8.329025
959.000000	8.371817
960.000000	8.438388
961.000000	8.494907
962.000000	8.537325
963.000000	8.593058
964.000000	8.641695
965.000000	8.689679
966.000000	8.745880
967.000000	8.800993
968.000000	8.836404
969.000000	8.876360
970.000000	8.939288
971.000000	8.997490
972.000000	9.034892
973.000000	9.085805
974.000000	9.128967
975.000000	9.180639
976.000000	9.224868
977.000000	9.265203
978.000000	9.315450
979.000000	9.354235
980.000000	9.394869
981.000000	9.427513
982.000000	9.474442
983.000000	9.502712
984.000000	9.540158
985.000000	9.580286
986.000000	9.616204
987.000000	9.639033
988.000000	9.674063
989.000000	9.713871
990.000000	9.734290
991.000000	9.767590
992.000000	9.797657
993.000000	9.831764
994.000000	9.854339
995.000000	9.868547
996.000000	9.890103
997.000000	9.924230
998.000000	9.953090
999.000000	9.967952
1000.000000	9.982588
1001.000000	10.005004
1002.000000	10.030646
1003.000000	10.049624
1004.000000	10.068064
1005.000000	10.093052
1006.000000	10.119013
1007.000000	10.138006
1008.000000	10.160308
1009.000000	10.185547
1010.000000	10.207702
1011.000000	10.235021
1012.000000	10.258124
1013.000000	10.267911
1014.000000	10.286989
1015.000000	10.312537
1016.000000	10.334877
1017.000000	10.359510
1018.000000	10.388653
1019.000000	10.406509
1020.000000	10.425420
1021.000000	10.449463
1022.000000	10.466437
1023.000000	10.492029
1024.000000	10.512455
1025.000000	10.540763
1026.000000	10.582882
1027.000000	10.610927
1028.000000	10.637162
1029.000000	10.660746
1030.000000	10.688976
1031.000000	10.727459
1032.000000	10.763026
1033.000000	10.788900
1034.000000	10.818348
1035.000000	10.854838
1036.000000	10.886888
1037.000000	10.922748
1038.000000	10.955282
1039.000000	10.989852
1040.000000	11.017171
1041.000000	11.046293
1042.000000	11.081745
1043.000000	11.108991
1044.000000	11.140556
1045.000000	11.173212
1046.000000	11.201877
1047.000000	11.227101
1048.000000	11.254646
1049.000000	11.293016
1050.000000	11.318000
1051.000000	11.338384
1052.000000	11.375403
1053.000000	11.403396
1054.000000	11.424724
1055.000000	11.450785
1056.000000	11.482983
1057.000000	11.505673
1058.000000	11.530783
1059.000000	11.555626
1060.000000	11.578656
1061.000000	11.595696
1062.000000	11.618579
1063.000000	11.641540
1064.000000	11.656963
1065.000000	11.667742
1066.000000	11.690088
1067.000000	11.711813
1068.000000	11.722191
1069.000000	11.738941
1070.000000	11.745608
1071.000000	11.757871
1072.000000	11.768152
1073.000000	11.782103
1074.000000	11.800808
1075.000000	11.804813
1076.000000	11.809290
1077.000000	11.826649
1078.000000	11.828382
1079.000000	11.828043
1080.000000	11.838023
1081.000000	11.846333
1082.000000	11.858282
1083.000000	11.859385
1084.000000	11.867673
1085.000000	11.883222
1086.000000	11.893038
1087.000000	11.894143
1088.000000	11.893051
1089.000000	11.902530
1090.000000	11.907465
1091.000000	11.916007
1092.000000	11.924131
1093.000000	11.926661
1094.000000	11.933814
1095.000000	11.943425
1096.000000	11.950027
1097.000000	11.951130
1098.000000	11.953071
1099.000000	11.969261
1100.000000	11.978611
1101.000000	11.981676
1102.000000	11.987377
1103.000000	12.001300
1104.000000	12.008564
1105.000000	12.018487
1106.000000	12.025248
1107.000000	12.032848
1108.000000	12.053873
1109.000000	12.067352
1110.000000	12.073347
1111.000000	12.081602
1112.000000	12.090369
1113.000000	12.104356
1114.000000	12.118713
1115.000000	12.133560
1116.000000	12.151249
1117.000000	12.151930
1118.000000	12.175450
1119.000000	12.187407
1120.000000	12.195703
1121.000000	12.216070
1122.000000	12.223880
1123.000000	12.231009
1124.000000	12.253128
1125.000000	12.254990
1126.000000	12.258925
1127.000000	12.263764
1128.000000	12.259741
1129.000000	12.270476
1130.000000	12.274750
1131.000000	12.270326
1132.000000	12.281720
1133.000000	12.269989
1134.000000	12.272445
1135.000000	12.277705
1136.000000	12.267562
1137.000000	12.274352
1138.000000	12.276715
1139.000000	12.285813
1140.000000	12.282423
1141.000000	12.287456
1142.000000	12.293633
1143.000000	12.315471
1144.000000	12.318470
1145.000000	12.333087
1146.000000	12.341640
1147.000000	12.347456
1148.000000	12.351445
1149.000000	12.339242
1150.000000	12.327891
1151.000000	12.329420
1152.000000	12.319766
1153.000000	12.320607
1154.000000	12.307756
1155.000000	12.288953
1156.000000	12.290477
1157.000000	12.283974
1158.000000	12.263039
1159.000000	12.266934
1160.000000	12.246443
1161.000000	12.241682
1162.000000	12.230583
1163.000000	12.222620
1164.000000	12.213497
1165.000000	12.188468
1166.000000	12.186218
1167.000000	12.167409
1168.000000	12.150379
1169.000000	12.141907
1170.000000	12.130974
1171.000000	12.122043
1172.000000	12.116417
1173.000000	12.099357
1174.000000	12.098970
1175.000000	12.072390
1176.000000	12.088020
1177.000000	12.077085
1178.000000	12.067630
1179.000000	12.067629
1180.000000	12.057548
1181.000000	12.057359
1182.000000	12.059551
1183.000000	12.047546
1184.000000	12.051391
1185.000000	12.055166
1186.000000	12.049674
1187.000000	12.047035
1188.000000	12.050867
1189.000000	12.039766
1190.000000	12.032459
1191.000000	12.023475
1192.000000	12.028490
1193.000000	12.026341
1194.000000	12.024257
