PE UV       SUBTECH     SPECTRUM    ASCII       PEDS        4.00        
   -1
CICIMAUCR0012-3.Sample.ASC
24/04/12
09:39:08.00
24/04/12
09:39:08.00
Vinicio Soto Monge
C. cupreomarginata
250,000000
1
Lambda 1050
1050L1511233
PerkinElmer UV WinLab 6.3.2.0749 / 2.02.05 Lambda 900 UV/VIS/NIR, Aug  7 2015 09:38:08

0
0
3350/servo 860,8/2
0
0
UV/VIS
1
1
1
DoubleDePol,CommonBeamDepol,RBeamAtt,SBeamAtt,60mm sphere, WB InGaAs Detector
0
0
0
0
Program
Program
3350/servo 860,8/2
3350/0,2 860,8/0,2
3350/0,2 860,8/0,2
0
15.00
 
 
 
0
 
860,8
319,2
860,8
Front
100
on
S:100 R:100
0
0
0
0
 
0
 
 
 
0
 
 
0
0
0
0
0
 
 
 
 
0
0


0
0
#HDR
-1
-1
#GR
nm
%R
1.0
0.0
2500,000000
-1,000000
2251
8
59,329800
5,000400
#DATA
250.000000	1.163150
251.000000	1.185616
252.000000	1.165300
253.000000	1.156820
254.000000	1.180834
255.000000	1.140042
256.000000	1.145999
257.000000	1.167210
258.000000	1.168030
259.000000	1.151970
260.000000	1.144833
261.000000	1.157189
262.000000	1.131050
263.000000	1.147170
264.000000	1.109774
265.000000	1.100781
266.000000	1.105441
267.000000	1.092743
268.000000	1.102627
269.000000	1.123075
270.000000	1.105767
271.000000	1.120787
272.000000	1.084996
273.000000	1.085087
274.000000	1.072247
275.000000	1.080016
276.000000	1.054473
277.000000	1.083107
278.000000	1.063924
279.000000	1.064487
280.000000	1.052490
281.000000	1.062844
282.000000	1.049763
283.000000	1.053451
284.000000	1.064418
285.000000	1.065029
286.000000	1.024982
287.000000	1.066041
288.000000	1.069466
289.000000	1.041626
290.000000	1.041839
291.000000	1.062613
292.000000	1.059932
293.000000	1.036630
294.000000	1.039903
295.000000	1.031338
296.000000	0.995610
297.000000	0.997170
298.000000	1.011694
299.000000	1.001587
300.000000	1.026765
301.000000	1.024267
302.000000	1.006840
303.000000	0.975251
304.000000	1.012950
305.000000	1.014724
306.000000	0.973214
307.000000	0.998581
308.000000	1.038457
309.000000	1.012263
310.000000	0.995923
311.000000	1.016839
312.000000	0.991962
313.000000	0.997939
314.000000	1.006996
315.000000	1.002925
316.000000	1.079471
317.000000	1.298608
318.000000	1.103984
319.000000	1.098592
320.000000	1.223470
321.000000	1.233857
322.000000	1.154077
323.000000	1.168833
324.000000	1.079734
325.000000	1.134933
326.000000	1.134538
327.000000	1.059298
328.000000	1.030583
329.000000	1.061124
330.000000	1.118661
331.000000	1.045012
332.000000	1.025139
333.000000	1.083458
334.000000	1.018600
335.000000	0.971887
336.000000	1.019254
337.000000	0.992030
338.000000	0.929656
339.000000	1.018959
340.000000	1.010723
341.000000	0.991619
342.000000	0.986720
343.000000	0.990263
344.000000	0.985487
345.000000	0.958151
346.000000	0.950411
347.000000	0.980463
348.000000	1.007891
349.000000	0.940062
350.000000	0.969907
351.000000	0.953192
352.000000	0.973688
353.000000	0.968641
354.000000	1.009074
355.000000	0.985767
356.000000	0.999958
357.000000	0.983457
358.000000	0.960855
359.000000	0.942501
360.000000	0.931524
361.000000	0.952025
362.000000	0.963666
363.000000	0.944884
364.000000	0.940938
365.000000	0.951154
366.000000	0.992224
367.000000	1.012108
368.000000	0.924365
369.000000	0.858388
370.000000	0.910129
371.000000	0.919700
372.000000	0.873106
373.000000	0.870990
374.000000	0.877924
375.000000	0.899114
376.000000	0.972510
377.000000	1.016516
378.000000	1.018290
379.000000	1.033435
380.000000	1.045422
381.000000	1.046500
382.000000	1.054725
383.000000	1.072990
384.000000	1.075656
385.000000	1.091189
386.000000	1.114566
387.000000	1.133812
388.000000	1.150168
389.000000	1.174837
390.000000	1.199968
391.000000	1.238328
392.000000	1.263079
393.000000	1.294537
394.000000	1.334711
395.000000	1.373778
396.000000	1.411744
397.000000	1.456919
398.000000	1.511278
399.000000	1.569679
400.000000	1.622526
401.000000	1.678806
402.000000	1.733291
403.000000	1.790698
404.000000	1.852956
405.000000	1.909049
406.000000	1.969766
407.000000	2.041202
408.000000	2.112165
409.000000	2.173008
410.000000	2.239383
411.000000	2.296830
412.000000	2.353626
413.000000	2.428010
414.000000	2.502912
415.000000	2.569810
416.000000	2.630617
417.000000	2.693446
418.000000	2.747577
419.000000	2.813040
420.000000	2.874062
421.000000	2.930905
422.000000	2.986760
423.000000	3.045408
424.000000	3.105931
425.000000	3.158290
426.000000	3.201894
427.000000	3.251022
428.000000	3.303585
429.000000	3.354222
430.000000	3.402711
431.000000	3.438846
432.000000	3.479359
433.000000	3.522979
434.000000	3.557181
435.000000	3.594966
436.000000	3.636192
437.000000	3.669544
438.000000	3.708030
439.000000	3.738355
440.000000	3.761692
441.000000	3.772548
442.000000	3.790795
443.000000	3.791088
444.000000	3.795469
445.000000	3.806745
446.000000	3.810878
447.000000	3.809767
448.000000	3.796382
449.000000	3.785107
450.000000	3.789084
451.000000	3.790216
452.000000	3.768759
453.000000	3.753818
454.000000	3.748778
455.000000	3.741451
456.000000	3.744660
457.000000	3.745409
458.000000	3.749519
459.000000	3.749673
460.000000	3.761683
461.000000	3.775961
462.000000	3.797356
463.000000	3.814296
464.000000	3.839888
465.000000	3.880093
466.000000	3.903697
467.000000	3.940749
468.000000	3.975679
469.000000	4.019210
470.000000	4.063244
471.000000	4.125530
472.000000	4.186495
473.000000	4.253158
474.000000	4.326785
475.000000	4.403832
476.000000	4.483474
477.000000	4.549954
478.000000	4.633786
479.000000	4.714793
480.000000	4.783570
481.000000	4.837994
482.000000	4.875609
483.000000	4.939395
484.000000	5.010511
485.000000	5.063081
486.000000	5.140534
487.000000	5.201575
488.000000	5.274702
489.000000	5.343864
490.000000	5.436466
491.000000	5.500568
492.000000	5.578354
493.000000	5.675319
494.000000	5.770680
495.000000	5.861696
496.000000	5.977755
497.000000	6.101148
498.000000	6.218001
499.000000	6.339311
500.000000	6.474339
501.000000	6.621017
502.000000	6.770895
503.000000	6.936720
504.000000	7.107274
505.000000	7.272580
506.000000	7.477886
507.000000	7.654495
508.000000	7.862271
509.000000	8.062809
510.000000	8.278471
511.000000	8.509277
512.000000	8.731460
513.000000	8.941417
514.000000	9.157507
515.000000	9.368489
516.000000	9.610802
517.000000	9.841819
518.000000	10.086883
519.000000	10.313118
520.000000	10.544272
521.000000	10.748941
522.000000	10.979921
523.000000	11.195040
524.000000	11.412090
525.000000	11.650672
526.000000	11.904375
527.000000	12.128046
528.000000	12.356636
529.000000	12.583964
530.000000	12.805910
531.000000	13.029140
532.000000	13.223542
533.000000	13.406011
534.000000	13.606412
535.000000	13.795512
536.000000	13.967264
537.000000	14.140539
538.000000	14.285689
539.000000	14.411151
540.000000	14.565782
541.000000	14.711495
542.000000	14.836852
543.000000	14.965761
544.000000	15.093858
545.000000	15.219150
546.000000	15.308673
547.000000	15.376216
548.000000	15.473235
549.000000	15.555119
550.000000	15.606001
551.000000	15.629474
552.000000	15.682255
553.000000	15.711042
554.000000	15.729094
555.000000	15.736231
556.000000	15.744408
557.000000	15.773297
558.000000	15.791982
559.000000	15.826052
560.000000	15.831057
561.000000	15.815709
562.000000	15.808401
563.000000	15.824141
564.000000	15.824862
565.000000	15.827817
566.000000	15.810355
567.000000	15.826195
568.000000	15.835229
569.000000	15.810508
570.000000	15.783704
571.000000	15.735643
572.000000	15.693808
573.000000	15.649548
574.000000	15.588366
575.000000	15.514017
576.000000	15.421646
577.000000	15.354082
578.000000	15.239348
579.000000	15.155496
580.000000	15.042761
581.000000	14.948169
582.000000	14.847234
583.000000	14.727975
584.000000	14.619380
585.000000	14.525256
586.000000	14.441976
587.000000	14.326875
588.000000	14.214277
589.000000	14.102011
590.000000	14.002054
591.000000	13.881655
592.000000	13.771685
593.000000	13.632894
594.000000	13.479868
595.000000	13.330078
596.000000	13.153290
597.000000	12.984059
598.000000	12.820789
599.000000	12.626018
600.000000	12.426669
601.000000	12.211105
602.000000	12.003773
603.000000	11.793915
604.000000	11.591325
605.000000	11.374853
606.000000	11.166555
607.000000	10.975022
608.000000	10.773160
609.000000	10.590847
610.000000	10.426112
611.000000	10.253662
612.000000	10.098588
613.000000	9.959368
614.000000	9.808030
615.000000	9.679037
616.000000	9.565569
617.000000	9.438280
618.000000	9.341293
619.000000	9.223615
620.000000	9.127392
621.000000	9.011686
622.000000	8.910605
623.000000	8.837367
624.000000	8.798181
625.000000	8.762842
626.000000	8.739670
627.000000	8.718177
628.000000	8.722710
629.000000	8.736281
630.000000	8.769074
631.000000	8.839503
632.000000	8.883594
633.000000	8.943932
634.000000	9.017631
635.000000	9.088851
636.000000	9.166276
637.000000	9.256129
638.000000	9.358441
639.000000	9.429721
640.000000	9.515142
641.000000	9.631220
642.000000	9.711123
643.000000	9.791299
644.000000	9.863984
645.000000	9.926787
646.000000	10.002769
647.000000	10.090411
648.000000	10.150013
649.000000	10.211148
650.000000	10.284352
651.000000	10.360301
652.000000	10.431892
653.000000	10.491788
654.000000	10.534881
655.000000	10.602327
656.000000	10.644810
657.000000	10.682406
658.000000	10.721829
659.000000	10.772702
660.000000	10.825352
661.000000	10.883884
662.000000	10.901855
663.000000	10.921953
664.000000	10.940339
665.000000	10.966825
666.000000	10.970149
667.000000	10.974136
668.000000	10.987467
669.000000	11.005970
670.000000	11.001167
671.000000	11.002777
672.000000	11.008950
673.000000	11.019577
674.000000	11.015321
675.000000	11.023800
676.000000	11.027958
677.000000	11.033470
678.000000	11.044777
679.000000	11.067060
680.000000	11.086630
681.000000	11.095832
682.000000	11.087572
683.000000	11.085554
684.000000	11.080331
685.000000	11.120887
686.000000	11.132908
687.000000	11.157238
688.000000	11.161286
689.000000	11.183205
690.000000	11.211696
691.000000	11.246242
692.000000	11.264794
693.000000	11.262492
694.000000	11.259178
695.000000	11.265378
696.000000	11.277268
697.000000	11.292916
698.000000	11.303168
699.000000	11.346665
700.000000	11.341218
701.000000	11.366060
702.000000	11.408068
703.000000	11.402282
704.000000	11.410936
705.000000	11.428336
706.000000	11.431697
707.000000	11.435222
708.000000	11.439918
709.000000	11.456488
710.000000	11.459212
711.000000	11.454401
712.000000	11.454984
713.000000	11.449309
714.000000	11.458743
715.000000	11.439470
716.000000	11.399603
717.000000	11.403035
718.000000	11.419981
719.000000	11.425423
720.000000	11.408394
721.000000	11.398270
722.000000	11.392293
723.000000	11.368453
724.000000	11.391471
725.000000	11.419932
726.000000	11.458024
727.000000	11.424467
728.000000	11.398598
729.000000	11.422038
730.000000	11.408102
731.000000	11.395683
732.000000	11.435993
733.000000	11.470671
734.000000	11.475026
735.000000	11.413633
736.000000	11.411971
737.000000	11.428998
738.000000	11.397851
739.000000	11.377676
740.000000	11.368978
741.000000	11.357323
742.000000	11.348187
743.000000	11.338765
744.000000	11.328898
745.000000	11.308570
746.000000	11.289671
747.000000	11.271024
748.000000	11.274425
749.000000	11.236068
750.000000	11.243637
751.000000	11.231693
752.000000	11.204232
753.000000	11.202007
754.000000	11.132502
755.000000	11.162234
756.000000	11.119728
757.000000	11.087595
758.000000	11.110353
759.000000	11.080892
760.000000	11.079132
761.000000	11.049850
762.000000	11.045752
763.000000	11.044361
764.000000	11.038068
765.000000	11.009683
766.000000	11.037338
767.000000	11.054495
768.000000	11.016573
769.000000	11.016139
770.000000	10.970425
771.000000	11.022355
772.000000	11.070180
773.000000	11.020285
774.000000	11.083738
775.000000	11.083007
776.000000	11.058177
777.000000	11.082428
778.000000	11.093528
779.000000	11.098713
780.000000	11.041590
781.000000	11.114467
782.000000	11.151541
783.000000	11.133477
784.000000	11.241578
785.000000	11.238159
786.000000	11.250103
787.000000	11.296236
788.000000	11.233847
789.000000	11.300664
790.000000	11.332515
791.000000	11.344021
792.000000	11.349247
793.000000	11.370009
794.000000	11.440375
795.000000	11.403885
796.000000	11.320058
797.000000	11.346143
798.000000	11.316714
799.000000	11.314909
800.000000	11.397792
801.000000	11.424638
802.000000	11.400148
803.000000	11.359711
804.000000	11.458341
805.000000	11.454058
806.000000	11.424803
807.000000	11.415593
808.000000	11.419782
809.000000	11.360664
810.000000	11.318772
811.000000	11.320082
812.000000	11.381091
813.000000	11.432989
814.000000	11.455691
815.000000	11.439965
816.000000	11.330872
817.000000	11.356007
818.000000	11.379460
819.000000	11.315158
820.000000	11.303492
821.000000	11.248983
822.000000	11.208802
823.000000	11.247925
824.000000	11.210179
825.000000	11.302165
826.000000	11.243603
827.000000	11.245275
828.000000	11.096681
829.000000	11.180545
830.000000	11.081642
831.000000	11.061749
832.000000	11.064701
833.000000	11.081384
834.000000	10.998642
835.000000	10.966722
836.000000	11.010780
837.000000	10.836267
838.000000	10.809333
839.000000	10.726221
840.000000	10.709006
841.000000	10.632197
842.000000	10.636703
843.000000	10.579012
844.000000	10.625151
845.000000	10.472415
846.000000	10.501039
847.000000	10.270192
848.000000	10.292043
849.000000	10.236110
850.000000	10.160699
851.000000	10.134079
852.000000	10.028228
853.000000	9.931376
854.000000	10.168410
855.000000	9.947368
856.000000	9.771416
857.000000	9.720543
858.000000	9.810720
859.000000	10.174116
860.000000	10.673478
861.000000	10.264242
862.000000	9.839861
863.000000	10.369313
864.000000	10.778964
865.000000	10.536407
866.000000	10.610380
867.000000	10.830127
868.000000	10.388404
869.000000	10.689536
870.000000	10.714448
871.000000	10.619648
872.000000	10.927796
873.000000	10.409830
874.000000	10.853911
875.000000	10.456545
876.000000	10.225235
877.000000	10.586209
878.000000	11.032997
879.000000	10.871317
880.000000	10.836382
881.000000	11.013422
882.000000	10.831515
883.000000	10.988502
884.000000	11.045292
885.000000	10.991082
886.000000	10.999301
887.000000	10.866683
888.000000	10.856867
889.000000	10.795506
890.000000	10.917728
891.000000	10.947155
892.000000	10.849528
893.000000	10.851442
894.000000	10.777700
895.000000	10.816744
896.000000	10.993833
897.000000	10.906285
898.000000	10.878949
899.000000	10.726680
900.000000	10.829412
901.000000	10.938705
902.000000	10.876838
903.000000	10.899318
904.000000	10.884869
905.000000	10.881980
906.000000	10.908830
907.000000	10.901251
908.000000	10.978430
909.000000	10.838837
910.000000	10.764844
911.000000	10.754957
912.000000	10.831108
913.000000	10.818618
914.000000	10.720675
915.000000	10.816997
916.000000	10.858306
917.000000	10.790576
918.000000	10.764308
919.000000	10.715400
920.000000	10.725903
921.000000	10.823969
922.000000	10.814436
923.000000	10.726401
924.000000	10.789452
925.000000	10.825108
926.000000	10.791683
927.000000	10.824969
928.000000	10.811122
929.000000	10.815635
930.000000	10.827885
931.000000	10.776882
932.000000	10.719423
933.000000	10.766835
934.000000	10.744212
935.000000	10.705670
936.000000	10.732703
937.000000	10.709415
938.000000	10.768304
939.000000	10.816770
940.000000	10.826038
941.000000	10.770410
942.000000	10.758649
943.000000	10.809252
944.000000	10.832864
945.000000	10.804500
946.000000	10.763353
947.000000	10.753222
948.000000	10.792388
949.000000	10.816824
950.000000	10.801570
951.000000	10.771331
952.000000	10.747455
953.000000	10.762169
954.000000	10.793328
955.000000	10.777714
956.000000	10.770511
957.000000	10.783993
958.000000	10.803202
959.000000	10.812213
960.000000	10.768926
961.000000	10.783056
962.000000	10.815153
963.000000	10.799059
964.000000	10.807258
965.000000	10.834897
966.000000	10.836618
967.000000	10.793090
968.000000	10.824831
969.000000	10.862617
970.000000	10.847183
971.000000	10.840533
972.000000	10.856284
973.000000	10.818319
974.000000	10.832177
975.000000	10.845340
976.000000	10.834498
977.000000	10.804489
978.000000	10.818117
979.000000	10.869712
980.000000	10.838820
981.000000	10.831642
982.000000	10.850399
983.000000	10.882825
984.000000	10.899051
985.000000	10.897046
986.000000	10.906471
987.000000	10.937187
988.000000	10.899808
989.000000	10.915315
990.000000	10.893231
991.000000	10.910394
992.000000	10.921280
993.000000	10.920723
994.000000	10.894597
995.000000	10.925882
996.000000	10.923576
997.000000	10.946194
998.000000	10.947021
999.000000	10.937724
1000.000000	10.958008
1001.000000	10.968070
1002.000000	10.996366
1003.000000	11.014365
1004.000000	10.967054
1005.000000	10.994860
1006.000000	10.964508
1007.000000	11.005526
1008.000000	11.018911
1009.000000	11.012213
1010.000000	10.998342
1011.000000	10.985718
1012.000000	10.987132
1013.000000	10.991553
1014.000000	10.999159
1015.000000	10.976876
1016.000000	10.955198
1017.000000	10.987076
1018.000000	11.026932
1019.000000	11.049531
1020.000000	11.058265
1021.000000	11.078749
1022.000000	11.095784
1023.000000	11.076691
1024.000000	11.058004
1025.000000	11.088198
1026.000000	11.101618
1027.000000	11.119868
1028.000000	11.135517
1029.000000	11.149072
1030.000000	11.171705
1031.000000	11.150382
1032.000000	11.164588
1033.000000	11.168468
1034.000000	11.170337
1035.000000	11.168576
1036.000000	11.171165
1037.000000	11.182697
1038.000000	11.187285
1039.000000	11.202494
1040.000000	11.186687
1041.000000	11.213652
1042.000000	11.233577
1043.000000	11.217700
1044.000000	11.200501
1045.000000	11.202839
1046.000000	11.194330
1047.000000	11.215784
1048.000000	11.232316
1049.000000	11.234443
1050.000000	11.241421
1051.000000	11.215745
1052.000000	11.262540
1053.000000	11.273386
1054.000000	11.263268
1055.000000	11.259608
1056.000000	11.303753
1057.000000	11.298072
1058.000000	11.301752
1059.000000	11.302534
1060.000000	11.293647
1061.000000	11.337834
1062.000000	11.323486
1063.000000	11.321225
1064.000000	11.367737
1065.000000	11.354466
1066.000000	11.343069
1067.000000	11.341531
1068.000000	11.331955
1069.000000	11.365142
1070.000000	11.361976
1071.000000	11.399267
1072.000000	11.389426
1073.000000	11.397921
1074.000000	11.382244
1075.000000	11.364806
1076.000000	11.424804
1077.000000	11.390545
1078.000000	11.382089
1079.000000	11.366593
1080.000000	11.376383
1081.000000	11.368544
1082.000000	11.404154
1083.000000	11.400323
1084.000000	11.442075
1085.000000	11.407580
1086.000000	11.436672
1087.000000	11.427455
1088.000000	11.409486
1089.000000	11.418888
1090.000000	11.459224
1091.000000	11.448415
1092.000000	11.442201
1093.000000	11.481860
1094.000000	11.478981
1095.000000	11.480822
1096.000000	11.478553
1097.000000	11.452552
1098.000000	11.457410
1099.000000	11.477824
1100.000000	11.486150
1101.000000	11.470699
1102.000000	11.469008
1103.000000	11.481387
1104.000000	11.487491
1105.000000	11.481084
1106.000000	11.473570
1107.000000	11.456574
1108.000000	11.440634
1109.000000	11.435451
1110.000000	11.456873
1111.000000	11.446561
1112.000000	11.460228
1113.000000	11.434503
1114.000000	11.435222
1115.000000	11.432427
1116.000000	11.427049
1117.000000	11.421859
1118.000000	11.431166
1119.000000	11.432275
1120.000000	11.419624
1121.000000	11.414432
1122.000000	11.395257
1123.000000	11.393292
1124.000000	11.387423
1125.000000	11.371554
1126.000000	11.391501
1127.000000	11.366005
1128.000000	11.340991
1129.000000	11.348455
1130.000000	11.337641
1131.000000	11.320658
1132.000000	11.286145
1133.000000	11.257273
1134.000000	11.246954
1135.000000	11.241199
1136.000000	11.237580
1137.000000	11.181613
1138.000000	11.132480
1139.000000	11.082625
1140.000000	11.030044
1141.000000	10.996230
1142.000000	10.959804
1143.000000	10.907089
1144.000000	10.858894
1145.000000	10.836070
1146.000000	10.804733
1147.000000	10.798884
1148.000000	10.769119
1149.000000	10.732583
1150.000000	10.750690
1151.000000	10.741959
1152.000000	10.754129
1153.000000	10.763522
1154.000000	10.751548
1155.000000	10.739747
1156.000000	10.732361
1157.000000	10.721653
1158.000000	10.697939
1159.000000	10.665782
1160.000000	10.612231
1161.000000	10.595470
1162.000000	10.525562
1163.000000	10.483251
1164.000000	10.439093
1165.000000	10.377562
1166.000000	10.321484
1167.000000	10.271691
1168.000000	10.226109
1169.000000	10.191547
1170.000000	10.113665
1171.000000	10.064358
1172.000000	10.015187
1173.000000	9.963545
1174.000000	9.928121
