PE UV       SUBTECH     SPECTRUM    ASCII       PEDS        4.00        
   -1
CICIMAUCR0009-3.Sample.ASC
24/04/17
14:06:27.00
24/04/17
14:06:27.00
Vinicio Soto Monge
C. kalinini
250,000000
1
Lambda 1050
1050L1511233
PerkinElmer UV WinLab 6.3.2.0749 / 2.02.05 Lambda 900 UV/VIS/NIR, Aug  7 2015 09:38:08

0
0
3350/servo 860,8/2
0
0
UV/VIS
1
1
1
DoubleDePol,CommonBeamDepol,RBeamAtt,SBeamAtt,60mm sphere, WB InGaAs Detector
0
0
0
0
Program
Program
3350/servo 860,8/2
3350/0,2 860,8/0,2
3350/0,2 860,8/0,2
0
15.00
 
 
 
0
 
860,8
319,2
860,8
Front
100
on
S:100 R:100
0
0
0
0
 
0
 
 
 
0
 
 
0
0
0
0
0
 
 
 
 
0
0


0
0
#HDR
-1
-1
#GR
nm
%R
1.0
0.0
2500,000000
-1,000000
2251
8
78,444600
4,431300
#DATA
250.000000	0.693185
251.000000	0.680990
252.000000	0.695025
253.000000	0.705364
254.000000	0.720715
255.000000	0.707444
256.000000	0.715893
257.000000	0.674115
258.000000	0.710342
259.000000	0.686376
260.000000	0.701376
261.000000	0.695674
262.000000	0.693724
263.000000	0.681229
264.000000	0.671416
265.000000	0.671214
266.000000	0.671969
267.000000	0.667300
268.000000	0.673182
269.000000	0.650911
270.000000	0.688070
271.000000	0.663333
272.000000	0.653604
273.000000	0.664167
274.000000	0.665819
275.000000	0.644712
276.000000	0.658837
277.000000	0.661240
278.000000	0.667911
279.000000	0.648322
280.000000	0.631315
281.000000	0.667261
282.000000	0.653098
283.000000	0.610879
284.000000	0.639072
285.000000	0.625601
286.000000	0.659978
287.000000	0.621407
288.000000	0.637318
289.000000	0.653819
290.000000	0.616993
291.000000	0.655249
292.000000	0.637563
293.000000	0.638747
294.000000	0.650859
295.000000	0.652208
296.000000	0.610819
297.000000	0.616196
298.000000	0.627620
299.000000	0.612135
300.000000	0.609874
301.000000	0.637912
302.000000	0.649141
303.000000	0.641095
304.000000	0.621762
305.000000	0.654792
306.000000	0.635291
307.000000	0.629318
308.000000	0.635947
309.000000	0.647211
310.000000	0.657228
311.000000	0.634615
312.000000	0.642380
313.000000	0.615493
314.000000	0.620781
315.000000	0.663581
316.000000	0.647721
317.000000	0.646072
318.000000	0.522192
319.000000	0.613565
320.000000	0.550871
321.000000	0.591471
322.000000	0.662184
323.000000	0.480595
324.000000	0.556993
325.000000	0.578675
326.000000	0.559885
327.000000	0.507677
328.000000	0.537877
329.000000	0.650105
330.000000	0.531881
331.000000	0.517164
332.000000	0.609347
333.000000	0.582983
334.000000	0.568998
335.000000	0.536158
336.000000	0.576438
337.000000	0.540160
338.000000	0.559681
339.000000	0.538731
340.000000	0.511744
341.000000	0.503529
342.000000	0.505610
343.000000	0.526092
344.000000	0.520962
345.000000	0.521271
346.000000	0.511788
347.000000	0.528584
348.000000	0.552317
349.000000	0.527320
350.000000	0.505008
351.000000	0.490021
352.000000	0.536148
353.000000	0.548948
354.000000	0.552452
355.000000	0.515713
356.000000	0.518302
357.000000	0.531449
358.000000	0.524490
359.000000	0.516491
360.000000	0.494734
361.000000	0.518432
362.000000	0.490825
363.000000	0.504303
364.000000	0.512435
365.000000	0.492584
366.000000	0.543361
367.000000	0.524506
368.000000	0.452426
369.000000	0.462547
370.000000	0.484618
371.000000	0.484268
372.000000	0.425599
373.000000	0.381233
374.000000	0.326149
375.000000	0.344194
376.000000	0.427293
377.000000	0.532938
378.000000	0.517572
379.000000	0.498294
380.000000	0.475981
381.000000	0.458843
382.000000	0.444268
383.000000	0.430137
384.000000	0.407806
385.000000	0.394064
386.000000	0.378369
387.000000	0.361937
388.000000	0.357165
389.000000	0.353615
390.000000	0.349800
391.000000	0.362446
392.000000	0.360442
393.000000	0.382413
394.000000	0.396818
395.000000	0.407065
396.000000	0.420204
397.000000	0.450212
398.000000	0.472963
399.000000	0.499169
400.000000	0.525104
401.000000	0.564730
402.000000	0.611102
403.000000	0.648949
404.000000	0.693688
405.000000	0.750102
406.000000	0.801722
407.000000	0.871704
408.000000	0.941006
409.000000	1.025541
410.000000	1.099450
411.000000	1.189117
412.000000	1.285272
413.000000	1.370184
414.000000	1.467627
415.000000	1.570211
416.000000	1.679160
417.000000	1.777442
418.000000	1.872038
419.000000	1.980856
420.000000	2.083397
421.000000	2.172091
422.000000	2.271324
423.000000	2.374005
424.000000	2.462758
425.000000	2.551898
426.000000	2.632505
427.000000	2.722273
428.000000	2.815585
429.000000	2.895893
430.000000	2.969564
431.000000	3.039990
432.000000	3.097304
433.000000	3.162828
434.000000	3.248512
435.000000	3.320314
436.000000	3.382503
437.000000	3.442334
438.000000	3.485654
439.000000	3.515369
440.000000	3.554783
441.000000	3.608472
442.000000	3.652238
443.000000	3.668252
444.000000	3.677156
445.000000	3.701879
446.000000	3.716906
447.000000	3.722523
448.000000	3.733223
449.000000	3.723505
450.000000	3.696082
451.000000	3.669850
452.000000	3.632460
453.000000	3.587576
454.000000	3.547048
455.000000	3.499372
456.000000	3.450532
457.000000	3.389664
458.000000	3.322524
459.000000	3.268748
460.000000	3.220618
461.000000	3.175507
462.000000	3.128689
463.000000	3.083723
464.000000	3.053540
465.000000	3.034439
466.000000	3.019101
467.000000	3.010466
468.000000	3.008459
469.000000	3.031171
470.000000	3.044280
471.000000	3.072222
472.000000	3.115632
473.000000	3.151971
474.000000	3.197591
475.000000	3.254781
476.000000	3.306854
477.000000	3.355726
478.000000	3.392781
479.000000	3.432427
480.000000	3.469767
481.000000	3.488378
482.000000	3.510404
483.000000	3.515723
484.000000	3.511084
485.000000	3.509341
486.000000	3.488630
487.000000	3.457427
488.000000	3.432465
489.000000	3.383154
490.000000	3.346453
491.000000	3.320893
492.000000	3.278220
493.000000	3.237905
494.000000	3.181931
495.000000	3.133607
496.000000	3.085270
497.000000	3.042334
498.000000	3.008267
499.000000	2.981509
500.000000	2.964623
501.000000	2.926751
502.000000	2.907592
503.000000	2.894957
504.000000	2.885387
505.000000	2.883551
506.000000	2.861020
507.000000	2.851901
508.000000	2.854482
509.000000	2.861018
510.000000	2.865980
511.000000	2.868437
512.000000	2.880719
513.000000	2.923488
514.000000	2.954210
515.000000	2.995465
516.000000	3.037075
517.000000	3.079091
518.000000	3.132934
519.000000	3.212423
520.000000	3.288013
521.000000	3.370105
522.000000	3.458994
523.000000	3.558696
524.000000	3.650334
525.000000	3.766152
526.000000	3.887435
527.000000	4.024606
528.000000	4.162670
529.000000	4.307908
530.000000	4.457341
531.000000	4.627843
532.000000	4.795528
533.000000	4.977642
534.000000	5.163669
535.000000	5.329469
536.000000	5.517408
537.000000	5.693189
538.000000	5.854601
539.000000	6.011423
540.000000	6.181824
541.000000	6.353022
542.000000	6.513408
543.000000	6.679223
544.000000	6.846563
545.000000	7.033171
546.000000	7.202717
547.000000	7.368787
548.000000	7.526563
549.000000	7.706517
550.000000	7.857746
551.000000	8.023723
552.000000	8.163135
553.000000	8.328647
554.000000	8.456798
555.000000	8.605329
556.000000	8.714639
557.000000	8.796776
558.000000	8.908176
559.000000	9.021129
560.000000	9.333940
561.000000	9.465142
562.000000	9.571071
563.000000	9.660782
564.000000	9.777391
565.000000	9.859301
566.000000	9.945306
567.000000	10.034888
568.000000	10.120207
569.000000	10.216235
570.000000	10.295760
571.000000	10.411069
572.000000	10.501495
573.000000	10.619661
574.000000	10.720647
575.000000	10.797304
576.000000	10.883798
577.000000	10.958626
578.000000	11.028870
579.000000	11.101923
580.000000	11.159985
581.000000	11.216422
582.000000	11.288302
583.000000	11.385165
584.000000	11.441880
585.000000	11.488013
586.000000	11.563228
587.000000	11.544690
588.000000	11.604738
589.000000	11.617485
590.000000	11.637410
591.000000	11.646898
592.000000	11.701461
593.000000	11.729869
594.000000	11.778967
595.000000	11.829921
596.000000	11.866355
597.000000	11.920231
598.000000	11.965713
599.000000	12.005969
600.000000	12.058429
601.000000	12.083384
602.000000	12.119237
603.000000	12.151867
604.000000	12.151958
605.000000	12.188220
606.000000	12.167853
607.000000	12.179701
608.000000	12.145976
609.000000	12.115638
610.000000	12.046560
611.000000	11.944822
612.000000	11.826638
613.000000	11.699274
614.000000	11.524228
615.000000	11.350117
616.000000	11.109642
617.000000	10.898776
618.000000	10.652147
619.000000	10.418457
620.000000	10.127086
621.000000	9.826734
622.000000	9.575009
623.000000	9.290524
624.000000	9.000609
625.000000	8.741514
626.000000	8.487792
627.000000	8.240826
628.000000	8.022277
629.000000	7.831714
630.000000	7.649215
631.000000	7.492852
632.000000	7.362672
633.000000	7.243668
634.000000	7.160824
635.000000	7.134680
636.000000	7.120040
637.000000	7.100945
638.000000	7.106598
639.000000	7.138493
640.000000	7.173796
641.000000	7.215262
642.000000	7.275790
643.000000	7.327396
644.000000	7.397470
645.000000	7.442420
646.000000	7.475575
647.000000	7.529218
648.000000	7.580222
649.000000	7.642843
650.000000	7.646837
651.000000	7.644362
652.000000	7.659627
653.000000	7.620297
654.000000	7.585052
655.000000	7.548427
656.000000	7.481142
657.000000	7.377945
658.000000	7.303912
659.000000	7.195893
660.000000	7.090589
661.000000	6.980073
662.000000	6.857969
663.000000	6.764212
664.000000	6.651029
665.000000	6.567077
666.000000	6.502462
667.000000	6.384875
668.000000	6.332619
669.000000	6.273741
670.000000	6.268433
671.000000	6.284023
672.000000	6.269103
673.000000	6.278436
674.000000	6.330689
675.000000	6.361200
676.000000	6.447462
677.000000	6.531367
678.000000	6.633036
679.000000	6.749377
680.000000	6.851047
681.000000	6.985431
682.000000	7.115618
683.000000	7.247330
684.000000	7.371629
685.000000	7.485224
686.000000	7.569476
687.000000	7.697500
688.000000	7.820459
689.000000	7.902033
690.000000	7.934023
691.000000	7.982220
692.000000	8.017887
693.000000	8.006151
694.000000	8.003881
695.000000	8.021206
696.000000	8.031040
697.000000	7.995004
698.000000	7.933184
699.000000	7.854881
700.000000	7.781541
701.000000	7.729569
702.000000	7.668790
703.000000	7.564171
704.000000	7.479652
705.000000	7.408388
706.000000	7.339186
707.000000	7.239452
708.000000	7.205017
709.000000	7.177700
710.000000	7.125929
711.000000	7.101218
712.000000	7.077924
713.000000	7.050843
714.000000	7.068636
715.000000	7.126198
716.000000	7.165145
717.000000	7.215083
718.000000	7.293506
719.000000	7.382460
720.000000	7.477029
721.000000	7.562881
722.000000	7.726143
723.000000	7.856362
724.000000	7.983852
725.000000	8.157326
726.000000	8.315427
727.000000	8.417201
728.000000	8.608035
729.000000	8.802405
730.000000	8.944430
731.000000	9.142989
732.000000	9.281030
733.000000	9.391519
734.000000	9.547580
735.000000	9.676096
736.000000	9.818854
737.000000	9.917659
738.000000	10.001014
739.000000	10.080582
740.000000	10.193357
741.000000	10.271996
742.000000	10.319551
743.000000	10.397857
744.000000	10.444861
745.000000	10.487670
746.000000	10.500814
747.000000	10.475672
748.000000	10.583937
749.000000	10.673360
750.000000	10.681026
751.000000	10.737206
752.000000	10.763654
753.000000	10.724542
754.000000	10.797735
755.000000	10.910143
756.000000	10.919779
757.000000	10.950781
758.000000	11.000665
759.000000	11.059900
760.000000	11.109285
761.000000	11.103094
762.000000	11.120987
763.000000	11.145324
764.000000	11.219251
765.000000	11.278352
766.000000	11.292168
767.000000	11.348736
768.000000	11.356886
769.000000	11.399510
770.000000	11.439257
771.000000	11.477394
772.000000	11.488965
773.000000	11.514922
774.000000	11.547916
775.000000	11.535800
776.000000	11.574226
777.000000	11.576343
778.000000	11.652599
779.000000	11.716754
780.000000	11.789520
781.000000	11.819094
782.000000	11.838410
783.000000	11.851798
784.000000	11.895496
785.000000	12.010274
786.000000	12.091217
787.000000	12.104094
788.000000	12.194382
789.000000	12.284145
790.000000	12.328263
791.000000	12.375052
792.000000	12.477240
793.000000	12.503968
794.000000	12.594877
795.000000	12.701294
796.000000	12.706156
797.000000	12.796167
798.000000	12.880559
799.000000	12.939040
800.000000	13.084183
801.000000	13.117306
802.000000	13.153819
803.000000	13.180705
804.000000	13.257821
805.000000	13.267643
806.000000	13.288168
807.000000	13.313994
808.000000	13.318123
809.000000	13.372177
810.000000	13.428447
811.000000	13.532895
812.000000	13.562722
813.000000	13.508939
814.000000	13.568127
815.000000	13.550312
816.000000	13.552139
817.000000	13.543919
818.000000	13.497104
819.000000	13.533652
820.000000	13.569348
821.000000	13.573975
822.000000	13.539319
823.000000	13.620484
824.000000	13.484858
825.000000	13.490092
826.000000	13.572833
827.000000	13.436370
828.000000	13.545184
829.000000	13.596801
830.000000	13.457787
831.000000	13.512068
832.000000	13.430747
833.000000	13.359862
834.000000	13.407899
835.000000	13.360737
836.000000	13.459658
837.000000	13.387709
838.000000	13.451271
839.000000	13.433556
840.000000	13.225873
841.000000	13.394539
842.000000	13.342575
843.000000	13.398719
844.000000	13.179359
845.000000	13.519851
846.000000	13.334830
847.000000	13.464654
848.000000	13.217942
849.000000	12.972237
850.000000	13.090085
851.000000	13.231981
852.000000	12.928145
853.000000	12.870600
854.000000	13.032270
855.000000	13.157271
856.000000	13.037505
857.000000	13.010377
858.000000	12.796465
859.000000	13.094887
860.000000	13.053733
861.000000	12.978804
862.000000	12.848393
863.000000	12.688754
864.000000	12.590318
865.000000	12.469173
866.000000	12.361214
867.000000	12.216008
868.000000	12.107641
869.000000	11.956789
870.000000	11.865694
871.000000	11.766588
872.000000	11.631454
873.000000	11.510225
874.000000	11.373915
875.000000	11.254445
876.000000	11.176642
877.000000	11.037982
878.000000	10.940733
879.000000	10.864484
880.000000	10.747675
881.000000	10.649316
882.000000	10.569247
883.000000	10.521860
884.000000	10.411952
885.000000	10.325731
886.000000	10.253726
887.000000	10.209774
888.000000	10.161052
889.000000	10.078400
890.000000	10.006304
891.000000	9.951709
892.000000	9.893205
893.000000	9.855042
894.000000	9.796130
895.000000	9.768716
896.000000	9.712036
897.000000	9.647940
898.000000	9.613584
899.000000	9.562324
900.000000	9.579462
901.000000	9.538805
902.000000	9.482280
903.000000	9.435575
904.000000	9.425116
905.000000	9.409319
906.000000	9.412321
907.000000	9.386092
908.000000	9.343070
909.000000	9.321053
910.000000	9.304488
911.000000	9.329770
912.000000	9.301684
913.000000	9.287623
914.000000	9.282269
915.000000	9.298054
916.000000	9.290324
917.000000	9.261512
918.000000	9.253617
919.000000	9.240493
920.000000	9.255380
921.000000	9.249924
922.000000	9.259862
923.000000	9.242833
924.000000	9.221450
925.000000	9.221059
926.000000	9.227930
927.000000	9.216925
928.000000	9.218895
929.000000	9.202501
930.000000	9.194461
931.000000	9.195857
932.000000	9.196698
933.000000	9.191234
934.000000	9.174012
935.000000	9.173273
936.000000	9.158488
937.000000	9.137117
938.000000	9.126673
939.000000	9.099496
940.000000	9.090305
941.000000	9.070882
942.000000	9.047881
943.000000	9.033785
944.000000	9.019081
945.000000	8.999643
946.000000	8.986640
947.000000	8.959153
948.000000	8.948188
949.000000	8.918856
950.000000	8.895227
951.000000	8.867814
952.000000	8.856269
953.000000	8.838130
954.000000	8.814220
955.000000	8.799562
956.000000	8.770624
957.000000	8.741146
958.000000	8.712559
959.000000	8.694578
960.000000	8.662339
961.000000	8.642276
962.000000	8.617064
963.000000	8.599058
964.000000	8.571384
965.000000	8.546366
966.000000	8.526937
967.000000	8.489179
968.000000	8.480073
969.000000	8.459962
970.000000	8.434650
971.000000	8.398028
972.000000	8.374588
973.000000	8.355587
974.000000	8.328842
975.000000	8.293268
976.000000	8.257649
977.000000	8.244280
978.000000	8.220979
979.000000	8.192049
980.000000	8.168336
981.000000	8.150044
982.000000	8.126734
983.000000	8.103784
984.000000	8.072537
985.000000	8.034504
986.000000	8.001600
987.000000	7.976856
988.000000	7.941207
989.000000	7.926529
990.000000	7.900327
991.000000	7.870475
992.000000	7.838690
993.000000	7.824941
994.000000	7.805607
995.000000	7.776650
996.000000	7.741290
997.000000	7.718879
998.000000	7.706648
999.000000	7.688004
1000.000000	7.668723
1001.000000	7.639672
1002.000000	7.626670
1003.000000	7.622957
1004.000000	7.604837
1005.000000	7.584067
1006.000000	7.566940
1007.000000	7.546247
1008.000000	7.536315
1009.000000	7.529224
1010.000000	7.509744
1011.000000	7.495527
1012.000000	7.491348
1013.000000	7.482236
1014.000000	7.483830
1015.000000	7.480911
1016.000000	7.468937
1017.000000	7.469202
1018.000000	7.480483
1019.000000	7.472144
1020.000000	7.475194
1021.000000	7.486703
1022.000000	7.492030
1023.000000	7.488735
1024.000000	7.497516
1025.000000	7.505368
1026.000000	7.494437
1027.000000	7.496423
1028.000000	7.498407
1029.000000	7.500137
1030.000000	7.512770
1031.000000	7.518242
1032.000000	7.512820
1033.000000	7.505524
1034.000000	7.519325
1035.000000	7.520248
1036.000000	7.515514
1037.000000	7.520824
1038.000000	7.521442
1039.000000	7.514448
1040.000000	7.501579
1041.000000	7.504592
1042.000000	7.521071
1043.000000	7.515980
1044.000000	7.500075
1045.000000	7.497315
1046.000000	7.498926
1047.000000	7.493171
1048.000000	7.490166
1049.000000	7.485932
1050.000000	7.482681
1051.000000	7.478118
1052.000000	7.476073
1053.000000	7.477006
1054.000000	7.487169
1055.000000	7.489287
1056.000000	7.480702
1057.000000	7.483765
1058.000000	7.493094
1059.000000	7.499084
1060.000000	7.500785
1061.000000	7.504856
1062.000000	7.512279
1063.000000	7.516736
1064.000000	7.515720
1065.000000	7.520650
1066.000000	7.520501
1067.000000	7.522192
1068.000000	7.519143
1069.000000	7.525249
1070.000000	7.528340
1071.000000	7.529236
1072.000000	7.548941
1073.000000	7.555451
1074.000000	7.556827
1075.000000	7.574548
1076.000000	7.584652
1077.000000	7.589195
1078.000000	7.603394
1079.000000	7.596232
1080.000000	7.611711
1081.000000	7.627142
1082.000000	7.630342
1083.000000	7.642413
1084.000000	7.642049
1085.000000	7.658292
1086.000000	7.667951
1087.000000	7.678016
1088.000000	7.682806
1089.000000	7.694583
1090.000000	7.702783
1091.000000	7.712063
1092.000000	7.725142
1093.000000	7.717781
1094.000000	7.736816
1095.000000	7.747710
1096.000000	7.750405
1097.000000	7.758678
1098.000000	7.762558
1099.000000	7.768637
1100.000000	7.768960
1101.000000	7.772493
1102.000000	7.768472
1103.000000	7.781372
1104.000000	7.786395
1105.000000	7.789844
1106.000000	7.787419
1107.000000	7.781773
1108.000000	7.774399
1109.000000	7.787818
1110.000000	7.774292
1111.000000	7.779666
1112.000000	7.781283
1113.000000	7.787358
1114.000000	7.773019
1115.000000	7.771484
1116.000000	7.775442
1117.000000	7.771471
1118.000000	7.766133
1119.000000	7.755877
1120.000000	7.751456
1121.000000	7.740163
1122.000000	7.733150
1123.000000	7.729845
1124.000000	7.721081
1125.000000	7.693556
1126.000000	7.673190
1127.000000	7.641539
1128.000000	7.619827
1129.000000	7.590168
1130.000000	7.560457
1131.000000	7.509802
1132.000000	7.462177
1133.000000	7.435815
1134.000000	7.370851
1135.000000	7.355854
1136.000000	7.312022
1137.000000	7.253151
1138.000000	7.224939
1139.000000	7.210482
1140.000000	7.186307
1141.000000	7.171086
1142.000000	7.176248
1143.000000	7.163315
1144.000000	7.172151
1145.000000	7.170057
1146.000000	7.181762
1147.000000	7.178602
1148.000000	7.182796
1149.000000	7.175767
1150.000000	7.172298
1151.000000	7.156087
1152.000000	7.142576
1153.000000	7.134116
1154.000000	7.132186
1155.000000	7.106959
1156.000000	7.099939
1157.000000	7.083797
1158.000000	7.071435
1159.000000	7.074357
1160.000000	7.072757
1161.000000	7.073656
1162.000000	7.068542
1163.000000	7.089433
1164.000000	7.100114
1165.000000	7.106229
1166.000000	7.127956
1167.000000	7.131296
1168.000000	7.172740
1169.000000	7.183065
1170.000000	7.214024
1171.000000	7.246391
1172.000000	7.271346
1173.000000	7.295221
1174.000000	7.319367
1175.000000	7.350098
1176.000000	7.385294
1177.000000	7.417234
1178.000000	7.458073
1179.000000	7.501044
1180.000000	7.557766
1181.000000	7.627928
1182.000000	7.684037
1183.000000	7.777320
1184.000000	7.835865
1185.000000	7.876805
1186.000000	7.890709
1187.000000	7.898411
1188.000000	7.948205
1189.000000	7.905493
1190.000000	7.850710
1191.000000	7.789591
1192.000000	7.729094
1193.000000	7.677971
