PE UV       SUBTECH     SPECTRUM    ASCII       PEDS        4.00        
   -1
CICIMAUCR0020-5.Sample.ASC
24/04/25
10:32:19.00
24/04/25
10:32:19.00
Vinicio Soto Monge
C. resplendens
250,000000
1
Lambda 1050
1050L1511233
PerkinElmer UV WinLab 6.3.2.0749 / 2.02.05 Lambda 900 UV/VIS/NIR, Aug  7 2015 09:38:08

0
0
3350/servo 860,8/2
0
0
UV/VIS
1
1
1
DoubleDePol,CommonBeamDepol,RBeamAtt,SBeamAtt,60mm sphere, WB InGaAs Detector
0
0
0
0
Program
Program
3350/servo 860,8/2
3350/0,2 860,8/0,2
3350/0,2 860,8/0,2
0
15.00
 
 
 
0
 
860,8
319,2
860,8
Front
100
on
S:100 R:100
0
0
0
0
 
0
 
 
 
0
 
 
0
0
0
0
0
 
 
 
 
0
0


0
0
#HDR
-1
-1
#GR
nm
%R
1.0
0.0
2500,000000
-1,000000
2251
8
88,766800
5,704900
#DATA
250.000000	1.219291
251.000000	1.188966
252.000000	1.206671
253.000000	1.199632
254.000000	1.182029
255.000000	1.184367
256.000000	1.171193
257.000000	1.192353
258.000000	1.178087
259.000000	1.182678
260.000000	1.170662
261.000000	1.118531
262.000000	1.146149
263.000000	1.145722
264.000000	1.125723
265.000000	1.116126
266.000000	1.106214
267.000000	1.108870
268.000000	1.101471
269.000000	1.093981
270.000000	1.106829
271.000000	1.110128
272.000000	1.102335
273.000000	1.088214
274.000000	1.092978
275.000000	1.082095
276.000000	1.061718
277.000000	1.096853
278.000000	1.071323
279.000000	1.088509
280.000000	1.084662
281.000000	1.100621
282.000000	1.088634
283.000000	1.087929
284.000000	1.090218
285.000000	1.077214
286.000000	1.077290
287.000000	1.057680
288.000000	1.089388
289.000000	1.045622
290.000000	1.051708
291.000000	1.064053
292.000000	1.045847
293.000000	1.053336
294.000000	1.070214
295.000000	1.063643
296.000000	1.076092
297.000000	1.035289
298.000000	1.040783
299.000000	1.032735
300.000000	1.044662
301.000000	1.081061
302.000000	1.040551
303.000000	1.030878
304.000000	1.050469
305.000000	1.028891
306.000000	1.055187
307.000000	1.057643
308.000000	1.016366
309.000000	1.024171
310.000000	1.042701
311.000000	1.042928
312.000000	1.024183
313.000000	1.029475
314.000000	1.025950
315.000000	1.032198
316.000000	1.047592
317.000000	1.369727
318.000000	1.092270
319.000000	1.093248
320.000000	1.161702
321.000000	1.338761
322.000000	1.155794
323.000000	1.183752
324.000000	1.139652
325.000000	1.141273
326.000000	1.131520
327.000000	1.270708
328.000000	1.055289
329.000000	1.068448
330.000000	1.157440
331.000000	1.206691
332.000000	1.207246
333.000000	1.131414
334.000000	1.192077
335.000000	1.152437
336.000000	1.089666
337.000000	1.091211
338.000000	1.022204
339.000000	1.110763
340.000000	1.116280
341.000000	1.069136
342.000000	1.116725
343.000000	1.088714
344.000000	1.092648
345.000000	1.128740
346.000000	1.121065
347.000000	1.079449
348.000000	1.096633
349.000000	1.067163
350.000000	1.067105
351.000000	1.107645
352.000000	1.108213
353.000000	1.122912
354.000000	1.117508
355.000000	1.091219
356.000000	1.137671
357.000000	1.102569
358.000000	1.117359
359.000000	1.126234
360.000000	1.134215
361.000000	1.110214
362.000000	1.096492
363.000000	1.125579
364.000000	1.144796
365.000000	1.145163
366.000000	1.112749
367.000000	1.140500
368.000000	1.128984
369.000000	1.122835
370.000000	1.090283
371.000000	1.075000
372.000000	1.084629
373.000000	1.079249
374.000000	1.080062
375.000000	1.072878
376.000000	1.128641
377.000000	1.195742
378.000000	1.207424
379.000000	1.214235
380.000000	1.209005
381.000000	1.221038
382.000000	1.235673
383.000000	1.243828
384.000000	1.254039
385.000000	1.270019
386.000000	1.289707
387.000000	1.308701
388.000000	1.324015
389.000000	1.343833
390.000000	1.375560
391.000000	1.402745
392.000000	1.425018
393.000000	1.460893
394.000000	1.505121
395.000000	1.538994
396.000000	1.574862
397.000000	1.614901
398.000000	1.661411
399.000000	1.705942
400.000000	1.756667
401.000000	1.808621
402.000000	1.861652
403.000000	1.923477
404.000000	1.980904
405.000000	2.040688
406.000000	2.108907
407.000000	2.186613
408.000000	2.248859
409.000000	2.321938
410.000000	2.401991
411.000000	2.483220
412.000000	2.569553
413.000000	2.652248
414.000000	2.742097
415.000000	2.845073
416.000000	2.946815
417.000000	3.038021
418.000000	3.133144
419.000000	3.240683
420.000000	3.348442
421.000000	3.447750
422.000000	3.551053
423.000000	3.655079
424.000000	3.755706
425.000000	3.861988
426.000000	3.968362
427.000000	4.071506
428.000000	4.168338
429.000000	4.271731
430.000000	4.369053
431.000000	4.465714
432.000000	4.568346
433.000000	4.666688
434.000000	4.761640
435.000000	4.845509
436.000000	4.922067
437.000000	5.005783
438.000000	5.091785
439.000000	5.172179
440.000000	5.245533
441.000000	5.317546
442.000000	5.390717
443.000000	5.453303
444.000000	5.508584
445.000000	5.571324
446.000000	5.642510
447.000000	5.697584
448.000000	5.738322
449.000000	5.775442
450.000000	5.805251
451.000000	5.836609
452.000000	5.868660
453.000000	5.885408
454.000000	5.885522
455.000000	5.874442
456.000000	5.860898
457.000000	5.846474
458.000000	5.822209
459.000000	5.785232
460.000000	5.737405
461.000000	5.677470
462.000000	5.605492
463.000000	5.527364
464.000000	5.442832
465.000000	5.348005
466.000000	5.245223
467.000000	5.143687
468.000000	5.036288
469.000000	4.921460
470.000000	4.808292
471.000000	4.701429
472.000000	4.593017
473.000000	4.480077
474.000000	4.381245
475.000000	4.294886
476.000000	4.225623
477.000000	4.173693
478.000000	4.141853
479.000000	4.124431
480.000000	4.092679
481.000000	4.048249
482.000000	4.022868
483.000000	4.030694
484.000000	4.083770
485.000000	4.150363
486.000000	4.229275
487.000000	4.323153
488.000000	4.413103
489.000000	4.506496
490.000000	4.616778
491.000000	4.738138
492.000000	4.867006
493.000000	4.990638
494.000000	5.113901
495.000000	5.243019
496.000000	5.379451
497.000000	5.502496
498.000000	5.625444
499.000000	5.759524
500.000000	5.900211
501.000000	6.043257
502.000000	6.193566
503.000000	6.340631
504.000000	6.482535
505.000000	6.626316
506.000000	6.782996
507.000000	6.940057
508.000000	7.091496
509.000000	7.255403
510.000000	7.406439
511.000000	7.566999
512.000000	7.736575
513.000000	7.905958
514.000000	8.079720
515.000000	8.236137
516.000000	8.402879
517.000000	8.566988
518.000000	8.738609
519.000000	8.913535
520.000000	9.089659
521.000000	9.261967
522.000000	9.453760
523.000000	9.648738
524.000000	9.839710
525.000000	10.021607
526.000000	10.225484
527.000000	10.457990
528.000000	10.674696
529.000000	10.902902
530.000000	11.143407
531.000000	11.392772
532.000000	11.642464
533.000000	11.916019
534.000000	12.183657
535.000000	12.465467
536.000000	12.748071
537.000000	13.032404
538.000000	13.319318
539.000000	13.635938
540.000000	13.924483
541.000000	14.230027
542.000000	14.549524
543.000000	14.853475
544.000000	15.163612
545.000000	15.451173
546.000000	15.727331
547.000000	15.964410
548.000000	16.232110
549.000000	16.490541
550.000000	16.728163
551.000000	16.976216
552.000000	17.189460
553.000000	17.398025
554.000000	17.601587
555.000000	17.785333
556.000000	17.943104
557.000000	18.105246
558.000000	18.259425
559.000000	18.408152
560.000000	18.679947
561.000000	18.803380
562.000000	18.875109
563.000000	18.989842
564.000000	19.085983
565.000000	19.144887
566.000000	19.226585
567.000000	19.300968
568.000000	19.414014
569.000000	19.474661
570.000000	19.537144
571.000000	19.609111
572.000000	19.715439
573.000000	19.785106
574.000000	19.898006
575.000000	19.967793
576.000000	20.047181
577.000000	20.151553
578.000000	20.258960
579.000000	20.364565
580.000000	20.467419
581.000000	20.561472
582.000000	20.684134
583.000000	20.771252
584.000000	20.887137
585.000000	20.981449
586.000000	21.104056
587.000000	21.209146
588.000000	21.302497
589.000000	21.398626
590.000000	21.464250
591.000000	21.525050
592.000000	21.585872
593.000000	21.650982
594.000000	21.712141
595.000000	21.734945
596.000000	21.777884
597.000000	21.799449
598.000000	21.797575
599.000000	21.746375
600.000000	21.726783
601.000000	21.698635
602.000000	21.677123
603.000000	21.625454
604.000000	21.539805
605.000000	21.449015
606.000000	21.331447
607.000000	21.226709
608.000000	21.093935
609.000000	20.953157
610.000000	20.807646
611.000000	20.627256
612.000000	20.460423
613.000000	20.299433
614.000000	20.118181
615.000000	19.927975
616.000000	19.758581
617.000000	19.575139
618.000000	19.368077
619.000000	19.172604
620.000000	18.940489
621.000000	18.715735
622.000000	18.484933
623.000000	18.252059
624.000000	17.962667
625.000000	17.695934
626.000000	17.404553
627.000000	17.099446
628.000000	16.758377
629.000000	16.414924
630.000000	16.059258
631.000000	15.676978
632.000000	15.271583
633.000000	14.861515
634.000000	14.452439
635.000000	14.043471
636.000000	13.612356
637.000000	13.199481
638.000000	12.811574
639.000000	12.402378
640.000000	12.046537
641.000000	11.703233
642.000000	11.364321
643.000000	11.062749
644.000000	10.782126
645.000000	10.554115
646.000000	10.346483
647.000000	10.206784
648.000000	10.048993
649.000000	9.925711
650.000000	9.841287
651.000000	9.802115
652.000000	9.801889
653.000000	9.819364
654.000000	9.861019
655.000000	9.916346
656.000000	9.991375
657.000000	10.104997
658.000000	10.222069
659.000000	10.349484
660.000000	10.509773
661.000000	10.655435
662.000000	10.807057
663.000000	11.003709
664.000000	11.192329
665.000000	11.364741
666.000000	11.536599
667.000000	11.746722
668.000000	11.962409
669.000000	12.166131
670.000000	12.350488
671.000000	12.538054
672.000000	12.728299
673.000000	12.950796
674.000000	13.158549
675.000000	13.323447
676.000000	13.518541
677.000000	13.722025
678.000000	13.947281
679.000000	14.135280
680.000000	14.318331
681.000000	14.487541
682.000000	14.645664
683.000000	14.791767
684.000000	14.968617
685.000000	15.132284
686.000000	15.261473
687.000000	15.401496
688.000000	15.555799
689.000000	15.673649
690.000000	15.778490
691.000000	15.874187
692.000000	15.960905
693.000000	16.034411
694.000000	16.116385
695.000000	16.176526
696.000000	16.233477
697.000000	16.286558
698.000000	16.342042
699.000000	16.374037
700.000000	16.399680
701.000000	16.427667
702.000000	16.430705
703.000000	16.461815
704.000000	16.471528
705.000000	16.471457
706.000000	16.492913
707.000000	16.471248
708.000000	16.465799
709.000000	16.461489
710.000000	16.451900
711.000000	16.434352
712.000000	16.433229
713.000000	16.382117
714.000000	16.343091
715.000000	16.328933
716.000000	16.275147
717.000000	16.219933
718.000000	16.193855
719.000000	16.155282
720.000000	16.118236
721.000000	16.047913
722.000000	15.983150
723.000000	15.937849
724.000000	15.888348
725.000000	15.852898
726.000000	15.779759
727.000000	15.721905
728.000000	15.697709
729.000000	15.668909
730.000000	15.637642
731.000000	15.616365
732.000000	15.626793
733.000000	15.619123
734.000000	15.600991
735.000000	15.598604
736.000000	15.593015
737.000000	15.592910
738.000000	15.604364
739.000000	15.631044
740.000000	15.686003
741.000000	15.717089
742.000000	15.754352
743.000000	15.808369
744.000000	15.824996
745.000000	15.862692
746.000000	15.948385
747.000000	16.014928
748.000000	16.043082
749.000000	16.079526
750.000000	16.121688
751.000000	16.166656
752.000000	16.222424
753.000000	16.291268
754.000000	16.341113
755.000000	16.368531
756.000000	16.438050
757.000000	16.501906
758.000000	16.551756
759.000000	16.588598
760.000000	16.683494
761.000000	16.801781
762.000000	16.821677
763.000000	16.846903
764.000000	16.910190
765.000000	16.966711
766.000000	17.008639
767.000000	17.043771
768.000000	17.110963
769.000000	17.181828
770.000000	17.248391
771.000000	17.261964
772.000000	17.267567
773.000000	17.338251
774.000000	17.364195
775.000000	17.394770
776.000000	17.457168
777.000000	17.505441
778.000000	17.540962
779.000000	17.534941
780.000000	17.559557
781.000000	17.553597
782.000000	17.561008
783.000000	17.579430
784.000000	17.589365
785.000000	17.586581
786.000000	17.559992
787.000000	17.524827
788.000000	17.566008
789.000000	17.554570
790.000000	17.564457
791.000000	17.582426
792.000000	17.508672
793.000000	17.465608
794.000000	17.452579
795.000000	17.422502
796.000000	17.411992
797.000000	17.351269
798.000000	17.380493
799.000000	17.404232
800.000000	17.292687
801.000000	17.308753
802.000000	17.298732
803.000000	17.207326
804.000000	17.223084
805.000000	17.159132
806.000000	17.094478
807.000000	17.033869
808.000000	17.042656
809.000000	17.028644
810.000000	16.935281
811.000000	16.885697
812.000000	16.781299
813.000000	16.723875
814.000000	16.640985
815.000000	16.598747
816.000000	16.527719
817.000000	16.443058
818.000000	16.422198
819.000000	16.313943
820.000000	16.227477
821.000000	16.169663
822.000000	16.085234
823.000000	16.011094
824.000000	15.941222
825.000000	15.872568
826.000000	15.760868
827.000000	15.681584
828.000000	15.542187
829.000000	15.477791
830.000000	15.450806
831.000000	15.358251
832.000000	15.275428
833.000000	15.188758
834.000000	15.136231
835.000000	15.076109
836.000000	14.924846
837.000000	14.853807
838.000000	14.789709
839.000000	14.892652
840.000000	14.799257
841.000000	14.719406
842.000000	14.747605
843.000000	14.704056
844.000000	14.562117
845.000000	14.573771
846.000000	14.516975
847.000000	14.501178
848.000000	14.410289
849.000000	14.436129
850.000000	14.480520
851.000000	14.234241
852.000000	14.250780
853.000000	14.155030
854.000000	14.154642
855.000000	14.172961
856.000000	14.058126
857.000000	13.961484
858.000000	14.430405
859.000000	13.862159
860.000000	13.841591
861.000000	13.841510
862.000000	13.831260
863.000000	13.839393
864.000000	13.825004
865.000000	13.811414
866.000000	13.795479
867.000000	13.835924
868.000000	13.959032
869.000000	14.140631
870.000000	14.315873
871.000000	14.481376
872.000000	14.617437
873.000000	14.677676
874.000000	14.801742
875.000000	14.901632
876.000000	14.981930
877.000000	15.045529
878.000000	15.122474
879.000000	15.147540
880.000000	15.173403
881.000000	15.226695
882.000000	15.275797
883.000000	15.321411
884.000000	15.368166
885.000000	15.398207
886.000000	15.424962
887.000000	15.459934
888.000000	15.461723
889.000000	15.459257
890.000000	15.485104
891.000000	15.491374
892.000000	15.506533
893.000000	15.547910
894.000000	15.543141
895.000000	15.554410
896.000000	15.558055
897.000000	15.551057
898.000000	15.560972
899.000000	15.554814
900.000000	15.569137
901.000000	15.565019
902.000000	15.551519
903.000000	15.558753
904.000000	15.570807
905.000000	15.575664
906.000000	15.580636
907.000000	15.548588
908.000000	15.555679
909.000000	15.572738
910.000000	15.586733
911.000000	15.571258
912.000000	15.578212
913.000000	15.567980
914.000000	15.575701
915.000000	15.579863
916.000000	15.585472
917.000000	15.575890
918.000000	15.572867
919.000000	15.556681
920.000000	15.556067
921.000000	15.520128
922.000000	15.516392
923.000000	15.479931
924.000000	15.466629
925.000000	15.444406
926.000000	15.418848
927.000000	15.371375
928.000000	15.344142
929.000000	15.312952
930.000000	15.281897
931.000000	15.206641
932.000000	15.182591
933.000000	15.165801
934.000000	15.130999
935.000000	15.086190
936.000000	15.048989
937.000000	15.002474
938.000000	14.972741
939.000000	14.915012
940.000000	14.868715
941.000000	14.803247
942.000000	14.749877
943.000000	14.715334
944.000000	14.675154
945.000000	14.626971
946.000000	14.574990
947.000000	14.520667
948.000000	14.467786
949.000000	14.409401
950.000000	14.370747
951.000000	14.351088
952.000000	14.329073
953.000000	14.282936
954.000000	14.236177
955.000000	14.214713
956.000000	14.177165
957.000000	14.148149
958.000000	14.121298
959.000000	14.089032
960.000000	14.054899
961.000000	14.029354
962.000000	14.006564
963.000000	13.974979
964.000000	13.954630
965.000000	13.944058
966.000000	13.922599
967.000000	13.885792
968.000000	13.871959
969.000000	13.857264
970.000000	13.845708
971.000000	13.834845
972.000000	13.812886
973.000000	13.794372
974.000000	13.775324
975.000000	13.753241
976.000000	13.732118
977.000000	13.725837
978.000000	13.712423
979.000000	13.682513
980.000000	13.661620
981.000000	13.644025
982.000000	13.635756
983.000000	13.612436
984.000000	13.596136
985.000000	13.572223
986.000000	13.558644
987.000000	13.532976
988.000000	13.518795
989.000000	13.496308
990.000000	13.474556
991.000000	13.458249
992.000000	13.449704
993.000000	13.439615
994.000000	13.413101
995.000000	13.384794
996.000000	13.375492
997.000000	13.371645
998.000000	13.363200
999.000000	13.352069
1000.000000	13.339900
1001.000000	13.329306
1002.000000	13.333661
1003.000000	13.329631
1004.000000	13.318965
1005.000000	13.315835
1006.000000	13.307510
1007.000000	13.296228
1008.000000	13.287209
1009.000000	13.280295
1010.000000	13.274830
1011.000000	13.280549
1012.000000	13.283983
1013.000000	13.272923
1014.000000	13.258532
1015.000000	13.249677
1016.000000	13.245015
1017.000000	13.244171
1018.000000	13.239414
1019.000000	13.231567
1020.000000	13.219413
1021.000000	13.204466
1022.000000	13.191928
1023.000000	13.180612
1024.000000	13.163749
1025.000000	13.150416
1026.000000	13.140639
1027.000000	13.119364
1028.000000	13.099971
1029.000000	13.082095
1030.000000	13.062759
1031.000000	13.046332
1032.000000	13.030793
1033.000000	13.019237
1034.000000	13.013290
1035.000000	12.996885
1036.000000	12.980008
1037.000000	12.976919
1038.000000	12.964011
1039.000000	12.944657
1040.000000	12.929118
1041.000000	12.913848
1042.000000	12.905021
1043.000000	12.905669
1044.000000	12.898704
1045.000000	12.884858
1046.000000	12.876445
1047.000000	12.873748
1048.000000	12.871311
1049.000000	12.862782
1050.000000	12.855872
1051.000000	12.859638
1052.000000	12.857037
1053.000000	12.855535
1054.000000	12.859215
1055.000000	12.862979
1056.000000	12.868708
1057.000000	12.862964
1058.000000	12.858718
1059.000000	12.860140
1060.000000	12.876833
1061.000000	12.889941
1062.000000	12.892080
1063.000000	12.913582
1064.000000	12.924084
1065.000000	12.919740
1066.000000	12.925503
1067.000000	12.923396
1068.000000	12.923807
1069.000000	12.933518
1070.000000	12.941093
1071.000000	12.942924
1072.000000	12.939437
1073.000000	12.951968
1074.000000	12.960276
1075.000000	12.964203
1076.000000	12.966899
1077.000000	12.965400
1078.000000	12.962491
1079.000000	12.965460
1080.000000	12.960800
1081.000000	12.951039
1082.000000	12.953718
1083.000000	12.967665
1084.000000	12.971509
1085.000000	12.962207
1086.000000	12.959872
1087.000000	12.956735
1088.000000	12.942690
1089.000000	12.929514
1090.000000	12.923550
1091.000000	12.920913
1092.000000	12.909484
1093.000000	12.898327
1094.000000	12.889997
1095.000000	12.893455
1096.000000	12.891331
1097.000000	12.877835
1098.000000	12.873526
1099.000000	12.864520
1100.000000	12.855774
1101.000000	12.859690
1102.000000	12.861847
1103.000000	12.859935
1104.000000	12.854195
1105.000000	12.852420
1106.000000	12.857892
1107.000000	12.855028
1108.000000	12.846478
1109.000000	12.842913
1110.000000	12.841473
1111.000000	12.862040
1112.000000	12.876028
1113.000000	12.861419
1114.000000	12.855437
1115.000000	12.858628
1116.000000	12.863678
1117.000000	12.876030
1118.000000	12.872334
1119.000000	12.872991
1120.000000	12.881974
1121.000000	12.886050
1122.000000	12.901317
1123.000000	12.924811
1124.000000	12.939057
1125.000000	12.938719
1126.000000	12.944654
1127.000000	12.945021
1128.000000	12.945478
1129.000000	12.950943
1130.000000	12.971324
1131.000000	12.959493
1132.000000	12.948325
1133.000000	12.934824
1134.000000	12.979063
1135.000000	13.045198
1136.000000	13.065104
1137.000000	13.054965
1138.000000	13.062973
1139.000000	13.071690
1140.000000	13.074463
1141.000000	13.099717
1142.000000	13.114486
1143.000000	13.123351
1144.000000	13.150667
1145.000000	13.173800
1146.000000	13.188292
1147.000000	13.191271
1148.000000	13.177326
1149.000000	13.179610
1150.000000	13.149335
1151.000000	13.142289
1152.000000	13.125187
1153.000000	13.139824
1154.000000	13.128366
1155.000000	13.124464
1156.000000	13.122554
1157.000000	13.143126
1158.000000	13.159016
1159.000000	13.166120
1160.000000	13.182212
1161.000000	13.190957
1162.000000	13.215307
1163.000000	13.241062
1164.000000	13.268070
1165.000000	13.288289
1166.000000	13.310769
1167.000000	13.345697
1168.000000	13.369924
1169.000000	13.383470
1170.000000	13.424107
1171.000000	13.448432
1172.000000	13.478271
1173.000000	13.517669
