PE UV       SUBTECH     SPECTRUM    ASCII       PEDS        4.00        
   -1
CICIMAUCR0098-5.Sample.ASC
24/04/25
11:55:07.00
24/04/25
11:55:07.00
Vinicio Soto Monge
C. cupreomarginata
250,000000
1
Lambda 1050
1050L1511233
PerkinElmer UV WinLab 6.3.2.0749 / 2.02.05 Lambda 900 UV/VIS/NIR, Aug  7 2015 09:38:08

0
0
3350/servo 860,8/2
0
0
UV/VIS
1
1
1
DoubleDePol,CommonBeamDepol,RBeamAtt,SBeamAtt,60mm sphere, WB InGaAs Detector
0
0
0
0
Program
Program
3350/servo 860,8/2
3350/0,2 860,8/0,2
3350/0,2 860,8/0,2
0
15.00
 
 
 
0
 
860,8
319,2
860,8
Front
100
on
S:100 R:100
0
0
0
0
 
0
 
 
 
0
 
 
0
0
0
0
0
 
 
 
 
0
0


0
0
#HDR
-1
-1
#GR
nm
%R
1.0
0.0
2500,000000
-1,000000
2251
8
65,296400
4,773000
#DATA
250.000000	0.490971
251.000000	0.488594
252.000000	0.467203
253.000000	0.500635
254.000000	0.507431
255.000000	0.484050
256.000000	0.488959
257.000000	0.466338
258.000000	0.490718
259.000000	0.459061
260.000000	0.455209
261.000000	0.472981
262.000000	0.455047
263.000000	0.448653
264.000000	0.457818
265.000000	0.464662
266.000000	0.488010
267.000000	0.464493
268.000000	0.432904
269.000000	0.444596
270.000000	0.443960
271.000000	0.441054
272.000000	0.457434
273.000000	0.458090
274.000000	0.445829
275.000000	0.444799
276.000000	0.457394
277.000000	0.453223
278.000000	0.457440
279.000000	0.441751
280.000000	0.448155
281.000000	0.442781
282.000000	0.441543
283.000000	0.459877
284.000000	0.441017
285.000000	0.441344
286.000000	0.431775
287.000000	0.429096
288.000000	0.444227
289.000000	0.450503
290.000000	0.433051
291.000000	0.472707
292.000000	0.417847
293.000000	0.456183
294.000000	0.431709
295.000000	0.456804
296.000000	0.454620
297.000000	0.456956
298.000000	0.437914
299.000000	0.455300
300.000000	0.456442
301.000000	0.425737
302.000000	0.443481
303.000000	0.422875
304.000000	0.453617
305.000000	0.447300
306.000000	0.448159
307.000000	0.459481
308.000000	0.463744
309.000000	0.439081
310.000000	0.468094
311.000000	0.445936
312.000000	0.447065
313.000000	0.444518
314.000000	0.432722
315.000000	0.440571
316.000000	0.445954
317.000000	0.370463
318.000000	0.355978
319.000000	0.400163
320.000000	0.604047
321.000000	0.328211
322.000000	0.508707
323.000000	0.360291
324.000000	0.391490
325.000000	0.408221
326.000000	0.350843
327.000000	0.344050
328.000000	0.343629
329.000000	0.481688
330.000000	0.459954
331.000000	0.332405
332.000000	0.398153
333.000000	0.345578
334.000000	0.349886
335.000000	0.375008
336.000000	0.424989
337.000000	0.428512
338.000000	0.450122
339.000000	0.425134
340.000000	0.454789
341.000000	0.492376
342.000000	0.421611
343.000000	0.431959
344.000000	0.415833
345.000000	0.414051
346.000000	0.392641
347.000000	0.419735
348.000000	0.412997
349.000000	0.406599
350.000000	0.447382
351.000000	0.467022
352.000000	0.469820
353.000000	0.457763
354.000000	0.440737
355.000000	0.449629
356.000000	0.396030
357.000000	0.443121
358.000000	0.399205
359.000000	0.393587
360.000000	0.448245
361.000000	0.468404
362.000000	0.456869
363.000000	0.410087
364.000000	0.447937
365.000000	0.431796
366.000000	0.453948
367.000000	0.479483
368.000000	0.458816
369.000000	0.487252
370.000000	0.451772
371.000000	0.455696
372.000000	0.478629
373.000000	0.436257
374.000000	0.422632
375.000000	0.451230
376.000000	0.450391
377.000000	0.442150
378.000000	0.444016
379.000000	0.444590
380.000000	0.450101
381.000000	0.447250
382.000000	0.444763
383.000000	0.443589
384.000000	0.441829
385.000000	0.443208
386.000000	0.445945
387.000000	0.438858
388.000000	0.439565
389.000000	0.433965
390.000000	0.438721
391.000000	0.434570
392.000000	0.421440
393.000000	0.422389
394.000000	0.420102
395.000000	0.418256
396.000000	0.403326
397.000000	0.405571
398.000000	0.402399
399.000000	0.405995
400.000000	0.402939
401.000000	0.396647
402.000000	0.391586
403.000000	0.385074
404.000000	0.381120
405.000000	0.382155
406.000000	0.382096
407.000000	0.380490
408.000000	0.382676
409.000000	0.389965
410.000000	0.400710
411.000000	0.414977
412.000000	0.432196
413.000000	0.446843
414.000000	0.463346
415.000000	0.481489
416.000000	0.495942
417.000000	0.507817
418.000000	0.522540
419.000000	0.529168
420.000000	0.545472
421.000000	0.562357
422.000000	0.578645
423.000000	0.600861
424.000000	0.617159
425.000000	0.628702
426.000000	0.639317
427.000000	0.654661
428.000000	0.663768
429.000000	0.670858
430.000000	0.679606
431.000000	0.689094
432.000000	0.702365
433.000000	0.712497
434.000000	0.711408
435.000000	0.712282
436.000000	0.728589
437.000000	0.742274
438.000000	0.749342
439.000000	0.766556
440.000000	0.788229
441.000000	0.810356
442.000000	0.842696
443.000000	0.877356
444.000000	0.912246
445.000000	0.946025
446.000000	0.980120
447.000000	1.011582
448.000000	1.037671
449.000000	1.064044
450.000000	1.094482
451.000000	1.121944
452.000000	1.141220
453.000000	1.168922
454.000000	1.205727
455.000000	1.233883
456.000000	1.258158
457.000000	1.285036
458.000000	1.318639
459.000000	1.355732
460.000000	1.386169
461.000000	1.421452
462.000000	1.461397
463.000000	1.494447
464.000000	1.530344
465.000000	1.568893
466.000000	1.603207
467.000000	1.626102
468.000000	1.650683
469.000000	1.677417
470.000000	1.704651
471.000000	1.737900
472.000000	1.767547
473.000000	1.784067
474.000000	1.803872
475.000000	1.837749
476.000000	1.871691
477.000000	1.904874
478.000000	1.935371
479.000000	1.961000
480.000000	1.982126
481.000000	1.998458
482.000000	2.014738
483.000000	2.015196
484.000000	2.012845
485.000000	2.007900
486.000000	1.987577
487.000000	1.952069
488.000000	1.920931
489.000000	1.875619
490.000000	1.825769
491.000000	1.778754
492.000000	1.724715
493.000000	1.676974
494.000000	1.638854
495.000000	1.598208
496.000000	1.571865
497.000000	1.561489
498.000000	1.562525
499.000000	1.564660
500.000000	1.578666
501.000000	1.598626
502.000000	1.600682
503.000000	1.602875
504.000000	1.605597
505.000000	1.606461
506.000000	1.589875
507.000000	1.564920
508.000000	1.538068
509.000000	1.499935
510.000000	1.461925
511.000000	1.420823
512.000000	1.393872
513.000000	1.376637
514.000000	1.374702
515.000000	1.390081
516.000000	1.434981
517.000000	1.487719
518.000000	1.561768
519.000000	1.661753
520.000000	1.783828
521.000000	1.918699
522.000000	2.048548
523.000000	2.205132
524.000000	2.332388
525.000000	2.471412
526.000000	2.596625
527.000000	2.700885
528.000000	2.803816
529.000000	2.883487
530.000000	2.959495
531.000000	3.018588
532.000000	3.078154
533.000000	3.127051
534.000000	3.198984
535.000000	3.262604
536.000000	3.355854
537.000000	3.455409
538.000000	3.561324
539.000000	3.678028
540.000000	3.799055
541.000000	3.910710
542.000000	4.017348
543.000000	4.125939
544.000000	4.211898
545.000000	4.309060
546.000000	4.381102
547.000000	4.439924
548.000000	4.527990
549.000000	4.602157
550.000000	4.669075
551.000000	4.749405
552.000000	4.845830
553.000000	4.928978
554.000000	5.014314
555.000000	5.102798
556.000000	5.174329
557.000000	5.263734
558.000000	5.331686
559.000000	5.411288
560.000000	5.493467
561.000000	5.557121
562.000000	5.591983
563.000000	5.630663
564.000000	5.644530
565.000000	5.645033
566.000000	5.651754
567.000000	5.649544
568.000000	5.629912
569.000000	5.624464
570.000000	5.630943
571.000000	5.632782
572.000000	5.633200
573.000000	5.667137
574.000000	5.720589
575.000000	5.772424
576.000000	5.815879
577.000000	5.894485
578.000000	5.978919
579.000000	6.046950
580.000000	6.100236
581.000000	6.173450
582.000000	6.240798
583.000000	6.304457
584.000000	6.337918
585.000000	6.379256
586.000000	6.403174
587.000000	6.410665
588.000000	6.412221
589.000000	6.399796
590.000000	6.386338
591.000000	6.376736
592.000000	6.362892
593.000000	6.361119
594.000000	6.399659
595.000000	6.451644
596.000000	6.512267
597.000000	6.575070
598.000000	6.670958
599.000000	6.787472
600.000000	6.878890
601.000000	6.965652
602.000000	7.015833
603.000000	7.065650
604.000000	7.124318
605.000000	7.135278
606.000000	7.128808
607.000000	7.075131
608.000000	7.020673
609.000000	6.913735
610.000000	6.779676
611.000000	6.585554
612.000000	6.402600
613.000000	6.170953
614.000000	5.917098
615.000000	5.678385
616.000000	5.421930
617.000000	5.152996
618.000000	4.894662
619.000000	4.635867
620.000000	4.397610
621.000000	4.152398
622.000000	3.922592
623.000000	3.707263
624.000000	3.518878
625.000000	3.340626
626.000000	3.168290
627.000000	3.016658
628.000000	2.889504
629.000000	2.782540
630.000000	2.684754
631.000000	2.641265
632.000000	2.608569
633.000000	2.590472
634.000000	2.610049
635.000000	2.641710
636.000000	2.722203
637.000000	2.791328
638.000000	2.856279
639.000000	2.951210
640.000000	3.038216
641.000000	3.119741
642.000000	3.223054
643.000000	3.296085
644.000000	3.352722
645.000000	3.407052
646.000000	3.448501
647.000000	3.471879
648.000000	3.517190
649.000000	3.528030
650.000000	3.549721
651.000000	3.553121
652.000000	3.544203
653.000000	3.541042
654.000000	3.538069
655.000000	3.515539
656.000000	3.518144
657.000000	3.511054
658.000000	3.521444
659.000000	3.522638
660.000000	3.503367
661.000000	3.503732
662.000000	3.500257
663.000000	3.501929
664.000000	3.462791
665.000000	3.425095
666.000000	3.399121
667.000000	3.348671
668.000000	3.304097
669.000000	3.264438
670.000000	3.205433
671.000000	3.164698
672.000000	3.119715
673.000000	3.069861
674.000000	3.035616
675.000000	2.998378
676.000000	2.983233
677.000000	2.989690
678.000000	3.007534
679.000000	3.031034
680.000000	3.050655
681.000000	3.040275
682.000000	3.074496
683.000000	3.095521
684.000000	3.117595
685.000000	3.164492
686.000000	3.185216
687.000000	3.222258
688.000000	3.240161
689.000000	3.274135
690.000000	3.282403
691.000000	3.307243
692.000000	3.347704
693.000000	3.389601
694.000000	3.399024
695.000000	3.417594
696.000000	3.458585
697.000000	3.498340
698.000000	3.531149
699.000000	3.549875
700.000000	3.585352
701.000000	3.611069
702.000000	3.651973
703.000000	3.687282
704.000000	3.697966
705.000000	3.697205
706.000000	3.726760
707.000000	3.758226
708.000000	3.779828
709.000000	3.792950
710.000000	3.792587
711.000000	3.823473
712.000000	3.835457
713.000000	3.837400
714.000000	3.825099
715.000000	3.812899
716.000000	3.839839
717.000000	3.849895
718.000000	3.854352
719.000000	3.847325
720.000000	3.843673
721.000000	3.823890
722.000000	3.794217
723.000000	3.791612
724.000000	3.805580
725.000000	3.811515
726.000000	3.825486
727.000000	3.814187
728.000000	3.829611
729.000000	3.813668
730.000000	3.784406
731.000000	3.792673
732.000000	3.776819
733.000000	3.745621
734.000000	3.748209
735.000000	3.751161
736.000000	3.747734
737.000000	3.743109
738.000000	3.750037
739.000000	3.737982
740.000000	3.721527
741.000000	3.734689
742.000000	3.742972
743.000000	3.727983
744.000000	3.714028
745.000000	3.726614
746.000000	3.729167
747.000000	3.729328
748.000000	3.732794
749.000000	3.738353
750.000000	3.744685
751.000000	3.756256
752.000000	3.757791
753.000000	3.754438
754.000000	3.783743
755.000000	3.789383
756.000000	3.767229
757.000000	3.790357
758.000000	3.818286
759.000000	3.811675
760.000000	3.814912
761.000000	3.818441
762.000000	3.800638
763.000000	3.803583
764.000000	3.827525
765.000000	3.829752
766.000000	3.810001
767.000000	3.819001
768.000000	3.848913
769.000000	3.888148
770.000000	3.876840
771.000000	3.889046
772.000000	3.898927
773.000000	3.880653
774.000000	3.894703
775.000000	3.923906
776.000000	3.917734
777.000000	3.965959
778.000000	3.976178
779.000000	3.928982
780.000000	3.933297
781.000000	3.909677
782.000000	3.915789
783.000000	3.930936
784.000000	3.972652
785.000000	3.959620
786.000000	3.958837
787.000000	3.958250
788.000000	3.990138
789.000000	3.980351
790.000000	3.991654
791.000000	4.013645
792.000000	4.014952
793.000000	3.989270
794.000000	3.948981
795.000000	3.987201
796.000000	3.996576
797.000000	4.001006
798.000000	3.959079
799.000000	3.967380
800.000000	3.958666
801.000000	3.957734
802.000000	3.979282
803.000000	3.992084
804.000000	3.994832
805.000000	3.999888
806.000000	4.019762
807.000000	4.045022
808.000000	4.095676
809.000000	4.122790
810.000000	4.112575
811.000000	4.100987
812.000000	4.133558
813.000000	4.188499
814.000000	4.183421
815.000000	4.246648
816.000000	4.235670
817.000000	4.304761
818.000000	4.294184
819.000000	4.248187
820.000000	4.287070
821.000000	4.365305
822.000000	4.401967
823.000000	4.422861
824.000000	4.420416
825.000000	4.405985
826.000000	4.499315
827.000000	4.431879
828.000000	4.504887
829.000000	4.477105
830.000000	4.472700
831.000000	4.588713
832.000000	4.582041
833.000000	4.593519
834.000000	4.654930
835.000000	4.640757
836.000000	4.630660
837.000000	4.717808
838.000000	4.740726
839.000000	4.760865
840.000000	4.713170
841.000000	4.704502
842.000000	4.769089
843.000000	4.738596
844.000000	4.803700
845.000000	4.833753
846.000000	4.779418
847.000000	4.596471
848.000000	4.742617
849.000000	4.829990
850.000000	4.836640
851.000000	4.618170
852.000000	4.681829
853.000000	4.655231
854.000000	4.743717
855.000000	4.631747
856.000000	4.816815
857.000000	5.040998
858.000000	4.984705
859.000000	5.042698
860.000000	5.071114
861.000000	5.116874
862.000000	5.175195
863.000000	5.212076
864.000000	5.272817
865.000000	5.325798
866.000000	5.379080
867.000000	5.364313
868.000000	5.323430
869.000000	5.277468
870.000000	5.248139
871.000000	5.202960
872.000000	5.203103
873.000000	5.171124
874.000000	5.145655
875.000000	5.173846
876.000000	5.166524
877.000000	5.197064
878.000000	5.196677
879.000000	5.218033
880.000000	5.212890
881.000000	5.253300
882.000000	5.282811
883.000000	5.285063
884.000000	5.329929
885.000000	5.344615
886.000000	5.356330
887.000000	5.380942
888.000000	5.403297
889.000000	5.435978
890.000000	5.469683
891.000000	5.494852
892.000000	5.501659
893.000000	5.531699
894.000000	5.545805
895.000000	5.562444
896.000000	5.584505
897.000000	5.615733
898.000000	5.658805
899.000000	5.669301
900.000000	5.703798
901.000000	5.726648
902.000000	5.740536
903.000000	5.767508
904.000000	5.793214
905.000000	5.803747
906.000000	5.832139
907.000000	5.848675
908.000000	5.871390
909.000000	5.880305
910.000000	5.906191
911.000000	5.884510
912.000000	5.886407
913.000000	5.898130
914.000000	5.909871
915.000000	5.927570
916.000000	5.898923
917.000000	5.914179
918.000000	5.917259
919.000000	5.920079
920.000000	5.917204
921.000000	5.942138
922.000000	5.946531
923.000000	5.978684
924.000000	5.979738
925.000000	5.995425
926.000000	6.011961
927.000000	6.034058
928.000000	6.054909
929.000000	6.060202
930.000000	6.082568
931.000000	6.105512
932.000000	6.095824
933.000000	6.128628
934.000000	6.155660
935.000000	6.168633
936.000000	6.178239
937.000000	6.194830
938.000000	6.214221
939.000000	6.220522
940.000000	6.247687
941.000000	6.261617
942.000000	6.288515
943.000000	6.298622
944.000000	6.311054
945.000000	6.344916
946.000000	6.361981
947.000000	6.369408
948.000000	6.394410
949.000000	6.411325
950.000000	6.423495
951.000000	6.441793
952.000000	6.468482
953.000000	6.477611
954.000000	6.513529
955.000000	6.512241
956.000000	6.531961
957.000000	6.568373
958.000000	6.594243
959.000000	6.606871
960.000000	6.641480
961.000000	6.665534
962.000000	6.697705
963.000000	6.733736
964.000000	6.753218
965.000000	6.791999
966.000000	6.815567
967.000000	6.839410
968.000000	6.865476
969.000000	6.888539
970.000000	6.919775
971.000000	6.945912
972.000000	6.977701
973.000000	6.989008
974.000000	7.026279
975.000000	7.052579
976.000000	7.084004
977.000000	7.112931
978.000000	7.146792
979.000000	7.168910
980.000000	7.197168
981.000000	7.239979
982.000000	7.283352
983.000000	7.308243
984.000000	7.342492
985.000000	7.378858
986.000000	7.414823
987.000000	7.455677
988.000000	7.489797
989.000000	7.523863
990.000000	7.562448
991.000000	7.601294
992.000000	7.632488
993.000000	7.666769
994.000000	7.699902
995.000000	7.730841
996.000000	7.758922
997.000000	7.796294
998.000000	7.831595
999.000000	7.865716
1000.000000	7.898908
1001.000000	7.925986
1002.000000	7.959107
1003.000000	7.987501
1004.000000	8.013556
1005.000000	8.049360
1006.000000	8.077293
1007.000000	8.114811
1008.000000	8.150974
1009.000000	8.177891
1010.000000	8.205617
1011.000000	8.233223
1012.000000	8.251453
1013.000000	8.269518
1014.000000	8.289604
1015.000000	8.310181
1016.000000	8.330087
1017.000000	8.335920
1018.000000	8.340853
1019.000000	8.345283
1020.000000	8.343330
1021.000000	8.355630
1022.000000	8.368165
1023.000000	8.373777
1024.000000	8.367774
1025.000000	8.368014
1026.000000	8.372834
1027.000000	8.369224
1028.000000	8.376795
1029.000000	8.383764
1030.000000	8.380598
1031.000000	8.384776
1032.000000	8.394990
1033.000000	8.395117
1034.000000	8.403292
1035.000000	8.412377
1036.000000	8.416415
1037.000000	8.417190
1038.000000	8.423385
1039.000000	8.434144
1040.000000	8.437617
1041.000000	8.445917
1042.000000	8.456584
1043.000000	8.462139
1044.000000	8.468613
1045.000000	8.473544
1046.000000	8.478752
1047.000000	8.488210
1048.000000	8.493977
1049.000000	8.496309
1050.000000	8.502678
1051.000000	8.505270
1052.000000	8.503056
1053.000000	8.506968
1054.000000	8.511256
1055.000000	8.511256
1056.000000	8.508173
1057.000000	8.501758
1058.000000	8.490269
1059.000000	8.487034
1060.000000	8.490557
1061.000000	8.494450
1062.000000	8.500116
1063.000000	8.493348
1064.000000	8.492976
1065.000000	8.499774
1066.000000	8.504368
1067.000000	8.507766
1068.000000	8.512474
1069.000000	8.512101
1070.000000	8.512826
1071.000000	8.515337
1072.000000	8.519929
1073.000000	8.525128
1074.000000	8.530385
1075.000000	8.535850
1076.000000	8.540112
1077.000000	8.538379
1078.000000	8.541312
1079.000000	8.549987
1080.000000	8.553289
1081.000000	8.561344
1082.000000	8.564782
1083.000000	8.566020
1084.000000	8.566963
1085.000000	8.562603
1086.000000	8.563071
1087.000000	8.563589
1088.000000	8.572512
1089.000000	8.576618
1090.000000	8.583260
1091.000000	8.582670
1092.000000	8.593138
1093.000000	8.601151
1094.000000	8.600454
1095.000000	8.602989
1096.000000	8.619099
1097.000000	8.609472
1098.000000	8.612972
1099.000000	8.621340
1100.000000	8.625347
1101.000000	8.631442
1102.000000	8.640944
1103.000000	8.645357
1104.000000	8.655042
1105.000000	8.660784
1106.000000	8.672071
1107.000000	8.686469
1108.000000	8.693065
1109.000000	8.706596
1110.000000	8.717148
1111.000000	8.721215
1112.000000	8.727241
1113.000000	8.738946
1114.000000	8.739136
1115.000000	8.752945
1116.000000	8.765959
1117.000000	8.778405
1118.000000	8.785447
1119.000000	8.796388
1120.000000	8.816149
1121.000000	8.832628
1122.000000	8.863253
1123.000000	8.876055
1124.000000	8.909964
1125.000000	8.931471
1126.000000	8.950690
1127.000000	8.978913
1128.000000	9.022813
1129.000000	9.077922
1130.000000	9.131888
1131.000000	9.200100
1132.000000	9.282342
1133.000000	9.412021
1134.000000	9.523872
1135.000000	9.639715
1136.000000	9.783995
1137.000000	9.909574
1138.000000	10.043763
1139.000000	10.185294
1140.000000	10.329097
1141.000000	10.463024
1142.000000	10.605038
1143.000000	10.737742
1144.000000	10.882006
1145.000000	10.997276
1146.000000	11.069287
1147.000000	11.119876
1148.000000	11.132040
1149.000000	11.124612
1150.000000	11.105244
1151.000000	11.089847
1152.000000	11.072545
1153.000000	11.080656
1154.000000	11.096626
1155.000000	11.132086
1156.000000	11.190756
1157.000000	11.267854
1158.000000	11.377880
1159.000000	11.484441
1160.000000	11.613653
1161.000000	11.729442
1162.000000	11.864892
1163.000000	11.992763
1164.000000	12.129263
1165.000000	12.278092
1166.000000	12.409294
1167.000000	12.542114
1168.000000	12.686521
1169.000000	12.820989
1170.000000	12.962616
1171.000000	13.108080
1172.000000	13.240237
1173.000000	13.390421
1174.000000	13.514926
1175.000000	13.655575
1176.000000	13.778542
1177.000000	13.933274
1178.000000	14.111253
1179.000000	14.304704
1180.000000	14.523445
1181.000000	14.766365
1182.000000	15.026439
1183.000000	15.243569
1184.000000	15.426532
1185.000000	15.537853
1186.000000	15.598389
1187.000000	15.599935
1188.000000	15.532087
1189.000000	15.412355
1190.000000	15.243830
1191.000000	15.044795
1192.000000	14.849141
1193.000000	14.656508
1194.000000	14.500024
1195.000000	14.377757
1196.000000	14.287502
1197.000000	14.228566
1198.000000	14.194077
1199.000000	14.178002
1200.000000	14.179317
