PE UV       SUBTECH     SPECTRUM    ASCII       PEDS        4.00        
   -1
CICIMAUCR0012-3.Sample.ASC
24/04/12
09:39:08.00
24/04/12
09:39:08.00
Vinicio Soto Monge
C. cupreomarginata
250,000000
1
Lambda 1050
1050L1511233
PerkinElmer UV WinLab 6.3.2.0749 / 2.02.05 Lambda 900 UV/VIS/NIR, Aug  7 2015 09:38:08

0
0
3350/servo 860,8/2
0
0
UV/VIS
1
1
1
DoubleDePol,CommonBeamDepol,RBeamAtt,SBeamAtt,60mm sphere, WB InGaAs Detector
0
0
0
0
Program
Program
3350/servo 860,8/2
3350/0,2 860,8/0,2
3350/0,2 860,8/0,2
0
15.00
 
 
 
0
 
860,8
319,2
860,8
Front
100
on
S:100 R:100
0
0
0
0
 
0
 
 
 
0
 
 
0
0
0
0
0
 
 
 
 
0
0


0
0
#HDR
-1
-1
#GR
nm
%R
1.0
0.0
2500,000000
-1,000000
2251
8
59,329800
5,000400
#DATA
250.000000	1.023563
251.000000	1.044987
252.000000	1.028000
253.000000	1.007683
254.000000	1.032359
255.000000	1.012242
256.000000	1.019080
257.000000	1.049419
258.000000	1.044166
259.000000	1.028131
260.000000	1.016100
261.000000	1.021639
262.000000	0.993809
263.000000	0.992516
264.000000	0.983840
265.000000	0.970979
266.000000	0.971354
267.000000	0.971185
268.000000	0.980611
269.000000	0.980586
270.000000	0.976216
271.000000	0.984676
272.000000	0.960609
273.000000	0.968757
274.000000	0.964377
275.000000	0.938286
276.000000	0.933134
277.000000	0.935738
278.000000	0.923929
279.000000	0.930358
280.000000	0.930763
281.000000	0.928411
282.000000	0.940642
283.000000	0.934957
284.000000	0.926702
285.000000	0.934414
286.000000	0.917536
287.000000	0.944958
288.000000	0.955474
289.000000	0.931917
290.000000	0.923991
291.000000	0.931567
292.000000	0.926979
293.000000	0.925793
294.000000	0.916410
295.000000	0.907178
296.000000	0.891472
297.000000	0.895000
298.000000	0.887486
299.000000	0.893131
300.000000	0.911937
301.000000	0.925537
302.000000	0.904231
303.000000	0.880746
304.000000	0.893559
305.000000	0.897006
306.000000	0.879686
307.000000	0.874812
308.000000	0.886736
309.000000	0.885656
310.000000	0.886917
311.000000	0.904638
312.000000	0.892100
313.000000	0.885545
314.000000	0.906547
315.000000	0.908556
316.000000	1.018252
317.000000	1.175712
318.000000	1.086893
319.000000	0.994473
320.000000	1.079305
321.000000	1.125178
322.000000	1.104068
323.000000	1.094634
324.000000	1.062739
325.000000	1.108340
326.000000	1.063711
327.000000	0.963658
328.000000	0.954028
329.000000	0.952584
330.000000	0.955991
331.000000	0.913295
332.000000	0.923311
333.000000	0.978265
334.000000	0.928231
335.000000	0.880297
336.000000	0.887145
337.000000	0.926511
338.000000	0.888318
339.000000	0.895816
340.000000	0.896359
341.000000	0.881461
342.000000	0.866639
343.000000	0.864156
344.000000	0.860812
345.000000	0.843001
346.000000	0.871787
347.000000	0.845870
348.000000	0.840451
349.000000	0.810235
350.000000	0.817596
351.000000	0.857555
352.000000	0.856805
353.000000	0.827391
354.000000	0.840391
355.000000	0.858482
356.000000	0.893562
357.000000	0.893260
358.000000	0.853372
359.000000	0.840006
360.000000	0.844062
361.000000	0.865896
362.000000	0.904250
363.000000	0.875065
364.000000	0.879798
365.000000	0.856110
366.000000	0.903952
367.000000	0.903320
368.000000	0.825274
369.000000	0.809745
370.000000	0.861678
371.000000	0.874223
372.000000	0.834623
373.000000	0.818136
374.000000	0.811153
375.000000	0.918396
376.000000	0.931732
377.000000	0.928322
378.000000	0.938076
379.000000	0.946456
380.000000	0.963781
381.000000	0.972199
382.000000	0.982209
383.000000	1.002108
384.000000	1.008951
385.000000	1.022685
386.000000	1.052419
387.000000	1.080392
388.000000	1.100754
389.000000	1.119102
390.000000	1.143157
391.000000	1.180958
392.000000	1.206518
393.000000	1.237256
394.000000	1.265757
395.000000	1.301192
396.000000	1.343539
397.000000	1.383349
398.000000	1.422168
399.000000	1.472798
400.000000	1.522970
401.000000	1.573903
402.000000	1.606000
403.000000	1.658172
404.000000	1.706194
405.000000	1.751321
406.000000	1.803680
407.000000	1.858315
408.000000	1.911994
409.000000	1.959376
410.000000	2.018622
411.000000	2.064293
412.000000	2.096641
413.000000	2.153268
414.000000	2.217274
415.000000	2.276702
416.000000	2.328389
417.000000	2.374946
418.000000	2.423520
419.000000	2.471298
420.000000	2.518607
421.000000	2.568314
422.000000	2.610103
423.000000	2.653032
424.000000	2.698825
425.000000	2.739775
426.000000	2.774461
427.000000	2.809432
428.000000	2.857051
429.000000	2.901021
430.000000	2.935647
431.000000	2.960001
432.000000	2.995258
433.000000	3.034062
434.000000	3.060755
435.000000	3.094150
436.000000	3.135261
437.000000	3.159893
438.000000	3.202814
439.000000	3.226918
440.000000	3.241571
441.000000	3.248395
442.000000	3.262012
443.000000	3.262586
444.000000	3.270244
445.000000	3.278300
446.000000	3.274579
447.000000	3.278699
448.000000	3.272345
449.000000	3.271219
450.000000	3.276254
451.000000	3.282187
452.000000	3.267625
453.000000	3.262528
454.000000	3.274883
455.000000	3.277542
456.000000	3.287709
457.000000	3.300148
458.000000	3.312643
459.000000	3.314633
460.000000	3.329444
461.000000	3.346296
462.000000	3.368288
463.000000	3.385936
464.000000	3.409924
465.000000	3.449996
466.000000	3.472359
467.000000	3.509994
468.000000	3.540952
469.000000	3.585152
470.000000	3.629977
471.000000	3.689205
472.000000	3.746854
473.000000	3.816696
474.000000	3.895230
475.000000	3.971378
476.000000	4.058912
477.000000	4.124502
478.000000	4.204579
479.000000	4.276546
480.000000	4.355578
481.000000	4.425882
482.000000	4.471106
483.000000	4.537790
484.000000	4.598236
485.000000	4.651123
486.000000	4.721732
487.000000	4.777196
488.000000	4.860357
489.000000	4.913665
490.000000	5.005272
491.000000	5.073925
492.000000	5.146249
493.000000	5.234650
494.000000	5.324716
495.000000	5.419666
496.000000	5.530573
497.000000	5.648728
498.000000	5.759496
499.000000	5.894828
500.000000	6.025968
501.000000	6.161742
502.000000	6.302559
503.000000	6.476417
504.000000	6.638604
505.000000	6.792911
506.000000	6.990603
507.000000	7.149489
508.000000	7.354291
509.000000	7.557708
510.000000	7.760710
511.000000	7.972394
512.000000	8.174440
513.000000	8.365454
514.000000	8.559985
515.000000	8.741457
516.000000	8.966600
517.000000	9.179453
518.000000	9.394131
519.000000	9.594269
520.000000	9.795423
521.000000	9.974537
522.000000	10.184790
523.000000	10.362218
524.000000	10.540146
525.000000	10.736282
526.000000	10.951766
527.000000	11.128461
528.000000	11.322265
529.000000	11.509068
530.000000	11.674018
531.000000	11.836301
532.000000	11.995883
533.000000	12.146586
534.000000	12.296562
535.000000	12.439986
536.000000	12.560779
537.000000	12.680984
538.000000	12.785788
539.000000	12.878493
540.000000	12.981936
541.000000	13.089599
542.000000	13.180613
543.000000	13.276616
544.000000	13.377190
545.000000	13.468992
546.000000	13.525548
547.000000	13.574984
548.000000	13.650800
549.000000	13.718843
550.000000	13.763953
551.000000	13.766138
552.000000	13.813046
553.000000	13.820054
554.000000	13.825526
555.000000	13.821171
556.000000	13.820963
557.000000	13.847357
558.000000	13.843812
559.000000	13.842455
560.000000	13.819698
561.000000	13.793246
562.000000	13.779232
563.000000	13.778824
564.000000	13.767545
565.000000	13.758132
566.000000	13.747272
567.000000	13.752371
568.000000	13.748649
569.000000	13.722405
570.000000	13.696252
571.000000	13.645813
572.000000	13.602057
573.000000	13.551858
574.000000	13.491431
575.000000	13.401542
576.000000	13.311694
577.000000	13.250591
578.000000	13.139899
579.000000	13.044867
580.000000	12.940999
581.000000	12.851407
582.000000	12.748665
583.000000	12.646947
584.000000	12.544084
585.000000	12.455846
586.000000	12.385105
587.000000	12.273693
588.000000	12.162554
589.000000	12.067347
590.000000	11.987129
591.000000	11.895099
592.000000	11.792573
593.000000	11.650923
594.000000	11.505913
595.000000	11.372683
596.000000	11.211940
597.000000	11.057880
598.000000	10.926263
599.000000	10.763793
600.000000	10.585596
601.000000	10.398932
602.000000	10.224396
603.000000	10.049454
604.000000	9.878679
605.000000	9.692363
606.000000	9.518929
607.000000	9.363223
608.000000	9.206472
609.000000	9.062970
610.000000	8.942831
611.000000	8.824183
612.000000	8.707606
613.000000	8.605873
614.000000	8.504175
615.000000	8.432561
616.000000	8.364512
617.000000	8.288388
618.000000	8.223652
619.000000	8.153407
620.000000	8.090383
621.000000	8.020937
622.000000	7.975742
623.000000	7.948341
624.000000	7.941661
625.000000	7.942438
626.000000	7.953269
627.000000	7.974707
628.000000	8.004465
629.000000	8.040424
630.000000	8.092900
631.000000	8.163332
632.000000	8.227655
633.000000	8.302005
634.000000	8.382227
635.000000	8.450926
636.000000	8.526954
637.000000	8.612259
638.000000	8.701107
639.000000	8.775039
640.000000	8.831619
641.000000	8.904416
642.000000	8.969110
643.000000	9.024110
644.000000	9.082491
645.000000	9.132107
646.000000	9.172446
647.000000	9.236289
648.000000	9.282469
649.000000	9.324766
650.000000	9.376919
651.000000	9.418875
652.000000	9.460368
653.000000	9.493837
654.000000	9.531621
655.000000	9.578181
656.000000	9.603139
657.000000	9.616904
658.000000	9.646660
659.000000	9.694129
660.000000	9.734656
661.000000	9.766789
662.000000	9.787864
663.000000	9.802487
664.000000	9.821688
665.000000	9.851431
666.000000	9.847518
667.000000	9.846073
668.000000	9.862272
669.000000	9.868416
670.000000	9.874496
671.000000	9.875569
672.000000	9.870208
673.000000	9.883278
674.000000	9.898554
675.000000	9.923537
676.000000	9.920952
677.000000	9.917427
678.000000	9.935313
679.000000	9.978583
680.000000	10.001222
681.000000	10.007214
682.000000	10.020577
683.000000	10.038559
684.000000	10.036063
685.000000	10.051239
686.000000	10.080163
687.000000	10.114251
688.000000	10.109128
689.000000	10.127707
690.000000	10.164406
691.000000	10.185900
692.000000	10.199438
693.000000	10.204641
694.000000	10.201077
695.000000	10.206310
696.000000	10.240062
697.000000	10.253346
698.000000	10.263054
699.000000	10.291964
700.000000	10.290324
701.000000	10.310748
702.000000	10.350511
703.000000	10.360922
704.000000	10.367532
705.000000	10.367121
706.000000	10.367927
707.000000	10.377527
708.000000	10.384672
709.000000	10.388318
710.000000	10.405244
711.000000	10.409274
712.000000	10.387387
713.000000	10.373510
714.000000	10.398828
715.000000	10.363190
716.000000	10.316977
717.000000	10.329531
718.000000	10.367147
719.000000	10.364117
720.000000	10.357213
721.000000	10.351713
722.000000	10.371240
723.000000	10.341961
724.000000	10.360754
725.000000	10.371349
726.000000	10.408749
727.000000	10.396932
728.000000	10.394105
729.000000	10.409978
730.000000	10.390727
731.000000	10.372919
732.000000	10.432636
733.000000	10.433449
734.000000	10.444627
735.000000	10.405447
736.000000	10.401957
737.000000	10.391625
738.000000	10.369339
739.000000	10.361236
740.000000	10.354463
741.000000	10.324945
742.000000	10.358004
743.000000	10.355421
744.000000	10.345412
745.000000	10.311293
746.000000	10.322229
747.000000	10.288240
748.000000	10.291184
749.000000	10.275502
750.000000	10.290816
751.000000	10.285265
752.000000	10.231661
753.000000	10.258159
754.000000	10.168833
755.000000	10.214568
756.000000	10.176982
757.000000	10.159991
758.000000	10.166391
759.000000	10.109741
760.000000	10.183735
761.000000	10.117775
762.000000	10.154691
763.000000	10.157693
764.000000	10.144127
765.000000	10.117759
766.000000	10.119339
767.000000	10.188224
768.000000	10.136568
769.000000	10.145266
770.000000	10.140142
771.000000	10.202499
772.000000	10.209560
773.000000	10.144601
774.000000	10.190092
775.000000	10.200703
776.000000	10.223509
777.000000	10.200739
778.000000	10.189372
779.000000	10.204269
780.000000	10.182048
781.000000	10.264541
782.000000	10.281009
783.000000	10.259148
784.000000	10.389930
785.000000	10.401888
786.000000	10.377656
787.000000	10.409271
788.000000	10.327875
789.000000	10.416897
790.000000	10.469082
791.000000	10.470075
792.000000	10.432518
793.000000	10.454960
794.000000	10.510944
795.000000	10.465941
796.000000	10.455733
797.000000	10.498566
798.000000	10.425464
799.000000	10.426189
800.000000	10.476171
801.000000	10.519075
802.000000	10.462752
803.000000	10.416006
804.000000	10.527889
805.000000	10.550171
806.000000	10.521997
807.000000	10.499052
808.000000	10.492141
809.000000	10.448086
810.000000	10.435603
811.000000	10.418075
812.000000	10.497852
813.000000	10.534194
814.000000	10.561822
815.000000	10.573670
816.000000	10.481482
817.000000	10.439248
818.000000	10.502344
819.000000	10.418141
820.000000	10.493637
821.000000	10.437216
822.000000	10.327274
823.000000	10.386183
824.000000	10.318143
825.000000	10.433509
826.000000	10.384231
827.000000	10.420168
828.000000	10.266605
829.000000	10.396082
830.000000	10.321296
831.000000	10.315725
832.000000	10.303917
833.000000	10.300920
834.000000	10.198956
835.000000	10.197545
836.000000	10.351808
837.000000	10.204349
838.000000	10.149227
839.000000	10.056885
840.000000	10.117456
841.000000	9.983155
842.000000	9.990735
843.000000	9.878377
844.000000	10.010705
845.000000	9.802499
846.000000	9.795210
847.000000	9.715971
848.000000	9.730280
849.000000	9.667857
850.000000	9.634831
851.000000	9.680840
852.000000	9.515587
853.000000	9.568804
854.000000	9.711628
855.000000	9.708268
856.000000	9.493517
857.000000	9.189527
858.000000	7.857357
859.000000	9.395694
860.000000	9.594629
861.000000	9.120501
862.000000	8.687730
863.000000	9.029347
864.000000	9.276933
865.000000	8.917281
866.000000	9.098975
867.000000	9.302437
868.000000	8.748760
869.000000	9.084248
870.000000	8.973175
871.000000	8.783012
872.000000	9.132981
873.000000	8.626820
874.000000	8.876602
875.000000	8.455907
876.000000	8.222920
877.000000	8.531876
878.000000	8.804392
879.000000	8.472097
880.000000	8.629837
881.000000	8.780747
882.000000	8.476016
883.000000	8.537012
884.000000	8.639827
885.000000	8.570356
886.000000	8.579150
887.000000	8.433913
888.000000	8.463940
889.000000	8.225778
890.000000	8.330909
891.000000	8.375277
892.000000	8.212245
893.000000	8.265434
894.000000	8.117951
895.000000	8.171254
896.000000	8.339902
897.000000	8.222412
898.000000	8.167912
899.000000	8.046287
900.000000	8.177394
901.000000	8.237468
902.000000	8.150641
903.000000	8.148606
904.000000	8.132989
905.000000	8.193881
906.000000	8.190900
907.000000	8.158383
908.000000	8.240724
909.000000	8.076789
910.000000	7.995197
911.000000	7.989519
912.000000	8.087808
913.000000	8.097134
914.000000	7.962214
915.000000	8.022923
916.000000	8.060771
917.000000	7.936786
918.000000	7.923775
919.000000	7.874497
920.000000	7.924456
921.000000	7.979745
922.000000	7.954244
923.000000	7.861826
924.000000	7.888202
925.000000	7.962251
926.000000	7.954010
927.000000	7.966634
928.000000	7.925974
929.000000	7.890093
930.000000	7.870704
931.000000	7.837476
932.000000	7.818444
933.000000	7.854640
934.000000	7.808888
935.000000	7.760115
936.000000	7.768673
937.000000	7.753439
938.000000	7.782879
939.000000	7.831236
940.000000	7.843792
941.000000	7.782067
942.000000	7.762762
943.000000	7.820692
944.000000	7.835499
945.000000	7.801330
946.000000	7.738808
947.000000	7.719389
948.000000	7.771980
949.000000	7.784371
950.000000	7.730853
951.000000	7.699641
952.000000	7.687824
953.000000	7.722464
954.000000	7.724205
955.000000	7.711993
956.000000	7.724913
957.000000	7.728106
958.000000	7.745256
959.000000	7.759827
960.000000	7.725113
961.000000	7.723995
962.000000	7.752394
963.000000	7.735838
964.000000	7.729081
965.000000	7.774942
966.000000	7.785921
967.000000	7.745229
968.000000	7.772369
969.000000	7.800425
970.000000	7.776809
971.000000	7.756327
972.000000	7.777834
973.000000	7.735390
974.000000	7.771039
975.000000	7.770218
976.000000	7.769931
977.000000	7.732678
978.000000	7.751639
979.000000	7.795016
980.000000	7.768413
981.000000	7.753823
982.000000	7.777416
983.000000	7.816361
984.000000	7.828665
985.000000	7.832544
986.000000	7.836893
987.000000	7.866418
988.000000	7.835119
989.000000	7.833072
990.000000	7.807459
991.000000	7.833735
992.000000	7.837430
993.000000	7.817607
994.000000	7.810523
995.000000	7.826520
996.000000	7.824714
997.000000	7.850606
998.000000	7.827469
999.000000	7.827713
1000.000000	7.857453
1001.000000	7.855319
1002.000000	7.869146
1003.000000	7.891576
1004.000000	7.832285
1005.000000	7.851077
1006.000000	7.824072
1007.000000	7.874487
1008.000000	7.874265
1009.000000	7.835859
1010.000000	7.824219
1011.000000	7.828058
1012.000000	7.814692
1013.000000	7.815841
1014.000000	7.835442
1015.000000	7.790729
1016.000000	7.763767
1017.000000	7.806805
1018.000000	7.851216
1019.000000	7.856495
1020.000000	7.853430
1021.000000	7.854971
1022.000000	7.880937
1023.000000	7.858455
1024.000000	7.832423
1025.000000	7.842798
1026.000000	7.859389
1027.000000	7.881793
1028.000000	7.887611
1029.000000	7.878483
1030.000000	7.888911
1031.000000	7.867663
1032.000000	7.877631
1033.000000	7.866126
1034.000000	7.894394
1035.000000	7.876167
1036.000000	7.867940
1037.000000	7.884656
1038.000000	7.887286
1039.000000	7.898209
1040.000000	7.883748
1041.000000	7.912761
1042.000000	7.937826
1043.000000	7.930246
1044.000000	7.917763
1045.000000	7.919792
1046.000000	7.889830
1047.000000	7.917718
1048.000000	7.933751
1049.000000	7.925870
1050.000000	7.928918
1051.000000	7.901598
1052.000000	7.945302
1053.000000	7.954807
1054.000000	7.947828
1055.000000	7.944592
1056.000000	8.001076
1057.000000	7.975681
1058.000000	7.955113
1059.000000	7.972953
1060.000000	7.941863
1061.000000	7.982709
1062.000000	7.958316
1063.000000	7.948405
1064.000000	8.001079
1065.000000	7.976250
1066.000000	7.978108
1067.000000	7.968141
1068.000000	7.962847
1069.000000	7.994125
1070.000000	7.979834
1071.000000	8.041300
1072.000000	8.008772
1073.000000	8.013906
1074.000000	7.995838
1075.000000	7.957528
1076.000000	8.027127
1077.000000	7.984791
1078.000000	7.975814
1079.000000	7.934250
1080.000000	7.940875
1081.000000	7.937834
1082.000000	7.964653
1083.000000	7.971318
1084.000000	8.005367
1085.000000	7.950373
1086.000000	7.974444
1087.000000	7.962606
1088.000000	7.944378
1089.000000	7.945559
1090.000000	7.979586
1091.000000	7.966925
1092.000000	7.955938
1093.000000	7.977151
1094.000000	7.973250
1095.000000	7.973433
1096.000000	7.965383
1097.000000	7.943979
1098.000000	7.944152
1099.000000	7.967748
1100.000000	7.955458
1101.000000	7.945378
1102.000000	7.942034
1103.000000	7.955366
1104.000000	7.955739
1105.000000	7.948264
1106.000000	7.941044
1107.000000	7.920985
1108.000000	7.899543
1109.000000	7.893061
1110.000000	7.919101
1111.000000	7.916543
1112.000000	7.927144
1113.000000	7.893408
1114.000000	7.911890
1115.000000	7.893701
1116.000000	7.887641
1117.000000	7.877902
1118.000000	7.897344
1119.000000	7.901390
1120.000000	7.890496
1121.000000	7.893846
1122.000000	7.884562
1123.000000	7.888628
1124.000000	7.873392
1125.000000	7.861117
1126.000000	7.883771
1127.000000	7.870767
1128.000000	7.866585
1129.000000	7.878435
1130.000000	7.877345
1131.000000	7.875175
1132.000000	7.863164
1133.000000	7.863977
1134.000000	7.875810
1135.000000	7.894653
1136.000000	7.909154
1137.000000	7.895240
1138.000000	7.880932
1139.000000	7.862704
1140.000000	7.839659
1141.000000	7.839213
1142.000000	7.837284
1143.000000	7.819947
1144.000000	7.811272
1145.000000	7.814636
1146.000000	7.822411
1147.000000	7.829764
1148.000000	7.808072
1149.000000	7.782804
1150.000000	7.802506
1151.000000	7.783995
1152.000000	7.789597
1153.000000	7.778266
1154.000000	7.763008
1155.000000	7.763219
1156.000000	7.760985
1157.000000	7.769284
1158.000000	7.778521
1159.000000	7.776756
1160.000000	7.762771
1161.000000	7.768888
1162.000000	7.742951
1163.000000	7.737746
1164.000000	7.726170
1165.000000	7.693315
1166.000000	7.684088
1167.000000	7.685659
1168.000000	7.687238
1169.000000	7.685557
1170.000000	7.652407
1171.000000	7.639503
1172.000000	7.624231
1173.000000	7.609575
1174.000000	7.618662
1175.000000	7.598818
1176.000000	7.591157
1177.000000	7.588209
1178.000000	7.566017
1179.000000	7.563988
1180.000000	7.548303
1181.000000	7.535887
1182.000000	7.534496
1183.000000	7.534803
1184.000000	7.515846
1185.000000	7.495244
1186.000000	7.499833
1187.000000	7.507245
1188.000000	7.489283
1189.000000	7.491451
1190.000000	7.504685
1191.000000	7.511183
