PE UV       SUBTECH     SPECTRUM    ASCII       PEDS        4.00        
   -1
CICIMAUCR0108-3.Sample.ASC
24/04/22
10:06:33.00
24/04/22
10:06:33.00
Vinicio Soto Monge
C. resplendens
250,000000
1
Lambda 1050
1050L1511233
PerkinElmer UV WinLab 6.3.2.0749 / 2.02.05 Lambda 900 UV/VIS/NIR, Aug  7 2015 09:38:08

0
0
3350/servo 860,8/2
0
0
UV/VIS
1
1
1
DoubleDePol,CommonBeamDepol,RBeamAtt,SBeamAtt,60mm sphere, WB InGaAs Detector
0
0
0
0
Program
Program
3350/servo 860,8/2
3350/0,2 860,8/0,2
3350/0,2 860,8/0,2
0
15.00
 
 
 
0
 
860,8
319,2
860,8
Front
100
on
S:100 R:100
0
0
0
0
 
0
 
 
 
0
 
 
0
0
0
0
0
 
 
 
 
0
0


0
0
#HDR
-1
-1
#GR
nm
%R
1.0
0.0
2500,000000
-1,000000
2251
8
82,967800
5,292400
#DATA
250.000000	0.178098
251.000000	0.204104
252.000000	0.214499
253.000000	0.188064
254.000000	0.171902
255.000000	0.194254
256.000000	0.165291
257.000000	0.192714
258.000000	0.148012
259.000000	0.186194
260.000000	0.178397
261.000000	0.218139
262.000000	0.170382
263.000000	0.182441
264.000000	0.199821
265.000000	0.205971
266.000000	0.166065
267.000000	0.198370
268.000000	0.205369
269.000000	0.165237
270.000000	0.188722
271.000000	0.190209
272.000000	0.182657
273.000000	0.188948
274.000000	0.168301
275.000000	0.158129
276.000000	0.145918
277.000000	0.191867
278.000000	0.164198
279.000000	0.186514
280.000000	0.175878
281.000000	0.156822
282.000000	0.142990
283.000000	0.165634
284.000000	0.202893
285.000000	0.191071
286.000000	0.162791
287.000000	0.168077
288.000000	0.136752
289.000000	0.178911
290.000000	0.176827
291.000000	0.163993
292.000000	0.146605
293.000000	0.168620
294.000000	0.164178
295.000000	0.167579
296.000000	0.164990
297.000000	0.167602
298.000000	0.166949
299.000000	0.147646
300.000000	0.180100
301.000000	0.142993
302.000000	0.145022
303.000000	0.176131
304.000000	0.174902
305.000000	0.147159
306.000000	0.156655
307.000000	0.185508
308.000000	0.172428
309.000000	0.170345
310.000000	0.154859
311.000000	0.185318
312.000000	0.168431
313.000000	0.160264
314.000000	0.171540
315.000000	0.182222
316.000000	0.206645
317.000000	0.578051
318.000000	0.588192
319.000000	0.443494
320.000000	0.298965
321.000000	0.401897
322.000000	0.320045
323.000000	0.379868
324.000000	0.310362
325.000000	0.294896
326.000000	0.318993
327.000000	0.273882
328.000000	0.302468
329.000000	0.244544
330.000000	0.231725
331.000000	0.202534
332.000000	0.302857
333.000000	0.295531
334.000000	0.271902
335.000000	0.278557
336.000000	0.227754
337.000000	0.301848
338.000000	0.236608
339.000000	0.212798
340.000000	0.220550
341.000000	0.268120
342.000000	0.210559
343.000000	0.268371
344.000000	0.234951
345.000000	0.197699
346.000000	0.285571
347.000000	0.262969
348.000000	0.215358
349.000000	0.178647
350.000000	0.192245
351.000000	0.168289
352.000000	0.225949
353.000000	0.211810
354.000000	0.206052
355.000000	0.219770
356.000000	0.188252
357.000000	0.181452
358.000000	0.137517
359.000000	0.157678
360.000000	0.170022
361.000000	0.123534
362.000000	0.166342
363.000000	0.196301
364.000000	0.196082
365.000000	0.165896
366.000000	0.131773
367.000000	0.127167
368.000000	0.141378
369.000000	0.138108
370.000000	0.123168
371.000000	0.135934
372.000000	0.122497
373.000000	0.126661
374.000000	0.112266
375.000000	0.097981
376.000000	0.105857
377.000000	0.170162
378.000000	0.168850
379.000000	0.168691
380.000000	0.181544
381.000000	0.182645
382.000000	0.169152
383.000000	0.177505
384.000000	0.178862
385.000000	0.178219
386.000000	0.173465
387.000000	0.174150
388.000000	0.173391
389.000000	0.179131
390.000000	0.187831
391.000000	0.190290
392.000000	0.189024
393.000000	0.211206
394.000000	0.221436
395.000000	0.231300
396.000000	0.239231
397.000000	0.243943
398.000000	0.260798
399.000000	0.290787
400.000000	0.306891
401.000000	0.332202
402.000000	0.365159
403.000000	0.384350
404.000000	0.404151
405.000000	0.427335
406.000000	0.455345
407.000000	0.493913
408.000000	0.531359
409.000000	0.555737
410.000000	0.589438
411.000000	0.626927
412.000000	0.663156
413.000000	0.685989
414.000000	0.713016
415.000000	0.746113
416.000000	0.772284
417.000000	0.797601
418.000000	0.826105
419.000000	0.842751
420.000000	0.859837
421.000000	0.868374
422.000000	0.876236
423.000000	0.885622
424.000000	0.881054
425.000000	0.870958
426.000000	0.861086
427.000000	0.849319
428.000000	0.832386
429.000000	0.812859
430.000000	0.785912
431.000000	0.765651
432.000000	0.738740
433.000000	0.709644
434.000000	0.675319
435.000000	0.641975
436.000000	0.632824
437.000000	0.618645
438.000000	0.587392
439.000000	0.568556
440.000000	0.553211
441.000000	0.537755
442.000000	0.538018
443.000000	0.545187
444.000000	0.544320
445.000000	0.539551
446.000000	0.556952
447.000000	0.581323
448.000000	0.592076
449.000000	0.615687
450.000000	0.640399
451.000000	0.660975
452.000000	0.671840
453.000000	0.688926
454.000000	0.704474
455.000000	0.720325
456.000000	0.744010
457.000000	0.766409
458.000000	0.790776
459.000000	0.817330
460.000000	0.835152
461.000000	0.845238
462.000000	0.857479
463.000000	0.864389
464.000000	0.887106
465.000000	0.895572
466.000000	0.902336
467.000000	0.922403
468.000000	0.927845
469.000000	0.934908
470.000000	0.935863
471.000000	0.930398
472.000000	0.935953
473.000000	0.938552
474.000000	0.936272
475.000000	0.912277
476.000000	0.905180
477.000000	0.889323
478.000000	0.872123
479.000000	0.864771
480.000000	0.827131
481.000000	0.794629
482.000000	0.778330
483.000000	0.738371
484.000000	0.697057
485.000000	0.657844
486.000000	0.627946
487.000000	0.594758
488.000000	0.571964
489.000000	0.567662
490.000000	0.562009
491.000000	0.586928
492.000000	0.614104
493.000000	0.634989
494.000000	0.678474
495.000000	0.722152
496.000000	0.771017
497.000000	0.801376
498.000000	0.839224
499.000000	0.885531
500.000000	0.942542
501.000000	0.988583
502.000000	1.032083
503.000000	1.080922
504.000000	1.134844
505.000000	1.187804
506.000000	1.231287
507.000000	1.290477
508.000000	1.377667
509.000000	1.432623
510.000000	1.498348
511.000000	1.593121
512.000000	1.691768
513.000000	1.801992
514.000000	1.924329
515.000000	2.045547
516.000000	2.168597
517.000000	2.299979
518.000000	2.436319
519.000000	2.588409
520.000000	2.733177
521.000000	2.860488
522.000000	2.980304
523.000000	3.089761
524.000000	3.195256
525.000000	3.273683
526.000000	3.350268
527.000000	3.393870
528.000000	3.420718
529.000000	3.415779
530.000000	3.376959
531.000000	3.347986
532.000000	3.284446
533.000000	3.217791
534.000000	3.110925
535.000000	3.008507
536.000000	2.920702
537.000000	2.855568
538.000000	2.787033
539.000000	2.734815
540.000000	2.675728
541.000000	2.654935
542.000000	2.639427
543.000000	2.635244
544.000000	2.632522
545.000000	2.643902
546.000000	2.701145
547.000000	2.712358
548.000000	2.758012
549.000000	2.779395
550.000000	2.846490
551.000000	2.921165
552.000000	2.957482
553.000000	3.011230
554.000000	3.072420
555.000000	3.139878
556.000000	3.196042
557.000000	3.239348
558.000000	3.303385
559.000000	3.385798
560.000000	3.517242
561.000000	3.550611
562.000000	3.614933
563.000000	3.645255
564.000000	3.675820
565.000000	3.704688
566.000000	3.737323
567.000000	3.768667
568.000000	3.802535
569.000000	3.829212
570.000000	3.884680
571.000000	3.867495
572.000000	3.901580
573.000000	3.963356
574.000000	3.956182
575.000000	3.990425
576.000000	4.007418
577.000000	4.031222
578.000000	4.077378
579.000000	4.103731
580.000000	4.127984
581.000000	4.139579
582.000000	4.157867
583.000000	4.197912
584.000000	4.228859
585.000000	4.243797
586.000000	4.291766
587.000000	4.325634
588.000000	4.332732
589.000000	4.380296
590.000000	4.430636
591.000000	4.453713
592.000000	4.503963
593.000000	4.525905
594.000000	4.585166
595.000000	4.617548
596.000000	4.622950
597.000000	4.688891
598.000000	4.694646
599.000000	4.722932
600.000000	4.740027
601.000000	4.782815
602.000000	4.770574
603.000000	4.810459
604.000000	4.842711
605.000000	4.899716
606.000000	4.931780
607.000000	4.973076
608.000000	5.035355
609.000000	5.075148
610.000000	5.153194
611.000000	5.226639
612.000000	5.300177
613.000000	5.399824
614.000000	5.412621
615.000000	5.447317
616.000000	5.498824
617.000000	5.504379
618.000000	5.487113
619.000000	5.493006
620.000000	5.458087
621.000000	5.435281
622.000000	5.379313
623.000000	5.345478
624.000000	5.267956
625.000000	5.237800
626.000000	5.132079
627.000000	5.047299
628.000000	5.000366
629.000000	4.920614
630.000000	4.833551
631.000000	4.717683
632.000000	4.613997
633.000000	4.527495
634.000000	4.376043
635.000000	4.208306
636.000000	4.018548
637.000000	3.791295
638.000000	3.581006
639.000000	3.285979
640.000000	3.004675
641.000000	2.670996
642.000000	2.361883
643.000000	2.062283
644.000000	1.745051
645.000000	1.430128
646.000000	1.200353
647.000000	0.941392
648.000000	0.747753
649.000000	0.621926
650.000000	0.609265
651.000000	0.669894
652.000000	0.787670
653.000000	0.926397
654.000000	1.075556
655.000000	1.190874
656.000000	1.302473
657.000000	1.422822
658.000000	1.465158
659.000000	1.520235
660.000000	1.570185
661.000000	1.579342
662.000000	1.602927
663.000000	1.595765
664.000000	1.569895
665.000000	1.511175
666.000000	1.490737
667.000000	1.455334
668.000000	1.393959
669.000000	1.367650
670.000000	1.348148
671.000000	1.292164
672.000000	1.331506
673.000000	1.346461
674.000000	1.383832
675.000000	1.432711
676.000000	1.498104
677.000000	1.554551
678.000000	1.617861
679.000000	1.701898
680.000000	1.737019
681.000000	1.753674
682.000000	1.812888
683.000000	1.836269
684.000000	1.859227
685.000000	1.854336
686.000000	1.896122
687.000000	1.925470
688.000000	1.996270
689.000000	2.026903
690.000000	2.042461
691.000000	2.063304
692.000000	2.118731
693.000000	2.150288
694.000000	2.128661
695.000000	2.184983
696.000000	2.178694
697.000000	2.179987
698.000000	2.174973
699.000000	2.135083
700.000000	2.151069
701.000000	2.126674
702.000000	2.091607
703.000000	2.065755
704.000000	2.003744
705.000000	1.952154
706.000000	1.921280
707.000000	1.855741
708.000000	1.784684
709.000000	1.725209
710.000000	1.693254
711.000000	1.647738
712.000000	1.598042
713.000000	1.551462
714.000000	1.509881
715.000000	1.491075
716.000000	1.471982
717.000000	1.428390
718.000000	1.368779
719.000000	1.377491
720.000000	1.385219
721.000000	1.338763
722.000000	1.350119
723.000000	1.353477
724.000000	1.372500
725.000000	1.398263
726.000000	1.375233
727.000000	1.377416
728.000000	1.399633
729.000000	1.455564
730.000000	1.508519
731.000000	1.533884
732.000000	1.520826
733.000000	1.543660
734.000000	1.592578
735.000000	1.618190
736.000000	1.657756
737.000000	1.747328
738.000000	1.820794
739.000000	1.863006
740.000000	1.907839
741.000000	1.918494
742.000000	1.923655
743.000000	1.997934
744.000000	2.026025
745.000000	2.071257
746.000000	2.103821
747.000000	2.075641
748.000000	2.083079
749.000000	2.110881
750.000000	2.147752
751.000000	2.177990
752.000000	2.212411
753.000000	2.273002
754.000000	2.313278
755.000000	2.308897
756.000000	2.295686
757.000000	2.279535
758.000000	2.324586
759.000000	2.332702
760.000000	2.321092
761.000000	2.348720
762.000000	2.363977
763.000000	2.356367
764.000000	2.353116
765.000000	2.299725
766.000000	2.287652
767.000000	2.313716
768.000000	2.341847
769.000000	2.362180
770.000000	2.383279
771.000000	2.388493
772.000000	2.402185
773.000000	2.408929
774.000000	2.499835
775.000000	2.472739
776.000000	2.447382
777.000000	2.487086
778.000000	2.521338
779.000000	2.519295
780.000000	2.485239
781.000000	2.485149
782.000000	2.506167
783.000000	2.470641
784.000000	2.389174
785.000000	2.347781
786.000000	2.391566
787.000000	2.380194
788.000000	2.270199
789.000000	2.241555
790.000000	2.262645
791.000000	2.221002
792.000000	2.210129
793.000000	2.194644
794.000000	2.176111
795.000000	2.160109
796.000000	2.054879
797.000000	2.035266
798.000000	2.037549
799.000000	2.004248
800.000000	1.984457
801.000000	1.902512
802.000000	1.798820
803.000000	1.788811
804.000000	1.776167
805.000000	1.759058
806.000000	1.817926
807.000000	1.819795
808.000000	1.783066
809.000000	1.731135
810.000000	1.749297
811.000000	1.864749
812.000000	1.870518
813.000000	1.846843
814.000000	1.951330
815.000000	2.069752
816.000000	2.108969
817.000000	2.080246
818.000000	2.261630
819.000000	2.322283
820.000000	2.324056
821.000000	2.362321
822.000000	2.368575
823.000000	2.383691
824.000000	2.305968
825.000000	2.529471
826.000000	2.477242
827.000000	2.362965
828.000000	2.497838
829.000000	2.552856
830.000000	2.636783
831.000000	2.414560
832.000000	2.485402
833.000000	2.563410
834.000000	2.441090
835.000000	2.493660
836.000000	2.585318
837.000000	2.564995
838.000000	2.497546
839.000000	2.391928
840.000000	2.448737
841.000000	2.502388
842.000000	2.555860
843.000000	2.459187
844.000000	2.537749
845.000000	2.504356
846.000000	2.264821
847.000000	2.232890
848.000000	2.309803
849.000000	2.325941
850.000000	2.317280
851.000000	2.526539
852.000000	2.461070
853.000000	2.362739
854.000000	2.471918
855.000000	2.415640
856.000000	2.582566
857.000000	2.233981
858.000000	2.407705
859.000000	2.695373
860.000000	2.617905
861.000000	2.537364
862.000000	2.499835
863.000000	2.442831
864.000000	2.414713
865.000000	2.351016
866.000000	2.302951
867.000000	2.289493
868.000000	2.243140
869.000000	2.210983
870.000000	2.186635
871.000000	2.156330
872.000000	2.148434
873.000000	2.112668
874.000000	2.074886
875.000000	2.049912
876.000000	2.010233
877.000000	1.996736
878.000000	1.971345
879.000000	1.951342
880.000000	1.936508
881.000000	1.898021
882.000000	1.878477
883.000000	1.860454
884.000000	1.830933
885.000000	1.811921
886.000000	1.787356
887.000000	1.772957
888.000000	1.761792
889.000000	1.744995
890.000000	1.730038
891.000000	1.717741
892.000000	1.693169
893.000000	1.690912
894.000000	1.685975
895.000000	1.670650
896.000000	1.658426
897.000000	1.656643
898.000000	1.656507
899.000000	1.653744
900.000000	1.659694
901.000000	1.650644
902.000000	1.659227
903.000000	1.654291
904.000000	1.640875
905.000000	1.643786
906.000000	1.643992
907.000000	1.648935
908.000000	1.685008
909.000000	1.675823
910.000000	1.661233
911.000000	1.650519
912.000000	1.649954
913.000000	1.678070
914.000000	1.675999
915.000000	1.680158
916.000000	1.670939
917.000000	1.666120
918.000000	1.669090
919.000000	1.662239
920.000000	1.645447
921.000000	1.647305
922.000000	1.672822
923.000000	1.658252
924.000000	1.650518
925.000000	1.645973
926.000000	1.634299
927.000000	1.648542
928.000000	1.656308
929.000000	1.663046
930.000000	1.672778
931.000000	1.702525
932.000000	1.711390
933.000000	1.714640
934.000000	1.737550
935.000000	1.753291
936.000000	1.781744
937.000000	1.818040
938.000000	1.832448
939.000000	1.871616
940.000000	1.879196
941.000000	1.901997
942.000000	1.957686
943.000000	1.969896
944.000000	2.000113
945.000000	2.030176
946.000000	2.075890
947.000000	2.111221
948.000000	2.161253
949.000000	2.197378
950.000000	2.233006
951.000000	2.311209
952.000000	2.338470
953.000000	2.375718
954.000000	2.426757
955.000000	2.479341
956.000000	2.545936
957.000000	2.585861
958.000000	2.634538
959.000000	2.677038
960.000000	2.742766
961.000000	2.796646
962.000000	2.849989
963.000000	2.900972
964.000000	2.950699
965.000000	3.009944
966.000000	3.060354
967.000000	3.114811
968.000000	3.159002
969.000000	3.222418
970.000000	3.263043
971.000000	3.303674
972.000000	3.349721
973.000000	3.401715
974.000000	3.448224
975.000000	3.482075
976.000000	3.532775
977.000000	3.569493
978.000000	3.607239
979.000000	3.637233
980.000000	3.677847
981.000000	3.714381
982.000000	3.766897
983.000000	3.795301
984.000000	3.823348
985.000000	3.862293
986.000000	3.900316
987.000000	3.942934
988.000000	3.981173
989.000000	4.010354
990.000000	4.035470
991.000000	4.056926
992.000000	4.097338
993.000000	4.131236
994.000000	4.149040
995.000000	4.176623
996.000000	4.202900
997.000000	4.235476
998.000000	4.257654
999.000000	4.288697
1000.000000	4.318562
1001.000000	4.332354
1002.000000	4.369196
1003.000000	4.394442
1004.000000	4.411308
1005.000000	4.446680
1006.000000	4.479820
1007.000000	4.505018
1008.000000	4.533660
1009.000000	4.571257
1010.000000	4.594082
1011.000000	4.624222
1012.000000	4.658518
1013.000000	4.696392
1014.000000	4.725420
1015.000000	4.743756
1016.000000	4.767581
1017.000000	4.789377
1018.000000	4.813400
1019.000000	4.849535
1020.000000	4.868291
1021.000000	4.882283
1022.000000	4.907181
1023.000000	4.933709
1024.000000	4.962143
1025.000000	4.979381
1026.000000	4.994968
1027.000000	5.013686
1028.000000	5.033199
1029.000000	5.067892
1030.000000	5.096434
1031.000000	5.112998
1032.000000	5.150866
1033.000000	5.177711
1034.000000	5.195667
1035.000000	5.223696
1036.000000	5.253937
1037.000000	5.278802
1038.000000	5.299212
1039.000000	5.320234
1040.000000	5.344439
1041.000000	5.365055
1042.000000	5.375177
1043.000000	5.393688
1044.000000	5.419124
1045.000000	5.433048
1046.000000	5.445997
1047.000000	5.469488
1048.000000	5.491261
1049.000000	5.492192
1050.000000	5.491663
1051.000000	5.503625
1052.000000	5.515472
1053.000000	5.523155
1054.000000	5.531156
1055.000000	5.527984
1056.000000	5.536730
1057.000000	5.545108
1058.000000	5.540845
1059.000000	5.547476
1060.000000	5.549912
1061.000000	5.556915
1062.000000	5.555250
1063.000000	5.562823
1064.000000	5.570300
1065.000000	5.573727
1066.000000	5.579428
1067.000000	5.587944
1068.000000	5.599523
1069.000000	5.609269
1070.000000	5.615842
1071.000000	5.630208
1072.000000	5.636574
1073.000000	5.644846
1074.000000	5.655872
1075.000000	5.662289
1076.000000	5.669857
1077.000000	5.675772
1078.000000	5.685248
1079.000000	5.700684
1080.000000	5.723997
1081.000000	5.727484
1082.000000	5.736908
1083.000000	5.752077
1084.000000	5.758028
1085.000000	5.764143
1086.000000	5.771213
1087.000000	5.777816
1088.000000	5.791865
1089.000000	5.796804
1090.000000	5.788375
1091.000000	5.796976
1092.000000	5.801704
1093.000000	5.824827
1094.000000	5.835837
1095.000000	5.833493
1096.000000	5.837860
1097.000000	5.847280
1098.000000	5.860699
1099.000000	5.872638
1100.000000	5.873981
1101.000000	5.889883
1102.000000	5.902116
1103.000000	5.905241
1104.000000	5.921727
1105.000000	5.927980
1106.000000	5.928614
1107.000000	5.952432
1108.000000	5.960341
1109.000000	5.978765
1110.000000	5.977459
1111.000000	5.989715
1112.000000	5.993510
1113.000000	6.002653
1114.000000	6.014705
1115.000000	6.025121
1116.000000	6.032188
1117.000000	6.052427
1118.000000	6.074320
1119.000000	6.091137
1120.000000	6.092249
1121.000000	6.111877
1122.000000	6.124919
1123.000000	6.169247
1124.000000	6.193708
1125.000000	6.215405
1126.000000	6.248071
1127.000000	6.270651
1128.000000	6.301329
1129.000000	6.355517
1130.000000	6.409942
1131.000000	6.487262
1132.000000	6.557895
1133.000000	6.660390
1134.000000	6.760052
1135.000000	6.885090
1136.000000	7.024889
1137.000000	7.145749
1138.000000	7.288846
1139.000000	7.440917
1140.000000	7.561200
1141.000000	7.718132
1142.000000	7.867323
1143.000000	8.002699
1144.000000	8.143694
1145.000000	8.270725
1146.000000	8.363751
1147.000000	8.411945
1148.000000	8.432468
1149.000000	8.404600
1150.000000	8.370881
1151.000000	8.337355
1152.000000	8.311678
1153.000000	8.315224
1154.000000	8.308505
1155.000000	8.317232
1156.000000	8.388709
1157.000000	8.466719
1158.000000	8.575295
1159.000000	8.702428
1160.000000	8.811201
1161.000000	8.936086
1162.000000	9.081439
1163.000000	9.216341
1164.000000	9.355308
1165.000000	9.500218
1166.000000	9.646634
1167.000000	9.779937
1168.000000	9.925407
1169.000000	10.066498
1170.000000	10.200672
1171.000000	10.340290
1172.000000	10.503727
1173.000000	10.651228
1174.000000	10.785987
1175.000000	10.906459
1176.000000	11.044865
1177.000000	11.192030
1178.000000	11.357188
1179.000000	11.553054
1180.000000	11.796357
1181.000000	12.043820
1182.000000	12.313779
1183.000000	12.537360
1184.000000	12.739321
1185.000000	12.882383
1186.000000	12.957039
1187.000000	12.963234
1188.000000	12.894845
1189.000000	12.781090
1190.000000	12.604133
1191.000000	12.406223
1192.000000	12.178515
1193.000000	11.995308
1194.000000	11.812518
1195.000000	11.687460
1196.000000	11.591173
1197.000000	11.519551
1198.000000	11.488656
1199.000000	11.471209
1200.000000	11.467781
1201.000000	11.479201
1202.000000	11.519732
