PE UV       SUBTECH     SPECTRUM    ASCII       PEDS        4.00        
   -1
CICIMAUCR0158-5.Sample.ASC
24/04/25
13:52:02.00
24/04/25
13:52:02.00
Vinicio Soto Monge
C. cupreomarginata
250,000000
1
Lambda 1050
1050L1511233
PerkinElmer UV WinLab 6.3.2.0749 / 2.02.05 Lambda 900 UV/VIS/NIR, Aug  7 2015 09:38:08

0
0
3350/servo 860,8/2
0
0
UV/VIS
1
1
1
DoubleDePol,CommonBeamDepol,RBeamAtt,SBeamAtt,60mm sphere, WB InGaAs Detector
0
0
0
0
Program
Program
3350/servo 860,8/2
3350/0,2 860,8/0,2
3350/0,2 860,8/0,2
0
15.00
 
 
 
0
 
860,8
319,2
860,8
Front
100
on
S:100 R:100
0
0
0
0
 
0
 
 
 
0
 
 
0
0
0
0
0
 
 
 
 
0
0


0
0
#HDR
-1
-1
#GR
nm
%R
1.0
0.0
2500,000000
-1,000000
2251
8
68,614000
5,280700
#DATA
250.000000	0.644440
251.000000	0.633071
252.000000	0.644244
253.000000	0.625430
254.000000	0.630215
255.000000	0.616261
256.000000	0.638037
257.000000	0.637617
258.000000	0.635898
259.000000	0.641987
260.000000	0.651200
261.000000	0.645005
262.000000	0.623476
263.000000	0.605619
264.000000	0.632949
265.000000	0.608377
266.000000	0.629332
267.000000	0.616613
268.000000	0.613819
269.000000	0.615165
270.000000	0.604590
271.000000	0.593437
272.000000	0.615629
273.000000	0.626996
274.000000	0.585827
275.000000	0.573857
276.000000	0.573068
277.000000	0.575828
278.000000	0.594696
279.000000	0.572062
280.000000	0.582157
281.000000	0.572494
282.000000	0.606419
283.000000	0.589580
284.000000	0.594903
285.000000	0.605302
286.000000	0.594158
287.000000	0.584799
288.000000	0.590826
289.000000	0.572595
290.000000	0.584407
291.000000	0.588028
292.000000	0.585806
293.000000	0.603399
294.000000	0.551862
295.000000	0.618982
296.000000	0.585924
297.000000	0.595590
298.000000	0.601593
299.000000	0.576390
300.000000	0.606611
301.000000	0.626757
302.000000	0.599565
303.000000	0.611455
304.000000	0.592630
305.000000	0.598122
306.000000	0.596060
307.000000	0.593251
308.000000	0.605020
309.000000	0.601094
310.000000	0.582132
311.000000	0.594872
312.000000	0.584155
313.000000	0.626186
314.000000	0.619424
315.000000	0.599610
316.000000	0.610056
317.000000	0.301280
318.000000	0.449087
319.000000	0.681336
320.000000	0.616059
321.000000	0.529649
322.000000	0.474743
323.000000	0.486360
324.000000	0.487264
325.000000	0.519374
326.000000	0.544121
327.000000	0.529719
328.000000	0.521387
329.000000	0.457304
330.000000	0.565529
331.000000	0.580245
332.000000	0.656511
333.000000	0.688044
334.000000	0.580534
335.000000	0.518644
336.000000	0.554546
337.000000	0.557509
338.000000	0.552462
339.000000	0.516982
340.000000	0.555981
341.000000	0.544020
342.000000	0.524777
343.000000	0.550720
344.000000	0.580510
345.000000	0.533751
346.000000	0.611485
347.000000	0.607094
348.000000	0.543435
349.000000	0.586722
350.000000	0.665723
351.000000	0.587833
352.000000	0.606057
353.000000	0.632920
354.000000	0.649703
355.000000	0.666214
356.000000	0.676322
357.000000	0.689201
358.000000	0.661545
359.000000	0.701417
360.000000	0.715467
361.000000	0.719479
362.000000	0.729471
363.000000	0.786960
364.000000	0.795397
365.000000	0.800981
366.000000	0.860649
367.000000	0.914348
368.000000	0.904124
369.000000	0.905128
370.000000	0.998538
371.000000	1.014671
372.000000	1.080505
373.000000	1.071956
374.000000	1.132456
375.000000	1.188118
376.000000	1.116718
377.000000	1.162839
378.000000	1.171111
379.000000	1.208430
380.000000	1.228212
381.000000	1.251559
382.000000	1.274986
383.000000	1.298969
384.000000	1.319329
385.000000	1.338523
386.000000	1.353690
387.000000	1.377793
388.000000	1.382964
389.000000	1.396977
390.000000	1.399501
391.000000	1.400273
392.000000	1.414784
393.000000	1.425459
394.000000	1.414323
395.000000	1.411209
396.000000	1.408817
397.000000	1.416294
398.000000	1.412198
399.000000	1.404321
400.000000	1.402095
401.000000	1.385865
402.000000	1.376827
403.000000	1.367921
404.000000	1.350214
405.000000	1.341272
406.000000	1.331970
407.000000	1.321883
408.000000	1.312514
409.000000	1.311535
410.000000	1.304038
411.000000	1.305229
412.000000	1.294298
413.000000	1.284773
414.000000	1.281298
415.000000	1.283175
416.000000	1.280774
417.000000	1.273668
418.000000	1.277060
419.000000	1.276880
420.000000	1.278714
421.000000	1.289131
422.000000	1.285517
423.000000	1.297615
424.000000	1.321545
425.000000	1.329647
426.000000	1.362418
427.000000	1.379240
428.000000	1.404947
429.000000	1.433861
430.000000	1.481303
431.000000	1.515482
432.000000	1.560123
433.000000	1.595890
434.000000	1.649946
435.000000	1.706489
436.000000	1.769555
437.000000	1.824335
438.000000	1.867322
439.000000	1.937943
440.000000	1.989543
441.000000	2.035976
442.000000	2.079679
443.000000	2.132314
444.000000	2.186193
445.000000	2.208875
446.000000	2.227904
447.000000	2.252898
448.000000	2.259534
449.000000	2.265628
450.000000	2.262452
451.000000	2.262260
452.000000	2.243723
453.000000	2.251938
454.000000	2.235078
455.000000	2.219128
456.000000	2.217954
457.000000	2.200372
458.000000	2.198999
459.000000	2.181580
460.000000	2.194169
461.000000	2.202886
462.000000	2.213599
463.000000	2.221187
464.000000	2.248101
465.000000	2.273583
466.000000	2.302532
467.000000	2.321434
468.000000	2.347327
469.000000	2.380758
470.000000	2.425022
471.000000	2.450742
472.000000	2.499237
473.000000	2.541713
474.000000	2.579401
475.000000	2.616888
476.000000	2.656270
477.000000	2.697451
478.000000	2.738346
479.000000	2.784181
480.000000	2.828403
481.000000	2.867676
482.000000	2.932442
483.000000	2.983794
484.000000	3.033209
485.000000	3.067941
486.000000	3.121289
487.000000	3.159192
488.000000	3.218151
489.000000	3.277684
490.000000	3.335819
491.000000	3.417159
492.000000	3.474812
493.000000	3.535290
494.000000	3.601076
495.000000	3.672305
496.000000	3.756124
497.000000	3.822795
498.000000	3.915655
499.000000	3.989195
500.000000	4.090225
501.000000	4.184246
502.000000	4.290223
503.000000	4.388805
504.000000	4.493824
505.000000	4.594337
506.000000	4.700435
507.000000	4.793181
508.000000	4.902002
509.000000	5.013575
510.000000	5.127632
511.000000	5.259512
512.000000	5.372166
513.000000	5.492201
514.000000	5.615651
515.000000	5.727726
516.000000	5.844504
517.000000	5.971618
518.000000	6.107526
519.000000	6.247973
520.000000	6.378071
521.000000	6.494415
522.000000	6.630963
523.000000	6.741600
524.000000	6.867814
525.000000	6.995660
526.000000	7.103938
527.000000	7.201967
528.000000	7.287828
529.000000	7.353256
530.000000	7.419389
531.000000	7.457662
532.000000	7.483015
533.000000	7.498433
534.000000	7.487043
535.000000	7.458736
536.000000	7.422886
537.000000	7.362656
538.000000	7.278549
539.000000	7.189416
540.000000	7.079500
541.000000	6.971219
542.000000	6.861622
543.000000	6.741226
544.000000	6.637390
545.000000	6.538406
546.000000	6.453211
547.000000	6.360857
548.000000	6.291292
549.000000	6.242019
550.000000	6.202776
551.000000	6.168727
552.000000	6.140756
553.000000	6.117747
554.000000	6.091927
555.000000	6.061243
556.000000	6.039849
557.000000	6.019095
558.000000	5.983912
559.000000	5.957513
560.000000	5.925486
561.000000	5.898104
562.000000	5.830322
563.000000	5.763581
564.000000	5.687586
565.000000	5.639901
566.000000	5.574993
567.000000	5.525887
568.000000	5.464082
569.000000	5.426223
570.000000	5.389160
571.000000	5.343645
572.000000	5.302105
573.000000	5.286537
574.000000	5.255797
575.000000	5.227326
576.000000	5.208762
577.000000	5.186638
578.000000	5.165348
579.000000	5.146983
580.000000	5.121287
581.000000	5.074870
582.000000	5.056866
583.000000	5.038441
584.000000	5.012262
585.000000	4.986058
586.000000	4.982737
587.000000	4.949662
588.000000	4.929576
589.000000	4.933136
590.000000	4.947120
591.000000	4.925545
592.000000	4.911318
593.000000	4.924508
594.000000	4.909059
595.000000	4.900909
596.000000	4.883401
597.000000	4.884099
598.000000	4.870333
599.000000	4.840370
600.000000	4.839070
601.000000	4.818872
602.000000	4.823703
603.000000	4.809774
604.000000	4.801409
605.000000	4.786091
606.000000	4.774082
607.000000	4.772658
608.000000	4.805895
609.000000	4.790587
610.000000	4.794537
611.000000	4.799500
612.000000	4.792394
613.000000	4.783381
614.000000	4.758349
615.000000	4.739658
616.000000	4.724575
617.000000	4.682784
618.000000	4.628695
619.000000	4.598209
620.000000	4.560361
621.000000	4.527217
622.000000	4.505935
623.000000	4.501120
624.000000	4.530592
625.000000	4.582941
626.000000	4.644969
627.000000	4.718935
628.000000	4.819716
629.000000	4.937519
630.000000	5.071796
631.000000	5.213055
632.000000	5.350976
633.000000	5.482145
634.000000	5.628136
635.000000	5.737097
636.000000	5.857448
637.000000	5.973023
638.000000	6.070053
639.000000	6.165228
640.000000	6.219140
641.000000	6.287281
642.000000	6.353048
643.000000	6.384506
644.000000	6.400105
645.000000	6.430289
646.000000	6.451583
647.000000	6.441650
648.000000	6.447177
649.000000	6.462705
650.000000	6.473197
651.000000	6.462305
652.000000	6.460628
653.000000	6.441885
654.000000	6.408457
655.000000	6.368158
656.000000	6.321862
657.000000	6.273750
658.000000	6.197019
659.000000	6.143475
660.000000	6.072919
661.000000	6.001563
662.000000	5.938950
663.000000	5.912944
664.000000	5.871079
665.000000	5.838757
666.000000	5.820218
667.000000	5.781777
668.000000	5.767849
669.000000	5.762998
670.000000	5.754324
671.000000	5.757794
672.000000	5.760183
673.000000	5.763092
674.000000	5.776314
675.000000	5.776215
676.000000	5.785524
677.000000	5.835567
678.000000	5.869606
679.000000	5.883959
680.000000	5.904723
681.000000	5.947413
682.000000	5.971666
683.000000	6.011943
684.000000	6.060841
685.000000	6.084207
686.000000	6.123845
687.000000	6.147758
688.000000	6.181119
689.000000	6.216974
690.000000	6.267673
691.000000	6.317357
692.000000	6.367515
693.000000	6.423483
694.000000	6.479146
695.000000	6.535374
696.000000	6.607279
697.000000	6.652040
698.000000	6.689362
699.000000	6.731859
700.000000	6.750353
701.000000	6.798981
702.000000	6.821631
703.000000	6.851435
704.000000	6.871879
705.000000	6.879427
706.000000	6.887407
707.000000	6.913666
708.000000	6.899040
709.000000	6.939189
710.000000	6.928380
711.000000	6.942482
712.000000	6.958746
713.000000	6.929975
714.000000	6.892577
715.000000	6.910487
716.000000	6.923297
717.000000	6.905575
718.000000	6.884883
719.000000	6.909191
720.000000	6.894856
721.000000	6.844445
722.000000	6.865166
723.000000	6.889443
724.000000	6.829950
725.000000	6.839557
726.000000	6.856219
727.000000	6.836474
728.000000	6.835255
729.000000	6.826058
730.000000	6.851810
731.000000	6.889299
732.000000	6.890147
733.000000	6.918935
734.000000	6.933718
735.000000	6.969414
736.000000	6.970372
737.000000	6.966288
738.000000	6.965522
739.000000	6.983156
740.000000	7.015346
741.000000	7.051904
742.000000	7.076609
743.000000	7.082943
744.000000	7.073341
745.000000	7.106424
746.000000	7.104466
747.000000	7.135719
748.000000	7.144902
749.000000	7.157272
750.000000	7.194365
751.000000	7.196275
752.000000	7.201624
753.000000	7.250501
754.000000	7.222850
755.000000	7.279859
756.000000	7.313728
757.000000	7.307312
758.000000	7.325024
759.000000	7.371085
760.000000	7.395816
761.000000	7.429871
762.000000	7.408299
763.000000	7.370167
764.000000	7.413812
765.000000	7.412353
766.000000	7.407261
767.000000	7.445243
768.000000	7.469842
769.000000	7.462917
770.000000	7.431173
771.000000	7.448572
772.000000	7.453185
773.000000	7.422247
774.000000	7.462637
775.000000	7.450561
776.000000	7.431628
777.000000	7.415863
778.000000	7.471174
779.000000	7.390850
780.000000	7.403164
781.000000	7.409396
782.000000	7.303712
783.000000	7.285538
784.000000	7.368777
785.000000	7.317909
786.000000	7.383274
787.000000	7.315031
788.000000	7.285329
789.000000	7.304482
790.000000	7.260847
791.000000	7.305684
792.000000	7.255687
793.000000	7.249829
794.000000	7.303767
795.000000	7.273671
796.000000	7.263614
797.000000	7.324465
798.000000	7.250174
799.000000	7.322114
800.000000	7.317828
801.000000	7.291065
802.000000	7.393359
803.000000	7.319272
804.000000	7.345900
805.000000	7.393802
806.000000	7.347092
807.000000	7.391767
808.000000	7.406072
809.000000	7.405274
810.000000	7.391264
811.000000	7.369045
812.000000	7.373874
813.000000	7.362294
814.000000	7.395682
815.000000	7.511872
816.000000	7.474061
817.000000	7.482065
818.000000	7.406459
819.000000	7.359997
820.000000	7.474871
821.000000	7.394583
822.000000	7.443450
823.000000	7.438001
824.000000	7.324191
825.000000	7.473069
826.000000	7.344774
827.000000	7.302261
828.000000	7.367167
829.000000	7.379852
830.000000	7.241623
831.000000	7.205014
832.000000	7.247328
833.000000	7.270076
834.000000	7.220005
835.000000	7.325309
836.000000	7.260712
837.000000	7.057384
838.000000	7.210134
839.000000	7.259468
840.000000	7.222673
841.000000	7.303425
842.000000	7.248315
843.000000	7.308837
844.000000	7.395908
845.000000	7.448942
846.000000	7.551683
847.000000	7.276338
848.000000	7.302640
849.000000	7.467067
850.000000	7.540620
851.000000	7.497033
852.000000	7.694929
853.000000	7.618494
854.000000	7.673586
855.000000	7.593072
856.000000	7.647033
857.000000	7.703603
858.000000	6.720522
859.000000	7.702716
860.000000	8.039174
861.000000	8.015105
862.000000	7.849839
863.000000	7.887680
864.000000	7.974726
865.000000	7.559476
866.000000	7.423136
867.000000	7.484794
868.000000	7.151289
869.000000	7.325530
870.000000	6.993299
871.000000	6.800142
872.000000	6.532634
873.000000	6.750845
874.000000	6.518483
875.000000	6.242306
876.000000	6.270756
877.000000	6.154485
878.000000	5.966050
879.000000	6.010291
880.000000	5.927565
881.000000	5.784161
882.000000	5.609338
883.000000	5.497766
884.000000	5.590442
885.000000	5.533845
886.000000	5.201155
887.000000	5.198616
888.000000	5.238629
889.000000	5.191996
890.000000	5.179186
891.000000	5.083345
892.000000	5.001150
893.000000	4.934518
894.000000	5.020798
895.000000	4.842854
896.000000	4.787149
897.000000	4.813767
898.000000	4.816201
899.000000	4.710014
900.000000	4.739629
901.000000	4.836644
902.000000	4.788597
903.000000	4.718383
904.000000	4.692321
905.000000	4.748271
906.000000	4.741702
907.000000	4.741077
908.000000	4.739899
909.000000	4.767021
910.000000	4.820591
911.000000	4.811936
912.000000	4.760172
913.000000	4.721010
914.000000	4.733619
915.000000	4.849149
916.000000	4.974149
917.000000	4.964359
918.000000	4.998973
919.000000	5.051396
920.000000	5.032505
921.000000	5.017407
922.000000	5.064901
923.000000	5.076990
924.000000	5.100861
925.000000	5.110201
926.000000	5.130155
927.000000	5.176583
928.000000	5.212008
929.000000	5.226198
930.000000	5.216714
931.000000	5.224806
932.000000	5.234860
933.000000	5.266387
934.000000	5.247771
935.000000	5.223848
936.000000	5.284496
937.000000	5.260686
938.000000	5.263312
939.000000	5.308716
940.000000	5.303166
941.000000	5.314243
942.000000	5.317265
943.000000	5.344994
944.000000	5.324103
945.000000	5.316408
946.000000	5.376820
947.000000	5.401782
948.000000	5.436617
949.000000	5.471308
950.000000	5.467242
951.000000	5.526908
952.000000	5.521777
953.000000	5.494811
954.000000	5.525838
955.000000	5.569957
956.000000	5.559782
957.000000	5.567656
958.000000	5.589618
959.000000	5.606594
960.000000	5.624803
961.000000	5.663123
962.000000	5.697967
963.000000	5.708276
964.000000	5.789062
965.000000	5.798356
966.000000	5.805008
967.000000	5.817853
968.000000	5.847778
969.000000	5.886099
970.000000	5.935559
971.000000	5.941059
972.000000	5.954149
973.000000	6.024609
974.000000	6.052045
975.000000	6.070102
976.000000	6.090364
977.000000	6.112435
978.000000	6.123537
979.000000	6.167104
980.000000	6.174601
981.000000	6.199766
982.000000	6.217248
983.000000	6.244232
984.000000	6.269376
985.000000	6.297824
986.000000	6.282931
987.000000	6.293520
988.000000	6.294610
989.000000	6.296746
990.000000	6.315715
991.000000	6.359403
992.000000	6.362818
993.000000	6.356966
994.000000	6.383037
995.000000	6.404439
996.000000	6.400641
997.000000	6.389706
998.000000	6.425950
999.000000	6.427794
1000.000000	6.447296
1001.000000	6.445601
1002.000000	6.443876
1003.000000	6.444353
1004.000000	6.469052
1005.000000	6.470816
1006.000000	6.464167
1007.000000	6.464295
1008.000000	6.501871
1009.000000	6.498020
1010.000000	6.516854
1011.000000	6.528981
1012.000000	6.525754
1013.000000	6.531015
1014.000000	6.533207
1015.000000	6.539663
1016.000000	6.540183
1017.000000	6.573464
1018.000000	6.584439
1019.000000	6.580414
1020.000000	6.605381
1021.000000	6.595617
1022.000000	6.601380
1023.000000	6.611542
1024.000000	6.622990
1025.000000	6.633481
1026.000000	6.644550
1027.000000	6.650504
1028.000000	6.693846
1029.000000	6.679402
1030.000000	6.714162
1031.000000	6.714085
1032.000000	6.702141
1033.000000	6.714448
1034.000000	6.733770
1035.000000	6.739561
1036.000000	6.781664
1037.000000	6.785389
1038.000000	6.795993
1039.000000	6.785912
1040.000000	6.798553
1041.000000	6.816909
1042.000000	6.826714
1043.000000	6.829238
1044.000000	6.861475
1045.000000	6.872772
1046.000000	6.894801
1047.000000	6.894276
1048.000000	6.883468
1049.000000	6.931869
1050.000000	6.924976
1051.000000	6.943232
1052.000000	6.965226
1053.000000	6.983788
1054.000000	7.008035
1055.000000	7.003931
1056.000000	6.993400
1057.000000	7.005986
1058.000000	7.016958
1059.000000	7.064352
1060.000000	7.076919
1061.000000	7.077399
1062.000000	7.098695
1063.000000	7.102708
1064.000000	7.134106
1065.000000	7.117231
1066.000000	7.152371
1067.000000	7.152422
1068.000000	7.150526
1069.000000	7.181103
1070.000000	7.186463
1071.000000	7.199533
1072.000000	7.208639
1073.000000	7.202419
1074.000000	7.220221
1075.000000	7.229979
1076.000000	7.249851
1077.000000	7.243261
1078.000000	7.261232
1079.000000	7.262223
1080.000000	7.262700
1081.000000	7.297478
1082.000000	7.299450
1083.000000	7.298649
1084.000000	7.285542
1085.000000	7.287012
1086.000000	7.316624
1087.000000	7.321042
1088.000000	7.334681
1089.000000	7.336653
1090.000000	7.348577
1091.000000	7.355630
1092.000000	7.326171
1093.000000	7.351439
1094.000000	7.347517
1095.000000	7.358335
1096.000000	7.352884
1097.000000	7.348963
1098.000000	7.363977
1099.000000	7.357714
1100.000000	7.366938
1101.000000	7.362221
1102.000000	7.379783
1103.000000	7.354720
1104.000000	7.368696
1105.000000	7.371524
1106.000000	7.379833
1107.000000	7.390070
1108.000000	7.381333
1109.000000	7.377647
1110.000000	7.381217
1111.000000	7.379666
1112.000000	7.391106
1113.000000	7.384912
1114.000000	7.395632
1115.000000	7.392599
1116.000000	7.417951
1117.000000	7.402282
1118.000000	7.402945
1119.000000	7.413161
1120.000000	7.417364
1121.000000	7.414776
1122.000000	7.417521
1123.000000	7.436204
1124.000000	7.425186
1125.000000	7.421625
1126.000000	7.427381
1127.000000	7.404572
1128.000000	7.412634
1129.000000	7.405774
1130.000000	7.396895
1131.000000	7.384561
1132.000000	7.373598
1133.000000	7.362029
1134.000000	7.380889
1135.000000	7.414311
1136.000000	7.380882
1137.000000	7.340607
1138.000000	7.345423
1139.000000	7.328686
1140.000000	7.314266
1141.000000	7.326952
1142.000000	7.319655
1143.000000	7.294160
1144.000000	7.311698
1145.000000	7.323689
1146.000000	7.314257
1147.000000	7.304061
1148.000000	7.299312
1149.000000	7.291666
1150.000000	7.300819
1151.000000	7.297364
1152.000000	7.297057
1153.000000	7.289339
1154.000000	7.285649
1155.000000	7.275224
1156.000000	7.269519
1157.000000	7.268864
1158.000000	7.250841
1159.000000	7.235358
1160.000000	7.223361
1161.000000	7.214446
1162.000000	7.201130
1163.000000	7.185329
1164.000000	7.176448
1165.000000	7.173811
1166.000000	7.158907
1167.000000	7.138300
1168.000000	7.126582
1169.000000	7.123158
1170.000000	7.113798
1171.000000	7.105597
1172.000000	7.109140
1173.000000	7.097536
1174.000000	7.082639
1175.000000	7.080237
1176.000000	7.061787
1177.000000	7.052832
1178.000000	7.055808
1179.000000	7.053628
1180.000000	7.042136
1181.000000	7.033505
1182.000000	7.025590
1183.000000	7.017512
1184.000000	7.023088
1185.000000	7.026977
1186.000000	7.022473
1187.000000	7.014522
1188.000000	7.020901
1189.000000	7.024731
1190.000000	7.028277
1191.000000	7.040247
1192.000000	7.049150
1193.000000	7.052518
1194.000000	7.063480
1195.000000	7.075212
1196.000000	7.082788
1197.000000	7.083970
1198.000000	7.092668
1199.000000	7.105942
1200.000000	7.122717
1201.000000	7.124336
1202.000000	7.137772
1203.000000	7.144052
