PE UV       SUBTECH     SPECTRUM    ASCII       PEDS        4.00        
   -1
CICIMAUCR0158-5.Sample.ASC
24/04/25
13:52:02.00
24/04/25
13:52:02.00
Vinicio Soto Monge
C. cupreomarginata
250,000000
1
Lambda 1050
1050L1511233
PerkinElmer UV WinLab 6.3.2.0749 / 2.02.05 Lambda 900 UV/VIS/NIR, Aug  7 2015 09:38:08

0
0
3350/servo 860,8/2
0
0
UV/VIS
1
1
1
DoubleDePol,CommonBeamDepol,RBeamAtt,SBeamAtt,60mm sphere, WB InGaAs Detector
0
0
0
0
Program
Program
3350/servo 860,8/2
3350/0,2 860,8/0,2
3350/0,2 860,8/0,2
0
15.00
 
 
 
0
 
860,8
319,2
860,8
Front
100
on
S:100 R:100
0
0
0
0
 
0
 
 
 
0
 
 
0
0
0
0
0
 
 
 
 
0
0


0
0
#HDR
-1
-1
#GR
nm
%R
1.0
0.0
2500,000000
-1,000000
2251
8
68,614000
5,280700
#DATA
250.000000	1.228960
251.000000	1.206854
252.000000	1.213619
253.000000	1.192079
254.000000	1.171644
255.000000	1.183386
256.000000	1.184460
257.000000	1.171122
258.000000	1.163707
259.000000	1.162496
260.000000	1.172250
261.000000	1.156805
262.000000	1.143857
263.000000	1.134351
264.000000	1.137171
265.000000	1.125160
266.000000	1.132658
267.000000	1.123908
268.000000	1.120235
269.000000	1.099517
270.000000	1.086793
271.000000	1.104553
272.000000	1.107967
273.000000	1.091935
274.000000	1.099203
275.000000	1.085461
276.000000	1.077394
277.000000	1.066875
278.000000	1.064693
279.000000	1.061495
280.000000	1.061922
281.000000	1.048349
282.000000	1.064457
283.000000	1.062970
284.000000	1.073937
285.000000	1.081453
286.000000	1.074129
287.000000	1.066826
288.000000	1.066135
289.000000	1.062086
290.000000	1.057126
291.000000	1.042578
292.000000	1.045761
293.000000	1.049827
294.000000	1.028104
295.000000	1.038054
296.000000	1.055576
297.000000	1.041855
298.000000	1.029383
299.000000	1.027991
300.000000	1.038572
301.000000	1.036342
302.000000	1.030646
303.000000	1.044311
304.000000	1.037822
305.000000	1.040410
306.000000	1.032756
307.000000	1.039389
308.000000	1.047510
309.000000	1.040041
310.000000	1.036054
311.000000	1.040341
312.000000	1.032804
313.000000	1.051685
314.000000	1.057409
315.000000	1.029703
316.000000	0.956664
317.000000	0.978078
318.000000	1.039124
319.000000	1.150252
320.000000	1.105180
321.000000	1.042492
322.000000	1.002013
323.000000	0.912045
324.000000	0.983404
325.000000	1.017101
326.000000	1.002313
327.000000	0.911039
328.000000	0.950311
329.000000	0.999445
330.000000	0.909923
331.000000	0.902274
332.000000	1.014518
333.000000	1.031084
334.000000	1.013965
335.000000	0.961478
336.000000	0.968756
337.000000	1.021214
338.000000	0.980080
339.000000	0.931554
340.000000	0.920741
341.000000	0.900444
342.000000	0.927160
343.000000	0.938725
344.000000	0.926685
345.000000	0.864381
346.000000	0.887725
347.000000	0.950656
348.000000	0.902412
349.000000	0.895182
350.000000	0.909531
351.000000	0.864601
352.000000	0.921617
353.000000	0.933713
354.000000	0.950792
355.000000	0.966689
356.000000	0.942458
357.000000	0.935056
358.000000	0.941432
359.000000	0.980649
360.000000	1.003426
361.000000	1.007060
362.000000	1.033961
363.000000	1.045831
364.000000	1.059154
365.000000	1.045421
366.000000	1.067287
367.000000	1.117445
368.000000	1.135104
369.000000	1.154310
370.000000	1.180034
371.000000	1.205887
372.000000	1.282026
373.000000	1.266711
374.000000	1.338285
375.000000	1.407988
376.000000	1.405607
377.000000	1.432881
378.000000	1.468307
379.000000	1.520922
380.000000	1.566720
381.000000	1.625621
382.000000	1.677254
383.000000	1.737821
384.000000	1.796890
385.000000	1.854997
386.000000	1.922375
387.000000	1.991254
388.000000	2.045590
389.000000	2.111365
390.000000	2.174977
391.000000	2.237168
392.000000	2.307315
393.000000	2.376283
394.000000	2.435880
395.000000	2.491179
396.000000	2.544089
397.000000	2.612010
398.000000	2.666464
399.000000	2.708797
400.000000	2.767099
401.000000	2.809534
402.000000	2.852542
403.000000	2.896403
404.000000	2.938265
405.000000	2.967175
406.000000	2.998987
407.000000	3.033042
408.000000	3.062015
409.000000	3.088455
410.000000	3.106218
411.000000	3.120956
412.000000	3.129525
413.000000	3.144060
414.000000	3.146562
415.000000	3.154345
416.000000	3.154065
417.000000	3.156945
418.000000	3.147909
419.000000	3.138535
420.000000	3.127935
421.000000	3.117940
422.000000	3.103946
423.000000	3.090340
424.000000	3.077641
425.000000	3.057835
426.000000	3.053100
427.000000	3.021381
428.000000	3.016922
429.000000	3.011666
430.000000	3.010829
431.000000	3.001328
432.000000	3.017157
433.000000	3.021111
434.000000	3.040355
435.000000	3.064427
436.000000	3.101321
437.000000	3.137759
438.000000	3.181489
439.000000	3.243911
440.000000	3.301551
441.000000	3.361701
442.000000	3.433417
443.000000	3.516795
444.000000	3.597759
445.000000	3.677089
446.000000	3.761011
447.000000	3.843188
448.000000	3.923493
449.000000	4.008529
450.000000	4.095037
451.000000	4.176017
452.000000	4.244141
453.000000	4.332923
454.000000	4.408803
455.000000	4.483734
456.000000	4.557417
457.000000	4.624509
458.000000	4.690921
459.000000	4.743476
460.000000	4.809734
461.000000	4.858776
462.000000	4.914487
463.000000	4.963600
464.000000	5.014780
465.000000	5.066739
466.000000	5.115699
467.000000	5.156162
468.000000	5.196706
469.000000	5.239732
470.000000	5.288855
471.000000	5.332651
472.000000	5.382612
473.000000	5.430964
474.000000	5.477183
475.000000	5.530921
476.000000	5.591924
477.000000	5.648254
478.000000	5.709244
479.000000	5.776267
480.000000	5.844402
481.000000	5.904594
482.000000	5.969999
483.000000	6.040851
484.000000	6.126134
485.000000	6.209834
486.000000	6.295111
487.000000	6.379947
488.000000	6.469333
489.000000	6.554534
490.000000	6.665629
491.000000	6.781604
492.000000	6.883127
493.000000	6.992909
494.000000	7.102271
495.000000	7.211678
496.000000	7.328117
497.000000	7.446595
498.000000	7.556941
499.000000	7.674492
500.000000	7.801642
501.000000	7.933071
502.000000	8.076791
503.000000	8.202842
504.000000	8.340636
505.000000	8.480834
506.000000	8.623274
507.000000	8.770669
508.000000	8.923459
509.000000	9.088111
510.000000	9.254334
511.000000	9.441875
512.000000	9.625920
513.000000	9.813786
514.000000	10.006418
515.000000	10.207299
516.000000	10.408694
517.000000	10.638152
518.000000	10.863862
519.000000	11.099919
520.000000	11.334012
521.000000	11.572369
522.000000	11.824456
523.000000	12.074826
524.000000	12.335062
525.000000	12.597614
526.000000	12.851953
527.000000	13.117892
528.000000	13.386208
529.000000	13.645111
530.000000	13.904642
531.000000	14.167509
532.000000	14.431347
533.000000	14.695025
534.000000	14.951706
535.000000	15.202471
536.000000	15.453060
537.000000	15.687027
538.000000	15.912688
539.000000	16.129815
540.000000	16.343080
541.000000	16.545381
542.000000	16.744146
543.000000	16.936781
544.000000	17.129487
545.000000	17.289308
546.000000	17.447004
547.000000	17.590776
548.000000	17.729744
549.000000	17.848639
550.000000	17.970342
551.000000	18.072412
552.000000	18.169991
553.000000	18.252781
554.000000	18.324488
555.000000	18.387799
556.000000	18.438276
557.000000	18.503742
558.000000	18.555279
559.000000	18.615736
560.000000	18.691771
561.000000	18.721820
562.000000	18.731445
563.000000	18.739403
564.000000	18.750526
565.000000	18.750166
566.000000	18.759744
567.000000	18.746333
568.000000	18.726721
569.000000	18.703182
570.000000	18.669773
571.000000	18.631987
572.000000	18.586466
573.000000	18.543788
574.000000	18.496106
575.000000	18.436464
576.000000	18.377941
577.000000	18.318845
578.000000	18.254145
579.000000	18.189577
580.000000	18.120465
581.000000	18.020756
582.000000	17.945667
583.000000	17.866634
584.000000	17.776723
585.000000	17.683496
586.000000	17.599631
587.000000	17.524092
588.000000	17.444751
589.000000	17.355341
590.000000	17.261254
591.000000	17.171461
592.000000	17.081840
593.000000	16.984616
594.000000	16.890390
595.000000	16.779060
596.000000	16.672888
597.000000	16.566852
598.000000	16.437773
599.000000	16.313659
600.000000	16.175578
601.000000	16.034945
602.000000	15.882902
603.000000	15.717251
604.000000	15.544517
605.000000	15.366802
606.000000	15.193978
607.000000	15.018654
608.000000	14.855931
609.000000	14.677817
610.000000	14.488074
611.000000	14.319885
612.000000	14.141628
613.000000	13.963005
614.000000	13.791272
615.000000	13.613212
616.000000	13.453145
617.000000	13.266948
618.000000	13.079436
619.000000	12.906332
620.000000	12.726383
621.000000	12.542080
622.000000	12.351834
623.000000	12.177004
624.000000	12.017164
625.000000	11.872990
626.000000	11.733911
627.000000	11.603810
628.000000	11.493175
629.000000	11.397384
630.000000	11.316660
631.000000	11.268152
632.000000	11.236185
633.000000	11.202798
634.000000	11.195988
635.000000	11.207054
636.000000	11.232699
637.000000	11.272872
638.000000	11.337740
639.000000	11.402122
640.000000	11.449595
641.000000	11.508850
642.000000	11.596286
643.000000	11.675091
644.000000	11.742650
645.000000	11.807183
646.000000	11.888027
647.000000	11.964221
648.000000	12.022771
649.000000	12.091259
650.000000	12.166354
651.000000	12.231491
652.000000	12.298582
653.000000	12.369299
654.000000	12.413204
655.000000	12.447367
656.000000	12.484664
657.000000	12.508862
658.000000	12.524228
659.000000	12.530946
660.000000	12.538819
661.000000	12.537076
662.000000	12.537208
663.000000	12.547713
664.000000	12.552519
665.000000	12.546969
666.000000	12.540542
667.000000	12.516849
668.000000	12.499439
669.000000	12.482214
670.000000	12.461593
671.000000	12.453642
672.000000	12.424807
673.000000	12.388661
674.000000	12.358172
675.000000	12.336286
676.000000	12.324732
677.000000	12.311533
678.000000	12.301227
679.000000	12.272820
680.000000	12.241002
681.000000	12.227456
682.000000	12.213582
683.000000	12.200609
684.000000	12.190722
685.000000	12.177968
686.000000	12.168817
687.000000	12.153063
688.000000	12.149260
689.000000	12.156174
690.000000	12.146639
691.000000	12.156122
692.000000	12.168952
693.000000	12.190774
694.000000	12.213587
695.000000	12.244153
696.000000	12.269378
697.000000	12.292839
698.000000	12.309155
699.000000	12.330536
700.000000	12.359528
701.000000	12.397334
702.000000	12.432059
703.000000	12.450223
704.000000	12.491393
705.000000	12.506154
706.000000	12.532448
707.000000	12.550676
708.000000	12.557059
709.000000	12.594699
710.000000	12.609539
711.000000	12.608961
712.000000	12.632828
713.000000	12.640998
714.000000	12.622483
715.000000	12.647896
716.000000	12.660168
717.000000	12.657747
718.000000	12.659843
719.000000	12.683451
720.000000	12.672090
721.000000	12.657181
722.000000	12.670511
723.000000	12.676736
724.000000	12.613652
725.000000	12.626081
726.000000	12.653196
727.000000	12.632949
728.000000	12.622436
729.000000	12.618756
730.000000	12.603551
731.000000	12.601337
732.000000	12.597388
733.000000	12.577577
734.000000	12.580937
735.000000	12.585141
736.000000	12.588728
737.000000	12.578670
738.000000	12.566926
739.000000	12.576638
740.000000	12.568086
741.000000	12.570591
742.000000	12.561685
743.000000	12.540614
744.000000	12.530549
745.000000	12.545354
746.000000	12.536841
747.000000	12.568357
748.000000	12.536433
749.000000	12.547159
750.000000	12.552228
751.000000	12.545544
752.000000	12.552886
753.000000	12.588494
754.000000	12.560597
755.000000	12.591642
756.000000	12.616522
757.000000	12.608562
758.000000	12.626673
759.000000	12.652974
760.000000	12.685661
761.000000	12.682417
762.000000	12.692743
763.000000	12.690008
764.000000	12.748211
765.000000	12.729960
766.000000	12.744846
767.000000	12.779292
768.000000	12.793311
769.000000	12.774471
770.000000	12.813653
771.000000	12.857669
772.000000	12.899287
773.000000	12.865122
774.000000	12.925032
775.000000	12.926205
776.000000	12.937694
777.000000	12.950505
778.000000	12.976478
779.000000	12.919970
780.000000	12.955021
781.000000	12.965446
782.000000	12.898007
783.000000	12.872054
784.000000	12.920196
785.000000	12.897173
786.000000	12.914720
787.000000	12.914528
788.000000	12.910589
789.000000	12.867401
790.000000	12.873415
791.000000	12.896353
792.000000	12.845152
793.000000	12.858512
794.000000	12.845504
795.000000	12.797888
796.000000	12.740071
797.000000	12.814536
798.000000	12.778859
799.000000	12.802905
800.000000	12.793726
801.000000	12.724690
802.000000	12.772615
803.000000	12.686229
804.000000	12.703201
805.000000	12.716694
806.000000	12.660007
807.000000	12.679560
808.000000	12.708811
809.000000	12.638193
810.000000	12.580919
811.000000	12.592270
812.000000	12.573746
813.000000	12.548771
814.000000	12.500584
815.000000	12.543924
816.000000	12.529037
817.000000	12.545301
818.000000	12.450751
819.000000	12.417045
820.000000	12.449357
821.000000	12.349954
822.000000	12.304312
823.000000	12.285533
824.000000	12.212358
825.000000	12.301104
826.000000	12.222015
827.000000	12.089273
828.000000	12.175005
829.000000	12.098536
830.000000	11.942397
831.000000	11.877129
832.000000	11.866409
833.000000	11.880622
834.000000	11.805505
835.000000	11.757545
836.000000	11.712113
837.000000	11.553204
838.000000	11.629818
839.000000	11.576432
840.000000	11.523676
841.000000	11.499732
842.000000	11.384750
843.000000	11.379967
844.000000	11.347843
845.000000	11.311216
846.000000	11.285729
847.000000	11.047106
848.000000	11.011247
849.000000	11.030593
850.000000	11.112241
851.000000	11.054107
852.000000	11.054174
853.000000	10.940718
854.000000	10.978838
855.000000	10.760112
856.000000	10.698381
857.000000	10.842091
858.000000	10.610080
859.000000	11.037133
860.000000	10.876257
861.000000	10.891694
862.000000	11.143134
863.000000	11.016443
864.000000	10.794662
865.000000	10.802377
866.000000	10.657108
867.000000	10.521147
868.000000	10.231208
869.000000	10.754889
870.000000	10.839258
871.000000	10.833690
872.000000	10.795291
873.000000	10.844071
874.000000	10.893304
875.000000	10.810246
876.000000	10.789087
877.000000	10.746744
878.000000	10.735766
879.000000	10.838614
880.000000	10.942956
881.000000	10.810069
882.000000	10.654487
883.000000	10.576733
884.000000	10.578436
885.000000	10.606950
886.000000	10.569958
887.000000	10.501105
888.000000	10.617709
889.000000	10.653295
890.000000	10.536960
891.000000	10.613699
892.000000	10.418214
893.000000	10.344778
894.000000	10.373228
895.000000	10.208844
896.000000	10.120331
897.000000	10.213084
898.000000	10.174536
899.000000	10.133602
900.000000	10.225554
901.000000	10.104541
902.000000	10.112819
903.000000	10.002477
904.000000	9.958674
905.000000	10.057188
906.000000	9.958495
907.000000	9.917821
908.000000	9.900415
909.000000	9.857059
910.000000	9.902009
911.000000	9.821518
912.000000	9.745762
913.000000	9.689916
914.000000	9.677622
915.000000	9.727516
916.000000	9.729069
917.000000	9.694523
918.000000	9.726471
919.000000	9.742058
920.000000	9.654398
921.000000	9.639829
922.000000	9.686669
923.000000	9.611175
924.000000	9.615704
925.000000	9.652127
926.000000	9.672593
927.000000	9.631309
928.000000	9.610105
929.000000	9.567010
930.000000	9.568981
931.000000	9.589459
932.000000	9.574313
933.000000	9.513284
934.000000	9.470038
935.000000	9.450846
936.000000	9.470872
937.000000	9.477735
938.000000	9.454703
939.000000	9.447720
940.000000	9.396827
941.000000	9.416868
942.000000	9.410980
943.000000	9.399021
944.000000	9.377212
945.000000	9.368942
946.000000	9.400832
947.000000	9.401772
948.000000	9.398709
949.000000	9.386372
950.000000	9.348140
951.000000	9.365940
952.000000	9.397855
953.000000	9.357050
954.000000	9.359153
955.000000	9.356867
956.000000	9.294490
957.000000	9.277518
958.000000	9.290767
959.000000	9.307333
960.000000	9.297869
961.000000	9.321753
962.000000	9.327482
963.000000	9.301372
964.000000	9.316719
965.000000	9.296548
966.000000	9.291733
967.000000	9.287733
968.000000	9.288410
969.000000	9.325684
970.000000	9.339325
971.000000	9.316776
972.000000	9.312137
973.000000	9.328651
974.000000	9.360849
975.000000	9.379750
976.000000	9.366208
977.000000	9.376570
978.000000	9.388846
979.000000	9.391926
980.000000	9.428862
981.000000	9.434784
982.000000	9.396126
983.000000	9.412355
984.000000	9.446544
985.000000	9.446160
986.000000	9.437979
987.000000	9.461209
988.000000	9.443175
989.000000	9.452305
990.000000	9.436729
991.000000	9.472248
992.000000	9.492458
993.000000	9.486321
994.000000	9.503797
995.000000	9.512264
996.000000	9.510274
997.000000	9.515778
998.000000	9.540167
999.000000	9.529879
1000.000000	9.552795
1001.000000	9.569382
1002.000000	9.579058
1003.000000	9.552340
1004.000000	9.566212
1005.000000	9.557386
1006.000000	9.556883
1007.000000	9.551503
1008.000000	9.584368
1009.000000	9.578256
1010.000000	9.594013
1011.000000	9.612867
1012.000000	9.588304
1013.000000	9.603383
1014.000000	9.591379
1015.000000	9.571842
1016.000000	9.594204
1017.000000	9.607743
1018.000000	9.611713
1019.000000	9.607584
1020.000000	9.624300
1021.000000	9.607505
1022.000000	9.622969
1023.000000	9.619995
1024.000000	9.635483
1025.000000	9.637357
1026.000000	9.645532
1027.000000	9.625401
1028.000000	9.654362
1029.000000	9.626754
1030.000000	9.645185
1031.000000	9.648936
1032.000000	9.652298
1033.000000	9.658282
1034.000000	9.652616
1035.000000	9.661285
1036.000000	9.671227
1037.000000	9.667557
1038.000000	9.692061
1039.000000	9.681030
1040.000000	9.678732
1041.000000	9.678972
1042.000000	9.671805
1043.000000	9.679876
1044.000000	9.704745
1045.000000	9.726285
1046.000000	9.729848
1047.000000	9.724264
1048.000000	9.716930
1049.000000	9.740527
1050.000000	9.725535
1051.000000	9.736840
1052.000000	9.737587
1053.000000	9.761403
1054.000000	9.774726
1055.000000	9.755015
1056.000000	9.771581
1057.000000	9.793630
1058.000000	9.777240
1059.000000	9.810020
1060.000000	9.816680
1061.000000	9.833612
1062.000000	9.824043
1063.000000	9.844503
1064.000000	9.849208
1065.000000	9.839376
1066.000000	9.861435
1067.000000	9.882043
1068.000000	9.872608
1069.000000	9.893795
1070.000000	9.908411
1071.000000	9.905043
1072.000000	9.928889
1073.000000	9.919565
1074.000000	9.930534
1075.000000	9.941744
1076.000000	9.941752
1077.000000	9.938713
1078.000000	9.961943
1079.000000	9.956104
1080.000000	9.957943
1081.000000	10.001878
1082.000000	10.001657
1083.000000	10.005630
1084.000000	9.979221
1085.000000	9.984634
1086.000000	10.006980
1087.000000	10.012907
1088.000000	10.017831
1089.000000	10.030606
1090.000000	10.036701
1091.000000	10.050257
1092.000000	10.023266
1093.000000	10.033485
1094.000000	10.044032
1095.000000	10.057268
1096.000000	10.038444
1097.000000	10.053720
1098.000000	10.054477
1099.000000	10.041323
1100.000000	10.046713
1101.000000	10.050349
1102.000000	10.065324
1103.000000	10.037068
1104.000000	10.059576
1105.000000	10.060084
1106.000000	10.050952
1107.000000	10.056911
1108.000000	10.053832
1109.000000	10.047418
1110.000000	10.050791
1111.000000	10.040146
1112.000000	10.046387
1113.000000	10.042470
1114.000000	10.035925
1115.000000	10.039070
1116.000000	10.055890
1117.000000	10.041073
1118.000000	10.034987
1119.000000	10.042593
1120.000000	10.044619
1121.000000	10.047683
1122.000000	10.036844
1123.000000	10.043698
1124.000000	10.027421
1125.000000	10.019962
1126.000000	10.017605
1127.000000	9.994415
1128.000000	10.005627
1129.000000	9.993557
1130.000000	9.983624
1131.000000	9.965253
1132.000000	9.946351
1133.000000	9.933893
1134.000000	9.930242
1135.000000	9.940949
1136.000000	9.911102
1137.000000	9.883155
1138.000000	9.860828
1139.000000	9.839706
1140.000000	9.825791
1141.000000	9.810501
1142.000000	9.798987
1143.000000	9.770774
1144.000000	9.781648
1145.000000	9.775615
1146.000000	9.758966
1147.000000	9.743684
1148.000000	9.735223
1149.000000	9.721962
1150.000000	9.718670
1151.000000	9.720325
1152.000000	9.708553
1153.000000	9.698295
1154.000000	9.688984
1155.000000	9.674586
1156.000000	9.661443
1157.000000	9.650146
1158.000000	9.637240
1159.000000	9.617283
1160.000000	9.596180
1161.000000	9.583907
1162.000000	9.569005
1163.000000	9.544459
1164.000000	9.528704
1165.000000	9.526850
1166.000000	9.506254
1167.000000	9.478028
1168.000000	9.461274
1169.000000	9.457848
1170.000000	9.439308
1171.000000	9.425228
1172.000000	9.417329
1173.000000	9.404786
1174.000000	9.387935
1175.000000	9.376498
1176.000000	9.365609
1177.000000	9.356802
1178.000000	9.350967
1179.000000	9.345139
1180.000000	9.332304
1181.000000	9.326761
1182.000000	9.325073
