PE UV       SUBTECH     SPECTRUM    ASCII       PEDS        4.00        
   -1
CICIMAUCR0006-3.Sample.ASC
24/04/12
11:24:13.00
24/04/12
11:24:13.00
Vinicio Soto Monge
C. kalinini
250,000000
1
Lambda 1050
1050L1511233
PerkinElmer UV WinLab 6.3.2.0749 / 2.02.05 Lambda 900 UV/VIS/NIR, Aug  7 2015 09:38:08

0
0
3350/servo 860,8/2
0
0
UV/VIS
1
1
1
DoubleDePol,CommonBeamDepol,RBeamAtt,SBeamAtt,60mm sphere, WB InGaAs Detector
0
0
0
0
Program
Program
3350/servo 860,8/2
3350/0,2 860,8/0,2
3350/0,2 860,8/0,2
0
15.00
 
 
 
0
 
860,8
319,2
860,8
Front
100
on
S:100 R:100
0
0
0
0
 
0
 
 
 
0
 
 
0
0
0
0
0
 
 
 
 
0
0


0
0
#HDR
-1
-1
#GR
nm
%R
1.0
0.0
2500,000000
-1,000000
2251
8
53,231800
3,109100
#DATA
250.000000	1.565980
251.000000	1.572065
252.000000	1.646849
253.000000	1.603327
254.000000	1.591375
255.000000	1.554560
256.000000	1.555564
257.000000	1.561384
258.000000	1.573422
259.000000	1.571638
260.000000	1.592487
261.000000	1.530378
262.000000	1.492895
263.000000	1.522471
264.000000	1.504349
265.000000	1.496914
266.000000	1.508403
267.000000	1.530571
268.000000	1.512030
269.000000	1.491300
270.000000	1.509531
271.000000	1.512208
272.000000	1.505429
273.000000	1.457656
274.000000	1.505104
275.000000	1.497677
276.000000	1.487798
277.000000	1.483348
278.000000	1.477501
279.000000	1.443153
280.000000	1.492225
281.000000	1.469561
282.000000	1.462082
283.000000	1.462755
284.000000	1.447773
285.000000	1.459646
286.000000	1.460054
287.000000	1.451854
288.000000	1.474408
289.000000	1.454848
290.000000	1.494994
291.000000	1.468598
292.000000	1.473950
293.000000	1.451871
294.000000	1.437901
295.000000	1.432884
296.000000	1.427328
297.000000	1.425733
298.000000	1.443352
299.000000	1.458937
300.000000	1.418465
301.000000	1.427592
302.000000	1.434486
303.000000	1.456554
304.000000	1.451060
305.000000	1.377156
306.000000	1.410229
307.000000	1.436407
308.000000	1.410469
309.000000	1.423452
310.000000	1.421542
311.000000	1.441015
312.000000	1.425978
313.000000	1.397447
314.000000	1.391616
315.000000	1.389752
316.000000	1.388539
317.000000	1.287699
318.000000	1.296903
319.000000	1.170012
320.000000	1.203949
321.000000	1.298728
322.000000	1.336478
323.000000	1.392532
324.000000	1.252987
325.000000	1.226144
326.000000	1.266687
327.000000	1.346340
328.000000	1.262425
329.000000	1.333059
330.000000	1.305765
331.000000	1.388739
332.000000	1.374360
333.000000	1.499030
334.000000	1.447274
335.000000	1.453998
336.000000	1.377270
337.000000	1.323785
338.000000	1.437696
339.000000	1.438973
340.000000	1.439342
341.000000	1.445855
342.000000	1.471200
343.000000	1.423539
344.000000	1.458274
345.000000	1.405407
346.000000	1.432162
347.000000	1.498162
348.000000	1.484694
349.000000	1.429243
350.000000	1.446288
351.000000	1.440690
352.000000	1.411623
353.000000	1.480085
354.000000	1.449371
355.000000	1.493867
356.000000	1.486889
357.000000	1.539944
358.000000	1.548052
359.000000	1.508965
360.000000	1.474963
361.000000	1.493943
362.000000	1.537029
363.000000	1.551252
364.000000	1.553149
365.000000	1.534664
366.000000	1.542287
367.000000	1.537729
368.000000	1.603534
369.000000	1.603755
370.000000	1.620949
371.000000	1.634981
372.000000	1.624562
373.000000	1.630489
374.000000	1.699057
375.000000	1.685498
376.000000	1.616995
377.000000	1.720045
378.000000	1.742724
379.000000	1.765625
380.000000	1.794673
381.000000	1.824832
382.000000	1.862832
383.000000	1.891756
384.000000	1.933718
385.000000	1.982837
386.000000	2.041619
387.000000	2.086683
388.000000	2.146957
389.000000	2.202049
390.000000	2.275890
391.000000	2.345996
392.000000	2.424988
393.000000	2.522805
394.000000	2.618064
395.000000	2.714839
396.000000	2.817909
397.000000	2.927503
398.000000	3.043640
399.000000	3.155278
400.000000	3.282634
401.000000	3.425794
402.000000	3.556813
403.000000	3.698777
404.000000	3.856923
405.000000	3.988791
406.000000	4.135707
407.000000	4.299016
408.000000	4.453262
409.000000	4.609047
410.000000	4.766242
411.000000	4.924008
412.000000	5.085488
413.000000	5.237835
414.000000	5.390551
415.000000	5.542108
416.000000	5.688839
417.000000	5.830129
418.000000	5.972021
419.000000	6.104522
420.000000	6.228246
421.000000	6.354086
422.000000	6.481148
423.000000	6.599674
424.000000	6.707871
425.000000	6.823218
426.000000	6.930650
427.000000	7.032245
428.000000	7.128461
429.000000	7.222734
430.000000	7.322268
431.000000	7.414280
432.000000	7.486188
433.000000	7.563827
434.000000	7.647089
435.000000	7.721494
436.000000	7.791790
437.000000	7.854946
438.000000	7.903564
439.000000	7.958978
440.000000	8.002971
441.000000	8.022486
442.000000	8.053695
443.000000	8.086829
444.000000	8.089408
445.000000	8.087403
446.000000	8.089455
447.000000	8.073735
448.000000	8.055706
449.000000	8.034447
450.000000	7.992566
451.000000	7.942131
452.000000	7.880948
453.000000	7.821897
454.000000	7.749604
455.000000	7.666714
456.000000	7.581920
457.000000	7.488807
458.000000	7.383746
459.000000	7.274408
460.000000	7.185390
461.000000	7.090109
462.000000	6.994047
463.000000	6.903672
464.000000	6.814673
465.000000	6.730199
466.000000	6.669253
467.000000	6.619183
468.000000	6.584717
469.000000	6.573099
470.000000	6.582740
471.000000	6.603477
472.000000	6.651018
473.000000	6.734256
474.000000	6.838380
475.000000	6.960471
476.000000	7.102951
477.000000	7.273547
478.000000	7.459630
479.000000	7.678703
480.000000	7.901522
481.000000	8.090637
482.000000	8.272020
483.000000	8.488979
484.000000	8.754511
485.000000	9.039922
486.000000	9.321918
487.000000	9.607540
488.000000	9.888643
489.000000	10.153804
490.000000	10.425119
491.000000	10.696103
492.000000	10.956665
493.000000	11.207730
494.000000	11.448355
495.000000	11.699857
496.000000	11.941313
497.000000	12.198711
498.000000	12.427430
499.000000	12.638794
500.000000	12.856701
501.000000	13.081377
502.000000	13.289688
503.000000	13.503904
504.000000	13.742073
505.000000	13.970890
506.000000	14.186374
507.000000	14.403128
508.000000	14.628194
509.000000	14.841239
510.000000	15.077149
511.000000	15.344768
512.000000	15.592913
513.000000	15.848254
514.000000	16.088555
515.000000	16.334248
516.000000	16.568037
517.000000	16.798603
518.000000	17.017832
519.000000	17.232820
520.000000	17.475229
521.000000	17.691453
522.000000	17.908784
523.000000	18.122736
524.000000	18.341534
525.000000	18.553552
526.000000	18.746596
527.000000	18.937274
528.000000	19.139390
529.000000	19.352144
530.000000	19.557633
531.000000	19.733876
532.000000	19.913793
533.000000	20.089976
534.000000	20.255159
535.000000	20.408898
536.000000	20.558997
537.000000	20.705878
538.000000	20.786482
539.000000	20.867236
540.000000	21.014449
541.000000	21.105070
542.000000	21.188446
543.000000	21.316268
544.000000	21.391173
545.000000	21.462689
546.000000	21.588301
547.000000	21.693114
548.000000	21.739936
549.000000	21.901964
550.000000	22.002496
551.000000	22.063049
552.000000	22.126300
553.000000	22.179595
554.000000	22.227646
555.000000	22.246841
556.000000	22.308411
557.000000	22.351165
558.000000	22.354983
559.000000	22.396345
560.000000	22.372422
561.000000	22.375257
562.000000	22.384261
563.000000	22.404110
564.000000	22.377320
565.000000	22.351855
566.000000	22.327481
567.000000	22.270088
568.000000	22.245610
569.000000	22.179874
570.000000	22.135459
571.000000	22.066933
572.000000	22.004574
573.000000	21.943648
574.000000	21.837578
575.000000	21.726745
576.000000	21.619882
577.000000	21.456731
578.000000	21.251845
579.000000	21.073684
580.000000	20.887625
581.000000	20.679575
582.000000	20.465032
583.000000	20.250413
584.000000	20.025020
585.000000	19.808165
586.000000	19.589339
587.000000	19.375986
588.000000	19.126271
589.000000	18.940284
590.000000	18.704617
591.000000	18.501979
592.000000	18.309524
593.000000	18.115176
594.000000	17.939884
595.000000	17.744458
596.000000	17.575788
597.000000	17.413996
598.000000	17.230180
599.000000	17.030762
600.000000	16.867139
601.000000	16.655851
602.000000	16.464918
603.000000	16.283861
604.000000	16.088639
605.000000	15.909966
606.000000	15.763048
607.000000	15.597116
608.000000	15.482870
609.000000	15.356357
610.000000	15.239823
611.000000	15.195195
612.000000	15.142448
613.000000	15.120360
614.000000	15.139763
615.000000	15.161459
616.000000	15.200767
617.000000	15.277730
618.000000	15.346200
619.000000	15.408125
620.000000	15.487913
621.000000	15.574611
622.000000	15.688266
623.000000	15.777568
624.000000	15.902900
625.000000	15.984767
626.000000	16.088668
627.000000	16.157515
628.000000	16.231391
629.000000	16.308173
630.000000	16.374322
631.000000	16.428283
632.000000	16.485749
633.000000	16.534924
634.000000	16.590851
635.000000	16.602698
636.000000	16.631332
637.000000	16.665715
638.000000	16.695581
639.000000	16.743188
640.000000	16.736292
641.000000	16.764902
642.000000	16.778550
643.000000	16.785222
644.000000	16.832261
645.000000	16.863497
646.000000	16.902842
647.000000	16.941739
648.000000	16.996514
649.000000	17.046913
650.000000	17.101394
651.000000	17.180765
652.000000	17.264946
653.000000	17.380447
654.000000	17.514185
655.000000	17.631621
656.000000	17.788080
657.000000	17.872558
658.000000	17.992355
659.000000	18.105212
660.000000	18.221435
661.000000	18.345487
662.000000	18.426508
663.000000	18.514629
664.000000	18.594091
665.000000	18.677117
666.000000	18.732290
667.000000	18.766264
668.000000	18.840126
669.000000	18.860502
670.000000	18.884338
671.000000	18.905509
672.000000	18.935010
673.000000	18.970402
674.000000	18.992408
675.000000	19.014995
676.000000	19.037123
677.000000	19.049364
678.000000	19.103818
679.000000	19.174508
680.000000	19.223521
681.000000	19.309989
682.000000	19.396381
683.000000	19.490198
684.000000	19.616676
685.000000	19.767716
686.000000	19.886615
687.000000	20.029344
688.000000	20.209399
689.000000	20.391218
690.000000	20.549379
691.000000	20.703477
692.000000	20.832347
693.000000	20.998494
694.000000	21.177856
695.000000	21.364637
696.000000	21.497091
697.000000	21.650756
698.000000	21.779064
699.000000	21.875583
700.000000	21.961854
701.000000	22.072340
702.000000	22.193932
703.000000	22.269500
704.000000	22.363266
705.000000	22.448473
706.000000	22.471470
707.000000	22.536472
708.000000	22.631833
709.000000	22.733188
710.000000	22.830652
711.000000	22.843895
712.000000	22.943025
713.000000	23.048614
714.000000	23.121526
715.000000	23.198576
716.000000	23.311043
717.000000	23.453795
718.000000	23.539411
719.000000	23.621194
720.000000	23.746797
721.000000	23.903919
722.000000	24.035173
723.000000	24.179077
724.000000	24.336022
725.000000	24.494756
726.000000	24.659439
727.000000	24.840436
728.000000	25.018036
729.000000	25.182002
730.000000	25.349674
731.000000	25.530455
732.000000	25.685541
733.000000	25.821533
734.000000	25.971308
735.000000	26.146011
736.000000	26.259480
737.000000	26.354897
738.000000	26.488707
739.000000	26.585792
740.000000	26.688795
741.000000	26.821835
742.000000	26.933913
743.000000	27.008009
744.000000	27.113729
745.000000	27.230457
746.000000	27.299174
747.000000	27.357300
748.000000	27.438252
749.000000	27.562079
750.000000	27.648405
751.000000	27.649087
752.000000	27.700357
753.000000	27.776083
754.000000	27.805271
755.000000	27.868479
756.000000	27.895027
757.000000	27.909801
758.000000	27.928360
759.000000	27.965915
760.000000	28.021879
761.000000	28.085230
762.000000	28.099087
763.000000	28.047459
764.000000	28.009774
765.000000	28.018945
766.000000	28.006149
767.000000	28.029679
768.000000	28.009029
769.000000	27.957046
770.000000	27.992490
771.000000	28.012582
772.000000	28.055722
773.000000	28.011678
774.000000	27.963519
775.000000	27.977346
776.000000	28.019063
777.000000	28.055724
778.000000	28.068565
779.000000	28.078988
780.000000	28.104344
781.000000	28.172503
782.000000	28.202545
783.000000	28.216092
784.000000	28.240289
785.000000	28.203663
786.000000	28.169507
787.000000	28.152902
788.000000	28.125710
789.000000	28.083079
790.000000	28.070232
791.000000	28.047836
792.000000	28.097912
793.000000	28.070367
794.000000	28.026136
795.000000	28.098346
796.000000	28.015384
797.000000	27.968941
798.000000	27.936843
799.000000	27.842498
800.000000	27.882406
801.000000	27.865440
802.000000	27.807479
803.000000	27.803912
804.000000	27.779235
805.000000	27.623489
806.000000	27.509741
807.000000	27.423050
808.000000	27.387812
809.000000	27.253796
810.000000	27.187247
811.000000	27.041227
812.000000	26.922233
813.000000	26.792499
814.000000	26.657774
815.000000	26.509465
816.000000	26.399230
817.000000	26.313683
818.000000	26.074444
819.000000	25.947799
820.000000	25.839562
821.000000	25.682466
822.000000	25.454432
823.000000	25.374527
824.000000	25.264800
825.000000	25.085787
826.000000	24.891167
827.000000	24.642796
828.000000	24.600875
829.000000	24.499962
830.000000	24.323489
831.000000	24.197660
832.000000	23.924712
833.000000	23.716713
834.000000	23.659478
835.000000	23.393695
836.000000	23.151897
837.000000	23.064847
838.000000	22.951904
839.000000	22.725067
840.000000	22.481977
841.000000	22.372463
842.000000	22.223321
843.000000	22.057731
844.000000	21.807858
845.000000	21.633843
846.000000	21.544494
847.000000	21.177857
848.000000	21.287756
849.000000	21.036783
850.000000	20.947400
851.000000	20.471020
852.000000	20.229069
853.000000	20.146133
854.000000	20.277235
855.000000	19.835739
856.000000	20.089285
857.000000	19.608841
858.000000	19.844618
859.000000	18.482910
860.000000	18.568852
861.000000	18.634171
862.000000	18.684489
863.000000	18.790892
864.000000	18.876499
865.000000	19.022965
866.000000	19.136511
867.000000	19.279757
868.000000	19.366364
869.000000	19.467607
870.000000	19.622874
871.000000	19.790615
872.000000	19.873204
873.000000	20.040823
874.000000	20.144078
875.000000	20.282019
876.000000	20.369061
877.000000	20.494610
878.000000	20.590432
879.000000	20.642357
880.000000	20.747615
881.000000	20.819825
882.000000	20.973662
883.000000	21.069799
884.000000	21.139798
885.000000	21.182725
886.000000	21.262768
887.000000	21.304135
888.000000	21.378392
889.000000	21.435513
890.000000	21.481242
891.000000	21.561277
892.000000	21.638262
893.000000	21.667059
894.000000	21.733187
895.000000	21.788869
896.000000	21.854788
897.000000	21.863483
898.000000	21.918246
899.000000	21.952360
900.000000	21.986148
901.000000	22.042028
902.000000	22.063261
903.000000	22.101572
904.000000	22.129889
905.000000	22.179634
906.000000	22.215201
907.000000	22.254210
908.000000	22.298748
909.000000	22.333858
910.000000	22.354373
911.000000	22.424509
912.000000	22.437381
913.000000	22.438845
914.000000	22.396207
915.000000	22.472357
916.000000	22.509900
917.000000	22.528142
918.000000	22.515706
919.000000	22.526782
920.000000	22.546240
921.000000	22.562803
922.000000	22.588912
923.000000	22.529104
924.000000	22.562034
925.000000	22.550432
926.000000	22.567160
927.000000	22.589998
928.000000	22.548106
929.000000	22.548165
930.000000	22.537055
931.000000	22.521967
932.000000	22.478116
933.000000	22.446892
934.000000	22.444230
935.000000	22.429939
936.000000	22.407327
937.000000	22.381074
938.000000	22.352173
939.000000	22.341971
940.000000	22.347070
941.000000	22.327665
942.000000	22.296806
943.000000	22.300764
944.000000	22.280394
945.000000	22.235225
946.000000	22.220542
947.000000	22.215322
948.000000	22.178095
949.000000	22.157450
950.000000	22.146138
951.000000	22.122695
952.000000	22.116457
953.000000	22.098846
954.000000	22.061330
955.000000	22.035080
956.000000	22.013096
957.000000	21.987175
958.000000	21.957186
959.000000	21.928409
960.000000	21.899230
961.000000	21.846823
962.000000	21.804502
963.000000	21.779346
964.000000	21.750229
965.000000	21.716544
966.000000	21.686784
967.000000	21.665439
968.000000	21.641835
969.000000	21.618034
970.000000	21.583420
971.000000	21.537637
972.000000	21.492171
973.000000	21.461829
974.000000	21.422284
975.000000	21.375308
976.000000	21.336070
977.000000	21.312642
978.000000	21.261988
979.000000	21.228373
980.000000	21.204642
981.000000	21.170905
982.000000	21.133238
983.000000	21.102069
984.000000	21.070877
985.000000	21.035175
986.000000	21.000441
987.000000	20.959621
988.000000	20.922582
989.000000	20.886456
990.000000	20.854757
991.000000	20.815758
992.000000	20.795357
993.000000	20.768392
994.000000	20.729991
995.000000	20.688748
996.000000	20.655200
997.000000	20.632332
998.000000	20.618205
999.000000	20.584435
1000.000000	20.556884
1001.000000	20.535210
1002.000000	20.508383
1003.000000	20.470874
1004.000000	20.428558
1005.000000	20.394490
1006.000000	20.369990
1007.000000	20.345117
1008.000000	20.325050
1009.000000	20.286387
1010.000000	20.252665
1011.000000	20.242255
1012.000000	20.220491
1013.000000	20.190054
1014.000000	20.166953
1015.000000	20.153812
1016.000000	20.146115
1017.000000	20.131806
1018.000000	20.113874
1019.000000	20.116359
1020.000000	20.133294
1021.000000	20.134238
1022.000000	20.131415
1023.000000	20.135111
1024.000000	20.131041
1025.000000	20.121302
1026.000000	20.124684
1027.000000	20.133932
1028.000000	20.129232
1029.000000	20.123121
1030.000000	20.121601
1031.000000	20.116962
1032.000000	20.123012
1033.000000	20.131445
1034.000000	20.126344
1035.000000	20.126525
1036.000000	20.135123
1037.000000	20.130450
1038.000000	20.112429
1039.000000	20.099230
1040.000000	20.099858
1041.000000	20.102227
1042.000000	20.096527
1043.000000	20.095053
1044.000000	20.089488
1045.000000	20.075662
1046.000000	20.072712
1047.000000	20.087420
1048.000000	20.087568
1049.000000	20.082356
1050.000000	20.085587
1051.000000	20.094096
1052.000000	20.111132
1053.000000	20.112895
1054.000000	20.116699
1055.000000	20.135257
1056.000000	20.141626
1057.000000	20.147508
1058.000000	20.162003
1059.000000	20.176773
1060.000000	20.187329
1061.000000	20.197440
1062.000000	20.209716
1063.000000	20.228831
1064.000000	20.251187
1065.000000	20.256395
1066.000000	20.260493
1067.000000	20.270163
1068.000000	20.297228
1069.000000	20.321581
1070.000000	20.321416
1071.000000	20.339680
1072.000000	20.352896
1073.000000	20.355748
1074.000000	20.371241
1075.000000	20.386504
1076.000000	20.402960
1077.000000	20.412856
1078.000000	20.423090
1079.000000	20.438547
1080.000000	20.447960
1081.000000	20.451265
1082.000000	20.478131
1083.000000	20.488669
1084.000000	20.501563
1085.000000	20.520760
1086.000000	20.541570
1087.000000	20.545097
1088.000000	20.562753
1089.000000	20.592889
1090.000000	20.607637
1091.000000	20.614807
1092.000000	20.622200
1093.000000	20.642773
1094.000000	20.659087
1095.000000	20.656750
1096.000000	20.671121
1097.000000	20.675529
1098.000000	20.687321
1099.000000	20.702349
1100.000000	20.713611
1101.000000	20.712966
1102.000000	20.716113
1103.000000	20.729069
1104.000000	20.748327
1105.000000	20.741408
1106.000000	20.748017
1107.000000	20.750322
1108.000000	20.761242
1109.000000	20.765426
1110.000000	20.771891
1111.000000	20.775157
1112.000000	20.780971
1113.000000	20.792527
1114.000000	20.791232
1115.000000	20.788835
1116.000000	20.791018
1117.000000	20.791804
1118.000000	20.790556
1119.000000	20.791154
1120.000000	20.779238
1121.000000	20.757553
1122.000000	20.752401
1123.000000	20.731057
1124.000000	20.712446
1125.000000	20.680522
1126.000000	20.659565
1127.000000	20.617492
1128.000000	20.558053
1129.000000	20.503634
1130.000000	20.426680
1131.000000	20.336998
1132.000000	20.229919
1133.000000	20.120906
1134.000000	20.022291
1135.000000	19.903486
1136.000000	19.776412
1137.000000	19.649474
1138.000000	19.499218
1139.000000	19.379873
1140.000000	19.261396
1141.000000	19.144090
1142.000000	19.028180
1143.000000	18.911325
1144.000000	18.816639
1145.000000	18.735514
1146.000000	18.673456
1147.000000	18.639753
1148.000000	18.631642
1149.000000	18.618040
1150.000000	18.605609
1151.000000	18.618009
1152.000000	18.607061
1153.000000	18.583886
1154.000000	18.565321
1155.000000	18.520971
1156.000000	18.448595
1157.000000	18.368975
1158.000000	18.261235
1159.000000	18.148220
1160.000000	18.029483
1161.000000	17.914827
1162.000000	17.793723
1163.000000	17.675976
1164.000000	17.537983
1165.000000	17.429797
1166.000000	17.285716
1167.000000	17.178748
1168.000000	17.066351
1169.000000	16.954880
1170.000000	16.847615
1171.000000	16.730168
