PE UV       SUBTECH     SPECTRUM    ASCII       PEDS        4.00        
   -1
CICIMAUCR0104-3.Sample.ASC
24/04/22
09:54:19.00
24/04/22
09:54:19.00
Vinicio Soto Monge
C. resplendens
250,000000
1
Lambda 1050
1050L1511233
PerkinElmer UV WinLab 6.3.2.0749 / 2.02.05 Lambda 900 UV/VIS/NIR, Aug  7 2015 09:38:08

0
0
3350/servo 860,8/2
0
0
UV/VIS
1
1
1
DoubleDePol,CommonBeamDepol,RBeamAtt,SBeamAtt,60mm sphere, WB InGaAs Detector
0
0
0
0
Program
Program
3350/servo 860,8/2
3350/0,2 860,8/0,2
3350/0,2 860,8/0,2
0
15.00
 
 
 
0
 
860,8
319,2
860,8
Front
100
on
S:100 R:100
0
0
0
0
 
0
 
 
 
0
 
 
0
0
0
0
0
 
 
 
 
0
0


0
0
#HDR
-1
-1
#GR
nm
%R
1.0
0.0
2500,000000
-1,000000
2251
8
90,434600
6,014800
#DATA
250.000000	0.128972
251.000000	0.102949
252.000000	0.098430
253.000000	0.082997
254.000000	0.082829
255.000000	0.074586
256.000000	0.134817
257.000000	0.130791
258.000000	0.099171
259.000000	0.102676
260.000000	0.101238
261.000000	0.104810
262.000000	0.130473
263.000000	0.132514
264.000000	0.081624
265.000000	0.130339
266.000000	0.131311
267.000000	0.098016
268.000000	0.092931
269.000000	0.039421
270.000000	0.046004
271.000000	0.083436
272.000000	0.089614
273.000000	0.062483
274.000000	0.080262
275.000000	0.106667
276.000000	0.088870
277.000000	0.060040
278.000000	0.064363
279.000000	0.046847
280.000000	0.076077
281.000000	0.094334
282.000000	0.084425
283.000000	0.094300
284.000000	0.056731
285.000000	0.087218
286.000000	0.064893
287.000000	0.066182
288.000000	0.044409
289.000000	0.072539
290.000000	0.045753
291.000000	0.061684
292.000000	0.038350
293.000000	0.031163
294.000000	0.075234
295.000000	0.076164
296.000000	0.061628
297.000000	0.096398
298.000000	0.073840
299.000000	0.068955
300.000000	0.048746
301.000000	0.036443
302.000000	0.017234
303.000000	0.087000
304.000000	0.031862
305.000000	0.053181
306.000000	0.053940
307.000000	0.057362
308.000000	0.055068
309.000000	0.051706
310.000000	0.024476
311.000000	0.054143
312.000000	0.061167
313.000000	0.054392
314.000000	0.041862
315.000000	0.041680
316.000000	0.055337
317.000000	0.282546
318.000000	0.378323
319.000000	0.308680
320.000000	0.323337
321.000000	0.224873
322.000000	0.268639
323.000000	0.198880
324.000000	0.193714
325.000000	0.304297
326.000000	0.202153
327.000000	0.156402
328.000000	0.136012
329.000000	0.141029
330.000000	0.080860
331.000000	0.217076
332.000000	0.152909
333.000000	0.089069
334.000000	0.065420
335.000000	0.136595
336.000000	0.143914
337.000000	0.087076
338.000000	0.098202
339.000000	0.086842
340.000000	0.081109
341.000000	0.145263
342.000000	0.096264
343.000000	0.121466
344.000000	0.084892
345.000000	0.186183
346.000000	0.086101
347.000000	0.138079
348.000000	0.040474
349.000000	0.071439
350.000000	0.090022
351.000000	0.076539
352.000000	0.045452
353.000000	0.044743
354.000000	0.091925
355.000000	0.017352
356.000000	0.028915
357.000000	0.091911
358.000000	0.088749
359.000000	0.093965
360.000000	0.017151
361.000000	0.020496
362.000000	0.075295
363.000000	0.075117
364.000000	0.043879
365.000000	0.064723
366.000000	0.135581
367.000000	0.116595
368.000000	0.048863
369.000000	0.084271
370.000000	0.142599
371.000000	0.204624
372.000000	0.160067
373.000000	0.235557
374.000000	0.221004
375.000000	0.200706
376.000000	0.299698
377.000000	0.236495
378.000000	0.271431
379.000000	0.298023
380.000000	0.315179
381.000000	0.363839
382.000000	0.404633
383.000000	0.426250
384.000000	0.463687
385.000000	0.497304
386.000000	0.532409
387.000000	0.574375
388.000000	0.617124
389.000000	0.650237
390.000000	0.685832
391.000000	0.718209
392.000000	0.754179
393.000000	0.785503
394.000000	0.815103
395.000000	0.830447
396.000000	0.858889
397.000000	0.867297
398.000000	0.875509
399.000000	0.883170
400.000000	0.861001
401.000000	0.857761
402.000000	0.858783
403.000000	0.848098
404.000000	0.819011
405.000000	0.769326
406.000000	0.733288
407.000000	0.688869
408.000000	0.649736
409.000000	0.620392
410.000000	0.569558
411.000000	0.518104
412.000000	0.464183
413.000000	0.419580
414.000000	0.374900
415.000000	0.335185
416.000000	0.322761
417.000000	0.325944
418.000000	0.318980
419.000000	0.346324
420.000000	0.385335
421.000000	0.410595
422.000000	0.442743
423.000000	0.497513
424.000000	0.543774
425.000000	0.582730
426.000000	0.633725
427.000000	0.694615
428.000000	0.750724
429.000000	0.808864
430.000000	0.877014
431.000000	0.928713
432.000000	0.985782
433.000000	1.045090
434.000000	1.093391
435.000000	1.150616
436.000000	1.233482
437.000000	1.295756
438.000000	1.341270
439.000000	1.407967
440.000000	1.463353
441.000000	1.518813
442.000000	1.575411
443.000000	1.618912
444.000000	1.674003
445.000000	1.704802
446.000000	1.722013
447.000000	1.751198
448.000000	1.772617
449.000000	1.770643
450.000000	1.748111
451.000000	1.725124
452.000000	1.696203
453.000000	1.636993
454.000000	1.570980
455.000000	1.480920
456.000000	1.366912
457.000000	1.256320
458.000000	1.141509
459.000000	1.000838
460.000000	0.863572
461.000000	0.764904
462.000000	0.710996
463.000000	0.706595
464.000000	0.746630
465.000000	0.835255
466.000000	0.948978
467.000000	1.081945
468.000000	1.194129
469.000000	1.285614
470.000000	1.375255
471.000000	1.429222
472.000000	1.440520
473.000000	1.427534
474.000000	1.396397
475.000000	1.329455
476.000000	1.232746
477.000000	1.145176
478.000000	1.048286
479.000000	0.959492
480.000000	0.891789
481.000000	0.834205
482.000000	0.792155
483.000000	0.771344
484.000000	0.765411
485.000000	0.802406
486.000000	0.843936
487.000000	0.874980
488.000000	0.932563
489.000000	0.995983
490.000000	1.060992
491.000000	1.104037
492.000000	1.166099
493.000000	1.188358
494.000000	1.166169
495.000000	1.122089
496.000000	1.056860
497.000000	0.959411
498.000000	0.839304
499.000000	0.697690
500.000000	0.542360
501.000000	0.413907
502.000000	0.355556
503.000000	0.463876
504.000000	0.671864
505.000000	0.927691
506.000000	1.170028
507.000000	1.443756
508.000000	1.718026
509.000000	1.987830
510.000000	2.230506
511.000000	2.466859
512.000000	2.685625
513.000000	2.876626
514.000000	3.018206
515.000000	3.147534
516.000000	3.241350
517.000000	3.308556
518.000000	3.350256
519.000000	3.363373
520.000000	3.373161
521.000000	3.326162
522.000000	3.271650
523.000000	3.184251
524.000000	3.073742
525.000000	2.943135
526.000000	2.777886
527.000000	2.599607
528.000000	2.401606
529.000000	2.179664
530.000000	1.960588
531.000000	1.733764
532.000000	1.518499
533.000000	1.305822
534.000000	1.136985
535.000000	0.974575
536.000000	0.852359
537.000000	0.796715
538.000000	0.807987
539.000000	0.869932
540.000000	0.953457
541.000000	1.037829
542.000000	1.162673
543.000000	1.268740
544.000000	1.348372
545.000000	1.467687
546.000000	1.586342
547.000000	1.730190
548.000000	1.816516
549.000000	1.924337
550.000000	2.029581
551.000000	2.113493
552.000000	2.217692
553.000000	2.332467
554.000000	2.413712
555.000000	2.485840
556.000000	2.573229
557.000000	2.621517
558.000000	2.692381
559.000000	2.742015
560.000000	2.814703
561.000000	2.863033
562.000000	2.906203
563.000000	2.933574
564.000000	2.968335
565.000000	2.989001
566.000000	3.016642
567.000000	3.042375
568.000000	3.093009
569.000000	3.102535
570.000000	3.161002
571.000000	3.197364
572.000000	3.216767
573.000000	3.255362
574.000000	3.312218
575.000000	3.362919
576.000000	3.411536
577.000000	3.440297
578.000000	3.495858
579.000000	3.548122
580.000000	3.611254
581.000000	3.658372
582.000000	3.720252
583.000000	3.747743
584.000000	3.794376
585.000000	3.808069
586.000000	3.883480
587.000000	3.937736
588.000000	3.991155
589.000000	4.079116
590.000000	4.124801
591.000000	4.223532
592.000000	4.282350
593.000000	4.321672
594.000000	4.389297
595.000000	4.452626
596.000000	4.563971
597.000000	4.619165
598.000000	4.704482
599.000000	4.742777
600.000000	4.823274
601.000000	4.901293
602.000000	4.979846
603.000000	5.003530
604.000000	5.067375
605.000000	5.143538
606.000000	5.247574
607.000000	5.328119
608.000000	5.410223
609.000000	5.468377
610.000000	5.568456
611.000000	5.623245
612.000000	5.636324
613.000000	5.729190
614.000000	5.793362
615.000000	5.802412
616.000000	5.807993
617.000000	5.800064
618.000000	5.782025
619.000000	5.728750
620.000000	5.708434
621.000000	5.691034
622.000000	5.628694
623.000000	5.562112
624.000000	5.510620
625.000000	5.474664
626.000000	5.365991
627.000000	5.297788
628.000000	5.197829
629.000000	5.109384
630.000000	4.967275
631.000000	4.814474
632.000000	4.651053
633.000000	4.425766
634.000000	4.206151
635.000000	3.932907
636.000000	3.627174
637.000000	3.276828
638.000000	2.971409
639.000000	2.574344
640.000000	2.196450
641.000000	1.764627
642.000000	1.376813
643.000000	0.995572
644.000000	0.699726
645.000000	0.586514
646.000000	0.742634
647.000000	0.995642
648.000000	1.259481
649.000000	1.539304
650.000000	1.767160
651.000000	1.962486
652.000000	2.160554
653.000000	2.305249
654.000000	2.382962
655.000000	2.424278
656.000000	2.453141
657.000000	2.456163
658.000000	2.422154
659.000000	2.377784
660.000000	2.299457
661.000000	2.147687
662.000000	2.021261
663.000000	1.919892
664.000000	1.774877
665.000000	1.595462
666.000000	1.474887
667.000000	1.387437
668.000000	1.225626
669.000000	1.118433
670.000000	1.063323
671.000000	1.006759
672.000000	0.953234
673.000000	0.922657
674.000000	0.991553
675.000000	1.034635
676.000000	1.063626
677.000000	1.127489
678.000000	1.188819
679.000000	1.218045
680.000000	1.205926
681.000000	1.245262
682.000000	1.236977
683.000000	1.265620
684.000000	1.260965
685.000000	1.307841
686.000000	1.278526
687.000000	1.253961
688.000000	1.269628
689.000000	1.269807
690.000000	1.236939
691.000000	1.249560
692.000000	1.254416
693.000000	1.243039
694.000000	1.179447
695.000000	1.190894
696.000000	1.149402
697.000000	1.096176
698.000000	1.063807
699.000000	1.038042
700.000000	1.018246
701.000000	0.979221
702.000000	0.907369
703.000000	0.813772
704.000000	0.754984
705.000000	0.743460
706.000000	0.684281
707.000000	0.620941
708.000000	0.580600
709.000000	0.536130
710.000000	0.498436
711.000000	0.438902
712.000000	0.423093
713.000000	0.396543
714.000000	0.355742
715.000000	0.285508
716.000000	0.256566
717.000000	0.286871
718.000000	0.294186
719.000000	0.284639
720.000000	0.308772
721.000000	0.343048
722.000000	0.352375
723.000000	0.352215
724.000000	0.387124
725.000000	0.443019
726.000000	0.488505
727.000000	0.507541
728.000000	0.566626
729.000000	0.651194
730.000000	0.714413
731.000000	0.813351
732.000000	0.850435
733.000000	0.894843
734.000000	0.958880
735.000000	1.033580
736.000000	1.096702
737.000000	1.167016
738.000000	1.241529
739.000000	1.311989
740.000000	1.381978
741.000000	1.417517
742.000000	1.473173
743.000000	1.549506
744.000000	1.585672
745.000000	1.670914
746.000000	1.767477
747.000000	1.795897
748.000000	1.824013
749.000000	1.866766
750.000000	1.914441
751.000000	1.985929
752.000000	2.087082
753.000000	2.174469
754.000000	2.203550
755.000000	2.306833
756.000000	2.360213
757.000000	2.399489
758.000000	2.491908
759.000000	2.529105
760.000000	2.594686
761.000000	2.676815
762.000000	2.700435
763.000000	2.723482
764.000000	2.717699
765.000000	2.656702
766.000000	2.575247
767.000000	2.549120
768.000000	2.598814
769.000000	2.599815
770.000000	2.615997
771.000000	2.620795
772.000000	2.546597
773.000000	2.427666
774.000000	2.384086
775.000000	2.396565
776.000000	2.425230
777.000000	2.361849
778.000000	2.334188
779.000000	2.416336
780.000000	2.426953
781.000000	2.371335
782.000000	2.377951
783.000000	2.301253
784.000000	2.300337
785.000000	2.354813
786.000000	2.373747
787.000000	2.278269
788.000000	2.304003
789.000000	2.332474
790.000000	2.340503
791.000000	2.378621
792.000000	2.434909
793.000000	2.491051
794.000000	2.523016
795.000000	2.537947
796.000000	2.608255
797.000000	2.628870
798.000000	2.857723
799.000000	2.780450
800.000000	2.833763
801.000000	2.751259
802.000000	2.816074
803.000000	2.815369
804.000000	2.798234
805.000000	2.761644
806.000000	2.675965
807.000000	2.610772
808.000000	2.582135
809.000000	2.567378
810.000000	2.533897
811.000000	2.663476
812.000000	2.681617
813.000000	2.646293
814.000000	2.547547
815.000000	2.418036
816.000000	2.461571
817.000000	2.535586
818.000000	2.555561
819.000000	2.524961
820.000000	2.557445
821.000000	2.452167
822.000000	2.444624
823.000000	2.573811
824.000000	2.667989
825.000000	2.486870
826.000000	2.468700
827.000000	2.489467
828.000000	2.476134
829.000000	2.381425
830.000000	2.417897
831.000000	2.468046
832.000000	2.513468
833.000000	2.275063
834.000000	2.260100
835.000000	2.429144
836.000000	2.333002
837.000000	2.121123
838.000000	2.169185
839.000000	2.009267
840.000000	2.009014
841.000000	1.919482
842.000000	1.838446
843.000000	1.577461
844.000000	1.402447
845.000000	1.445985
846.000000	1.358509
847.000000	1.284598
848.000000	1.105760
849.000000	1.258005
850.000000	1.099263
851.000000	0.851123
852.000000	0.884478
853.000000	0.887139
854.000000	0.685173
855.000000	0.958663
856.000000	0.498256
857.000000	0.719429
858.000000	0.695826
859.000000	1.175259
860.000000	1.331486
861.000000	1.355371
862.000000	1.303346
863.000000	1.269476
864.000000	1.201657
865.000000	1.063948
866.000000	0.933208
867.000000	0.881318
868.000000	0.809753
869.000000	0.731055
870.000000	0.636973
871.000000	0.565357
872.000000	0.495432
873.000000	0.433057
874.000000	0.388921
875.000000	0.306062
876.000000	0.253676
877.000000	0.174204
878.000000	0.128877
879.000000	0.064188
880.000000	0.034315
881.000000	0.059215
882.000000	0.136088
883.000000	0.245672
884.000000	0.300105
885.000000	0.344546
886.000000	0.401799
887.000000	0.513596
888.000000	0.589652
889.000000	0.648407
890.000000	0.698736
891.000000	0.736100
892.000000	0.809973
893.000000	0.907907
894.000000	0.964195
895.000000	1.035060
896.000000	1.126985
897.000000	1.172940
898.000000	1.251888
899.000000	1.340572
900.000000	1.425841
901.000000	1.524375
902.000000	1.541275
903.000000	1.607965
904.000000	1.668411
905.000000	1.728909
906.000000	1.793112
907.000000	1.863756
908.000000	1.927292
909.000000	1.905468
910.000000	1.923942
911.000000	1.944673
912.000000	1.996274
913.000000	2.021878
914.000000	2.033161
915.000000	2.025487
916.000000	2.030091
917.000000	2.051248
918.000000	2.061908
919.000000	2.092668
920.000000	2.107370
921.000000	2.117141
922.000000	2.164141
923.000000	2.188948
924.000000	2.189921
925.000000	2.211171
926.000000	2.236697
927.000000	2.250837
928.000000	2.284009
929.000000	2.287039
930.000000	2.298274
931.000000	2.338012
932.000000	2.351187
933.000000	2.369807
934.000000	2.411976
935.000000	2.440515
936.000000	2.431937
937.000000	2.459722
938.000000	2.496757
939.000000	2.509014
940.000000	2.557221
941.000000	2.570596
942.000000	2.612139
943.000000	2.642737
944.000000	2.660788
945.000000	2.693408
946.000000	2.712536
947.000000	2.723865
948.000000	2.756894
949.000000	2.789417
950.000000	2.823509
951.000000	2.857832
952.000000	2.885706
953.000000	2.900507
954.000000	2.932865
955.000000	2.962361
956.000000	2.994393
957.000000	3.050149
958.000000	3.108284
959.000000	3.147898
960.000000	3.188390
961.000000	3.254373
962.000000	3.305104
963.000000	3.346630
964.000000	3.387358
965.000000	3.424869
966.000000	3.455799
967.000000	3.492404
968.000000	3.526766
969.000000	3.570028
970.000000	3.609157
971.000000	3.634332
972.000000	3.666306
973.000000	3.702334
974.000000	3.716027
975.000000	3.745471
976.000000	3.776351
977.000000	3.806546
978.000000	3.835725
979.000000	3.867568
980.000000	3.896079
981.000000	3.915545
982.000000	3.949038
983.000000	3.972595
984.000000	3.984805
985.000000	4.017886
986.000000	4.056506
987.000000	4.083560
988.000000	4.110519
989.000000	4.138226
990.000000	4.160102
991.000000	4.191749
992.000000	4.218290
993.000000	4.239739
994.000000	4.265852
995.000000	4.296226
996.000000	4.330095
997.000000	4.360545
998.000000	4.383405
999.000000	4.404826
1000.000000	4.442517
1001.000000	4.464904
1002.000000	4.496485
1003.000000	4.532971
1004.000000	4.558923
1005.000000	4.591088
1006.000000	4.623611
1007.000000	4.671640
1008.000000	4.711089
1009.000000	4.746291
1010.000000	4.783260
1011.000000	4.824567
1012.000000	4.867360
1013.000000	4.881654
1014.000000	4.915879
1015.000000	4.942930
1016.000000	4.960553
1017.000000	4.985010
1018.000000	4.992896
1019.000000	5.011198
1020.000000	5.027173
1021.000000	5.035496
1022.000000	5.059073
1023.000000	5.080279
1024.000000	5.093696
1025.000000	5.109870
1026.000000	5.127369
1027.000000	5.133865
1028.000000	5.152624
1029.000000	5.180666
1030.000000	5.187359
1031.000000	5.199869
1032.000000	5.226230
1033.000000	5.249236
1034.000000	5.264614
1035.000000	5.285599
1036.000000	5.306949
1037.000000	5.329194
1038.000000	5.351630
1039.000000	5.377389
1040.000000	5.394349
1041.000000	5.413982
1042.000000	5.437149
1043.000000	5.453927
1044.000000	5.467206
1045.000000	5.474680
1046.000000	5.486954
1047.000000	5.494841
1048.000000	5.497203
1049.000000	5.495827
1050.000000	5.497796
1051.000000	5.503951
1052.000000	5.513271
1053.000000	5.511517
1054.000000	5.503151
1055.000000	5.508161
1056.000000	5.507734
1057.000000	5.505264
1058.000000	5.497294
1059.000000	5.493446
1060.000000	5.493944
1061.000000	5.486968
1062.000000	5.476892
1063.000000	5.463588
1064.000000	5.464352
1065.000000	5.466916
1066.000000	5.460784
1067.000000	5.461443
1068.000000	5.462781
1069.000000	5.451891
1070.000000	5.452408
1071.000000	5.453127
1072.000000	5.460831
1073.000000	5.465844
1074.000000	5.469042
1075.000000	5.466264
1076.000000	5.467204
1077.000000	5.468749
1078.000000	5.464752
1079.000000	5.480648
1080.000000	5.475521
1081.000000	5.477643
1082.000000	5.484207
1083.000000	5.494764
1084.000000	5.485536
1085.000000	5.481436
1086.000000	5.475861
1087.000000	5.492006
1088.000000	5.492534
1089.000000	5.492360
1090.000000	5.493671
1091.000000	5.498057
1092.000000	5.500022
1093.000000	5.517405
1094.000000	5.524340
1095.000000	5.514797
1096.000000	5.521091
1097.000000	5.544674
1098.000000	5.554770
1099.000000	5.564385
1100.000000	5.567250
1101.000000	5.578715
1102.000000	5.603462
1103.000000	5.603014
1104.000000	5.615306
1105.000000	5.632228
1106.000000	5.652690
1107.000000	5.667915
1108.000000	5.687891
1109.000000	5.711685
1110.000000	5.709263
1111.000000	5.721189
1112.000000	5.746188
1113.000000	5.741290
1114.000000	5.747634
1115.000000	5.769044
1116.000000	5.789697
1117.000000	5.805883
1118.000000	5.824018
1119.000000	5.837255
1120.000000	5.859946
1121.000000	5.892009
1122.000000	5.924381
1123.000000	5.952766
1124.000000	5.976845
1125.000000	6.005421
1126.000000	6.057809
1127.000000	6.087810
1128.000000	6.137507
1129.000000	6.199377
1130.000000	6.286428
1131.000000	6.385103
1132.000000	6.479323
1133.000000	6.589708
1134.000000	6.709877
1135.000000	6.872503
1136.000000	7.030188
1137.000000	7.204316
1138.000000	7.359669
1139.000000	7.531718
1140.000000	7.701110
1141.000000	7.865065
1142.000000	8.022147
1143.000000	8.188411
1144.000000	8.359737
1145.000000	8.494593
1146.000000	8.572441
1147.000000	8.636953
1148.000000	8.645188
1149.000000	8.626528
1150.000000	8.588222
1151.000000	8.555711
1152.000000	8.543361
1153.000000	8.531572
1154.000000	8.539390
1155.000000	8.580580
1156.000000	8.641796
1157.000000	8.755588
1158.000000	8.870737
1159.000000	9.034912
1160.000000	9.180158
1161.000000	9.341283
1162.000000	9.496044
1163.000000	9.676623
1164.000000	9.825330
1165.000000	10.026786
1166.000000	10.221439
1167.000000	10.393258
1168.000000	10.572702
1169.000000	10.741760
1170.000000	10.918978
1171.000000	11.104757
1172.000000	11.298531
1173.000000	11.467191
1174.000000	11.651299
1175.000000	11.831260
1176.000000	12.019862
1177.000000	12.195314
1178.000000	12.404923
1179.000000	12.661047
1180.000000	12.952817
1181.000000	13.261664
1182.000000	13.591574
1183.000000	13.903061
1184.000000	14.148097
1185.000000	14.313354
1186.000000	14.401056
1187.000000	14.416974
1188.000000	14.341965
1189.000000	14.198313
1190.000000	13.989707
1191.000000	13.735596
1192.000000	13.457270
1193.000000	13.204068
1194.000000	12.994353
1195.000000	12.836742
1196.000000	12.710352
1197.000000	12.623742
1198.000000	12.572909
1199.000000	12.541491
1200.000000	12.528649
1201.000000	12.536969
