PE UV       SUBTECH     SPECTRUM    ASCII       PEDS        4.00        
   -1
CICIMAUCR0013-5.Sample.ASC
24/04/23
11:02:20.00
24/04/23
11:02:20.00
Vinicio Soto Monge
C. resplendens
250,000000
1
Lambda 1050
1050L1511233
PerkinElmer UV WinLab 6.3.2.0749 / 2.02.05 Lambda 900 UV/VIS/NIR, Aug  7 2015 09:38:08

0
0
3350/servo 860,8/2
0
0
UV/VIS
1
1
1
DoubleDePol,CommonBeamDepol,RBeamAtt,SBeamAtt,60mm sphere, WB InGaAs Detector
0
0
0
0
Program
Program
3350/servo 860,8/2
3350/0,2 860,8/0,2
3350/0,2 860,8/0,2
0
15.00
 
 
 
0
 
860,8
319,2
860,8
Front
100
on
S:100 R:100
0
0
0
0
 
0
 
 
 
0
 
 
0
0
0
0
0
 
 
 
 
0
0


0
0
#HDR
-1
-1
#GR
nm
%R
1.0
0.0
2500,000000
-1,000000
2251
8
89,800900
5,734500
#DATA
250.000000	2.047464
251.000000	2.023740
252.000000	1.993399
253.000000	2.004395
254.000000	2.020626
255.000000	2.016041
256.000000	1.991588
257.000000	1.974298
258.000000	1.961143
259.000000	1.958349
260.000000	1.952965
261.000000	1.937814
262.000000	1.924366
263.000000	1.917118
264.000000	1.916576
265.000000	1.916116
266.000000	1.905606
267.000000	1.905252
268.000000	1.888357
269.000000	1.879502
270.000000	1.871092
271.000000	1.869360
272.000000	1.854649
273.000000	1.851128
274.000000	1.842084
275.000000	1.848752
276.000000	1.852703
277.000000	1.857413
278.000000	1.854172
279.000000	1.856535
280.000000	1.837018
281.000000	1.843069
282.000000	1.862310
283.000000	1.838127
284.000000	1.826467
285.000000	1.832819
286.000000	1.814422
287.000000	1.794270
288.000000	1.805782
289.000000	1.822906
290.000000	1.815855
291.000000	1.808805
292.000000	1.817030
293.000000	1.831255
294.000000	1.824376
295.000000	1.810685
296.000000	1.809880
297.000000	1.820332
298.000000	1.809274
299.000000	1.801885
300.000000	1.799063
301.000000	1.788700
302.000000	1.799371
303.000000	1.788034
304.000000	1.775848
305.000000	1.780617
306.000000	1.770333
307.000000	1.774396
308.000000	1.778900
309.000000	1.784765
310.000000	1.787187
311.000000	1.761125
312.000000	1.768324
313.000000	1.778084
314.000000	1.766266
315.000000	1.745689
316.000000	1.603306
317.000000	1.563572
318.000000	1.668900
319.000000	1.629011
320.000000	1.547405
321.000000	1.467125
322.000000	1.577412
323.000000	1.659974
324.000000	1.616832
325.000000	1.547597
326.000000	1.583219
327.000000	1.635389
328.000000	1.607843
329.000000	1.636520
330.000000	1.685643
331.000000	1.708907
332.000000	1.747626
333.000000	1.746320
334.000000	1.655333
335.000000	1.609072
336.000000	1.659333
337.000000	1.704757
338.000000	1.709651
339.000000	1.727882
340.000000	1.698003
341.000000	1.685777
342.000000	1.709124
343.000000	1.721711
344.000000	1.706631
345.000000	1.696143
346.000000	1.708980
347.000000	1.730127
348.000000	1.721400
349.000000	1.728557
350.000000	1.700841
351.000000	1.727117
352.000000	1.733733
353.000000	1.740160
354.000000	1.788802
355.000000	1.830607
356.000000	1.850841
357.000000	1.832011
358.000000	1.853559
359.000000	1.853312
360.000000	1.883614
361.000000	1.927635
362.000000	1.917849
363.000000	1.957717
364.000000	1.973498
365.000000	2.008395
366.000000	2.069173
367.000000	2.098521
368.000000	2.138196
369.000000	2.188809
370.000000	2.255750
371.000000	2.284480
372.000000	2.353489
373.000000	2.482520
374.000000	2.594721
375.000000	2.614849
376.000000	2.554036
377.000000	2.589606
378.000000	2.671858
379.000000	2.765194
380.000000	2.857175
381.000000	2.956591
382.000000	3.058186
383.000000	3.170843
384.000000	3.282466
385.000000	3.395773
386.000000	3.516440
387.000000	3.637451
388.000000	3.761408
389.000000	3.892463
390.000000	4.026151
391.000000	4.157590
392.000000	4.295834
393.000000	4.435791
394.000000	4.570904
395.000000	4.711320
396.000000	4.852308
397.000000	4.980107
398.000000	5.115570
399.000000	5.241625
400.000000	5.377803
401.000000	5.500936
402.000000	5.623524
403.000000	5.748892
404.000000	5.869381
405.000000	5.983694
406.000000	6.091382
407.000000	6.203458
408.000000	6.303114
409.000000	6.407981
410.000000	6.492902
411.000000	6.590645
412.000000	6.672747
413.000000	6.750059
414.000000	6.829902
415.000000	6.893460
416.000000	6.964673
417.000000	7.033143
418.000000	7.081359
419.000000	7.133258
420.000000	7.184045
421.000000	7.221238
422.000000	7.259952
423.000000	7.285917
424.000000	7.308114
425.000000	7.323896
426.000000	7.332075
427.000000	7.349749
428.000000	7.348033
429.000000	7.337822
430.000000	7.318700
431.000000	7.288149
432.000000	7.255674
433.000000	7.215988
434.000000	7.174628
435.000000	7.134278
436.000000	7.078325
437.000000	7.022380
438.000000	6.965254
439.000000	6.916112
440.000000	6.862138
441.000000	6.827897
442.000000	6.795364
443.000000	6.781053
444.000000	6.761936
445.000000	6.756314
446.000000	6.774860
447.000000	6.808284
448.000000	6.857835
449.000000	6.915581
450.000000	7.003125
451.000000	7.095261
452.000000	7.207035
453.000000	7.330222
454.000000	7.455730
455.000000	7.603234
456.000000	7.746518
457.000000	7.901767
458.000000	8.058623
459.000000	8.230617
460.000000	8.391861
461.000000	8.560204
462.000000	8.717908
463.000000	8.881056
464.000000	9.039821
465.000000	9.186859
466.000000	9.318728
467.000000	9.444035
468.000000	9.567545
469.000000	9.674108
470.000000	9.775595
471.000000	9.867429
472.000000	9.948082
473.000000	10.026716
474.000000	10.095248
475.000000	10.153434
476.000000	10.208865
477.000000	10.255946
478.000000	10.304673
479.000000	10.351030
480.000000	10.409964
481.000000	10.472255
482.000000	10.540448
483.000000	10.629057
484.000000	10.709410
485.000000	10.815651
486.000000	10.931321
487.000000	11.059177
488.000000	11.199363
489.000000	11.365159
490.000000	11.531903
491.000000	11.710065
492.000000	11.912793
493.000000	12.119221
494.000000	12.342650
495.000000	12.572332
496.000000	12.811873
497.000000	13.065835
498.000000	13.311603
499.000000	13.571605
500.000000	13.836427
501.000000	14.124346
502.000000	14.417806
503.000000	14.702102
504.000000	15.005846
505.000000	15.311843
506.000000	15.639958
507.000000	15.954562
508.000000	16.295461
509.000000	16.642098
510.000000	16.993839
511.000000	17.375168
512.000000	17.747676
513.000000	18.141140
514.000000	18.543342
515.000000	18.964291
516.000000	19.389169
517.000000	19.813867
518.000000	20.256651
519.000000	20.708213
520.000000	21.165961
521.000000	21.618921
522.000000	22.083845
523.000000	22.547625
524.000000	23.003008
525.000000	23.460837
526.000000	23.906372
527.000000	24.333428
528.000000	24.746746
529.000000	25.149890
530.000000	25.531505
531.000000	25.902028
532.000000	26.258160
533.000000	26.593368
534.000000	26.903288
535.000000	27.196897
536.000000	27.488095
537.000000	27.761168
538.000000	28.010857
539.000000	28.243929
540.000000	28.470838
541.000000	28.690699
542.000000	28.893506
543.000000	29.088431
544.000000	29.266403
545.000000	29.434528
546.000000	29.575108
547.000000	29.718110
548.000000	29.846127
549.000000	29.967083
550.000000	30.075677
551.000000	30.170074
552.000000	30.268104
553.000000	30.356928
554.000000	30.414712
555.000000	30.486065
556.000000	30.556980
557.000000	30.607703
558.000000	30.677241
559.000000	30.712153
560.000000	30.722980
561.000000	30.769898
562.000000	30.799851
563.000000	30.821665
564.000000	30.854763
565.000000	30.869449
566.000000	30.880480
567.000000	30.879037
568.000000	30.879062
569.000000	30.860149
570.000000	30.838737
571.000000	30.797802
572.000000	30.750789
573.000000	30.696761
574.000000	30.637477
575.000000	30.583123
576.000000	30.515419
577.000000	30.441017
578.000000	30.362604
579.000000	30.278417
580.000000	30.198429
581.000000	30.109978
582.000000	30.010853
583.000000	29.908258
584.000000	29.796230
585.000000	29.689605
586.000000	29.571649
587.000000	29.445490
588.000000	29.316201
589.000000	29.181145
590.000000	29.044891
591.000000	28.889900
592.000000	28.721126
593.000000	28.572547
594.000000	28.414763
595.000000	28.247971
596.000000	28.104776
597.000000	27.934802
598.000000	27.772344
599.000000	27.613907
600.000000	27.431400
601.000000	27.255260
602.000000	27.068950
603.000000	26.875009
604.000000	26.664901
605.000000	26.458961
606.000000	26.231036
607.000000	25.983544
608.000000	25.736324
609.000000	25.462776
610.000000	25.182974
611.000000	24.888001
612.000000	24.586952
613.000000	24.289193
614.000000	23.975869
615.000000	23.654891
616.000000	23.333347
617.000000	23.010729
618.000000	22.669902
619.000000	22.337898
620.000000	21.978974
621.000000	21.632013
622.000000	21.266811
623.000000	20.892348
624.000000	20.511070
625.000000	20.133576
626.000000	19.755033
627.000000	19.397809
628.000000	19.044375
629.000000	18.700131
630.000000	18.369651
631.000000	18.067912
632.000000	17.788236
633.000000	17.545832
634.000000	17.334867
635.000000	17.176878
636.000000	17.040619
637.000000	16.934130
638.000000	16.879566
639.000000	16.864316
640.000000	16.875621
641.000000	16.916758
642.000000	16.985351
643.000000	17.077768
644.000000	17.204594
645.000000	17.350330
646.000000	17.503011
647.000000	17.669463
648.000000	17.862583
649.000000	18.070012
650.000000	18.282033
651.000000	18.498698
652.000000	18.725070
653.000000	18.956907
654.000000	19.176209
655.000000	19.400511
656.000000	19.631404
657.000000	19.850720
658.000000	20.060106
659.000000	20.263448
660.000000	20.463543
661.000000	20.658326
662.000000	20.835884
663.000000	20.994484
664.000000	21.165339
665.000000	21.333660
666.000000	21.473818
667.000000	21.606425
668.000000	21.728732
669.000000	21.847261
670.000000	21.971757
671.000000	22.067956
672.000000	22.169926
673.000000	22.282921
674.000000	22.384069
675.000000	22.466628
676.000000	22.548131
677.000000	22.613264
678.000000	22.665062
679.000000	22.728371
680.000000	22.780205
681.000000	22.801748
682.000000	22.813137
683.000000	22.808547
684.000000	22.794748
685.000000	22.765825
686.000000	22.726830
687.000000	22.676881
688.000000	22.597208
689.000000	22.522231
690.000000	22.438384
691.000000	22.341054
692.000000	22.240128
693.000000	22.130806
694.000000	22.032439
695.000000	21.939980
696.000000	21.820494
697.000000	21.704076
698.000000	21.604853
699.000000	21.498220
700.000000	21.376119
701.000000	21.253432
702.000000	21.147116
703.000000	21.058093
704.000000	20.957239
705.000000	20.880937
706.000000	20.801330
707.000000	20.742587
708.000000	20.693206
709.000000	20.660376
710.000000	20.640274
711.000000	20.633316
712.000000	20.656278
713.000000	20.683618
714.000000	20.716684
715.000000	20.787066
716.000000	20.869375
717.000000	20.951778
718.000000	21.036075
719.000000	21.130649
720.000000	21.252588
721.000000	21.364665
722.000000	21.493632
723.000000	21.620396
724.000000	21.756121
725.000000	21.901468
726.000000	22.059448
727.000000	22.200579
728.000000	22.365823
729.000000	22.544281
730.000000	22.675319
731.000000	22.824189
732.000000	22.978875
733.000000	23.148308
734.000000	23.312907
735.000000	23.459531
736.000000	23.611232
737.000000	23.751924
738.000000	23.881594
739.000000	23.999094
740.000000	24.104028
741.000000	24.210496
742.000000	24.321418
743.000000	24.404204
744.000000	24.487868
745.000000	24.563966
746.000000	24.641478
747.000000	24.689201
748.000000	24.743358
749.000000	24.806340
750.000000	24.843788
751.000000	24.902922
752.000000	24.944606
753.000000	24.977445
754.000000	25.000010
755.000000	25.017857
756.000000	25.039225
757.000000	25.076140
758.000000	25.102721
759.000000	25.088758
760.000000	25.125128
761.000000	25.149506
762.000000	25.172673
763.000000	25.193050
764.000000	25.218304
765.000000	25.235655
766.000000	25.271899
767.000000	25.299942
768.000000	25.331828
769.000000	25.318633
770.000000	25.331277
771.000000	25.349812
772.000000	25.407341
773.000000	25.376564
774.000000	25.344841
775.000000	25.308343
776.000000	25.266500
777.000000	25.250491
778.000000	25.172023
779.000000	25.126832
780.000000	25.080294
781.000000	24.996483
782.000000	24.924934
783.000000	24.864551
784.000000	24.809500
785.000000	24.727479
786.000000	24.722222
787.000000	24.579665
788.000000	24.572951
789.000000	24.524356
790.000000	24.520088
791.000000	24.473208
792.000000	24.381292
793.000000	24.349738
794.000000	24.282414
795.000000	24.350419
796.000000	24.319331
797.000000	24.295632
798.000000	24.278380
799.000000	24.335862
800.000000	24.383021
801.000000	24.345670
802.000000	24.298839
803.000000	24.372399
804.000000	24.344995
805.000000	24.366962
806.000000	24.358006
807.000000	24.424597
808.000000	24.409797
809.000000	24.422126
810.000000	24.361210
811.000000	24.325557
812.000000	24.283425
813.000000	24.242195
814.000000	24.204975
815.000000	24.051518
816.000000	23.925408
817.000000	23.822698
818.000000	23.703925
819.000000	23.613272
820.000000	23.455651
821.000000	23.425110
822.000000	23.247573
823.000000	23.086648
824.000000	22.981463
825.000000	22.909508
826.000000	22.744105
827.000000	22.575682
828.000000	22.477195
829.000000	22.398808
830.000000	22.209567
831.000000	22.033852
832.000000	21.923885
833.000000	21.859357
834.000000	21.771153
835.000000	21.597114
836.000000	21.479318
837.000000	21.327747
838.000000	21.167268
839.000000	21.064011
840.000000	20.836473
841.000000	20.771605
842.000000	20.694227
843.000000	20.584234
844.000000	20.517448
845.000000	20.253159
846.000000	20.151785
847.000000	19.974897
848.000000	19.840921
849.000000	19.652312
850.000000	19.500362
851.000000	19.411044
852.000000	19.235443
853.000000	19.152648
854.000000	18.730029
855.000000	18.690291
856.000000	18.549555
857.000000	18.398441
858.000000	19.066139
859.000000	18.388416
860.000000	18.202068
861.000000	18.369402
862.000000	18.355333
863.000000	18.621645
864.000000	18.560047
865.000000	18.294213
866.000000	18.562674
867.000000	18.577046
868.000000	18.257100
869.000000	18.435319
870.000000	18.802877
871.000000	18.547909
872.000000	18.382423
873.000000	18.559951
874.000000	18.501220
875.000000	18.788607
876.000000	18.909166
877.000000	18.490425
878.000000	18.356409
879.000000	18.583352
880.000000	18.535196
881.000000	18.621950
882.000000	18.547827
883.000000	18.537434
884.000000	18.430461
885.000000	18.563556
886.000000	18.533527
887.000000	18.388052
888.000000	18.333925
889.000000	18.404107
890.000000	18.251557
891.000000	18.304616
892.000000	18.342906
893.000000	18.461776
894.000000	18.362414
895.000000	18.188996
896.000000	18.199747
897.000000	18.211343
898.000000	17.941848
899.000000	17.998978
900.000000	17.998623
901.000000	18.020623
902.000000	18.027390
903.000000	17.926185
904.000000	17.913901
905.000000	17.948187
906.000000	17.876785
907.000000	17.711337
908.000000	17.603189
909.000000	17.523096
910.000000	17.537806
911.000000	17.566552
912.000000	17.454566
913.000000	17.366791
914.000000	17.274614
915.000000	17.194110
916.000000	17.183071
917.000000	17.122153
918.000000	17.038227
919.000000	17.093253
920.000000	17.093007
921.000000	16.980888
922.000000	16.917131
923.000000	16.885444
924.000000	16.835359
925.000000	16.824053
926.000000	16.818005
927.000000	16.748360
928.000000	16.759320
929.000000	16.767941
930.000000	16.736166
931.000000	16.686011
932.000000	16.588911
933.000000	16.541179
934.000000	16.503050
935.000000	16.478909
936.000000	16.430328
937.000000	16.422120
938.000000	16.376566
939.000000	16.284048
940.000000	16.280513
941.000000	16.204439
942.000000	16.153765
943.000000	16.168686
944.000000	16.091212
945.000000	16.012892
946.000000	15.965951
947.000000	15.914126
948.000000	15.903172
949.000000	15.830612
950.000000	15.773532
951.000000	15.703660
952.000000	15.644131
953.000000	15.606082
954.000000	15.566508
955.000000	15.543250
956.000000	15.465919
957.000000	15.434145
958.000000	15.396903
959.000000	15.332950
960.000000	15.284112
961.000000	15.249820
962.000000	15.221124
963.000000	15.186213
964.000000	15.151545
965.000000	15.086915
966.000000	15.064809
967.000000	15.001044
968.000000	14.984480
969.000000	14.967821
970.000000	14.949070
971.000000	14.887898
972.000000	14.853330
973.000000	14.820886
974.000000	14.790326
975.000000	14.783270
976.000000	14.733305
977.000000	14.685356
978.000000	14.657576
979.000000	14.592816
980.000000	14.587127
981.000000	14.528815
982.000000	14.490762
983.000000	14.475309
984.000000	14.421681
985.000000	14.388328
986.000000	14.372208
987.000000	14.318404
988.000000	14.292771
989.000000	14.235168
990.000000	14.221351
991.000000	14.194065
992.000000	14.161910
993.000000	14.126936
994.000000	14.078030
995.000000	14.065876
996.000000	14.059490
997.000000	13.992332
998.000000	14.004541
999.000000	13.977902
1000.000000	13.940397
1001.000000	13.926129
1002.000000	13.931806
1003.000000	13.891707
1004.000000	13.879291
1005.000000	13.828322
1006.000000	13.827725
1007.000000	13.844372
1008.000000	13.812107
1009.000000	13.764734
1010.000000	13.775052
1011.000000	13.758961
1012.000000	13.765162
1013.000000	13.744218
1014.000000	13.748066
1015.000000	13.741150
1016.000000	13.725732
1017.000000	13.728535
1018.000000	13.737490
1019.000000	13.721739
1020.000000	13.717584
1021.000000	13.706593
1022.000000	13.728342
1023.000000	13.728655
1024.000000	13.748317
1025.000000	13.735154
1026.000000	13.765365
1027.000000	13.781513
1028.000000	13.782696
1029.000000	13.758181
1030.000000	13.816691
1031.000000	13.848591
1032.000000	13.826400
1033.000000	13.841401
1034.000000	13.847688
1035.000000	13.859041
1036.000000	13.855365
1037.000000	13.877058
1038.000000	13.868235
1039.000000	13.894929
1040.000000	13.905326
1041.000000	13.914745
1042.000000	13.932575
1043.000000	13.920942
1044.000000	13.940004
1045.000000	13.973838
1046.000000	13.962231
1047.000000	13.975665
1048.000000	14.011269
1049.000000	14.032879
1050.000000	14.024154
1051.000000	14.038852
1052.000000	14.052578
1053.000000	14.071092
1054.000000	14.088212
1055.000000	14.122666
1056.000000	14.135852
1057.000000	14.157375
1058.000000	14.180935
1059.000000	14.167481
1060.000000	14.196080
1061.000000	14.185955
1062.000000	14.211251
1063.000000	14.249020
1064.000000	14.272766
1065.000000	14.269984
1066.000000	14.279091
1067.000000	14.314559
1068.000000	14.334399
1069.000000	14.334306
1070.000000	14.355121
1071.000000	14.358396
1072.000000	14.362373
1073.000000	14.396855
1074.000000	14.405840
1075.000000	14.412732
1076.000000	14.430489
1077.000000	14.462337
1078.000000	14.469145
1079.000000	14.485858
1080.000000	14.503350
1081.000000	14.520070
1082.000000	14.511799
1083.000000	14.547982
1084.000000	14.560807
1085.000000	14.592638
1086.000000	14.606423
1087.000000	14.616190
1088.000000	14.633693
1089.000000	14.639143
1090.000000	14.675444
1091.000000	14.688207
1092.000000	14.701629
1093.000000	14.687385
1094.000000	14.722577
1095.000000	14.733396
1096.000000	14.744812
1097.000000	14.766636
1098.000000	14.764007
1099.000000	14.777610
1100.000000	14.783678
1101.000000	14.778718
1102.000000	14.795264
1103.000000	14.806862
1104.000000	14.805501
1105.000000	14.824317
1106.000000	14.831337
1107.000000	14.829854
1108.000000	14.839194
1109.000000	14.855127
1110.000000	14.853189
1111.000000	14.860381
1112.000000	14.859955
1113.000000	14.867444
1114.000000	14.876765
1115.000000	14.875711
1116.000000	14.875752
1117.000000	14.882568
1118.000000	14.905470
1119.000000	14.885518
1120.000000	14.878658
1121.000000	14.875492
1122.000000	14.872817
1123.000000	14.856034
1124.000000	14.856175
1125.000000	14.849149
1126.000000	14.807163
1127.000000	14.794092
1128.000000	14.779237
1129.000000	14.737570
1130.000000	14.681959
1131.000000	14.620340
1132.000000	14.558687
1133.000000	14.502333
1134.000000	14.438400
1135.000000	14.342341
1136.000000	14.234344
1137.000000	14.113077
1138.000000	14.009914
1139.000000	13.924738
1140.000000	13.825403
1141.000000	13.727556
1142.000000	13.636048
1143.000000	13.544747
1144.000000	13.455446
1145.000000	13.387574
1146.000000	13.338593
1147.000000	13.304013
1148.000000	13.283801
1149.000000	13.278270
1150.000000	13.281895
1151.000000	13.289470
1152.000000	13.274685
1153.000000	13.275989
1154.000000	13.261760
1155.000000	13.220629
1156.000000	13.179847
1157.000000	13.118488
1158.000000	13.055760
1159.000000	12.962692
1160.000000	12.865218
1161.000000	12.775585
1162.000000	12.674348
1163.000000	12.585888
1164.000000	12.464938
1165.000000	12.367006
1166.000000	12.268216
1167.000000	12.167715
1168.000000	12.062696
1169.000000	11.965962
1170.000000	11.875986
