PE UV       SUBTECH     SPECTRUM    ASCII       PEDS        4.00        
   -1
CICIMAUCR0014-5.Sample.ASC
24/04/23
11:16:56.00
24/04/23
11:16:56.00
Vinicio Soto Monge
C. cupreomarginata
250,000000
1
Lambda 1050
1050L1511233
PerkinElmer UV WinLab 6.3.2.0749 / 2.02.05 Lambda 900 UV/VIS/NIR, Aug  7 2015 09:38:08

0
0
3350/servo 860,8/2
0
0
UV/VIS
1
1
1
DoubleDePol,CommonBeamDepol,RBeamAtt,SBeamAtt,60mm sphere, WB InGaAs Detector
0
0
0
0
Program
Program
3350/servo 860,8/2
3350/0,2 860,8/0,2
3350/0,2 860,8/0,2
0
15.00
 
 
 
0
 
860,8
319,2
860,8
Front
100
on
S:100 R:100
0
0
0
0
 
0
 
 
 
0
 
 
0
0
0
0
0
 
 
 
 
0
0


0
0
#HDR
-1
-1
#GR
nm
%R
1.0
0.0
2500,000000
-1,000000
2251
8
75,082300
5,658100
#DATA
250.000000	1.256119
251.000000	1.250320
252.000000	1.254341
253.000000	1.224913
254.000000	1.231465
255.000000	1.213183
256.000000	1.193058
257.000000	1.196972
258.000000	1.183342
259.000000	1.169525
260.000000	1.172461
261.000000	1.180997
262.000000	1.162639
263.000000	1.150343
264.000000	1.136936
265.000000	1.139298
266.000000	1.138868
267.000000	1.130703
268.000000	1.116093
269.000000	1.124420
270.000000	1.120080
271.000000	1.113542
272.000000	1.083286
273.000000	1.095706
274.000000	1.111056
275.000000	1.071141
276.000000	1.073368
277.000000	1.088615
278.000000	1.072957
279.000000	1.100534
280.000000	1.065705
281.000000	1.075166
282.000000	1.075118
283.000000	1.065763
284.000000	1.065408
285.000000	1.059487
286.000000	1.084831
287.000000	1.055920
288.000000	1.064554
289.000000	1.033366
290.000000	1.054805
291.000000	1.052606
292.000000	1.070922
293.000000	1.045895
294.000000	1.038864
295.000000	1.037155
296.000000	1.036605
297.000000	1.006118
298.000000	1.043081
299.000000	1.013204
300.000000	1.021841
301.000000	1.009653
302.000000	1.015356
303.000000	1.017389
304.000000	1.029501
305.000000	1.006645
306.000000	1.005816
307.000000	1.004143
308.000000	1.005966
309.000000	1.004105
310.000000	0.986698
311.000000	0.985140
312.000000	0.988715
313.000000	0.967571
314.000000	0.978563
315.000000	0.978501
316.000000	0.984766
317.000000	0.945423
318.000000	0.937770
319.000000	0.865112
320.000000	0.918984
321.000000	0.984323
322.000000	0.827513
323.000000	0.864156
324.000000	0.909413
325.000000	0.847403
326.000000	0.881061
327.000000	0.912632
328.000000	0.860538
329.000000	0.870494
330.000000	0.885156
331.000000	0.916677
332.000000	0.898946
333.000000	0.868117
334.000000	0.866508
335.000000	0.888887
336.000000	0.862613
337.000000	0.852734
338.000000	0.876529
339.000000	0.827266
340.000000	0.830489
341.000000	0.863556
342.000000	0.832026
343.000000	0.811786
344.000000	0.860661
345.000000	0.852376
346.000000	0.854452
347.000000	0.851201
348.000000	0.833486
349.000000	0.847517
350.000000	0.838825
351.000000	0.850954
352.000000	0.821766
353.000000	0.816175
354.000000	0.839671
355.000000	0.821171
356.000000	0.812894
357.000000	0.828789
358.000000	0.848926
359.000000	0.861499
360.000000	0.846577
361.000000	0.827522
362.000000	0.806693
363.000000	0.799696
364.000000	0.796857
365.000000	0.807206
366.000000	0.798831
367.000000	0.771562
368.000000	0.778791
369.000000	0.772349
370.000000	0.767595
371.000000	0.776543
372.000000	0.764958
373.000000	0.738364
374.000000	0.747408
375.000000	0.736309
376.000000	0.688613
377.000000	0.751468
378.000000	0.745462
379.000000	0.735417
380.000000	0.719223
381.000000	0.704964
382.000000	0.696827
383.000000	0.683099
384.000000	0.662904
385.000000	0.648908
386.000000	0.637411
387.000000	0.624532
388.000000	0.610246
389.000000	0.592557
390.000000	0.580534
391.000000	0.570045
392.000000	0.562538
393.000000	0.556574
394.000000	0.547353
395.000000	0.548990
396.000000	0.550204
397.000000	0.557656
398.000000	0.566393
399.000000	0.577659
400.000000	0.587712
401.000000	0.604347
402.000000	0.625921
403.000000	0.650214
404.000000	0.678386
405.000000	0.704849
406.000000	0.731486
407.000000	0.773773
408.000000	0.820430
409.000000	0.857052
410.000000	0.904089
411.000000	0.953774
412.000000	1.002465
413.000000	1.061902
414.000000	1.120500
415.000000	1.181776
416.000000	1.245094
417.000000	1.309446
418.000000	1.378697
419.000000	1.448056
420.000000	1.519587
421.000000	1.598450
422.000000	1.674929
423.000000	1.751119
424.000000	1.830556
425.000000	1.909140
426.000000	1.992261
427.000000	2.075457
428.000000	2.162576
429.000000	2.249237
430.000000	2.332066
431.000000	2.417245
432.000000	2.504932
433.000000	2.592545
434.000000	2.682904
435.000000	2.770808
436.000000	2.853149
437.000000	2.942819
438.000000	3.030252
439.000000	3.114009
440.000000	3.193686
441.000000	3.273531
442.000000	3.353393
443.000000	3.428498
444.000000	3.504008
445.000000	3.577946
446.000000	3.651200
447.000000	3.727376
448.000000	3.800740
449.000000	3.866318
450.000000	3.932830
451.000000	3.995524
452.000000	4.047721
453.000000	4.104140
454.000000	4.162702
455.000000	4.210500
456.000000	4.254338
457.000000	4.299076
458.000000	4.341197
459.000000	4.381142
460.000000	4.411293
461.000000	4.435846
462.000000	4.464128
463.000000	4.486943
464.000000	4.497159
465.000000	4.509045
466.000000	4.515761
467.000000	4.519249
468.000000	4.527637
469.000000	4.526407
470.000000	4.514094
471.000000	4.504967
472.000000	4.497568
473.000000	4.478046
474.000000	4.458222
475.000000	4.435340
476.000000	4.417936
477.000000	4.397610
478.000000	4.370055
479.000000	4.346397
480.000000	4.321987
481.000000	4.283297
482.000000	4.246940
483.000000	4.218192
484.000000	4.199080
485.000000	4.186964
486.000000	4.180669
487.000000	4.188621
488.000000	4.199347
489.000000	4.213711
490.000000	4.236998
491.000000	4.270074
492.000000	4.308391
493.000000	4.355438
494.000000	4.408630
495.000000	4.466385
496.000000	4.533244
497.000000	4.603822
498.000000	4.673365
499.000000	4.747522
500.000000	4.825334
501.000000	4.906661
502.000000	4.991262
503.000000	5.078471
504.000000	5.175325
505.000000	5.265611
506.000000	5.364684
507.000000	5.460849
508.000000	5.546541
509.000000	5.647865
510.000000	5.745650
511.000000	5.846991
512.000000	5.952383
513.000000	6.062539
514.000000	6.183233
515.000000	6.314863
516.000000	6.444252
517.000000	6.560604
518.000000	6.692860
519.000000	6.833394
520.000000	6.968268
521.000000	7.121004
522.000000	7.283874
523.000000	7.444818
524.000000	7.619955
525.000000	7.800799
526.000000	7.988173
527.000000	8.186965
528.000000	8.382759
529.000000	8.611762
530.000000	8.840211
531.000000	9.093731
532.000000	9.367308
533.000000	9.648985
534.000000	9.928259
535.000000	10.212888
536.000000	10.517396
537.000000	10.822986
538.000000	11.122480
539.000000	11.429344
540.000000	11.741933
541.000000	12.058451
542.000000	12.353872
543.000000	12.652256
544.000000	12.965101
545.000000	13.251956
546.000000	13.534230
547.000000	13.801467
548.000000	14.056722
549.000000	14.297923
550.000000	14.535964
551.000000	14.747402
552.000000	14.944068
553.000000	15.121407
554.000000	15.289574
555.000000	15.430147
556.000000	15.575364
557.000000	15.712860
558.000000	15.829724
559.000000	15.969991
560.000000	16.304575
561.000000	16.422117
562.000000	16.529380
563.000000	16.641448
564.000000	16.740855
565.000000	16.835249
566.000000	16.938360
567.000000	17.026375
568.000000	17.114867
569.000000	17.212961
570.000000	17.280117
571.000000	17.343445
572.000000	17.391132
573.000000	17.449042
574.000000	17.499907
575.000000	17.530463
576.000000	17.570405
577.000000	17.598022
578.000000	17.621675
579.000000	17.660816
580.000000	17.696327
581.000000	17.718066
582.000000	17.749683
583.000000	17.792375
584.000000	17.828036
585.000000	17.853652
586.000000	17.883067
587.000000	17.886319
588.000000	17.886707
589.000000	17.888838
590.000000	17.874733
591.000000	17.873574
592.000000	17.851077
593.000000	17.820431
594.000000	17.795797
595.000000	17.739853
596.000000	17.690045
597.000000	17.641861
598.000000	17.607562
599.000000	17.550853
600.000000	17.481869
601.000000	17.413231
602.000000	17.349052
603.000000	17.270562
604.000000	17.188191
605.000000	17.101398
606.000000	17.026515
607.000000	16.933518
608.000000	16.843267
609.000000	16.741713
610.000000	16.627661
611.000000	16.516052
612.000000	16.391047
613.000000	16.252686
614.000000	16.116690
615.000000	15.975854
616.000000	15.816590
617.000000	15.671278
618.000000	15.492813
619.000000	15.301219
620.000000	15.120131
621.000000	14.922786
622.000000	14.736325
623.000000	14.531539
624.000000	14.296566
625.000000	14.082293
626.000000	13.881400
627.000000	13.656349
628.000000	13.432243
629.000000	13.196425
630.000000	12.966497
631.000000	12.709372
632.000000	12.449181
633.000000	12.197179
634.000000	11.930911
635.000000	11.680401
636.000000	11.392681
637.000000	11.132108
638.000000	10.859665
639.000000	10.594349
640.000000	10.330454
641.000000	10.067938
642.000000	9.825867
643.000000	9.594358
644.000000	9.382296
645.000000	9.182555
646.000000	9.014627
647.000000	8.881938
648.000000	8.762590
649.000000	8.665306
650.000000	8.603788
651.000000	8.561316
652.000000	8.549657
653.000000	8.537248
654.000000	8.538051
655.000000	8.556736
656.000000	8.592641
657.000000	8.643394
658.000000	8.677184
659.000000	8.735981
660.000000	8.792125
661.000000	8.844032
662.000000	8.908868
663.000000	8.938269
664.000000	8.991443
665.000000	9.031616
666.000000	9.082722
667.000000	9.134185
668.000000	9.166358
669.000000	9.211631
670.000000	9.254985
671.000000	9.313710
672.000000	9.356350
673.000000	9.389034
674.000000	9.439034
675.000000	9.476170
676.000000	9.507108
677.000000	9.564596
678.000000	9.594078
679.000000	9.633930
680.000000	9.644782
681.000000	9.672290
682.000000	9.678717
683.000000	9.688234
684.000000	9.689969
685.000000	9.686419
686.000000	9.670215
687.000000	9.648039
688.000000	9.626333
689.000000	9.617901
690.000000	9.600138
691.000000	9.562702
692.000000	9.515048
693.000000	9.490207
694.000000	9.470332
695.000000	9.450395
696.000000	9.430771
697.000000	9.422156
698.000000	9.420537
699.000000	9.416709
700.000000	9.404577
701.000000	9.408726
702.000000	9.430587
703.000000	9.447899
704.000000	9.452673
705.000000	9.449480
706.000000	9.481864
707.000000	9.492428
708.000000	9.493252
709.000000	9.531793
710.000000	9.536212
711.000000	9.559299
712.000000	9.571424
713.000000	9.589125
714.000000	9.617154
715.000000	9.644133
716.000000	9.678567
717.000000	9.709575
718.000000	9.731993
719.000000	9.763420
720.000000	9.789328
721.000000	9.838404
722.000000	9.896251
723.000000	9.936765
724.000000	9.990034
725.000000	10.014341
726.000000	10.047555
727.000000	10.120860
728.000000	10.185516
729.000000	10.215528
730.000000	10.239391
731.000000	10.297677
732.000000	10.364227
733.000000	10.431160
734.000000	10.457463
735.000000	10.496894
736.000000	10.535884
737.000000	10.553721
738.000000	10.604660
739.000000	10.666114
740.000000	10.693007
741.000000	10.706118
742.000000	10.737780
743.000000	10.760252
744.000000	10.783302
745.000000	10.790855
746.000000	10.816469
747.000000	10.839702
748.000000	10.833504
749.000000	10.866147
750.000000	10.906938
751.000000	10.924776
752.000000	10.947572
753.000000	10.955910
754.000000	10.970971
755.000000	11.001811
756.000000	11.029300
757.000000	11.059754
758.000000	11.076418
759.000000	11.101949
760.000000	11.120859
761.000000	11.121093
762.000000	11.145123
763.000000	11.179899
764.000000	11.194614
765.000000	11.195323
766.000000	11.207479
767.000000	11.207963
768.000000	11.210413
769.000000	11.235441
770.000000	11.226615
771.000000	11.246090
772.000000	11.257918
773.000000	11.283120
774.000000	11.299126
775.000000	11.300602
776.000000	11.322436
777.000000	11.328032
778.000000	11.317722
779.000000	11.333042
780.000000	11.336911
781.000000	11.315966
782.000000	11.335741
783.000000	11.344377
784.000000	11.352381
785.000000	11.359594
786.000000	11.358083
787.000000	11.360466
788.000000	11.410888
789.000000	11.412315
790.000000	11.411280
791.000000	11.416268
792.000000	11.421622
793.000000	11.412724
794.000000	11.421092
795.000000	11.463568
796.000000	11.410071
797.000000	11.396957
798.000000	11.453474
799.000000	11.483423
800.000000	11.467465
801.000000	11.467870
802.000000	11.477750
803.000000	11.491621
804.000000	11.500446
805.000000	11.478414
806.000000	11.490198
807.000000	11.544551
808.000000	11.497945
809.000000	11.506827
810.000000	11.543456
811.000000	11.582133
812.000000	11.562568
813.000000	11.605556
814.000000	11.622909
815.000000	11.628034
816.000000	11.669941
817.000000	11.677406
818.000000	11.673331
819.000000	11.689201
820.000000	11.772765
821.000000	11.751038
822.000000	11.761805
823.000000	11.760688
824.000000	11.790127
825.000000	11.817537
826.000000	11.832235
827.000000	11.877588
828.000000	11.873342
829.000000	11.901377
830.000000	11.933659
831.000000	11.907212
832.000000	11.912835
833.000000	11.899580
834.000000	11.945709
835.000000	12.011675
836.000000	12.043994
837.000000	12.070530
838.000000	12.078709
839.000000	12.102468
840.000000	12.061120
841.000000	12.037664
842.000000	12.093036
843.000000	12.149319
844.000000	12.212825
845.000000	12.137030
846.000000	12.218204
847.000000	12.198873
848.000000	12.192036
849.000000	12.185268
850.000000	12.234405
851.000000	12.366535
852.000000	12.416003
853.000000	12.283433
854.000000	12.404357
855.000000	12.140501
856.000000	12.302560
857.000000	12.214562
858.000000	12.691988
859.000000	11.944316
860.000000	12.149103
861.000000	12.372607
862.000000	12.622544
863.000000	12.884596
864.000000	13.108342
865.000000	13.351467
866.000000	13.586560
867.000000	13.824036
868.000000	14.046932
869.000000	14.259367
870.000000	14.462265
871.000000	14.670497
872.000000	14.838515
873.000000	14.988548
874.000000	15.192628
875.000000	15.358681
876.000000	15.526463
877.000000	15.677415
878.000000	15.831963
879.000000	15.960266
880.000000	16.081740
881.000000	16.239753
882.000000	16.349407
883.000000	16.468636
884.000000	16.580582
885.000000	16.682074
886.000000	16.755169
887.000000	16.878077
888.000000	16.958030
889.000000	17.015949
890.000000	17.071834
891.000000	17.142530
892.000000	17.229722
893.000000	17.296689
894.000000	17.347182
895.000000	17.390256
896.000000	17.425435
897.000000	17.463563
898.000000	17.501206
899.000000	17.536000
900.000000	17.569142
901.000000	17.609847
902.000000	17.641849
903.000000	17.657003
904.000000	17.677977
905.000000	17.687500
906.000000	17.719799
907.000000	17.716845
908.000000	17.747272
909.000000	17.780525
910.000000	17.786483
911.000000	17.796261
912.000000	17.820240
913.000000	17.836718
914.000000	17.859346
915.000000	17.884240
916.000000	17.901878
917.000000	17.906027
918.000000	17.903678
919.000000	17.903913
920.000000	17.936340
921.000000	17.935787
922.000000	17.943792
923.000000	17.952463
924.000000	17.937351
925.000000	17.948227
926.000000	17.946302
927.000000	17.926359
928.000000	17.923232
929.000000	17.912980
930.000000	17.888853
931.000000	17.871611
932.000000	17.873983
933.000000	17.850038
934.000000	17.829062
935.000000	17.826007
936.000000	17.830364
937.000000	17.833903
938.000000	17.788096
939.000000	17.768960
940.000000	17.738949
941.000000	17.714814
942.000000	17.684359
943.000000	17.660632
944.000000	17.640928
945.000000	17.619604
946.000000	17.584953
947.000000	17.565110
948.000000	17.525437
949.000000	17.495150
950.000000	17.471514
951.000000	17.425714
952.000000	17.373375
953.000000	17.346499
954.000000	17.290470
955.000000	17.240657
956.000000	17.209523
957.000000	17.169161
958.000000	17.113771
959.000000	17.040812
960.000000	16.994358
961.000000	16.940412
962.000000	16.884661
963.000000	16.817590
964.000000	16.746585
965.000000	16.695421
966.000000	16.644836
967.000000	16.599422
968.000000	16.539332
969.000000	16.483061
970.000000	16.416041
971.000000	16.353124
972.000000	16.301805
973.000000	16.254699
974.000000	16.208901
975.000000	16.149296
976.000000	16.081619
977.000000	16.029277
978.000000	15.978367
979.000000	15.933462
980.000000	15.878415
981.000000	15.829293
982.000000	15.772442
983.000000	15.720599
984.000000	15.661143
985.000000	15.599145
986.000000	15.542691
987.000000	15.484060
988.000000	15.432279
989.000000	15.384334
990.000000	15.321781
991.000000	15.279049
992.000000	15.229747
993.000000	15.195272
994.000000	15.151958
995.000000	15.098892
996.000000	15.055566
997.000000	15.007913
998.000000	14.958723
999.000000	14.913825
1000.000000	14.875763
1001.000000	14.834575
1002.000000	14.796063
1003.000000	14.746161
1004.000000	14.702193
1005.000000	14.665057
1006.000000	14.625655
1007.000000	14.585657
1008.000000	14.540001
1009.000000	14.493654
1010.000000	14.449459
1011.000000	14.413287
1012.000000	14.372629
1013.000000	14.331361
1014.000000	14.301583
1015.000000	14.268412
1016.000000	14.231705
1017.000000	14.200636
1018.000000	14.182358
1019.000000	14.165922
1020.000000	14.144354
1021.000000	14.115313
1022.000000	14.086853
1023.000000	14.064553
1024.000000	14.045594
1025.000000	14.031950
1026.000000	14.023596
1027.000000	14.005002
1028.000000	13.985296
1029.000000	13.969688
1030.000000	13.950778
1031.000000	13.936051
1032.000000	13.924335
1033.000000	13.914679
1034.000000	13.897203
1035.000000	13.876264
1036.000000	13.863993
1037.000000	13.854526
1038.000000	13.835870
1039.000000	13.817156
1040.000000	13.810703
1041.000000	13.797114
1042.000000	13.776449
1043.000000	13.755693
1044.000000	13.745723
1045.000000	13.725654
1046.000000	13.702959
1047.000000	13.693872
1048.000000	13.687129
1049.000000	13.680077
1050.000000	13.662863
1051.000000	13.654025
1052.000000	13.649763
1053.000000	13.641888
1054.000000	13.636722
1055.000000	13.631137
1056.000000	13.629879
1057.000000	13.625436
1058.000000	13.623006
1059.000000	13.621304
1060.000000	13.613347
1061.000000	13.613875
1062.000000	13.618098
1063.000000	13.618030
1064.000000	13.608719
1065.000000	13.599167
1066.000000	13.592837
1067.000000	13.591700
1068.000000	13.593226
1069.000000	13.587069
1070.000000	13.587729
1071.000000	13.593819
1072.000000	13.583926
1073.000000	13.571618
1074.000000	13.569984
1075.000000	13.571543
1076.000000	13.571284
1077.000000	13.573386
1078.000000	13.575059
1079.000000	13.571680
1080.000000	13.575798
1081.000000	13.569750
1082.000000	13.568056
1083.000000	13.573919
1084.000000	13.577424
1085.000000	13.574819
1086.000000	13.577891
1087.000000	13.585497
1088.000000	13.580890
1089.000000	13.581439
1090.000000	13.592792
1091.000000	13.589098
1092.000000	13.598189
1093.000000	13.613030
1094.000000	13.622102
1095.000000	13.634132
1096.000000	13.625418
1097.000000	13.634586
1098.000000	13.630598
1099.000000	13.619982
1100.000000	13.616750
1101.000000	13.622158
1102.000000	13.616828
1103.000000	13.622429
1104.000000	13.624831
1105.000000	13.623268
1106.000000	13.620664
1107.000000	13.626350
1108.000000	13.617029
1109.000000	13.606031
1110.000000	13.613904
1111.000000	13.620786
1112.000000	13.617858
1113.000000	13.609524
1114.000000	13.602921
1115.000000	13.597960
1116.000000	13.597401
1117.000000	13.611037
1118.000000	13.596077
1119.000000	13.590977
1120.000000	13.572259
1121.000000	13.567212
1122.000000	13.560628
1123.000000	13.563053
1124.000000	13.544873
1125.000000	13.516290
1126.000000	13.497410
1127.000000	13.460133
1128.000000	13.425954
1129.000000	13.393743
1130.000000	13.359970
1131.000000	13.271334
1132.000000	13.167458
1133.000000	13.048907
1134.000000	12.967320
1135.000000	12.912328
1136.000000	12.821558
1137.000000	12.684865
1138.000000	12.550380
1139.000000	12.429420
1140.000000	12.323462
1141.000000	12.207085
1142.000000	12.096412
1143.000000	11.973380
1144.000000	11.868149
1145.000000	11.793135
1146.000000	11.748585
1147.000000	11.712437
1148.000000	11.694371
1149.000000	11.683981
1150.000000	11.677147
1151.000000	11.681265
1152.000000	11.692400
1153.000000	11.687656
1154.000000	11.669120
1155.000000	11.633700
1156.000000	11.584262
1157.000000	11.518014
1158.000000	11.460702
1159.000000	11.378089
1160.000000	11.276692
1161.000000	11.181245
1162.000000	11.091428
1163.000000	10.981557
1164.000000	10.885521
1165.000000	10.778757
1166.000000	10.678596
1167.000000	10.575730
1168.000000	10.482192
1169.000000	10.402529
1170.000000	10.307752
1171.000000	10.216670
1172.000000	10.116576
1173.000000	10.036998
1174.000000	9.954546
1175.000000	9.881475
1176.000000	9.802592
