PE UV       SUBTECH     SPECTRUM    ASCII       PEDS        4.00        
   -1
CICIMAUCR0014-5.Sample.ASC
24/04/23
11:16:56.00
24/04/23
11:16:56.00
Vinicio Soto Monge
C. cupreomarginata
250,000000
1
Lambda 1050
1050L1511233
PerkinElmer UV WinLab 6.3.2.0749 / 2.02.05 Lambda 900 UV/VIS/NIR, Aug  7 2015 09:38:08

0
0
3350/servo 860,8/2
0
0
UV/VIS
1
1
1
DoubleDePol,CommonBeamDepol,RBeamAtt,SBeamAtt,60mm sphere, WB InGaAs Detector
0
0
0
0
Program
Program
3350/servo 860,8/2
3350/0,2 860,8/0,2
3350/0,2 860,8/0,2
0
15.00
 
 
 
0
 
860,8
319,2
860,8
Front
100
on
S:100 R:100
0
0
0
0
 
0
 
 
 
0
 
 
0
0
0
0
0
 
 
 
 
0
0


0
0
#HDR
-1
-1
#GR
nm
%R
1.0
0.0
2500,000000
-1,000000
2251
8
75,082300
5,658100
#DATA
250.000000	0.218233
251.000000	0.194965
252.000000	0.203930
253.000000	0.207800
254.000000	0.205316
255.000000	0.203888
256.000000	0.195052
257.000000	0.197316
258.000000	0.209647
259.000000	0.181170
260.000000	0.186753
261.000000	0.162730
262.000000	0.186454
263.000000	0.177613
264.000000	0.191194
265.000000	0.171314
266.000000	0.193113
267.000000	0.168747
268.000000	0.142338
269.000000	0.182468
270.000000	0.168926
271.000000	0.175258
272.000000	0.145594
273.000000	0.177751
274.000000	0.183864
275.000000	0.175430
276.000000	0.162146
277.000000	0.186640
278.000000	0.181738
279.000000	0.150086
280.000000	0.168322
281.000000	0.143687
282.000000	0.165098
283.000000	0.143759
284.000000	0.164014
285.000000	0.162211
286.000000	0.181634
287.000000	0.177286
288.000000	0.175577
289.000000	0.181489
290.000000	0.161997
291.000000	0.151962
292.000000	0.185014
293.000000	0.164572
294.000000	0.185388
295.000000	0.143725
296.000000	0.173071
297.000000	0.173672
298.000000	0.147336
299.000000	0.181736
300.000000	0.168874
301.000000	0.167119
302.000000	0.190872
303.000000	0.191213
304.000000	0.170730
305.000000	0.185842
306.000000	0.151526
307.000000	0.178618
308.000000	0.142180
309.000000	0.191104
310.000000	0.155279
311.000000	0.167100
312.000000	0.175952
313.000000	0.153598
314.000000	0.158408
315.000000	0.149634
316.000000	0.184357
317.000000	0.101229
318.000000	0.206649
319.000000	0.211438
320.000000	0.209865
321.000000	0.174841
322.000000	0.203309
323.000000	0.231731
324.000000	0.136151
325.000000	0.149119
326.000000	0.153670
327.000000	0.116492
328.000000	0.163063
329.000000	0.091883
330.000000	0.180202
331.000000	0.183104
332.000000	0.232078
333.000000	0.129753
334.000000	0.180629
335.000000	0.195455
336.000000	0.146222
337.000000	0.157256
338.000000	0.144237
339.000000	0.161586
340.000000	0.165996
341.000000	0.135495
342.000000	0.180785
343.000000	0.175937
344.000000	0.179438
345.000000	0.148228
346.000000	0.152673
347.000000	0.171843
348.000000	0.182039
349.000000	0.159095
350.000000	0.142155
351.000000	0.155998
352.000000	0.166433
353.000000	0.128284
354.000000	0.134033
355.000000	0.199574
356.000000	0.163909
357.000000	0.161580
358.000000	0.176726
359.000000	0.189952
360.000000	0.129792
361.000000	0.159497
362.000000	0.197480
363.000000	0.184165
364.000000	0.189800
365.000000	0.203347
366.000000	0.168105
367.000000	0.175047
368.000000	0.176979
369.000000	0.187535
370.000000	0.201138
371.000000	0.206013
372.000000	0.227211
373.000000	0.220641
374.000000	0.182008
375.000000	0.187838
376.000000	0.191783
377.000000	0.191192
378.000000	0.200996
379.000000	0.202479
380.000000	0.198216
381.000000	0.203198
382.000000	0.212083
383.000000	0.217976
384.000000	0.224697
385.000000	0.237550
386.000000	0.239376
387.000000	0.247546
388.000000	0.262352
389.000000	0.270757
390.000000	0.285701
391.000000	0.298161
392.000000	0.318852
393.000000	0.336505
394.000000	0.348563
395.000000	0.372313
396.000000	0.390575
397.000000	0.413668
398.000000	0.432315
399.000000	0.459440
400.000000	0.485311
401.000000	0.505170
402.000000	0.528889
403.000000	0.553777
404.000000	0.584980
405.000000	0.608872
406.000000	0.626753
407.000000	0.658248
408.000000	0.687913
409.000000	0.705474
410.000000	0.722950
411.000000	0.743563
412.000000	0.760507
413.000000	0.782168
414.000000	0.791558
415.000000	0.801415
416.000000	0.806181
417.000000	0.814021
418.000000	0.825195
419.000000	0.823143
420.000000	0.814254
421.000000	0.812620
422.000000	0.802471
423.000000	0.786218
424.000000	0.775819
425.000000	0.756456
426.000000	0.728036
427.000000	0.703997
428.000000	0.673872
429.000000	0.645457
430.000000	0.624088
431.000000	0.599109
432.000000	0.559546
433.000000	0.520564
434.000000	0.493058
435.000000	0.463720
436.000000	0.430622
437.000000	0.394890
438.000000	0.350481
439.000000	0.319686
440.000000	0.287691
441.000000	0.245843
442.000000	0.224817
443.000000	0.202132
444.000000	0.191641
445.000000	0.184015
446.000000	0.172169
447.000000	0.180662
448.000000	0.204116
449.000000	0.225903
450.000000	0.250956
451.000000	0.281756
452.000000	0.310948
453.000000	0.337300
454.000000	0.364579
455.000000	0.390402
456.000000	0.423557
457.000000	0.466342
458.000000	0.499646
459.000000	0.533185
460.000000	0.568076
461.000000	0.614607
462.000000	0.655881
463.000000	0.686484
464.000000	0.716757
465.000000	0.760664
466.000000	0.804811
467.000000	0.846268
468.000000	0.885020
469.000000	0.920128
470.000000	0.946851
471.000000	0.978501
472.000000	1.008536
473.000000	1.037400
474.000000	1.075964
475.000000	1.093203
476.000000	1.107097
477.000000	1.129121
478.000000	1.133521
479.000000	1.137570
480.000000	1.157495
481.000000	1.170592
482.000000	1.176593
483.000000	1.181389
484.000000	1.177721
485.000000	1.164088
486.000000	1.146897
487.000000	1.139398
488.000000	1.138012
489.000000	1.123702
490.000000	1.099919
491.000000	1.082964
492.000000	1.070522
493.000000	1.060356
494.000000	1.049383
495.000000	1.035160
496.000000	1.011991
497.000000	0.988080
498.000000	0.952881
499.000000	0.936141
500.000000	0.904855
501.000000	0.886306
502.000000	0.858710
503.000000	0.847363
504.000000	0.815532
505.000000	0.793899
506.000000	0.781824
507.000000	0.785560
508.000000	0.782745
509.000000	0.786715
510.000000	0.802651
511.000000	0.814702
512.000000	0.827339
513.000000	0.851915
514.000000	0.879519
515.000000	0.931467
516.000000	0.986446
517.000000	1.037214
518.000000	1.092816
519.000000	1.153696
520.000000	1.222618
521.000000	1.280756
522.000000	1.350098
523.000000	1.439459
524.000000	1.524989
525.000000	1.605943
526.000000	1.695651
527.000000	1.791238
528.000000	1.877835
529.000000	1.983106
530.000000	2.075744
531.000000	2.177894
532.000000	2.268744
533.000000	2.341451
534.000000	2.431687
535.000000	2.508883
536.000000	2.563353
537.000000	2.614191
538.000000	2.619664
539.000000	2.639039
540.000000	2.623350
541.000000	2.608280
542.000000	2.568444
543.000000	2.508500
544.000000	2.429731
545.000000	2.359042
546.000000	2.252012
547.000000	2.164973
548.000000	2.058208
549.000000	1.931811
550.000000	1.812462
551.000000	1.703810
552.000000	1.589028
553.000000	1.450165
554.000000	1.356009
555.000000	1.245972
556.000000	1.155672
557.000000	1.066096
558.000000	0.998012
559.000000	0.920740
560.000000	0.897683
561.000000	0.858832
562.000000	0.827274
563.000000	0.801579
564.000000	0.824885
565.000000	0.830674
566.000000	0.869673
567.000000	0.916163
568.000000	0.949060
569.000000	0.975631
570.000000	0.995996
571.000000	1.016324
572.000000	1.039219
573.000000	1.038251
574.000000	1.024784
575.000000	1.024350
576.000000	1.016991
577.000000	1.021423
578.000000	1.040067
579.000000	1.018767
580.000000	0.974303
581.000000	0.949174
582.000000	0.896831
583.000000	0.893911
584.000000	0.877505
585.000000	0.900436
586.000000	0.916016
587.000000	0.969243
588.000000	0.998289
589.000000	1.043302
590.000000	1.138771
591.000000	1.217025
592.000000	1.307641
593.000000	1.378577
594.000000	1.455259
595.000000	1.550797
596.000000	1.571721
597.000000	1.643209
598.000000	1.644003
599.000000	1.713372
600.000000	1.729769
601.000000	1.706411
602.000000	1.726800
603.000000	1.727710
604.000000	1.763186
605.000000	1.697423
606.000000	1.705994
607.000000	1.711090
608.000000	1.743645
609.000000	1.759497
610.000000	1.828952
611.000000	1.899428
612.000000	1.987770
613.000000	2.026823
614.000000	2.151941
615.000000	2.245757
616.000000	2.317511
617.000000	2.428047
618.000000	2.535803
619.000000	2.632813
620.000000	2.756903
621.000000	2.830111
622.000000	2.966414
623.000000	3.051829
624.000000	3.125903
625.000000	3.213265
626.000000	3.307495
627.000000	3.367665
628.000000	3.410001
629.000000	3.474824
630.000000	3.503036
631.000000	3.541904
632.000000	3.569601
633.000000	3.600703
634.000000	3.624237
635.000000	3.647207
636.000000	3.633620
637.000000	3.614266
638.000000	3.609146
639.000000	3.532226
640.000000	3.454230
641.000000	3.372240
642.000000	3.261022
643.000000	3.163191
644.000000	3.048763
645.000000	2.923323
646.000000	2.812011
647.000000	2.683482
648.000000	2.541001
649.000000	2.408688
650.000000	2.252354
651.000000	2.155489
652.000000	2.052005
653.000000	1.925460
654.000000	1.822412
655.000000	1.709056
656.000000	1.646128
657.000000	1.542024
658.000000	1.493514
659.000000	1.454896
660.000000	1.378082
661.000000	1.345903
662.000000	1.290200
663.000000	1.255439
664.000000	1.232461
665.000000	1.242873
666.000000	1.202073
667.000000	1.191880
668.000000	1.200144
669.000000	1.208108
670.000000	1.217282
671.000000	1.219209
672.000000	1.219213
673.000000	1.201700
674.000000	1.212169
675.000000	1.198005
676.000000	1.176582
677.000000	1.160318
678.000000	1.131453
679.000000	1.081774
680.000000	1.015286
681.000000	0.977369
682.000000	0.954862
683.000000	0.901856
684.000000	0.867639
685.000000	0.865507
686.000000	0.835354
687.000000	0.844391
688.000000	0.890848
689.000000	0.893020
690.000000	0.951435
691.000000	0.995801
692.000000	1.020262
693.000000	1.093509
694.000000	1.130878
695.000000	1.172910
696.000000	1.232032
697.000000	1.284231
698.000000	1.304475
699.000000	1.354065
700.000000	1.402519
701.000000	1.444866
702.000000	1.458023
703.000000	1.460900
704.000000	1.458376
705.000000	1.446276
706.000000	1.440820
707.000000	1.415790
708.000000	1.404088
709.000000	1.370844
710.000000	1.367471
711.000000	1.337850
712.000000	1.295682
713.000000	1.288535
714.000000	1.262515
715.000000	1.248444
716.000000	1.235693
717.000000	1.231419
718.000000	1.245652
719.000000	1.254612
720.000000	1.244758
721.000000	1.252896
722.000000	1.271766
723.000000	1.267591
724.000000	1.233824
725.000000	1.245728
726.000000	1.263487
727.000000	1.262800
728.000000	1.283991
729.000000	1.294472
730.000000	1.289874
731.000000	1.275699
732.000000	1.265703
733.000000	1.253535
734.000000	1.241933
735.000000	1.239598
736.000000	1.211392
737.000000	1.205600
738.000000	1.220792
739.000000	1.201029
740.000000	1.172113
741.000000	1.151285
742.000000	1.161346
743.000000	1.156230
744.000000	1.146742
745.000000	1.148351
746.000000	1.147568
747.000000	1.169848
748.000000	1.179081
749.000000	1.171649
750.000000	1.187904
751.000000	1.173473
752.000000	1.170802
753.000000	1.236700
754.000000	1.258353
755.000000	1.255996
756.000000	1.297057
757.000000	1.313898
758.000000	1.346234
759.000000	1.375312
760.000000	1.348957
761.000000	1.331597
762.000000	1.405661
763.000000	1.448689
764.000000	1.450665
765.000000	1.504778
766.000000	1.495527
767.000000	1.503500
768.000000	1.547976
769.000000	1.539639
770.000000	1.566253
771.000000	1.590794
772.000000	1.556854
773.000000	1.568667
774.000000	1.628829
775.000000	1.651107
776.000000	1.673646
777.000000	1.705742
778.000000	1.739192
779.000000	1.803893
780.000000	1.772602
781.000000	1.785863
782.000000	1.864526
783.000000	1.876490
784.000000	1.910954
785.000000	1.965509
786.000000	1.963636
787.000000	1.957574
788.000000	2.002513
789.000000	2.005506
790.000000	1.999319
791.000000	1.952299
792.000000	1.980320
793.000000	1.942947
794.000000	1.921342
795.000000	1.989364
796.000000	1.996432
797.000000	1.997846
798.000000	2.011800
799.000000	1.993254
800.000000	1.984311
801.000000	1.997961
802.000000	1.998233
803.000000	2.002876
804.000000	1.941217
805.000000	1.956992
806.000000	1.996584
807.000000	2.103461
808.000000	2.010351
809.000000	1.955544
810.000000	1.947077
811.000000	1.947662
812.000000	1.998477
813.000000	2.023840
814.000000	1.967268
815.000000	1.944514
816.000000	1.966879
817.000000	1.975753
818.000000	1.999942
819.000000	1.972311
820.000000	1.942833
821.000000	1.978755
822.000000	2.002273
823.000000	2.033597
824.000000	2.108532
825.000000	2.017655
826.000000	1.991279
827.000000	2.038063
828.000000	2.069535
829.000000	2.033462
830.000000	1.988414
831.000000	2.012335
832.000000	1.979975
833.000000	1.972860
834.000000	2.034826
835.000000	1.966264
836.000000	2.082933
837.000000	2.024815
838.000000	2.105236
839.000000	2.140904
840.000000	1.937633
841.000000	1.999242
842.000000	2.015663
843.000000	2.016024
844.000000	2.039670
845.000000	2.048511
846.000000	2.273914
847.000000	2.109315
848.000000	2.013331
849.000000	2.099324
850.000000	2.173153
851.000000	2.102532
852.000000	2.057209
853.000000	2.119613
854.000000	2.277675
855.000000	2.420255
856.000000	2.186792
857.000000	2.269989
858.000000	1.774189
859.000000	2.262229
860.000000	2.439752
861.000000	2.633806
862.000000	2.855122
863.000000	2.904096
864.000000	2.929099
865.000000	2.809082
866.000000	2.734822
867.000000	2.617228
868.000000	2.477845
869.000000	2.429485
870.000000	2.350500
871.000000	2.309955
872.000000	2.175833
873.000000	2.107620
874.000000	2.018511
875.000000	1.948475
876.000000	1.864506
877.000000	1.790107
878.000000	1.671593
879.000000	1.618845
880.000000	1.596279
881.000000	1.493330
882.000000	1.415026
883.000000	1.331531
884.000000	1.308972
885.000000	1.275841
886.000000	1.247368
887.000000	1.185464
888.000000	1.149004
889.000000	1.138374
890.000000	1.123820
891.000000	1.083377
892.000000	1.074731
893.000000	1.070275
894.000000	1.070782
895.000000	1.075861
896.000000	1.083330
897.000000	1.093409
898.000000	1.113454
899.000000	1.108540
900.000000	1.103914
901.000000	1.130172
902.000000	1.172265
903.000000	1.186008
904.000000	1.242260
905.000000	1.226433
906.000000	1.248500
907.000000	1.275529
908.000000	1.325725
909.000000	1.376341
910.000000	1.414333
911.000000	1.393283
912.000000	1.399042
913.000000	1.477811
914.000000	1.468933
915.000000	1.488241
916.000000	1.504674
917.000000	1.512117
918.000000	1.554936
919.000000	1.594662
920.000000	1.633022
921.000000	1.607683
922.000000	1.618557
923.000000	1.645592
924.000000	1.668489
925.000000	1.690940
926.000000	1.747849
927.000000	1.729895
928.000000	1.755509
929.000000	1.764217
930.000000	1.832543
931.000000	1.821521
932.000000	1.846902
933.000000	1.903014
934.000000	1.908060
935.000000	1.923300
936.000000	1.949440
937.000000	1.970402
938.000000	1.987949
939.000000	2.008899
940.000000	2.031304
941.000000	2.077297
942.000000	2.093877
943.000000	2.110157
944.000000	2.137773
945.000000	2.170344
946.000000	2.181689
947.000000	2.203445
948.000000	2.233831
949.000000	2.267717
950.000000	2.292514
951.000000	2.295706
952.000000	2.317980
953.000000	2.365259
954.000000	2.386295
955.000000	2.415348
956.000000	2.436944
957.000000	2.458538
958.000000	2.489566
959.000000	2.541669
960.000000	2.579237
961.000000	2.595276
962.000000	2.611368
963.000000	2.646501
964.000000	2.684270
965.000000	2.724471
966.000000	2.753740
967.000000	2.765593
968.000000	2.803279
969.000000	2.832646
970.000000	2.857851
971.000000	2.882352
972.000000	2.896420
973.000000	2.917702
974.000000	2.954452
975.000000	2.970231
976.000000	2.988375
977.000000	3.007340
978.000000	3.033020
979.000000	3.051676
980.000000	3.056164
981.000000	3.081794
982.000000	3.108565
983.000000	3.106907
984.000000	3.115606
985.000000	3.143274
986.000000	3.156843
987.000000	3.164349
988.000000	3.170764
989.000000	3.176524
990.000000	3.197861
991.000000	3.211413
992.000000	3.212174
993.000000	3.228845
994.000000	3.237638
995.000000	3.254020
996.000000	3.272123
997.000000	3.276602
998.000000	3.285547
999.000000	3.293690
1000.000000	3.303745
1001.000000	3.314470
1002.000000	3.328060
1003.000000	3.322613
1004.000000	3.325058
1005.000000	3.331405
1006.000000	3.335481
1007.000000	3.336976
1008.000000	3.342959
1009.000000	3.341640
1010.000000	3.340374
1011.000000	3.347685
1012.000000	3.341866
1013.000000	3.344269
1014.000000	3.349082
1015.000000	3.338933
1016.000000	3.331443
1017.000000	3.327098
1018.000000	3.328184
1019.000000	3.337111
1020.000000	3.329323
1021.000000	3.326109
1022.000000	3.323062
1023.000000	3.314068
1024.000000	3.316677
1025.000000	3.317116
1026.000000	3.324637
1027.000000	3.331567
1028.000000	3.336484
1029.000000	3.329969
1030.000000	3.333025
1031.000000	3.339718
1032.000000	3.342858
1033.000000	3.351183
1034.000000	3.357229
1035.000000	3.358736
1036.000000	3.360853
1037.000000	3.367861
1038.000000	3.373120
1039.000000	3.368016
1040.000000	3.379829
1041.000000	3.391686
1042.000000	3.391222
1043.000000	3.385165
1044.000000	3.386971
1045.000000	3.393131
1046.000000	3.400778
1047.000000	3.408064
1048.000000	3.426371
1049.000000	3.432750
1050.000000	3.426799
1051.000000	3.426080
1052.000000	3.427401
1053.000000	3.426268
1054.000000	3.429588
1055.000000	3.433457
1056.000000	3.442632
1057.000000	3.447232
1058.000000	3.441314
1059.000000	3.451079
1060.000000	3.449424
1061.000000	3.448011
1062.000000	3.450731
1063.000000	3.458841
1064.000000	3.457384
1065.000000	3.463778
1066.000000	3.472517
1067.000000	3.473603
1068.000000	3.468836
1069.000000	3.475324
1070.000000	3.473758
1071.000000	3.473389
1072.000000	3.472386
1073.000000	3.467046
1074.000000	3.465499
1075.000000	3.471897
1076.000000	3.472648
1077.000000	3.467088
1078.000000	3.465271
1079.000000	3.462898
1080.000000	3.464882
1081.000000	3.461990
1082.000000	3.452430
1083.000000	3.452636
1084.000000	3.456333
1085.000000	3.459463
1086.000000	3.458018
1087.000000	3.459608
1088.000000	3.441540
1089.000000	3.441935
1090.000000	3.459506
1091.000000	3.450904
1092.000000	3.441169
1093.000000	3.452488
1094.000000	3.448838
1095.000000	3.455017
1096.000000	3.462950
1097.000000	3.464780
1098.000000	3.461624
1099.000000	3.452091
1100.000000	3.452370
1101.000000	3.455487
1102.000000	3.461134
1103.000000	3.465493
1104.000000	3.464256
1105.000000	3.461651
1106.000000	3.460446
1107.000000	3.469803
1108.000000	3.474021
1109.000000	3.469168
1110.000000	3.486991
1111.000000	3.489407
1112.000000	3.485814
1113.000000	3.499787
1114.000000	3.492878
1115.000000	3.499840
1116.000000	3.514869
1117.000000	3.515116
1118.000000	3.524656
1119.000000	3.529586
1120.000000	3.532684
1121.000000	3.546857
1122.000000	3.558208
1123.000000	3.566786
1124.000000	3.576991
1125.000000	3.591044
1126.000000	3.597483
1127.000000	3.594925
1128.000000	3.624289
1129.000000	3.642565
1130.000000	3.680996
1131.000000	3.687718
1132.000000	3.712302
1133.000000	3.760974
1134.000000	3.814838
1135.000000	3.870732
1136.000000	3.897888
1137.000000	3.962231
1138.000000	4.006567
1139.000000	4.070070
1140.000000	4.141418
1141.000000	4.191069
1142.000000	4.255128
1143.000000	4.310544
1144.000000	4.373677
1145.000000	4.421635
1146.000000	4.478481
1147.000000	4.510701
1148.000000	4.542139
1149.000000	4.561016
1150.000000	4.586584
1151.000000	4.584667
1152.000000	4.603013
1153.000000	4.619736
1154.000000	4.630021
1155.000000	4.659454
1156.000000	4.696000
1157.000000	4.733234
1158.000000	4.774746
1159.000000	4.836176
1160.000000	4.883241
1161.000000	4.927822
1162.000000	5.006489
1163.000000	5.037481
1164.000000	5.105459
1165.000000	5.167079
1166.000000	5.212759
1167.000000	5.275085
1168.000000	5.319765
1169.000000	5.376019
1170.000000	5.427524
1171.000000	5.503809
1172.000000	5.558799
1173.000000	5.613719
1174.000000	5.655015
1175.000000	5.720747
1176.000000	5.788614
1177.000000	5.842179
1178.000000	5.900328
1179.000000	5.979506
1180.000000	6.060296
1181.000000	6.159372
1182.000000	6.248622
1183.000000	6.333047
1184.000000	6.389992
1185.000000	6.438144
1186.000000	6.461628
1187.000000	6.454641
1188.000000	6.435641
1189.000000	6.397784
1190.000000	6.343641
1191.000000	6.278722
1192.000000	6.195947
1193.000000	6.130294
1194.000000	6.067275
1195.000000	6.005459
1196.000000	5.974126
1197.000000	5.958262
1198.000000	5.936525
1199.000000	5.916386
1200.000000	5.920651
1201.000000	5.914415
1202.000000	5.915268
1203.000000	5.917482
