PE UV       SUBTECH     SPECTRUM    ASCII       PEDS        4.00        
   -1
CICIMAUCR0112-3.Sample.ASC
24/04/22
10:19:40.00
24/04/22
10:19:40.00
Vinicio Soto Monge
C. resplendens
250,000000
1
Lambda 1050
1050L1511233
PerkinElmer UV WinLab 6.3.2.0749 / 2.02.05 Lambda 900 UV/VIS/NIR, Aug  7 2015 09:38:08

0
0
3350/servo 860,8/2
0
0
UV/VIS
1
1
1
DoubleDePol,CommonBeamDepol,RBeamAtt,SBeamAtt,60mm sphere, WB InGaAs Detector
0
0
0
0
Program
Program
3350/servo 860,8/2
3350/0,2 860,8/0,2
3350/0,2 860,8/0,2
0
15.00
 
 
 
0
 
860,8
319,2
860,8
Front
100
on
S:100 R:100
0
0
0
0
 
0
 
 
 
0
 
 
0
0
0
0
0
 
 
 
 
0
0


0
0
#HDR
-1
-1
#GR
nm
%R
1.0
0.0
2500,000000
-1,000000
2251
8
88,787000
5,681000
#DATA
250.000000	0.347263
251.000000	0.351782
252.000000	0.341769
253.000000	0.330393
254.000000	0.328873
255.000000	0.366994
256.000000	0.350408
257.000000	0.329257
258.000000	0.345261
259.000000	0.327982
260.000000	0.297582
261.000000	0.363769
262.000000	0.370946
263.000000	0.337811
264.000000	0.319280
265.000000	0.339236
266.000000	0.306133
267.000000	0.319410
268.000000	0.314937
269.000000	0.269567
270.000000	0.318257
271.000000	0.315145
272.000000	0.304762
273.000000	0.295654
274.000000	0.314797
275.000000	0.293396
276.000000	0.285447
277.000000	0.294739
278.000000	0.319679
279.000000	0.290582
280.000000	0.284489
281.000000	0.315044
282.000000	0.306215
283.000000	0.310615
284.000000	0.283106
285.000000	0.304346
286.000000	0.288814
287.000000	0.301563
288.000000	0.306678
289.000000	0.322180
290.000000	0.309658
291.000000	0.294936
292.000000	0.328541
293.000000	0.320598
294.000000	0.368419
295.000000	0.326079
296.000000	0.314351
297.000000	0.355436
298.000000	0.345629
299.000000	0.361784
300.000000	0.336318
301.000000	0.365613
302.000000	0.319012
303.000000	0.362342
304.000000	0.333028
305.000000	0.372907
306.000000	0.335191
307.000000	0.350027
308.000000	0.352032
309.000000	0.392960
310.000000	0.362897
311.000000	0.347230
312.000000	0.347361
313.000000	0.382672
314.000000	0.358190
315.000000	0.363470
316.000000	0.371244
317.000000	0.406078
318.000000	0.367492
319.000000	0.341870
320.000000	0.354276
321.000000	0.413822
322.000000	0.312845
323.000000	0.305378
324.000000	0.400070
325.000000	0.294060
326.000000	0.303597
327.000000	0.353244
328.000000	0.363886
329.000000	0.379996
330.000000	0.364249
331.000000	0.358478
332.000000	0.359775
333.000000	0.377299
334.000000	0.379312
335.000000	0.374151
336.000000	0.413241
337.000000	0.373162
338.000000	0.440463
339.000000	0.385130
340.000000	0.376722
341.000000	0.327328
342.000000	0.323252
343.000000	0.317644
344.000000	0.372186
345.000000	0.402987
346.000000	0.411993
347.000000	0.356366
348.000000	0.378536
349.000000	0.375282
350.000000	0.379123
351.000000	0.355239
352.000000	0.347183
353.000000	0.391398
354.000000	0.356374
355.000000	0.393118
356.000000	0.368143
357.000000	0.361553
358.000000	0.382129
359.000000	0.383960
360.000000	0.391933
361.000000	0.386418
362.000000	0.383760
363.000000	0.409608
364.000000	0.420598
365.000000	0.417989
366.000000	0.388773
367.000000	0.392144
368.000000	0.393891
369.000000	0.381090
370.000000	0.405114
371.000000	0.397091
372.000000	0.441616
373.000000	0.459984
374.000000	0.430319
375.000000	0.402486
376.000000	0.386109
377.000000	0.380189
378.000000	0.368848
379.000000	0.360971
380.000000	0.365926
381.000000	0.367725
382.000000	0.358325
383.000000	0.356049
384.000000	0.361858
385.000000	0.354105
386.000000	0.351746
387.000000	0.348292
388.000000	0.343875
389.000000	0.344546
390.000000	0.347931
391.000000	0.341042
392.000000	0.331976
393.000000	0.324611
394.000000	0.307744
395.000000	0.304505
396.000000	0.301077
397.000000	0.297939
398.000000	0.290666
399.000000	0.290224
400.000000	0.280775
401.000000	0.282327
402.000000	0.293967
403.000000	0.311732
404.000000	0.328728
405.000000	0.355051
406.000000	0.391745
407.000000	0.431951
408.000000	0.480657
409.000000	0.544906
410.000000	0.606533
411.000000	0.665069
412.000000	0.733135
413.000000	0.805742
414.000000	0.881216
415.000000	0.949611
416.000000	1.022393
417.000000	1.098358
418.000000	1.170938
419.000000	1.227963
420.000000	1.292550
421.000000	1.355304
422.000000	1.410197
423.000000	1.451720
424.000000	1.481798
425.000000	1.499217
426.000000	1.514340
427.000000	1.522785
428.000000	1.525193
429.000000	1.520642
430.000000	1.494138
431.000000	1.449377
432.000000	1.407612
433.000000	1.373248
434.000000	1.334580
435.000000	1.279065
436.000000	1.203203
437.000000	1.139787
438.000000	1.092403
439.000000	1.030542
440.000000	0.951053
441.000000	0.888652
442.000000	0.837376
443.000000	0.785091
444.000000	0.745296
445.000000	0.687980
446.000000	0.655025
447.000000	0.623567
448.000000	0.580310
449.000000	0.559337
450.000000	0.534866
451.000000	0.513729
452.000000	0.504948
453.000000	0.494349
454.000000	0.479183
455.000000	0.476337
456.000000	0.489061
457.000000	0.501821
458.000000	0.498499
459.000000	0.514177
460.000000	0.521952
461.000000	0.516553
462.000000	0.522592
463.000000	0.544397
464.000000	0.558301
465.000000	0.576125
466.000000	0.608345
467.000000	0.645986
468.000000	0.680784
469.000000	0.716425
470.000000	0.764552
471.000000	0.811479
472.000000	0.859504
473.000000	0.914155
474.000000	0.954973
475.000000	1.005552
476.000000	1.075657
477.000000	1.136357
478.000000	1.210278
479.000000	1.288026
480.000000	1.358614
481.000000	1.423101
482.000000	1.482920
483.000000	1.543523
484.000000	1.593247
485.000000	1.623064
486.000000	1.639417
487.000000	1.633178
488.000000	1.607185
489.000000	1.564193
490.000000	1.505353
491.000000	1.440459
492.000000	1.359293
493.000000	1.281657
494.000000	1.246617
495.000000	1.254766
496.000000	1.337642
497.000000	1.486124
498.000000	1.678289
499.000000	1.917207
500.000000	2.202040
501.000000	2.504163
502.000000	2.814237
503.000000	3.110801
504.000000	3.389007
505.000000	3.637365
506.000000	3.849186
507.000000	4.035407
508.000000	4.172114
509.000000	4.271212
510.000000	4.324409
511.000000	4.366795
512.000000	4.348354
513.000000	4.300659
514.000000	4.218053
515.000000	4.105757
516.000000	3.994160
517.000000	3.853252
518.000000	3.689435
519.000000	3.532205
520.000000	3.349043
521.000000	3.175309
522.000000	2.992708
523.000000	2.850042
524.000000	2.672185
525.000000	2.507922
526.000000	2.358619
527.000000	2.244192
528.000000	2.118018
529.000000	1.990458
530.000000	1.843659
531.000000	1.710937
532.000000	1.585363
533.000000	1.450085
534.000000	1.332635
535.000000	1.210889
536.000000	1.056578
537.000000	0.948528
538.000000	0.852406
539.000000	0.782662
540.000000	0.724421
541.000000	0.709767
542.000000	0.727318
543.000000	0.760776
544.000000	0.790776
545.000000	0.856979
546.000000	0.916385
547.000000	0.990731
548.000000	1.091691
549.000000	1.170007
550.000000	1.243878
551.000000	1.305525
552.000000	1.397918
553.000000	1.490946
554.000000	1.588633
555.000000	1.686273
556.000000	1.739251
557.000000	1.848045
558.000000	1.911107
559.000000	2.002503
560.000000	2.101414
561.000000	2.169346
562.000000	2.243551
563.000000	2.277914
564.000000	2.357386
565.000000	2.424449
566.000000	2.447646
567.000000	2.511027
568.000000	2.530588
569.000000	2.577025
570.000000	2.588649
571.000000	2.579809
572.000000	2.594004
573.000000	2.628590
574.000000	2.647661
575.000000	2.676510
576.000000	2.717151
577.000000	2.769036
578.000000	2.793147
579.000000	2.916243
580.000000	2.961440
581.000000	3.061291
582.000000	3.161762
583.000000	3.214756
584.000000	3.349840
585.000000	3.474994
586.000000	3.602784
587.000000	3.712042
588.000000	3.814834
589.000000	3.915339
590.000000	4.046496
591.000000	4.131425
592.000000	4.205303
593.000000	4.314337
594.000000	4.368175
595.000000	4.462981
596.000000	4.553397
597.000000	4.623555
598.000000	4.681376
599.000000	4.744948
600.000000	4.841553
601.000000	4.943593
602.000000	5.042829
603.000000	5.200632
604.000000	5.312079
605.000000	5.464562
606.000000	5.616709
607.000000	5.792822
608.000000	5.952004
609.000000	6.132917
610.000000	6.272458
611.000000	6.437555
612.000000	6.523022
613.000000	6.647492
614.000000	6.688689
615.000000	6.733003
616.000000	6.703419
617.000000	6.645830
618.000000	6.611168
619.000000	6.506095
620.000000	6.409169
621.000000	6.287632
622.000000	6.178864
623.000000	6.051311
624.000000	5.986780
625.000000	5.931263
626.000000	5.867635
627.000000	5.823348
628.000000	5.775081
629.000000	5.690582
630.000000	5.547701
631.000000	5.445966
632.000000	5.251300
633.000000	4.913793
634.000000	4.580009
635.000000	4.170085
636.000000	3.719103
637.000000	3.239271
638.000000	2.713273
639.000000	2.242265
640.000000	1.801786
641.000000	1.439155
642.000000	1.225465
643.000000	1.141155
644.000000	1.136343
645.000000	1.206458
646.000000	1.288372
647.000000	1.321825
648.000000	1.367588
649.000000	1.374330
650.000000	1.368969
651.000000	1.335878
652.000000	1.353539
653.000000	1.371287
654.000000	1.358655
655.000000	1.332211
656.000000	1.373013
657.000000	1.344393
658.000000	1.344635
659.000000	1.319076
660.000000	1.265005
661.000000	1.217001
662.000000	1.124934
663.000000	1.004973
664.000000	0.801866
665.000000	0.621464
666.000000	0.433384
667.000000	0.324281
668.000000	0.414248
669.000000	0.642931
670.000000	0.858805
671.000000	1.043644
672.000000	1.212677
673.000000	1.306444
674.000000	1.362589
675.000000	1.376327
676.000000	1.321077
677.000000	1.286878
678.000000	1.206257
679.000000	1.161210
680.000000	1.092955
681.000000	1.065387
682.000000	1.018693
683.000000	1.035131
684.000000	1.063322
685.000000	1.139461
686.000000	1.236262
687.000000	1.389757
688.000000	1.487725
689.000000	1.610134
690.000000	1.726384
691.000000	1.852537
692.000000	1.917689
693.000000	1.957806
694.000000	1.982984
695.000000	1.965054
696.000000	1.897481
697.000000	1.835020
698.000000	1.794308
699.000000	1.756552
700.000000	1.708469
701.000000	1.652553
702.000000	1.610479
703.000000	1.540883
704.000000	1.563688
705.000000	1.574698
706.000000	1.618809
707.000000	1.629255
708.000000	1.636028
709.000000	1.716945
710.000000	1.745394
711.000000	1.808117
712.000000	1.875074
713.000000	1.873908
714.000000	1.881720
715.000000	1.840364
716.000000	1.771952
717.000000	1.749658
718.000000	1.695533
719.000000	1.615803
720.000000	1.537812
721.000000	1.467001
722.000000	1.399856
723.000000	1.349091
724.000000	1.310209
725.000000	1.293486
726.000000	1.230530
727.000000	1.184236
728.000000	1.174730
729.000000	1.153347
730.000000	1.113986
731.000000	1.081320
732.000000	1.117553
733.000000	1.108123
734.000000	1.103332
735.000000	1.087903
736.000000	1.017306
737.000000	0.987048
738.000000	0.992074
739.000000	0.973518
740.000000	0.955821
741.000000	0.891614
742.000000	0.874455
743.000000	0.860392
744.000000	0.776766
745.000000	0.670776
746.000000	0.617831
747.000000	0.585616
748.000000	0.505259
749.000000	0.466146
750.000000	0.511010
751.000000	0.597561
752.000000	0.670947
753.000000	0.736313
754.000000	0.836867
755.000000	0.946394
756.000000	1.080617
757.000000	1.187879
758.000000	1.282497
759.000000	1.316999
760.000000	1.357274
761.000000	1.471376
762.000000	1.489519
763.000000	1.487129
764.000000	1.549662
765.000000	1.573947
766.000000	1.570758
767.000000	1.567528
768.000000	1.589764
769.000000	1.553324
770.000000	1.568027
771.000000	1.708538
772.000000	1.772825
773.000000	1.732956
774.000000	1.749481
775.000000	1.767200
776.000000	1.848344
777.000000	1.890841
778.000000	1.957912
779.000000	2.071145
780.000000	2.086557
781.000000	2.000263
782.000000	2.016859
783.000000	2.121741
784.000000	2.165998
785.000000	2.186654
786.000000	2.227741
787.000000	2.271762
788.000000	2.381376
789.000000	2.457766
790.000000	2.512027
791.000000	2.576964
792.000000	2.641134
793.000000	2.762335
794.000000	2.826650
795.000000	2.930232
796.000000	2.959635
797.000000	3.137382
798.000000	3.241823
799.000000	3.220040
800.000000	3.323342
801.000000	3.321115
802.000000	3.460861
803.000000	3.564641
804.000000	3.500807
805.000000	3.480981
806.000000	3.481093
807.000000	3.480462
808.000000	3.384364
809.000000	3.373203
810.000000	3.387742
811.000000	3.413454
812.000000	3.320305
813.000000	3.233590
814.000000	3.209366
815.000000	3.348685
816.000000	3.318017
817.000000	3.325802
818.000000	3.295812
819.000000	3.155140
820.000000	3.244655
821.000000	3.273964
822.000000	3.320368
823.000000	3.294307
824.000000	3.386492
825.000000	3.392237
826.000000	3.529393
827.000000	3.676758
828.000000	3.673348
829.000000	3.723129
830.000000	3.823428
831.000000	3.819052
832.000000	4.003612
833.000000	4.200182
834.000000	4.319938
835.000000	4.509206
836.000000	4.579577
837.000000	4.766465
838.000000	4.678157
839.000000	4.712749
840.000000	4.954009
841.000000	5.126612
842.000000	5.183242
843.000000	5.297422
844.000000	5.304045
845.000000	5.379592
846.000000	5.395341
847.000000	5.631182
848.000000	5.661764
849.000000	5.532803
850.000000	5.627353
851.000000	5.821316
852.000000	5.456462
853.000000	6.025594
854.000000	5.700176
855.000000	5.814140
856.000000	5.836920
857.000000	5.546729
858.000000	5.296856
859.000000	5.719835
860.000000	5.572623
861.000000	5.433715
862.000000	5.347637
863.000000	5.218955
864.000000	5.120858
865.000000	5.019237
866.000000	4.939931
867.000000	4.846753
868.000000	4.747703
869.000000	4.661452
870.000000	4.586316
871.000000	4.489703
872.000000	4.393828
873.000000	4.299384
874.000000	4.225767
875.000000	4.120475
876.000000	4.034583
877.000000	3.972508
878.000000	3.887633
879.000000	3.784712
880.000000	3.707793
881.000000	3.645128
882.000000	3.544391
883.000000	3.483112
884.000000	3.434582
885.000000	3.368196
886.000000	3.284733
887.000000	3.229975
888.000000	3.208329
889.000000	3.198431
890.000000	3.172726
891.000000	3.152034
892.000000	3.127581
893.000000	3.118806
894.000000	3.109477
895.000000	3.084760
896.000000	3.073857
897.000000	3.085460
898.000000	3.095049
899.000000	3.119205
900.000000	3.129505
901.000000	3.148518
902.000000	3.160700
903.000000	3.186327
904.000000	3.193860
905.000000	3.215718
906.000000	3.206244
907.000000	3.231123
908.000000	3.242575
909.000000	3.237851
910.000000	3.225193
911.000000	3.208463
912.000000	3.203920
913.000000	3.181912
914.000000	3.155778
915.000000	3.166760
916.000000	3.141250
917.000000	3.104802
918.000000	3.108376
919.000000	3.060965
920.000000	3.076962
921.000000	3.053393
922.000000	3.034608
923.000000	3.017323
924.000000	3.002885
925.000000	2.997785
926.000000	2.995033
927.000000	2.990129
928.000000	2.988400
929.000000	2.981830
930.000000	2.996534
931.000000	2.987454
932.000000	2.998395
933.000000	3.009260
934.000000	3.013746
935.000000	3.017538
936.000000	3.025286
937.000000	2.989350
938.000000	3.017704
939.000000	3.012456
940.000000	3.009972
941.000000	3.022173
942.000000	3.021526
943.000000	3.023876
944.000000	3.019735
945.000000	3.007922
946.000000	3.020475
947.000000	3.038159
948.000000	3.017317
949.000000	3.030177
950.000000	3.022141
951.000000	3.033480
952.000000	3.042351
953.000000	3.065281
954.000000	3.068183
955.000000	3.081812
956.000000	3.109819
957.000000	3.113475
958.000000	3.125403
959.000000	3.132550
960.000000	3.165423
961.000000	3.210912
962.000000	3.232253
963.000000	3.235906
964.000000	3.245642
965.000000	3.270770
966.000000	3.312938
967.000000	3.319142
968.000000	3.336344
969.000000	3.362480
970.000000	3.371957
971.000000	3.393047
972.000000	3.422916
973.000000	3.434253
974.000000	3.454010
975.000000	3.481167
976.000000	3.510022
977.000000	3.538828
978.000000	3.562673
979.000000	3.572913
980.000000	3.588273
981.000000	3.626255
982.000000	3.652677
983.000000	3.675184
984.000000	3.706843
985.000000	3.740764
986.000000	3.758178
987.000000	3.780156
988.000000	3.804075
989.000000	3.842269
990.000000	3.875066
991.000000	3.883527
992.000000	3.896214
993.000000	3.945024
994.000000	3.983063
995.000000	4.005112
996.000000	4.028947
997.000000	4.054078
998.000000	4.091967
999.000000	4.128101
1000.000000	4.151898
1001.000000	4.170667
1002.000000	4.195526
1003.000000	4.227340
1004.000000	4.259580
1005.000000	4.289993
1006.000000	4.312589
1007.000000	4.338767
1008.000000	4.373531
1009.000000	4.412600
1010.000000	4.445558
1011.000000	4.478325
1012.000000	4.506581
1013.000000	4.522555
1014.000000	4.549011
1015.000000	4.569679
1016.000000	4.584195
1017.000000	4.600148
1018.000000	4.601864
1019.000000	4.599838
1020.000000	4.607246
1021.000000	4.614704
1022.000000	4.611177
1023.000000	4.612834
1024.000000	4.615340
1025.000000	4.614576
1026.000000	4.610105
1027.000000	4.602635
1028.000000	4.610853
1029.000000	4.623022
1030.000000	4.622889
1031.000000	4.630578
1032.000000	4.637302
1033.000000	4.637475
1034.000000	4.643900
1035.000000	4.661069
1036.000000	4.669422
1037.000000	4.668560
1038.000000	4.679102
1039.000000	4.694456
1040.000000	4.700722
1041.000000	4.714690
1042.000000	4.727303
1043.000000	4.738025
1044.000000	4.745990
1045.000000	4.750069
1046.000000	4.755747
1047.000000	4.761348
1048.000000	4.767403
1049.000000	4.773020
1050.000000	4.771163
1051.000000	4.772852
1052.000000	4.783481
1053.000000	4.782598
1054.000000	4.772348
1055.000000	4.770940
1056.000000	4.772244
1057.000000	4.762724
1058.000000	4.761402
1059.000000	4.762780
1060.000000	4.757937
1061.000000	4.757983
1062.000000	4.754171
1063.000000	4.744676
1064.000000	4.742835
1065.000000	4.741233
1066.000000	4.746196
1067.000000	4.751828
1068.000000	4.749756
1069.000000	4.753275
1070.000000	4.751472
1071.000000	4.749881
1072.000000	4.751331
1073.000000	4.761365
1074.000000	4.762954
1075.000000	4.759506
1076.000000	4.754679
1077.000000	4.750625
1078.000000	4.752961
1079.000000	4.758247
1080.000000	4.753040
1081.000000	4.751387
1082.000000	4.748371
1083.000000	4.756401
1084.000000	4.749262
1085.000000	4.742718
1086.000000	4.723117
1087.000000	4.723098
1088.000000	4.715118
1089.000000	4.713870
1090.000000	4.698252
1091.000000	4.699955
1092.000000	4.701752
1093.000000	4.694592
1094.000000	4.684881
1095.000000	4.680160
1096.000000	4.680268
1097.000000	4.675938
1098.000000	4.672981
1099.000000	4.676768
1100.000000	4.686531
1101.000000	4.683715
1102.000000	4.679960
1103.000000	4.678401
1104.000000	4.683376
1105.000000	4.694442
1106.000000	4.706419
1107.000000	4.719205
1108.000000	4.716576
1109.000000	4.719836
1110.000000	4.725853
1111.000000	4.734454
1112.000000	4.742060
1113.000000	4.757919
1114.000000	4.761661
1115.000000	4.758524
1116.000000	4.765134
1117.000000	4.792383
1118.000000	4.807681
1119.000000	4.824953
1120.000000	4.848043
1121.000000	4.879912
1122.000000	4.915423
1123.000000	4.964115
1124.000000	5.002912
1125.000000	5.038263
1126.000000	5.064875
1127.000000	5.119588
1128.000000	5.168781
1129.000000	5.250006
1130.000000	5.352072
1131.000000	5.444882
1132.000000	5.598303
1133.000000	5.719500
1134.000000	5.874709
1135.000000	6.049648
1136.000000	6.261525
1137.000000	6.451835
1138.000000	6.626292
1139.000000	6.820633
1140.000000	7.005450
1141.000000	7.212971
1142.000000	7.398209
1143.000000	7.576843
1144.000000	7.739986
1145.000000	7.902817
1146.000000	8.020189
1147.000000	8.091806
1148.000000	8.090086
1149.000000	8.048728
1150.000000	8.015690
1151.000000	7.982386
1152.000000	7.938484
1153.000000	7.915475
1154.000000	7.926261
1155.000000	7.952978
1156.000000	8.034766
1157.000000	8.129277
1158.000000	8.243140
1159.000000	8.406494
1160.000000	8.552263
1161.000000	8.704279
1162.000000	8.883983
1163.000000	9.034564
1164.000000	9.215048
1165.000000	9.375362
1166.000000	9.546875
1167.000000	9.709954
1168.000000	9.857135
1169.000000	10.026666
1170.000000	10.182980
1171.000000	10.342839
1172.000000	10.512796
1173.000000	10.669792
1174.000000	10.830534
1175.000000	10.962714
1176.000000	11.103811
1177.000000	11.265542
1178.000000	11.437592
1179.000000	11.649738
1180.000000	11.889548
1181.000000	12.140207
1182.000000	12.422499
1183.000000	12.661747
1184.000000	12.859283
1185.000000	12.990578
1186.000000	13.061218
1187.000000	13.059769
1188.000000	12.984555
1189.000000	12.863321
1190.000000	12.680493
1191.000000	12.470871
1192.000000	12.237109
1193.000000	12.029512
1194.000000	11.839011
1195.000000	11.690137
1196.000000	11.588935
1197.000000	11.528934
1198.000000	11.479162
1199.000000	11.466123
1200.000000	11.456250
1201.000000	11.462520
1202.000000	11.492875
