PE UV       SUBTECH     SPECTRUM    ASCII       PEDS        4.00        
   -1
CICIMAUCR0001-5.Sample.ASC
24/04/23
10:47:46.00
24/04/23
10:47:46.00
Vinicio Soto Monge
C. kalinini
250,000000
1
Lambda 1050
1050L1511233
PerkinElmer UV WinLab 6.3.2.0749 / 2.02.05 Lambda 900 UV/VIS/NIR, Aug  7 2015 09:38:08

0
0
3350/servo 860,8/2
0
0
UV/VIS
1
1
1
DoubleDePol,CommonBeamDepol,RBeamAtt,SBeamAtt,60mm sphere, WB InGaAs Detector
0
0
0
0
Program
Program
3350/servo 860,8/2
3350/0,2 860,8/0,2
3350/0,2 860,8/0,2
0
15.00
 
 
 
0
 
860,8
319,2
860,8
Front
100
on
S:100 R:100
0
0
0
0
 
0
 
 
 
0
 
 
0
0
0
0
0
 
 
 
 
0
0


0
0
#HDR
-1
-1
#GR
nm
%R
1.0
0.0
2500,000000
-1,000000
2251
8
101,472100
5,465400
#DATA
250.000000	0.937285
251.000000	0.939556
252.000000	0.930113
253.000000	0.921480
254.000000	0.917027
255.000000	0.933608
256.000000	0.911036
257.000000	0.909355
258.000000	0.913598
259.000000	0.920491
260.000000	0.931258
261.000000	0.918914
262.000000	0.888082
263.000000	0.894763
264.000000	0.881388
265.000000	0.869249
266.000000	0.885936
267.000000	0.851351
268.000000	0.837207
269.000000	0.856264
270.000000	0.857868
271.000000	0.851433
272.000000	0.865132
273.000000	0.868346
274.000000	0.844105
275.000000	0.844276
276.000000	0.833541
277.000000	0.847973
278.000000	0.849952
279.000000	0.825896
280.000000	0.807333
281.000000	0.780495
282.000000	0.827687
283.000000	0.853104
284.000000	0.826993
285.000000	0.812527
286.000000	0.813283
287.000000	0.822905
288.000000	0.826169
289.000000	0.814700
290.000000	0.800335
291.000000	0.815654
292.000000	0.815084
293.000000	0.828032
294.000000	0.844786
295.000000	0.817521
296.000000	0.760191
297.000000	0.759087
298.000000	0.784943
299.000000	0.796659
300.000000	0.776621
301.000000	0.776397
302.000000	0.774909
303.000000	0.770716
304.000000	0.788999
305.000000	0.775280
306.000000	0.791104
307.000000	0.804573
308.000000	0.787338
309.000000	0.761380
310.000000	0.770335
311.000000	0.776002
312.000000	0.785674
313.000000	0.796322
314.000000	0.795332
315.000000	0.768368
316.000000	0.757687
317.000000	0.635521
318.000000	0.506967
319.000000	0.683864
320.000000	0.660810
321.000000	0.543164
322.000000	0.672220
323.000000	0.716733
324.000000	0.721907
325.000000	0.633404
326.000000	0.620266
327.000000	0.652944
328.000000	0.719936
329.000000	0.702333
330.000000	0.730607
331.000000	0.799562
332.000000	0.738470
333.000000	0.773202
334.000000	0.783724
335.000000	0.754913
336.000000	0.733582
337.000000	0.747734
338.000000	0.755278
339.000000	0.771357
340.000000	0.827013
341.000000	0.761504
342.000000	0.668196
343.000000	0.727274
344.000000	0.759470
345.000000	0.760267
346.000000	0.838784
347.000000	0.835648
348.000000	0.843467
349.000000	0.803405
350.000000	0.783926
351.000000	0.782392
352.000000	0.778326
353.000000	0.839499
354.000000	0.838648
355.000000	0.833968
356.000000	0.824200
357.000000	0.835100
358.000000	0.853816
359.000000	0.852712
360.000000	0.852108
361.000000	0.840910
362.000000	0.865203
363.000000	0.839030
364.000000	0.871199
365.000000	0.914818
366.000000	0.891032
367.000000	0.878503
368.000000	0.862062
369.000000	0.887443
370.000000	0.924388
371.000000	0.868535
372.000000	0.942387
373.000000	1.006394
374.000000	0.970250
375.000000	0.875198
376.000000	0.834382
377.000000	0.838207
378.000000	0.842513
379.000000	0.854633
380.000000	0.851993
381.000000	0.848843
382.000000	0.852092
383.000000	0.860295
384.000000	0.859715
385.000000	0.851362
386.000000	0.839879
387.000000	0.842309
388.000000	0.847256
389.000000	0.840125
390.000000	0.835893
391.000000	0.832839
392.000000	0.831574
393.000000	0.825112
394.000000	0.818422
395.000000	0.807468
396.000000	0.800474
397.000000	0.793827
398.000000	0.782118
399.000000	0.775239
400.000000	0.760690
401.000000	0.752202
402.000000	0.743641
403.000000	0.738021
404.000000	0.744091
405.000000	0.742103
406.000000	0.738988
407.000000	0.741602
408.000000	0.742067
409.000000	0.761529
410.000000	0.773017
411.000000	0.792738
412.000000	0.815395
413.000000	0.852302
414.000000	0.878620
415.000000	0.911169
416.000000	0.956420
417.000000	0.994816
418.000000	1.037961
419.000000	1.084205
420.000000	1.129329
421.000000	1.182182
422.000000	1.236870
423.000000	1.287433
424.000000	1.347384
425.000000	1.405631
426.000000	1.456407
427.000000	1.527977
428.000000	1.584655
429.000000	1.630325
430.000000	1.694380
431.000000	1.764196
432.000000	1.832626
433.000000	1.895368
434.000000	1.968311
435.000000	2.039478
436.000000	2.117263
437.000000	2.191914
438.000000	2.273447
439.000000	2.348151
440.000000	2.429003
441.000000	2.523954
442.000000	2.602550
443.000000	2.699059
444.000000	2.780217
445.000000	2.903038
446.000000	3.024858
447.000000	3.129946
448.000000	3.225805
449.000000	3.318737
450.000000	3.405645
451.000000	3.505511
452.000000	3.605356
453.000000	3.708511
454.000000	3.812183
455.000000	3.898688
456.000000	3.973946
457.000000	4.056995
458.000000	4.134030
459.000000	4.222006
460.000000	4.284622
461.000000	4.360130
462.000000	4.408959
463.000000	4.457432
464.000000	4.502875
465.000000	4.554044
466.000000	4.599410
467.000000	4.620894
468.000000	4.651339
469.000000	4.671140
470.000000	4.694686
471.000000	4.712296
472.000000	4.721561
473.000000	4.734235
474.000000	4.752891
475.000000	4.757080
476.000000	4.771305
477.000000	4.775404
478.000000	4.781659
479.000000	4.782784
480.000000	4.757835
481.000000	4.684458
482.000000	4.633918
483.000000	4.606635
484.000000	4.602531
485.000000	4.579710
486.000000	4.591915
487.000000	4.595187
488.000000	4.607475
489.000000	4.614845
490.000000	4.628883
491.000000	4.639210
492.000000	4.667764
493.000000	4.672473
494.000000	4.686374
495.000000	4.739645
496.000000	4.764381
497.000000	4.797650
498.000000	4.839032
499.000000	4.878066
500.000000	4.940354
501.000000	4.987695
502.000000	5.058729
503.000000	5.125950
504.000000	5.169039
505.000000	5.241965
506.000000	5.321605
507.000000	5.397800
508.000000	5.492629
509.000000	5.579565
510.000000	5.683270
511.000000	5.782271
512.000000	5.898027
513.000000	6.007963
514.000000	6.131287
515.000000	6.254260
516.000000	6.394208
517.000000	6.538749
518.000000	6.672818
519.000000	6.844050
520.000000	7.022158
521.000000	7.199298
522.000000	7.396796
523.000000	7.577352
524.000000	7.780901
525.000000	8.003000
526.000000	8.228525
527.000000	8.489121
528.000000	8.725545
529.000000	8.998043
530.000000	9.252722
531.000000	9.523194
532.000000	9.790011
533.000000	10.065837
534.000000	10.326705
535.000000	10.574706
536.000000	10.816216
537.000000	11.055123
538.000000	11.287757
539.000000	11.497095
540.000000	11.691554
541.000000	11.883770
542.000000	12.045583
543.000000	12.200429
544.000000	12.352495
545.000000	12.481175
546.000000	12.635484
547.000000	12.801076
548.000000	12.905522
549.000000	13.042613
550.000000	13.175568
551.000000	13.313950
552.000000	13.433934
553.000000	13.576104
554.000000	13.719195
555.000000	13.831954
556.000000	13.922900
557.000000	14.041816
558.000000	14.145687
559.000000	14.252377
560.000000	14.368181
561.000000	14.442069
562.000000	14.515266
563.000000	14.595661
564.000000	14.658185
565.000000	14.730546
566.000000	14.781844
567.000000	14.805173
568.000000	14.867488
569.000000	14.914059
570.000000	14.940781
571.000000	14.963770
572.000000	15.006663
573.000000	15.029535
574.000000	15.052005
575.000000	15.066318
576.000000	15.077913
577.000000	15.084437
578.000000	15.106827
579.000000	15.104614
580.000000	15.095671
581.000000	15.064127
582.000000	15.055654
583.000000	15.033402
584.000000	14.974007
585.000000	14.925509
586.000000	14.877456
587.000000	14.801970
588.000000	14.724218
589.000000	14.617166
590.000000	14.523201
591.000000	14.398285
592.000000	14.264031
593.000000	14.110921
594.000000	13.938892
595.000000	13.747041
596.000000	13.566103
597.000000	13.377967
598.000000	13.182251
599.000000	12.965555
600.000000	12.736722
601.000000	12.490261
602.000000	12.246441
603.000000	12.004912
604.000000	11.764802
605.000000	11.533256
606.000000	11.300740
607.000000	11.082145
608.000000	10.883465
609.000000	10.699912
610.000000	10.534836
611.000000	10.383445
612.000000	10.219417
613.000000	10.066779
614.000000	9.925557
615.000000	9.786885
616.000000	9.650032
617.000000	9.534802
618.000000	9.429176
619.000000	9.341734
620.000000	9.242067
621.000000	9.151407
622.000000	9.068471
623.000000	8.993751
624.000000	8.936060
625.000000	8.900272
626.000000	8.868649
627.000000	8.846792
628.000000	8.829543
629.000000	8.830612
630.000000	8.872801
631.000000	8.911757
632.000000	8.972901
633.000000	9.041159
634.000000	9.123458
635.000000	9.210359
636.000000	9.318111
637.000000	9.409262
638.000000	9.496939
639.000000	9.568592
640.000000	9.647142
641.000000	9.708087
642.000000	9.769750
643.000000	9.798228
644.000000	9.786998
645.000000	9.771479
646.000000	9.732552
647.000000	9.681562
648.000000	9.651525
649.000000	9.617456
650.000000	9.570312
651.000000	9.528077
652.000000	9.498672
653.000000	9.468763
654.000000	9.450092
655.000000	9.430355
656.000000	9.391355
657.000000	9.357233
658.000000	9.341086
659.000000	9.320714
660.000000	9.323281
661.000000	9.314555
662.000000	9.336685
663.000000	9.361801
664.000000	9.370397
665.000000	9.416866
666.000000	9.488749
667.000000	9.579595
668.000000	9.661375
669.000000	9.715740
670.000000	9.795989
671.000000	9.886024
672.000000	10.015146
673.000000	10.125673
674.000000	10.238389
675.000000	10.325515
676.000000	10.428854
677.000000	10.526247
678.000000	10.617744
679.000000	10.743818
680.000000	10.848671
681.000000	10.950949
682.000000	11.082125
683.000000	11.165206
684.000000	11.249620
685.000000	11.342913
686.000000	11.461303
687.000000	11.553384
688.000000	11.646946
689.000000	11.733912
690.000000	11.807948
691.000000	11.889038
692.000000	11.963899
693.000000	12.017108
694.000000	12.102854
695.000000	12.197130
696.000000	12.275756
697.000000	12.308070
698.000000	12.367861
699.000000	12.446530
700.000000	12.488387
701.000000	12.571904
702.000000	12.699039
703.000000	12.774832
704.000000	12.872524
705.000000	12.981771
706.000000	13.071638
707.000000	13.164153
708.000000	13.256600
709.000000	13.346598
710.000000	13.428317
711.000000	13.536471
712.000000	13.608503
713.000000	13.642478
714.000000	13.723721
715.000000	13.812474
716.000000	13.881855
717.000000	13.953518
718.000000	14.010687
719.000000	14.134028
720.000000	14.224545
721.000000	14.319768
722.000000	14.358502
723.000000	14.437826
724.000000	14.568147
725.000000	14.656400
726.000000	14.724410
727.000000	14.780601
728.000000	14.900078
729.000000	14.991993
730.000000	15.060567
731.000000	15.152994
732.000000	15.290213
733.000000	15.330531
734.000000	15.408665
735.000000	15.468160
736.000000	15.557269
737.000000	15.673383
738.000000	15.714526
739.000000	15.759477
740.000000	15.808883
741.000000	15.873463
742.000000	15.964564
743.000000	15.991447
744.000000	16.043459
745.000000	16.110313
746.000000	16.148752
747.000000	16.234130
748.000000	16.307443
749.000000	16.399619
750.000000	16.418401
751.000000	16.374781
752.000000	16.523172
753.000000	16.596767
754.000000	16.687061
755.000000	16.752095
756.000000	16.880457
757.000000	16.912466
758.000000	16.965652
759.000000	17.038385
760.000000	17.124038
761.000000	17.185929
762.000000	17.277916
763.000000	17.286720
764.000000	17.359309
765.000000	17.427282
766.000000	17.444675
767.000000	17.487418
768.000000	17.565088
769.000000	17.567572
770.000000	17.588613
771.000000	17.678184
772.000000	17.616967
773.000000	17.654632
774.000000	17.729676
775.000000	17.835452
776.000000	17.909233
777.000000	17.946681
778.000000	17.951565
779.000000	17.954214
780.000000	17.993838
781.000000	18.076742
782.000000	18.086544
783.000000	18.086680
784.000000	18.164792
785.000000	18.163988
786.000000	18.172084
787.000000	18.209008
788.000000	18.247185
789.000000	18.298614
790.000000	18.206202
791.000000	18.181844
792.000000	18.284855
793.000000	18.286013
794.000000	18.157004
795.000000	18.139198
796.000000	18.200041
797.000000	18.177325
798.000000	18.157877
799.000000	18.095144
800.000000	18.039375
801.000000	18.075994
802.000000	18.017174
803.000000	17.980662
804.000000	17.905620
805.000000	17.910672
806.000000	17.874521
807.000000	17.750422
808.000000	17.796415
809.000000	17.772109
810.000000	17.660823
811.000000	17.730092
812.000000	17.625675
813.000000	17.504590
814.000000	17.500851
815.000000	17.350665
816.000000	17.231995
817.000000	17.183554
818.000000	17.150993
819.000000	16.862722
820.000000	16.852735
821.000000	16.729763
822.000000	16.550764
823.000000	16.446972
824.000000	16.347234
825.000000	16.184282
826.000000	15.987757
827.000000	15.876680
828.000000	15.672890
829.000000	15.632183
830.000000	15.480396
831.000000	15.340228
832.000000	15.090776
833.000000	15.001242
834.000000	14.723955
835.000000	14.695412
836.000000	14.701743
837.000000	14.586401
838.000000	14.445714
839.000000	14.387915
840.000000	14.289497
841.000000	14.214977
842.000000	13.999534
843.000000	13.709933
844.000000	13.802088
845.000000	13.707772
846.000000	13.783276
847.000000	13.633899
848.000000	13.574077
849.000000	13.559782
850.000000	13.630087
851.000000	13.525327
852.000000	13.401036
853.000000	13.367623
854.000000	13.302211
855.000000	13.241537
856.000000	13.233751
857.000000	13.073344
858.000000	13.182053
859.000000	11.723173
860.000000	11.876881
861.000000	11.947961
862.000000	12.120188
863.000000	12.113463
864.000000	12.171672
865.000000	12.638927
866.000000	12.646001
867.000000	12.551077
868.000000	12.993130
869.000000	12.841723
870.000000	12.963520
871.000000	12.629102
872.000000	13.026066
873.000000	13.140339
874.000000	12.903005
875.000000	13.183157
876.000000	13.243539
877.000000	13.456200
878.000000	13.492909
879.000000	13.494673
880.000000	13.486681
881.000000	13.420310
882.000000	13.379245
883.000000	13.454216
884.000000	13.478333
885.000000	13.344068
886.000000	13.399087
887.000000	13.627011
888.000000	13.528844
889.000000	13.480176
890.000000	13.663795
891.000000	13.625193
892.000000	13.654666
893.000000	13.598733
894.000000	13.556164
895.000000	13.461248
896.000000	13.633091
897.000000	13.695903
898.000000	13.613922
899.000000	13.608452
900.000000	13.577705
901.000000	13.520475
902.000000	13.537119
903.000000	13.541748
904.000000	13.501791
905.000000	13.460704
906.000000	13.424251
907.000000	13.569985
908.000000	13.610901
909.000000	13.628823
910.000000	13.545139
911.000000	13.460909
912.000000	13.572158
913.000000	13.534464
914.000000	13.512856
915.000000	13.573193
916.000000	13.579442
917.000000	13.538369
918.000000	13.520761
919.000000	13.521429
920.000000	13.483405
921.000000	13.560779
922.000000	13.505668
923.000000	13.465157
924.000000	13.529884
925.000000	13.514410
926.000000	13.541227
927.000000	13.541511
928.000000	13.543978
929.000000	13.522798
930.000000	13.525288
931.000000	13.593042
932.000000	13.570531
933.000000	13.542512
934.000000	13.592342
935.000000	13.630812
936.000000	13.675611
937.000000	13.661082
938.000000	13.656071
939.000000	13.610398
940.000000	13.608884
941.000000	13.627769
942.000000	13.592291
943.000000	13.612621
944.000000	13.576707
945.000000	13.582225
946.000000	13.619424
947.000000	13.666465
948.000000	13.674815
949.000000	13.651809
950.000000	13.628445
951.000000	13.628093
952.000000	13.641753
953.000000	13.624380
954.000000	13.664008
955.000000	13.689374
956.000000	13.682588
957.000000	13.683032
958.000000	13.661382
959.000000	13.650495
960.000000	13.656732
961.000000	13.662193
962.000000	13.667421
963.000000	13.674384
964.000000	13.649412
965.000000	13.626423
966.000000	13.646095
967.000000	13.655301
968.000000	13.650439
969.000000	13.642009
970.000000	13.671260
971.000000	13.662676
972.000000	13.662436
973.000000	13.616194
974.000000	13.648647
975.000000	13.650596
976.000000	13.639318
977.000000	13.621651
978.000000	13.610051
979.000000	13.636550
980.000000	13.629606
981.000000	13.620137
982.000000	13.628696
983.000000	13.672796
984.000000	13.641664
985.000000	13.629868
986.000000	13.658398
987.000000	13.666460
988.000000	13.665815
989.000000	13.642481
990.000000	13.637847
991.000000	13.629443
992.000000	13.629891
993.000000	13.636247
994.000000	13.624074
995.000000	13.640511
996.000000	13.633703
997.000000	13.651114
998.000000	13.599106
999.000000	13.593837
1000.000000	13.591751
1001.000000	13.580771
1002.000000	13.559231
1003.000000	13.570641
1004.000000	13.585901
1005.000000	13.580947
1006.000000	13.561775
1007.000000	13.538945
1008.000000	13.532893
1009.000000	13.552298
1010.000000	13.538910
1011.000000	13.531415
1012.000000	13.535799
1013.000000	13.518581
1014.000000	13.518320
1015.000000	13.511514
1016.000000	13.511339
1017.000000	13.492347
1018.000000	13.488250
1019.000000	13.484027
1020.000000	13.487875
1021.000000	13.492110
1022.000000	13.489465
1023.000000	13.487941
1024.000000	13.497066
1025.000000	13.480368
1026.000000	13.486416
1027.000000	13.480447
1028.000000	13.474778
1029.000000	13.458865
1030.000000	13.434146
1031.000000	13.456082
1032.000000	13.461184
1033.000000	13.453052
1034.000000	13.454628
1035.000000	13.462721
1036.000000	13.452784
1037.000000	13.437037
1038.000000	13.443127
1039.000000	13.463062
1040.000000	13.448007
1041.000000	13.472699
1042.000000	13.457221
1043.000000	13.485532
1044.000000	13.453322
1045.000000	13.461959
1046.000000	13.492943
1047.000000	13.456423
1048.000000	13.462521
1049.000000	13.434118
1050.000000	13.437122
1051.000000	13.432708
1052.000000	13.421563
1053.000000	13.433978
1054.000000	13.404560
1055.000000	13.425484
1056.000000	13.432779
1057.000000	13.387133
1058.000000	13.376706
1059.000000	13.385106
1060.000000	13.379646
1061.000000	13.372234
1062.000000	13.379423
1063.000000	13.371167
1064.000000	13.402293
1065.000000	13.377193
1066.000000	13.386353
1067.000000	13.384053
1068.000000	13.373652
1069.000000	13.390144
1070.000000	13.378178
1071.000000	13.381490
1072.000000	13.366785
1073.000000	13.384887
1074.000000	13.386589
1075.000000	13.393273
1076.000000	13.383870
1077.000000	13.403550
1078.000000	13.387726
1079.000000	13.402649
1080.000000	13.401693
1081.000000	13.390944
1082.000000	13.416808
1083.000000	13.427593
1084.000000	13.437286
1085.000000	13.420003
1086.000000	13.432689
1087.000000	13.448999
1088.000000	13.428897
1089.000000	13.451579
1090.000000	13.453955
1091.000000	13.461086
1092.000000	13.460926
1093.000000	13.449926
1094.000000	13.451509
1095.000000	13.470344
1096.000000	13.452750
1097.000000	13.462078
1098.000000	13.459523
1099.000000	13.454022
1100.000000	13.457227
1101.000000	13.457414
1102.000000	13.440934
1103.000000	13.438326
1104.000000	13.437774
1105.000000	13.438836
1106.000000	13.429374
1107.000000	13.428027
1108.000000	13.433648
1109.000000	13.433752
1110.000000	13.421459
1111.000000	13.409996
1112.000000	13.417820
1113.000000	13.419751
1114.000000	13.413921
1115.000000	13.421866
1116.000000	13.400007
1117.000000	13.417151
1118.000000	13.422830
1119.000000	13.414475
1120.000000	13.414081
1121.000000	13.407859
1122.000000	13.397108
1123.000000	13.385424
1124.000000	13.397677
1125.000000	13.393597
1126.000000	13.384247
1127.000000	13.369103
1128.000000	13.344800
1129.000000	13.345140
1130.000000	13.340101
1131.000000	13.313541
1132.000000	13.280236
1133.000000	13.243129
1134.000000	13.232351
1135.000000	13.220683
1136.000000	13.209978
1137.000000	13.182803
1138.000000	13.153938
1139.000000	13.124600
1140.000000	13.109402
1141.000000	13.097056
1142.000000	13.079217
1143.000000	13.053990
1144.000000	13.037382
1145.000000	13.020907
1146.000000	13.006485
1147.000000	12.985304
1148.000000	12.985614
1149.000000	12.970981
1150.000000	12.947205
1151.000000	12.936297
1152.000000	12.926975
1153.000000	12.918526
1154.000000	12.901737
1155.000000	12.887519
1156.000000	12.866037
1157.000000	12.842394
1158.000000	12.806376
1159.000000	12.772467
1160.000000	12.757483
1161.000000	12.723484
1162.000000	12.671629
1163.000000	12.645107
1164.000000	12.621058
1165.000000	12.581648
1166.000000	12.542546
1167.000000	12.507347
1168.000000	12.463457
1169.000000	12.425489
1170.000000	12.404646
1171.000000	12.375533
1172.000000	12.352932
1173.000000	12.318727
1174.000000	12.291169
1175.000000	12.273124
