PE UV       SUBTECH     SPECTRUM    ASCII       PEDS        4.00        
   -1
CICIMAUCR0009-3.Sample.ASC
24/04/17
14:06:27.00
24/04/17
14:06:27.00
Vinicio Soto Monge
C. kalinini
250,000000
1
Lambda 1050
1050L1511233
PerkinElmer UV WinLab 6.3.2.0749 / 2.02.05 Lambda 900 UV/VIS/NIR, Aug  7 2015 09:38:08

0
0
3350/servo 860,8/2
0
0
UV/VIS
1
1
1
DoubleDePol,CommonBeamDepol,RBeamAtt,SBeamAtt,60mm sphere, WB InGaAs Detector
0
0
0
0
Program
Program
3350/servo 860,8/2
3350/0,2 860,8/0,2
3350/0,2 860,8/0,2
0
15.00
 
 
 
0
 
860,8
319,2
860,8
Front
100
on
S:100 R:100
0
0
0
0
 
0
 
 
 
0
 
 
0
0
0
0
0
 
 
 
 
0
0


0
0
#HDR
-1
-1
#GR
nm
%R
1.0
0.0
2500,000000
-1,000000
2251
8
78,444600
4,431300
#DATA
250.000000	0.511587
251.000000	0.498191
252.000000	0.511101
253.000000	0.523236
254.000000	0.541896
255.000000	0.526346
256.000000	0.534421
257.000000	0.491598
258.000000	0.528780
259.000000	0.508470
260.000000	0.523591
261.000000	0.517896
262.000000	0.515201
263.000000	0.503435
264.000000	0.496117
265.000000	0.493110
266.000000	0.495533
267.000000	0.496084
268.000000	0.498137
269.000000	0.476682
270.000000	0.513428
271.000000	0.489717
272.000000	0.479749
273.000000	0.489837
274.000000	0.495672
275.000000	0.471974
276.000000	0.487499
277.000000	0.493314
278.000000	0.496314
279.000000	0.476933
280.000000	0.456441
281.000000	0.497386
282.000000	0.481071
283.000000	0.440617
284.000000	0.469967
285.000000	0.453878
286.000000	0.497153
287.000000	0.453312
288.000000	0.469339
289.000000	0.485578
290.000000	0.448555
291.000000	0.490161
292.000000	0.469153
293.000000	0.475918
294.000000	0.485762
295.000000	0.489141
296.000000	0.445245
297.000000	0.453444
298.000000	0.461892
299.000000	0.445325
300.000000	0.441931
301.000000	0.471325
302.000000	0.484641
303.000000	0.475671
304.000000	0.459465
305.000000	0.490163
306.000000	0.473371
307.000000	0.461692
308.000000	0.470509
309.000000	0.484320
310.000000	0.493068
311.000000	0.472656
312.000000	0.479071
313.000000	0.450935
314.000000	0.460651
315.000000	0.502027
316.000000	0.483273
317.000000	0.469739
318.000000	0.342162
319.000000	0.430723
320.000000	0.380198
321.000000	0.405041
322.000000	0.486660
323.000000	0.295844
324.000000	0.405447
325.000000	0.401956
326.000000	0.394179
327.000000	0.361122
328.000000	0.370214
329.000000	0.464860
330.000000	0.355080
331.000000	0.344316
332.000000	0.423596
333.000000	0.398116
334.000000	0.381777
335.000000	0.348945
336.000000	0.394983
337.000000	0.373421
338.000000	0.372473
339.000000	0.357146
340.000000	0.332103
341.000000	0.328985
342.000000	0.317891
343.000000	0.349947
344.000000	0.346577
345.000000	0.342393
346.000000	0.328889
347.000000	0.349524
348.000000	0.369799
349.000000	0.338288
350.000000	0.315742
351.000000	0.301225
352.000000	0.354551
353.000000	0.365735
354.000000	0.354867
355.000000	0.315127
356.000000	0.320763
357.000000	0.329345
358.000000	0.324408
359.000000	0.312444
360.000000	0.282974
361.000000	0.311885
362.000000	0.282264
363.000000	0.291788
364.000000	0.307308
365.000000	0.280125
366.000000	0.324450
367.000000	0.300123
368.000000	0.235057
369.000000	0.247142
370.000000	0.262654
371.000000	0.260682
372.000000	0.195689
373.000000	0.135375
374.000000	0.095495
375.000000	0.108231
376.000000	0.187168
377.000000	0.319022
378.000000	0.302283
379.000000	0.284073
380.000000	0.265799
381.000000	0.256458
382.000000	0.255740
383.000000	0.249286
384.000000	0.245676
385.000000	0.254138
386.000000	0.261650
387.000000	0.282164
388.000000	0.305023
389.000000	0.324180
390.000000	0.357635
391.000000	0.396866
392.000000	0.416411
393.000000	0.453780
394.000000	0.485261
395.000000	0.509284
396.000000	0.529575
397.000000	0.559040
398.000000	0.574559
399.000000	0.589112
400.000000	0.608048
401.000000	0.625362
402.000000	0.630166
403.000000	0.630080
404.000000	0.629067
405.000000	0.645174
406.000000	0.651947
407.000000	0.668828
408.000000	0.681206
409.000000	0.717814
410.000000	0.754078
411.000000	0.801068
412.000000	0.862559
413.000000	0.910217
414.000000	0.974240
415.000000	1.048756
416.000000	1.135291
417.000000	1.211689
418.000000	1.284976
419.000000	1.376029
420.000000	1.461688
421.000000	1.533165
422.000000	1.618456
423.000000	1.710283
424.000000	1.788859
425.000000	1.866458
426.000000	1.937081
427.000000	2.020531
428.000000	2.107739
429.000000	2.181604
430.000000	2.247244
431.000000	2.311963
432.000000	2.363028
433.000000	2.423045
434.000000	2.504996
435.000000	2.573149
436.000000	2.632850
437.000000	2.689542
438.000000	2.728478
439.000000	2.755216
440.000000	2.790620
441.000000	2.844230
442.000000	2.887590
443.000000	2.898255
444.000000	2.903516
445.000000	2.927579
446.000000	2.941806
447.000000	2.944222
448.000000	2.951865
449.000000	2.940074
450.000000	2.908630
451.000000	2.877497
452.000000	2.833768
453.000000	2.783867
454.000000	2.738907
455.000000	2.684519
456.000000	2.629184
457.000000	2.561950
458.000000	2.487831
459.000000	2.426969
460.000000	2.371784
461.000000	2.320839
462.000000	2.266375
463.000000	2.214445
464.000000	2.179226
465.000000	2.155229
466.000000	2.135549
467.000000	2.120792
468.000000	2.113751
469.000000	2.132701
470.000000	2.140526
471.000000	2.161302
472.000000	2.197291
473.000000	2.229173
474.000000	2.269880
475.000000	2.322143
476.000000	2.368175
477.000000	2.408187
478.000000	2.436320
479.000000	2.469840
480.000000	2.500716
481.000000	2.511600
482.000000	2.523330
483.000000	2.518303
484.000000	2.503822
485.000000	2.494573
486.000000	2.465184
487.000000	2.423803
488.000000	2.392625
489.000000	2.334273
490.000000	2.290206
491.000000	2.257593
492.000000	2.210724
493.000000	2.160526
494.000000	2.096162
495.000000	2.042269
496.000000	1.989536
497.000000	1.945316
498.000000	1.906860
499.000000	1.871538
500.000000	1.851694
501.000000	1.812684
502.000000	1.793343
503.000000	1.778122
504.000000	1.767518
505.000000	1.769676
506.000000	1.747141
507.000000	1.730364
508.000000	1.733967
509.000000	1.745043
510.000000	1.759388
511.000000	1.766590
512.000000	1.782923
513.000000	1.827182
514.000000	1.855797
515.000000	1.899922
516.000000	1.941555
517.000000	1.979237
518.000000	2.019098
519.000000	2.089071
520.000000	2.148308
521.000000	2.212813
522.000000	2.265879
523.000000	2.339301
524.000000	2.395926
525.000000	2.471464
526.000000	2.552307
527.000000	2.646569
528.000000	2.744479
529.000000	2.842293
530.000000	2.945555
531.000000	3.070024
532.000000	3.193128
533.000000	3.335770
534.000000	3.484965
535.000000	3.617566
536.000000	3.771853
537.000000	3.917700
538.000000	4.044580
539.000000	4.174154
540.000000	4.314741
541.000000	4.458037
542.000000	4.592351
543.000000	4.733248
544.000000	4.874969
545.000000	5.039563
546.000000	5.188411
547.000000	5.334032
548.000000	5.472661
549.000000	5.635327
550.000000	5.762868
551.000000	5.913585
552.000000	6.032616
553.000000	6.187731
554.000000	6.300964
555.000000	6.438963
556.000000	6.537361
557.000000	6.608315
558.000000	6.711752
559.000000	6.816177
560.000000	7.136204
561.000000	7.260819
562.000000	7.360290
563.000000	7.442865
564.000000	7.557300
565.000000	7.633640
566.000000	7.713797
567.000000	7.801723
568.000000	7.882357
569.000000	7.975734
570.000000	8.050826
571.000000	8.162893
572.000000	8.250744
573.000000	8.367818
574.000000	8.468430
575.000000	8.543700
576.000000	8.630025
577.000000	8.704684
578.000000	8.776428
579.000000	8.852439
580.000000	8.911793
581.000000	8.969073
582.000000	9.045509
583.000000	9.152313
584.000000	9.210932
585.000000	9.261786
586.000000	9.346022
587.000000	9.328551
588.000000	9.400274
589.000000	9.420427
590.000000	9.445733
591.000000	9.464038
592.000000	9.531870
593.000000	9.571901
594.000000	9.633234
595.000000	9.696277
596.000000	9.741004
597.000000	9.812141
598.000000	9.869682
599.000000	9.918181
600.000000	9.985339
601.000000	10.024298
602.000000	10.077889
603.000000	10.125414
604.000000	10.139210
605.000000	10.188807
606.000000	10.183964
607.000000	10.210387
608.000000	10.193156
609.000000	10.176815
610.000000	10.117935
611.000000	10.031413
612.000000	9.922801
613.000000	9.804139
614.000000	9.639459
615.000000	9.474953
616.000000	9.239292
617.000000	9.036278
618.000000	8.794985
619.000000	8.569163
620.000000	8.281283
621.000000	7.986275
622.000000	7.737198
623.000000	7.456230
624.000000	7.169408
625.000000	6.913666
626.000000	6.670443
627.000000	6.421770
628.000000	6.209849
629.000000	6.022655
630.000000	5.844075
631.000000	5.693090
632.000000	5.564847
633.000000	5.449710
634.000000	5.367902
635.000000	5.338798
636.000000	5.322402
637.000000	5.304025
638.000000	5.308565
639.000000	5.339666
640.000000	5.368968
641.000000	5.406109
642.000000	5.461372
643.000000	5.512523
644.000000	5.577146
645.000000	5.616997
646.000000	5.646218
647.000000	5.694760
648.000000	5.737252
649.000000	5.794947
650.000000	5.788890
651.000000	5.787193
652.000000	5.794264
653.000000	5.742545
654.000000	5.700485
655.000000	5.660478
656.000000	5.588502
657.000000	5.479317
658.000000	5.403692
659.000000	5.290334
660.000000	5.185903
661.000000	5.074872
662.000000	4.945038
663.000000	4.858335
664.000000	4.745319
665.000000	4.665887
666.000000	4.605775
667.000000	4.483552
668.000000	4.432679
669.000000	4.380541
670.000000	4.381074
671.000000	4.392874
672.000000	4.375116
673.000000	4.376270
674.000000	4.423373
675.000000	4.450001
676.000000	4.534592
677.000000	4.604809
678.000000	4.686563
679.000000	4.799942
680.000000	4.889301
681.000000	5.000629
682.000000	5.122064
683.000000	5.239107
684.000000	5.349576
685.000000	5.452064
686.000000	5.526227
687.000000	5.635481
688.000000	5.743294
689.000000	5.815756
690.000000	5.830776
691.000000	5.867710
692.000000	5.890249
693.000000	5.861829
694.000000	5.847196
695.000000	5.859129
696.000000	5.861779
697.000000	5.808962
698.000000	5.740007
699.000000	5.651808
700.000000	5.569463
701.000000	5.503933
702.000000	5.440976
703.000000	5.330684
704.000000	5.242045
705.000000	5.170318
706.000000	5.087557
707.000000	4.979221
708.000000	4.944220
709.000000	4.904521
710.000000	4.839243
711.000000	4.813030
712.000000	4.780659
713.000000	4.741136
714.000000	4.752187
715.000000	4.798057
716.000000	4.816122
717.000000	4.852243
718.000000	4.919089
719.000000	4.996124
720.000000	5.079792
721.000000	5.137282
722.000000	5.289441
723.000000	5.399585
724.000000	5.501727
725.000000	5.658412
726.000000	5.812557
727.000000	5.886435
728.000000	6.063180
729.000000	6.251844
730.000000	6.375083
731.000000	6.567328
732.000000	6.691182
733.000000	6.779717
734.000000	6.924811
735.000000	7.046043
736.000000	7.180303
737.000000	7.269508
738.000000	7.337725
739.000000	7.415625
740.000000	7.520466
741.000000	7.585644
742.000000	7.631952
743.000000	7.706414
744.000000	7.741924
745.000000	7.777265
746.000000	7.786751
747.000000	7.758898
748.000000	7.857971
749.000000	7.942032
750.000000	7.956528
751.000000	8.014211
752.000000	8.032968
753.000000	7.981317
754.000000	8.052337
755.000000	8.168842
756.000000	8.173486
757.000000	8.197229
758.000000	8.237723
759.000000	8.301002
760.000000	8.357381
761.000000	8.337458
762.000000	8.345272
763.000000	8.369201
764.000000	8.453807
765.000000	8.504363
766.000000	8.501873
767.000000	8.565461
768.000000	8.575919
769.000000	8.617365
770.000000	8.651555
771.000000	8.691074
772.000000	8.709493
773.000000	8.735207
774.000000	8.762407
775.000000	8.741685
776.000000	8.778339
777.000000	8.773738
778.000000	8.850103
779.000000	8.916860
780.000000	8.984788
781.000000	9.021676
782.000000	9.049099
783.000000	9.054063
784.000000	9.100726
785.000000	9.212349
786.000000	9.295458
787.000000	9.302760
788.000000	9.393601
789.000000	9.497258
790.000000	9.530518
791.000000	9.573768
792.000000	9.681891
793.000000	9.707013
794.000000	9.797962
795.000000	9.910403
796.000000	9.903508
797.000000	10.008833
798.000000	10.095085
799.000000	10.151147
800.000000	10.303881
801.000000	10.336410
802.000000	10.374234
803.000000	10.397384
804.000000	10.476296
805.000000	10.491665
806.000000	10.524564
807.000000	10.553736
808.000000	10.548436
809.000000	10.604967
810.000000	10.669525
811.000000	10.788085
812.000000	10.817142
813.000000	10.772487
814.000000	10.833749
815.000000	10.821022
816.000000	10.831599
817.000000	10.838821
818.000000	10.787721
819.000000	10.830920
820.000000	10.871021
821.000000	10.886091
822.000000	10.868057
823.000000	10.961091
824.000000	10.826700
825.000000	10.838701
826.000000	10.939931
827.000000	10.820647
828.000000	10.916648
829.000000	10.986932
830.000000	10.864138
831.000000	10.930296
832.000000	10.845147
833.000000	10.778577
834.000000	10.852041
835.000000	10.801688
836.000000	10.919616
837.000000	10.851980
838.000000	10.935934
839.000000	10.915140
840.000000	10.709159
841.000000	10.879667
842.000000	10.852883
843.000000	10.917430
844.000000	10.695200
845.000000	11.062376
846.000000	10.878269
847.000000	11.023947
848.000000	10.778277
849.000000	10.534235
850.000000	10.662202
851.000000	10.831906
852.000000	10.521313
853.000000	10.452559
854.000000	10.627587
855.000000	10.779464
856.000000	10.660910
857.000000	10.650685
858.000000	10.696895
859.000000	11.032329
860.000000	10.987660
861.000000	10.907003
862.000000	10.766619
863.000000	10.596011
864.000000	10.493912
865.000000	10.367912
866.000000	10.257011
867.000000	10.104802
868.000000	9.993885
869.000000	9.837189
870.000000	9.745105
871.000000	9.645659
872.000000	9.506476
873.000000	9.382838
874.000000	9.241991
875.000000	9.121001
876.000000	9.044094
877.000000	8.901531
878.000000	8.803613
879.000000	8.728993
880.000000	8.609561
881.000000	8.511213
882.000000	8.431484
883.000000	8.386616
884.000000	8.275678
885.000000	8.189828
886.000000	8.118944
887.000000	8.078308
888.000000	8.032778
889.000000	7.950298
890.000000	7.880061
891.000000	7.828131
892.000000	7.772149
893.000000	7.738493
894.000000	7.681900
895.000000	7.659284
896.000000	7.606029
897.000000	7.544942
898.000000	7.515419
899.000000	7.467741
900.000000	7.493209
901.000000	7.457248
902.000000	7.404100
903.000000	7.361818
904.000000	7.358118
905.000000	7.347904
906.000000	7.356954
907.000000	7.335402
908.000000	7.296862
909.000000	7.278441
910.000000	7.267007
911.000000	7.298135
912.000000	7.273842
913.000000	7.263887
914.000000	7.263019
915.000000	7.286000
916.000000	7.282376
917.000000	7.257583
918.000000	7.254384
919.000000	7.245321
920.000000	7.268396
921.000000	7.268534
922.000000	7.284427
923.000000	7.272445
924.000000	7.255499
925.000000	7.261037
926.000000	7.274807
927.000000	7.269140
928.000000	7.276144
929.000000	7.265045
930.000000	7.263148
931.000000	7.270033
932.000000	7.276412
933.000000	7.278259
934.000000	7.266012
935.000000	7.271784
936.000000	7.261662
937.000000	7.245034
938.000000	7.241523
939.000000	7.218915
940.000000	7.213918
941.000000	7.198999
942.000000	7.180542
943.000000	7.172945
944.000000	7.162022
945.000000	7.146247
946.000000	7.137461
947.000000	7.113908
948.000000	7.105899
949.000000	7.081354
950.000000	7.062045
951.000000	7.036723
952.000000	7.031335
953.000000	7.016611
954.000000	6.996396
955.000000	6.988149
956.000000	6.963600
957.000000	6.939067
958.000000	6.914768
959.000000	6.902791
960.000000	6.875882
961.000000	6.861244
962.000000	6.840337
963.000000	6.826841
964.000000	6.804565
965.000000	6.783366
966.000000	6.768407
967.000000	6.733469
968.000000	6.728393
969.000000	6.712141
970.000000	6.690726
971.000000	6.659200
972.000000	6.638347
973.000000	6.623547
974.000000	6.602455
975.000000	6.570724
976.000000	6.537955
977.000000	6.529473
978.000000	6.510608
979.000000	6.484519
980.000000	6.464057
981.000000	6.450220
982.000000	6.431341
983.000000	6.414611
984.000000	6.386439
985.000000	6.352492
986.000000	6.323298
987.000000	6.303943
988.000000	6.271732
989.000000	6.260511
990.000000	6.236437
991.000000	6.210548
992.000000	6.182089
993.000000	6.171188
994.000000	6.155317
995.000000	6.128617
996.000000	6.096835
997.000000	6.078308
998.000000	6.069468
999.000000	6.053872
1000.000000	6.037047
1001.000000	6.012297
1002.000000	6.001999
1003.000000	6.000562
1004.000000	5.983088
1005.000000	5.963860
1006.000000	5.949880
1007.000000	5.930689
1008.000000	5.924748
1009.000000	5.920891
1010.000000	5.904468
1011.000000	5.890838
1012.000000	5.886807
1013.000000	5.877974
1014.000000	5.880271
1015.000000	5.876856
1016.000000	5.862322
1017.000000	5.858634
1018.000000	5.866743
1019.000000	5.855398
1020.000000	5.854119
1021.000000	5.861081
1022.000000	5.861346
1023.000000	5.853348
1024.000000	5.856205
1025.000000	5.857567
1026.000000	5.841267
1027.000000	5.838077
1028.000000	5.835768
1029.000000	5.831928
1030.000000	5.841300
1031.000000	5.844233
1032.000000	5.834008
1033.000000	5.821690
1034.000000	5.832546
1035.000000	5.829931
1036.000000	5.819903
1037.000000	5.821546
1038.000000	5.821169
1039.000000	5.810330
1040.000000	5.791630
1041.000000	5.793275
1042.000000	5.809462
1043.000000	5.802276
1044.000000	5.782537
1045.000000	5.777364
1046.000000	5.777830
1047.000000	5.767879
1048.000000	5.762385
1049.000000	5.755319
1050.000000	5.748595
1051.000000	5.739416
1052.000000	5.733786
1053.000000	5.730359
1054.000000	5.735431
1055.000000	5.731680
1056.000000	5.716488
1057.000000	5.714372
1058.000000	5.721451
1059.000000	5.726466
1060.000000	5.722291
1061.000000	5.721272
1062.000000	5.724569
1063.000000	5.724237
1064.000000	5.718758
1065.000000	5.720260
1066.000000	5.714624
1067.000000	5.710957
1068.000000	5.704587
1069.000000	5.705553
1070.000000	5.704039
1071.000000	5.701496
1072.000000	5.718548
1073.000000	5.718708
1074.000000	5.713677
1075.000000	5.727988
1076.000000	5.734134
1077.000000	5.734476
1078.000000	5.745504
1079.000000	5.734026
1080.000000	5.744846
1081.000000	5.756452
1082.000000	5.757458
1083.000000	5.762798
1084.000000	5.755389
1085.000000	5.766900
1086.000000	5.772613
1087.000000	5.777860
1088.000000	5.778846
1089.000000	5.785576
1090.000000	5.790282
1091.000000	5.795291
1092.000000	5.805666
1093.000000	5.792747
1094.000000	5.807313
1095.000000	5.812062
1096.000000	5.811220
1097.000000	5.818409
1098.000000	5.817052
1099.000000	5.820598
1100.000000	5.817470
1101.000000	5.817958
1102.000000	5.811890
1103.000000	5.823551
1104.000000	5.825695
1105.000000	5.829361
1106.000000	5.823648
1107.000000	5.816649
1108.000000	5.805191
1109.000000	5.817700
1110.000000	5.801420
1111.000000	5.806983
1112.000000	5.809538
1113.000000	5.815641
1114.000000	5.796363
1115.000000	5.793561
1116.000000	5.797037
1117.000000	5.791418
1118.000000	5.786391
1119.000000	5.777059
1120.000000	5.775900
1121.000000	5.769762
1122.000000	5.762465
1123.000000	5.764513
1124.000000	5.758896
1125.000000	5.737305
1126.000000	5.722628
1127.000000	5.700811
1128.000000	5.690236
1129.000000	5.671787
1130.000000	5.662207
1131.000000	5.632873
1132.000000	5.614211
1133.000000	5.617551
1134.000000	5.583557
1135.000000	5.603924
1136.000000	5.598508
1137.000000	5.586390
1138.000000	5.603755
1139.000000	5.635237
1140.000000	5.655914
1141.000000	5.681750
1142.000000	5.733656
1143.000000	5.763025
1144.000000	5.808254
1145.000000	5.845888
1146.000000	5.877708
1147.000000	5.885024
1148.000000	5.893323
1149.000000	5.883034
1150.000000	5.877202
1151.000000	5.852559
1152.000000	5.834136
1153.000000	5.825721
1154.000000	5.827989
1155.000000	5.823208
1156.000000	5.838099
1157.000000	5.851396
1158.000000	5.877164
1159.000000	5.917510
1160.000000	5.961532
1161.000000	6.004304
1162.000000	6.043160
1163.000000	6.112959
1164.000000	6.171501
1165.000000	6.223088
1166.000000	6.289000
1167.000000	6.337380
1168.000000	6.419491
1169.000000	6.470300
1170.000000	6.543750
1171.000000	6.614469
1172.000000	6.678630
1173.000000	6.737026
1174.000000	6.794376
1175.000000	6.853825
1176.000000	6.918933
1177.000000	6.980517
1178.000000	7.064750
1179.000000	7.150548
1180.000000	7.253846
1181.000000	7.368608
1182.000000	7.468331
1183.000000	7.601961
1184.000000	7.688010
1185.000000	7.745095
1186.000000	7.767654
1187.000000	7.775201
1188.000000	7.815246
1189.000000	7.745871
1190.000000	7.656345
1191.000000	7.559083
1192.000000	7.453665
1193.000000	7.364886
1194.000000	7.280095
1195.000000	7.206112
1196.000000	7.164908
1197.000000	7.125929
1198.000000	7.097965
1199.000000	7.076233
