PE UV       SUBTECH     SPECTRUM    ASCII       PEDS        4.00        
   -1
CICIMAUCR0104-3.Sample.ASC
24/04/22
09:54:19.00
24/04/22
09:54:19.00
Vinicio Soto Monge
C. resplendens
250,000000
1
Lambda 1050
1050L1511233
PerkinElmer UV WinLab 6.3.2.0749 / 2.02.05 Lambda 900 UV/VIS/NIR, Aug  7 2015 09:38:08

0
0
3350/servo 860,8/2
0
0
UV/VIS
1
1
1
DoubleDePol,CommonBeamDepol,RBeamAtt,SBeamAtt,60mm sphere, WB InGaAs Detector
0
0
0
0
Program
Program
3350/servo 860,8/2
3350/0,2 860,8/0,2
3350/0,2 860,8/0,2
0
15.00
 
 
 
0
 
860,8
319,2
860,8
Front
100
on
S:100 R:100
0
0
0
0
 
0
 
 
 
0
 
 
0
0
0
0
0
 
 
 
 
0
0


0
0
#HDR
-1
-1
#GR
nm
%R
1.0
0.0
2500,000000
-1,000000
2251
8
90,434600
6,014800
#DATA
250.000000	0.300804
251.000000	0.272420
252.000000	0.270689
253.000000	0.255344
254.000000	0.255300
255.000000	0.236901
256.000000	0.297054
257.000000	0.294301
258.000000	0.262591
259.000000	0.268147
260.000000	0.273461
261.000000	0.273025
262.000000	0.289707
263.000000	0.285829
264.000000	0.246871
265.000000	0.288259
266.000000	0.287456
267.000000	0.260264
268.000000	0.258268
269.000000	0.209150
270.000000	0.215110
271.000000	0.244834
272.000000	0.249732
273.000000	0.221452
274.000000	0.237426
275.000000	0.267057
276.000000	0.244766
277.000000	0.226948
278.000000	0.232012
279.000000	0.214869
280.000000	0.238818
281.000000	0.254034
282.000000	0.245832
283.000000	0.250907
284.000000	0.220110
285.000000	0.247524
286.000000	0.228189
287.000000	0.197283
288.000000	0.207957
289.000000	0.229462
290.000000	0.212072
291.000000	0.217514
292.000000	0.205091
293.000000	0.191590
294.000000	0.219317
295.000000	0.234969
296.000000	0.211231
297.000000	0.249335
298.000000	0.224557
299.000000	0.220888
300.000000	0.212835
301.000000	0.185831
302.000000	0.155268
303.000000	0.244480
304.000000	0.178773
305.000000	0.196109
306.000000	0.207089
307.000000	0.176847
308.000000	0.203959
309.000000	0.184837
310.000000	0.191053
311.000000	0.211616
312.000000	0.204466
313.000000	0.204933
314.000000	0.198157
315.000000	0.194392
316.000000	0.214607
317.000000	0.198923
318.000000	0.238937
319.000000	0.295704
320.000000	0.330723
321.000000	0.248337
322.000000	0.334357
323.000000	0.161079
324.000000	0.150280
325.000000	0.192541
326.000000	0.196184
327.000000	0.194215
328.000000	0.224994
329.000000	0.222748
330.000000	0.189074
331.000000	0.212425
332.000000	0.289901
333.000000	0.244183
334.000000	0.148417
335.000000	0.168697
336.000000	0.216233
337.000000	0.190397
338.000000	0.144727
339.000000	0.248499
340.000000	0.216340
341.000000	0.278819
342.000000	0.236374
343.000000	0.226770
344.000000	0.188542
345.000000	0.235062
346.000000	0.221382
347.000000	0.291159
348.000000	0.196508
349.000000	0.200511
350.000000	0.250640
351.000000	0.241150
352.000000	0.218824
353.000000	0.198324
354.000000	0.220300
355.000000	0.178211
356.000000	0.163694
357.000000	0.155596
358.000000	0.181836
359.000000	0.183070
360.000000	0.175191
361.000000	0.189172
362.000000	0.195283
363.000000	0.171362
364.000000	0.155880
365.000000	0.146031
366.000000	0.112332
367.000000	0.147250
368.000000	0.177743
369.000000	0.125920
370.000000	0.076236
371.000000	0.036303
372.000000	0.063649
373.000000	0.024493
374.000000	0.045915
375.000000	0.036712
376.000000	0.070187
377.000000	0.045223
378.000000	0.055540
379.000000	0.063308
380.000000	0.077017
381.000000	0.105273
382.000000	0.133344
383.000000	0.146732
384.000000	0.176171
385.000000	0.201030
386.000000	0.225031
387.000000	0.252891
388.000000	0.285477
389.000000	0.307466
390.000000	0.330667
391.000000	0.349703
392.000000	0.373909
393.000000	0.393739
394.000000	0.411639
395.000000	0.418029
396.000000	0.435355
397.000000	0.432899
398.000000	0.430745
399.000000	0.430767
400.000000	0.404762
401.000000	0.394655
402.000000	0.392629
403.000000	0.383716
404.000000	0.361294
405.000000	0.327832
406.000000	0.311289
407.000000	0.301316
408.000000	0.307709
409.000000	0.331876
410.000000	0.355427
411.000000	0.384135
412.000000	0.436358
413.000000	0.493926
414.000000	0.553701
415.000000	0.618016
416.000000	0.685877
417.000000	0.724271
418.000000	0.791357
419.000000	0.871870
420.000000	0.935451
421.000000	0.989922
422.000000	1.044457
423.000000	1.112754
424.000000	1.172674
425.000000	1.221956
426.000000	1.278936
427.000000	1.347274
428.000000	1.408050
429.000000	1.469124
430.000000	1.538976
431.000000	1.592293
432.000000	1.649408
433.000000	1.707847
434.000000	1.755510
435.000000	1.810604
436.000000	1.888251
437.000000	1.946546
438.000000	1.989051
439.000000	2.050164
440.000000	2.100142
441.000000	2.149087
442.000000	2.198637
443.000000	2.236110
444.000000	2.282921
445.000000	2.306669
446.000000	2.317448
447.000000	2.338891
448.000000	2.352762
449.000000	2.345189
450.000000	2.318856
451.000000	2.291473
452.000000	2.258686
453.000000	2.198452
454.000000	2.132087
455.000000	2.043724
456.000000	1.933304
457.000000	1.825412
458.000000	1.711738
459.000000	1.570875
460.000000	1.423979
461.000000	1.294258
462.000000	1.180237
463.000000	1.073053
464.000000	0.981648
465.000000	0.932854
466.000000	0.911235
467.000000	0.931800
468.000000	0.954029
469.000000	0.981926
470.000000	1.018872
471.000000	1.043384
472.000000	1.055863
473.000000	1.058233
474.000000	1.055794
475.000000	1.043972
476.000000	1.036512
477.000000	1.051049
478.000000	1.063854
479.000000	1.100090
480.000000	1.158894
481.000000	1.228570
482.000000	1.316690
483.000000	1.405890
484.000000	1.493788
485.000000	1.605353
486.000000	1.699769
487.000000	1.772397
488.000000	1.852971
489.000000	1.931030
490.000000	1.999950
491.000000	2.043812
492.000000	2.100698
493.000000	2.119918
494.000000	2.098327
495.000000	2.057871
496.000000	1.997446
497.000000	1.907706
498.000000	1.797760
499.000000	1.666688
500.000000	1.514552
501.000000	1.357898
502.000000	1.188884
503.000000	1.027552
504.000000	0.872745
505.000000	0.759715
506.000000	0.724798
507.000000	0.770902
508.000000	0.893353
509.000000	1.054329
510.000000	1.211761
511.000000	1.379799
512.000000	1.537720
513.000000	1.669031
514.000000	1.764972
515.000000	1.856546
516.000000	1.916852
517.000000	1.949072
518.000000	1.962445
519.000000	1.957268
520.000000	1.949227
521.000000	1.890811
522.000000	1.830887
523.000000	1.749894
524.000000	1.654025
525.000000	1.547397
526.000000	1.433076
527.000000	1.333097
528.000000	1.244353
529.000000	1.168621
530.000000	1.142033
531.000000	1.172467
532.000000	1.255038
533.000000	1.392693
534.000000	1.555053
535.000000	1.725913
536.000000	1.925404
537.000000	2.119169
538.000000	2.306189
539.000000	2.473978
540.000000	2.649359
541.000000	2.802197
542.000000	2.958545
543.000000	3.090947
544.000000	3.203688
545.000000	3.340333
546.000000	3.478452
547.000000	3.634552
548.000000	3.745001
549.000000	3.878394
550.000000	3.998561
551.000000	4.110982
552.000000	4.238726
553.000000	4.372643
554.000000	4.476398
555.000000	4.566273
556.000000	4.668138
557.000000	4.732640
558.000000	4.814718
559.000000	4.873506
560.000000	4.960158
561.000000	5.015632
562.000000	5.063527
563.000000	5.092278
564.000000	5.132698
565.000000	5.157002
566.000000	5.188878
567.000000	5.218955
568.000000	5.271207
569.000000	5.287736
570.000000	5.344958
571.000000	5.385664
572.000000	5.410652
573.000000	5.451667
574.000000	5.509557
575.000000	5.561816
576.000000	5.611137
577.000000	5.640922
578.000000	5.695162
579.000000	5.745261
580.000000	5.803118
581.000000	5.849657
582.000000	5.905845
583.000000	5.931057
584.000000	5.974482
585.000000	5.985544
586.000000	6.054843
587.000000	6.103003
588.000000	6.148912
589.000000	6.226950
590.000000	6.266331
591.000000	6.351761
592.000000	6.401825
593.000000	6.433883
594.000000	6.489730
595.000000	6.541124
596.000000	6.633500
597.000000	6.676175
598.000000	6.745273
599.000000	6.771152
600.000000	6.834175
601.000000	6.893607
602.000000	6.954831
603.000000	6.967263
604.000000	7.011377
605.000000	7.069087
606.000000	7.150030
607.000000	7.208127
608.000000	7.269358
609.000000	7.305781
610.000000	7.379355
611.000000	7.411054
612.000000	7.404472
613.000000	7.467520
614.000000	7.506195
615.000000	7.490983
616.000000	7.473790
617.000000	7.442830
618.000000	7.406698
619.000000	7.336641
620.000000	7.297660
621.000000	7.259990
622.000000	7.181719
623.000000	7.100251
624.000000	7.031149
625.000000	6.977191
626.000000	6.856563
627.000000	6.771720
628.000000	6.656800
629.000000	6.553277
630.000000	6.399396
631.000000	6.236362
632.000000	6.062509
633.000000	5.834497
634.000000	5.610514
635.000000	5.340087
636.000000	5.042195
637.000000	4.703317
638.000000	4.407570
639.000000	4.029389
640.000000	3.669519
641.000000	3.260605
642.000000	2.885123
643.000000	2.496631
644.000000	2.130705
645.000000	1.786383
646.000000	1.477166
647.000000	1.258874
648.000000	1.060246
649.000000	0.944338
650.000000	0.880990
651.000000	0.875633
652.000000	0.919549
653.000000	1.014557
654.000000	1.052446
655.000000	1.063335
656.000000	1.108095
657.000000	1.156537
658.000000	1.177765
659.000000	1.208452
660.000000	1.239520
661.000000	1.240084
662.000000	1.335876
663.000000	1.406947
664.000000	1.516593
665.000000	1.591869
666.000000	1.712654
667.000000	1.861906
668.000000	1.950311
669.000000	2.112508
670.000000	2.291381
671.000000	2.407680
672.000000	2.509051
673.000000	2.625201
674.000000	2.764758
675.000000	2.869854
676.000000	2.947523
677.000000	3.046159
678.000000	3.131145
679.000000	3.181775
680.000000	3.197584
681.000000	3.248844
682.000000	3.248660
683.000000	3.288679
684.000000	3.291490
685.000000	3.337489
686.000000	3.318162
687.000000	3.302673
688.000000	3.317961
689.000000	3.317142
690.000000	3.291590
691.000000	3.310200
692.000000	3.318691
693.000000	3.309213
694.000000	3.253142
695.000000	3.272092
696.000000	3.241905
697.000000	3.201146
698.000000	3.179619
699.000000	3.160744
700.000000	3.146918
701.000000	3.115134
702.000000	3.051965
703.000000	2.970073
704.000000	2.919937
705.000000	2.910405
706.000000	2.862160
707.000000	2.809019
708.000000	2.776310
709.000000	2.740740
710.000000	2.715862
711.000000	2.667220
712.000000	2.654803
713.000000	2.635921
714.000000	2.608208
715.000000	2.553103
716.000000	2.531424
717.000000	2.567856
718.000000	2.581911
719.000000	2.580025
720.000000	2.603673
721.000000	2.637668
722.000000	2.631609
723.000000	2.665896
724.000000	2.716050
725.000000	2.776902
726.000000	2.826970
727.000000	2.854169
728.000000	2.916100
729.000000	3.001483
730.000000	3.065203
731.000000	3.163690
732.000000	3.203925
733.000000	3.248426
734.000000	3.312579
735.000000	3.390364
736.000000	3.459035
737.000000	3.527583
738.000000	3.598766
739.000000	3.668881
740.000000	3.738543
741.000000	3.776621
742.000000	3.832549
743.000000	3.906253
744.000000	3.943080
745.000000	4.023733
746.000000	4.114028
747.000000	4.143498
748.000000	4.172364
749.000000	4.213205
750.000000	4.259195
751.000000	4.325986
752.000000	4.416982
753.000000	4.496308
754.000000	4.522842
755.000000	4.614105
756.000000	4.662994
757.000000	4.694228
758.000000	4.770154
759.000000	4.796685
760.000000	4.854534
761.000000	4.932225
762.000000	4.945887
763.000000	4.954343
764.000000	4.950194
765.000000	4.895866
766.000000	4.815976
767.000000	4.789326
768.000000	4.833784
769.000000	4.837129
770.000000	4.852423
771.000000	4.857485
772.000000	4.790759
773.000000	4.679390
774.000000	4.639392
775.000000	4.648969
776.000000	4.671232
777.000000	4.611126
778.000000	4.583919
779.000000	4.656274
780.000000	4.663075
781.000000	4.607914
782.000000	4.609329
783.000000	4.538208
784.000000	4.535500
785.000000	4.583554
786.000000	4.596867
787.000000	4.507652
788.000000	4.531763
789.000000	4.553497
790.000000	4.558717
791.000000	4.592353
792.000000	4.640258
793.000000	4.688799
794.000000	4.716381
795.000000	4.725997
796.000000	4.782997
797.000000	4.800813
798.000000	5.000534
799.000000	4.925024
800.000000	4.970258
801.000000	4.891003
802.000000	4.943015
803.000000	4.936214
804.000000	4.919636
805.000000	4.884389
806.000000	4.797223
807.000000	4.741283
808.000000	4.715825
809.000000	4.693936
810.000000	4.659265
811.000000	4.773816
812.000000	4.782498
813.000000	4.740523
814.000000	4.646096
815.000000	4.524353
816.000000	4.560817
817.000000	4.623218
818.000000	4.633651
819.000000	4.602174
820.000000	4.626242
821.000000	4.522506
822.000000	4.510360
823.000000	4.623049
824.000000	4.702998
825.000000	4.533988
826.000000	4.509435
827.000000	4.519678
828.000000	4.506487
829.000000	4.411671
830.000000	4.436923
831.000000	4.473490
832.000000	4.511317
833.000000	4.290235
834.000000	4.269851
835.000000	4.407932
836.000000	4.315898
837.000000	4.120334
838.000000	4.149074
839.000000	4.000487
840.000000	3.993342
841.000000	3.900432
842.000000	3.818090
843.000000	3.578532
844.000000	3.419359
845.000000	3.449293
846.000000	3.349172
847.000000	3.272874
848.000000	3.123805
849.000000	3.256385
850.000000	3.103155
851.000000	2.875028
852.000000	2.892858
853.000000	2.888593
854.000000	2.708220
855.000000	2.870240
856.000000	2.541346
857.000000	2.742383
858.000000	2.325619
859.000000	2.734316
860.000000	2.884100
861.000000	2.919487
862.000000	2.886597
863.000000	2.847010
864.000000	2.803339
865.000000	2.689969
866.000000	2.590116
867.000000	2.540106
868.000000	2.486892
869.000000	2.416172
870.000000	2.343856
871.000000	2.284718
872.000000	2.227238
873.000000	2.175933
874.000000	2.128244
875.000000	2.061517
876.000000	2.019368
877.000000	1.950162
878.000000	1.909183
879.000000	1.850456
880.000000	1.769782
881.000000	1.739518
882.000000	1.669311
883.000000	1.575340
884.000000	1.522294
885.000000	1.477678
886.000000	1.423211
887.000000	1.322889
888.000000	1.250520
889.000000	1.194245
890.000000	1.146769
891.000000	1.110366
892.000000	1.040810
893.000000	0.949313
894.000000	0.895930
895.000000	0.829362
896.000000	0.744046
897.000000	0.703613
898.000000	0.627510
899.000000	0.543505
900.000000	0.463362
901.000000	0.371308
902.000000	0.358084
903.000000	0.294521
904.000000	0.235758
905.000000	0.181763
906.000000	0.120468
907.000000	0.064648
908.000000	0.054036
909.000000	0.026733
910.000000	0.030285
911.000000	0.065569
912.000000	0.115907
913.000000	0.140755
914.000000	0.130894
915.000000	0.154434
916.000000	0.166271
917.000000	0.193996
918.000000	0.201026
919.000000	0.234301
920.000000	0.259140
921.000000	0.275443
922.000000	0.321416
923.000000	0.329511
924.000000	0.351485
925.000000	0.375431
926.000000	0.396803
927.000000	0.412826
928.000000	0.432430
929.000000	0.450969
930.000000	0.465180
931.000000	0.488188
932.000000	0.508296
933.000000	0.528856
934.000000	0.566381
935.000000	0.585803
936.000000	0.594337
937.000000	0.619327
938.000000	0.651508
939.000000	0.665969
940.000000	0.705369
941.000000	0.723762
942.000000	0.769478
943.000000	0.792258
944.000000	0.815957
945.000000	0.846094
946.000000	0.862315
947.000000	0.880423
948.000000	0.920853
949.000000	0.949743
950.000000	0.983280
951.000000	1.020091
952.000000	1.057569
953.000000	1.075096
954.000000	1.104878
955.000000	1.137835
956.000000	1.179156
957.000000	1.232519
958.000000	1.284509
959.000000	1.325090
960.000000	1.361219
961.000000	1.423262
962.000000	1.472514
963.000000	1.507291
964.000000	1.545417
965.000000	1.580846
966.000000	1.610616
967.000000	1.642306
968.000000	1.671395
969.000000	1.709178
970.000000	1.744613
971.000000	1.765370
972.000000	1.791750
973.000000	1.823021
974.000000	1.835797
975.000000	1.858379
976.000000	1.884038
977.000000	1.909443
978.000000	1.936076
979.000000	1.961959
980.000000	1.984909
981.000000	2.003075
982.000000	2.032492
983.000000	2.051485
984.000000	2.063528
985.000000	2.092634
986.000000	2.125481
987.000000	2.150336
988.000000	2.175698
989.000000	2.200083
990.000000	2.220099
991.000000	2.250846
992.000000	2.275444
993.000000	2.296362
994.000000	2.321124
995.000000	2.350075
996.000000	2.382014
997.000000	2.410891
998.000000	2.433618
999.000000	2.454218
1000.000000	2.489859
1001.000000	2.511426
1002.000000	2.540903
1003.000000	2.575570
1004.000000	2.599882
1005.000000	2.629405
1006.000000	2.661102
1007.000000	2.706494
1008.000000	2.741951
1009.000000	2.774639
1010.000000	2.808687
1011.000000	2.846199
1012.000000	2.884664
1013.000000	2.897965
1014.000000	2.928911
1015.000000	2.952757
1016.000000	2.969084
1017.000000	2.991135
1018.000000	2.997659
1019.000000	3.014241
1020.000000	3.027455
1021.000000	3.034403
1022.000000	3.055767
1023.000000	3.073861
1024.000000	3.084575
1025.000000	3.097764
1026.000000	3.112617
1027.000000	3.117236
1028.000000	3.132619
1029.000000	3.157743
1030.000000	3.162615
1031.000000	3.172214
1032.000000	3.195174
1033.000000	3.215114
1034.000000	3.228059
1035.000000	3.246026
1036.000000	3.264374
1037.000000	3.284060
1038.000000	3.303660
1039.000000	3.325631
1040.000000	3.340110
1041.000000	3.357235
1042.000000	3.377539
1043.000000	3.391482
1044.000000	3.403147
1045.000000	3.409645
1046.000000	3.419399
1047.000000	3.426120
1048.000000	3.427790
1049.000000	3.425317
1050.000000	3.426306
1051.000000	3.430908
1052.000000	3.438482
1053.000000	3.435998
1054.000000	3.427920
1055.000000	3.431855
1056.000000	3.431275
1057.000000	3.427608
1058.000000	3.418728
1059.000000	3.414696
1060.000000	3.414222
1061.000000	3.406998
1062.000000	3.397207
1063.000000	3.383580
1064.000000	3.382835
1065.000000	3.384234
1066.000000	3.378362
1067.000000	3.378214
1068.000000	3.377745
1069.000000	3.366740
1070.000000	3.366434
1071.000000	3.366197
1072.000000	3.371042
1073.000000	3.373885
1074.000000	3.374979
1075.000000	3.371615
1076.000000	3.371718
1077.000000	3.371358
1078.000000	3.366991
1079.000000	3.379708
1080.000000	3.372651
1081.000000	3.373927
1082.000000	3.378649
1083.000000	3.387268
1084.000000	3.377279
1085.000000	3.372262
1086.000000	3.367373
1087.000000	3.381533
1088.000000	3.380159
1089.000000	3.378494
1090.000000	3.379361
1091.000000	3.383144
1092.000000	3.383870
1093.000000	3.399330
1094.000000	3.403779
1095.000000	3.395229
1096.000000	3.400921
1097.000000	3.421628
1098.000000	3.429591
1099.000000	3.438267
1100.000000	3.441293
1101.000000	3.451235
1102.000000	3.473135
1103.000000	3.471532
1104.000000	3.482134
1105.000000	3.498387
1106.000000	3.515496
1107.000000	3.530018
1108.000000	3.547499
1109.000000	3.568143
1110.000000	3.564822
1111.000000	3.577166
1112.000000	3.598967
1113.000000	3.593329
1114.000000	3.596825
1115.000000	3.615495
1116.000000	3.634828
1117.000000	3.648187
1118.000000	3.663906
1119.000000	3.673417
1120.000000	3.693585
1121.000000	3.720324
1122.000000	3.748867
1123.000000	3.771894
1124.000000	3.792878
1125.000000	3.816959
1126.000000	3.863770
1127.000000	3.890087
1128.000000	3.934165
1129.000000	3.988720
1130.000000	4.065749
1131.000000	4.155425
1132.000000	4.240776
1133.000000	4.342146
1134.000000	4.450180
1135.000000	4.598536
1136.000000	4.744524
1137.000000	4.905686
1138.000000	5.051121
1139.000000	5.210963
1140.000000	5.369153
1141.000000	5.521974
1142.000000	5.668382
1143.000000	5.823469
1144.000000	5.983171
1145.000000	6.108855
1146.000000	6.182336
1147.000000	6.242441
1148.000000	6.250889
1149.000000	6.234066
1150.000000	6.199281
1151.000000	6.169553
1152.000000	6.158271
1153.000000	6.147953
1154.000000	6.156549
1155.000000	6.195709
1156.000000	6.254301
1157.000000	6.361639
1158.000000	6.470681
1159.000000	6.625227
1160.000000	6.762425
1161.000000	6.914561
1162.000000	7.061521
1163.000000	7.231821
1164.000000	7.373524
1165.000000	7.563201
1166.000000	7.746944
1167.000000	7.909082
1168.000000	8.078379
1169.000000	8.238339
1170.000000	8.405959
1171.000000	8.580452
1172.000000	8.762749
1173.000000	8.921685
1174.000000	9.094187
1175.000000	9.262814
1176.000000	9.439251
1177.000000	9.603760
1178.000000	9.800618
1179.000000	10.040020
1180.000000	10.312496
1181.000000	10.601850
1182.000000	10.909321
1183.000000	11.199662
1184.000000	11.428077
1185.000000	11.582506
1186.000000	11.663929
1187.000000	11.678020
1188.000000	11.607910
1189.000000	11.472836
1190.000000	11.277437
1191.000000	11.039159
1192.000000	10.778485
1193.000000	10.540280
1194.000000	10.342616
1195.000000	10.193387
1196.000000	10.073363
1197.000000	9.990953
1198.000000	9.941048
1199.000000	9.909890
1200.000000	9.895920
1201.000000	9.901891
1202.000000	9.908771
