PE UV       SUBTECH     SPECTRUM    ASCII       PEDS        4.00        
   -1
CICIMAUCR0008-5.Sample.ASC
24/04/25
10:02:58.00
24/04/25
10:02:58.00
Vinicio Soto Monge
C. kalinini
250,000000
1
Lambda 1050
1050L1511233
PerkinElmer UV WinLab 6.3.2.0749 / 2.02.05 Lambda 900 UV/VIS/NIR, Aug  7 2015 09:38:08

0
0
3350/servo 860,8/2
0
0
UV/VIS
1
1
1
DoubleDePol,CommonBeamDepol,RBeamAtt,SBeamAtt,60mm sphere, WB InGaAs Detector
0
0
0
0
Program
Program
3350/servo 860,8/2
3350/0,2 860,8/0,2
3350/0,2 860,8/0,2
0
15.00
 
 
 
0
 
860,8
319,2
860,8
Front
100
on
S:100 R:100
0
0
0
0
 
0
 
 
 
0
 
 
0
0
0
0
0
 
 
 
 
0
0


0
0
#HDR
-1
-1
#GR
nm
%R
1.0
0.0
2500,000000
-1,000000
2251
8
95,184700
4,916500
#DATA
250.000000	1.001033
251.000000	0.934238
252.000000	0.932398
253.000000	0.937461
254.000000	0.937764
255.000000	0.930344
256.000000	0.953550
257.000000	0.947254
258.000000	0.896679
259.000000	0.922271
260.000000	0.908740
261.000000	0.935725
262.000000	0.919366
263.000000	0.935277
264.000000	0.900125
265.000000	0.907919
266.000000	0.887744
267.000000	0.917216
268.000000	0.878319
269.000000	0.899384
270.000000	0.866298
271.000000	0.891726
272.000000	0.868916
273.000000	0.868055
274.000000	0.829584
275.000000	0.839238
276.000000	0.860949
277.000000	0.827877
278.000000	0.826766
279.000000	0.878356
280.000000	0.837530
281.000000	0.831000
282.000000	0.806714
283.000000	0.849933
284.000000	0.839009
285.000000	0.793447
286.000000	0.813553
287.000000	0.822555
288.000000	0.810492
289.000000	0.844486
290.000000	0.793199
291.000000	0.807124
292.000000	0.811805
293.000000	0.847085
294.000000	0.792467
295.000000	0.795967
296.000000	0.798397
297.000000	0.794620
298.000000	0.789789
299.000000	0.778700
300.000000	0.784548
301.000000	0.797450
302.000000	0.790173
303.000000	0.760855
304.000000	0.804506
305.000000	0.799775
306.000000	0.796852
307.000000	0.808681
308.000000	0.790830
309.000000	0.772932
310.000000	0.769053
311.000000	0.778508
312.000000	0.769752
313.000000	0.784795
314.000000	0.758511
315.000000	0.767534
316.000000	0.821861
317.000000	1.269829
318.000000	1.109861
319.000000	1.074241
320.000000	0.989600
321.000000	1.017334
322.000000	1.002229
323.000000	1.003728
324.000000	1.053225
325.000000	0.978047
326.000000	0.923985
327.000000	0.953832
328.000000	0.864066
329.000000	0.941581
330.000000	0.884332
331.000000	0.887502
332.000000	0.889146
333.000000	0.915457
334.000000	0.851358
335.000000	0.760887
336.000000	0.792616
337.000000	0.815844
338.000000	0.843687
339.000000	0.759886
340.000000	0.834667
341.000000	0.810081
342.000000	0.705570
343.000000	0.777523
344.000000	0.752694
345.000000	0.800943
346.000000	0.806443
347.000000	0.781171
348.000000	0.760396
349.000000	0.723793
350.000000	0.698034
351.000000	0.813005
352.000000	0.699336
353.000000	0.728317
354.000000	0.742145
355.000000	0.760035
356.000000	0.731588
357.000000	0.675060
358.000000	0.725090
359.000000	0.725510
360.000000	0.701272
361.000000	0.701727
362.000000	0.713710
363.000000	0.681802
364.000000	0.623849
365.000000	0.602997
366.000000	0.566405
367.000000	0.549133
368.000000	0.544078
369.000000	0.502550
370.000000	0.422379
371.000000	0.415750
372.000000	0.437921
373.000000	0.408191
374.000000	0.429538
375.000000	0.538390
376.000000	0.668017
377.000000	0.650209
378.000000	0.646475
379.000000	0.645205
380.000000	0.661125
381.000000	0.677415
382.000000	0.698129
383.000000	0.708998
384.000000	0.726159
385.000000	0.774800
386.000000	0.821038
387.000000	0.841987
388.000000	0.873643
389.000000	0.915252
390.000000	0.968221
391.000000	0.991731
392.000000	1.042224
393.000000	1.101080
394.000000	1.144904
395.000000	1.195068
396.000000	1.238001
397.000000	1.288971
398.000000	1.332311
399.000000	1.375606
400.000000	1.420939
401.000000	1.475635
402.000000	1.522289
403.000000	1.564142
404.000000	1.612279
405.000000	1.680866
406.000000	1.745104
407.000000	1.814077
408.000000	1.881045
409.000000	1.939312
410.000000	2.029950
411.000000	2.127152
412.000000	2.223901
413.000000	2.327349
414.000000	2.453602
415.000000	2.591714
416.000000	2.705794
417.000000	2.835839
418.000000	2.982550
419.000000	3.133802
420.000000	3.264998
421.000000	3.410344
422.000000	3.571064
423.000000	3.711867
424.000000	3.845305
425.000000	3.979483
426.000000	4.111965
427.000000	4.252304
428.000000	4.380489
429.000000	4.517334
430.000000	4.654439
431.000000	4.757765
432.000000	4.848840
433.000000	4.952822
434.000000	5.054024
435.000000	5.146652
436.000000	5.236078
437.000000	5.305134
438.000000	5.377185
439.000000	5.448293
440.000000	5.507692
441.000000	5.563552
442.000000	5.611573
443.000000	5.657910
444.000000	5.714222
445.000000	5.767013
446.000000	5.804119
447.000000	5.825727
448.000000	5.827461
449.000000	5.824270
450.000000	5.812578
451.000000	5.804281
452.000000	5.790880
453.000000	5.755711
454.000000	5.714937
455.000000	5.658921
456.000000	5.600861
457.000000	5.530756
458.000000	5.462160
459.000000	5.390754
460.000000	5.306404
461.000000	5.212334
462.000000	5.114519
463.000000	5.034735
464.000000	4.947656
465.000000	4.846144
466.000000	4.762672
467.000000	4.690563
468.000000	4.616340
469.000000	4.554391
470.000000	4.505847
471.000000	4.463519
472.000000	4.432613
473.000000	4.411689
474.000000	4.395426
475.000000	4.381488
476.000000	4.381025
477.000000	4.386975
478.000000	4.416483
479.000000	4.439737
480.000000	4.446303
481.000000	4.452750
482.000000	4.453034
483.000000	4.458530
484.000000	4.492177
485.000000	4.517287
486.000000	4.552611
487.000000	4.599512
488.000000	4.640160
489.000000	4.685109
490.000000	4.712119
491.000000	4.745316
492.000000	4.799832
493.000000	4.842658
494.000000	4.869125
495.000000	4.899544
496.000000	4.940837
497.000000	4.976767
498.000000	5.018126
499.000000	5.051202
500.000000	5.118512
501.000000	5.170506
502.000000	5.236317
503.000000	5.301560
504.000000	5.371424
505.000000	5.462886
506.000000	5.561681
507.000000	5.662284
508.000000	5.784379
509.000000	5.907651
510.000000	6.064275
511.000000	6.222835
512.000000	6.394354
513.000000	6.556157
514.000000	6.741262
515.000000	6.928886
516.000000	7.140856
517.000000	7.373455
518.000000	7.590276
519.000000	7.825217
520.000000	8.077172
521.000000	8.324830
522.000000	8.610628
523.000000	8.885829
524.000000	9.147318
525.000000	9.429620
526.000000	9.723027
527.000000	10.020130
528.000000	10.311454
529.000000	10.612496
530.000000	10.909540
531.000000	11.209982
532.000000	11.511359
533.000000	11.808062
534.000000	12.105927
535.000000	12.410460
536.000000	12.715029
537.000000	13.005658
538.000000	13.261932
539.000000	13.527360
540.000000	13.789567
541.000000	14.038476
542.000000	14.293052
543.000000	14.523739
544.000000	14.758985
545.000000	15.002329
546.000000	15.235110
547.000000	15.449044
548.000000	15.653058
549.000000	15.888132
550.000000	16.080292
551.000000	16.275866
552.000000	16.468973
553.000000	16.679417
554.000000	16.881151
555.000000	17.058791
556.000000	17.257372
557.000000	17.409627
558.000000	17.608532
559.000000	17.751858
560.000000	18.182788
561.000000	18.346703
562.000000	18.451778
563.000000	18.574043
564.000000	18.661378
565.000000	18.739780
566.000000	18.829556
567.000000	18.916898
568.000000	19.009521
569.000000	19.075171
570.000000	19.138952
571.000000	19.217316
572.000000	19.301694
573.000000	19.366440
574.000000	19.427163
575.000000	19.448222
576.000000	19.495377
577.000000	19.483303
578.000000	19.510554
579.000000	19.541140
580.000000	19.514837
581.000000	19.549517
582.000000	19.549024
583.000000	19.526437
584.000000	19.507002
585.000000	19.460470
586.000000	19.379771
587.000000	19.290587
588.000000	19.168506
589.000000	19.021627
590.000000	18.899562
591.000000	18.748357
592.000000	18.624076
593.000000	18.450041
594.000000	18.294470
595.000000	18.152119
596.000000	18.021868
597.000000	17.840286
598.000000	17.654524
599.000000	17.432331
600.000000	17.200784
601.000000	16.978844
602.000000	16.725726
603.000000	16.466089
604.000000	16.216972
605.000000	15.955878
606.000000	15.700330
607.000000	15.467203
608.000000	15.218852
609.000000	14.940657
610.000000	14.687362
611.000000	14.439212
612.000000	14.183981
613.000000	13.908913
614.000000	13.685649
615.000000	13.396031
616.000000	13.150261
617.000000	12.929531
618.000000	12.712071
619.000000	12.452385
620.000000	12.220416
621.000000	12.028585
622.000000	11.840645
623.000000	11.652572
624.000000	11.503059
625.000000	11.362400
626.000000	11.243874
627.000000	11.147167
628.000000	11.081253
629.000000	11.032186
630.000000	10.995274
631.000000	11.021046
632.000000	11.019370
633.000000	11.037905
634.000000	11.075709
635.000000	11.129546
636.000000	11.214107
637.000000	11.275574
638.000000	11.349989
639.000000	11.448997
640.000000	11.545998
641.000000	11.654570
642.000000	11.787759
643.000000	11.870755
644.000000	11.987523
645.000000	12.078769
646.000000	12.186009
647.000000	12.275205
648.000000	12.385427
649.000000	12.499379
650.000000	12.623729
651.000000	12.716055
652.000000	12.793560
653.000000	12.899018
654.000000	12.916296
655.000000	12.963907
656.000000	12.994022
657.000000	13.032970
658.000000	13.074100
659.000000	13.097316
660.000000	13.132594
661.000000	13.133670
662.000000	13.125530
663.000000	13.134265
664.000000	13.151583
665.000000	13.121375
666.000000	13.121657
667.000000	13.144532
668.000000	13.219428
669.000000	13.301409
670.000000	13.380674
671.000000	13.476740
672.000000	13.576624
673.000000	13.714840
674.000000	13.851849
675.000000	14.034082
676.000000	14.216154
677.000000	14.375086
678.000000	14.543836
679.000000	14.737779
680.000000	14.976385
681.000000	15.187024
682.000000	15.392795
683.000000	15.638012
684.000000	15.852082
685.000000	16.055917
686.000000	16.281536
687.000000	16.533458
688.000000	16.774456
689.000000	16.959643
690.000000	17.136683
691.000000	17.275104
692.000000	17.401437
693.000000	17.533902
694.000000	17.614284
695.000000	17.721091
696.000000	17.829513
697.000000	17.946725
698.000000	18.060324
699.000000	18.056139
700.000000	18.076912
701.000000	18.120113
702.000000	18.154221
703.000000	18.213394
704.000000	18.239363
705.000000	18.267991
706.000000	18.310362
707.000000	18.271943
708.000000	18.251982
709.000000	18.275677
710.000000	18.283191
711.000000	18.307810
712.000000	18.334546
713.000000	18.393593
714.000000	18.402223
715.000000	18.409702
716.000000	18.472580
717.000000	18.504703
718.000000	18.525221
719.000000	18.525433
720.000000	18.586154
721.000000	18.649031
722.000000	18.700565
723.000000	18.760767
724.000000	18.831394
725.000000	18.872823
726.000000	18.914042
727.000000	18.946503
728.000000	18.970455
729.000000	19.045337
730.000000	19.105988
731.000000	19.097827
732.000000	19.173401
733.000000	19.225733
734.000000	19.286684
735.000000	19.355420
736.000000	19.405062
737.000000	19.494465
738.000000	19.556329
739.000000	19.579822
740.000000	19.662399
741.000000	19.753114
742.000000	19.792171
743.000000	19.867202
744.000000	19.922251
745.000000	19.993973
746.000000	20.104543
747.000000	20.177768
748.000000	20.221836
749.000000	20.264537
750.000000	20.313498
751.000000	20.381741
752.000000	20.471880
753.000000	20.526443
754.000000	20.547096
755.000000	20.617398
756.000000	20.665663
757.000000	20.681675
758.000000	20.770881
759.000000	20.827342
760.000000	20.800550
761.000000	20.835523
762.000000	20.884808
763.000000	20.887190
764.000000	20.935932
765.000000	20.986268
766.000000	20.967811
767.000000	20.980010
768.000000	20.973764
769.000000	20.989665
770.000000	20.947044
771.000000	20.904852
772.000000	20.892442
773.000000	20.892824
774.000000	20.851898
775.000000	20.812231
776.000000	20.787407
777.000000	20.746580
778.000000	20.661475
779.000000	20.601337
780.000000	20.552903
781.000000	20.437019
782.000000	20.294089
783.000000	20.221885
784.000000	20.150676
785.000000	19.988190
786.000000	19.870012
787.000000	19.718062
788.000000	19.589334
789.000000	19.520176
790.000000	19.378293
791.000000	19.153630
792.000000	19.003789
793.000000	18.889696
794.000000	18.667865
795.000000	18.523048
796.000000	18.367834
797.000000	18.155647
798.000000	18.028265
799.000000	17.813190
800.000000	17.643119
801.000000	17.496201
802.000000	17.240160
803.000000	17.078935
804.000000	16.924429
805.000000	16.744164
806.000000	16.572396
807.000000	16.459590
808.000000	16.238652
809.000000	16.070749
810.000000	15.898674
811.000000	15.743786
812.000000	15.561717
813.000000	15.377237
814.000000	15.262836
815.000000	15.088532
816.000000	14.948415
817.000000	14.864256
818.000000	14.729419
819.000000	14.507280
820.000000	14.461870
821.000000	14.354318
822.000000	14.295244
823.000000	14.232071
824.000000	14.197832
825.000000	14.132942
826.000000	13.939494
827.000000	13.909724
828.000000	13.873146
829.000000	13.881510
830.000000	13.803835
831.000000	13.859616
832.000000	13.782615
833.000000	13.820592
834.000000	13.763599
835.000000	13.788953
836.000000	13.825634
837.000000	13.859849
838.000000	13.698417
839.000000	13.700569
840.000000	13.630272
841.000000	13.804435
842.000000	13.929575
843.000000	14.025006
844.000000	13.829495
845.000000	13.780952
846.000000	14.017786
847.000000	13.927555
848.000000	13.945440
849.000000	14.169120
850.000000	14.035421
851.000000	14.016595
852.000000	13.880889
853.000000	14.048988
854.000000	13.784708
855.000000	13.706209
856.000000	13.960176
857.000000	13.951464
858.000000	13.870950
859.000000	12.704790
860.000000	12.739149
861.000000	12.765559
862.000000	12.798770
863.000000	12.847957
864.000000	12.885024
865.000000	12.882101
866.000000	12.901825
867.000000	12.929181
868.000000	13.040643
869.000000	13.293343
870.000000	13.623764
871.000000	13.906170
872.000000	14.188108
873.000000	14.492231
874.000000	14.733175
875.000000	14.909263
876.000000	15.088397
877.000000	15.265109
878.000000	15.443348
879.000000	15.570435
880.000000	15.761019
881.000000	15.892454
882.000000	16.025812
883.000000	16.136636
884.000000	16.257221
885.000000	16.355459
886.000000	16.454918
887.000000	16.541883
888.000000	16.650963
889.000000	16.702246
890.000000	16.807381
891.000000	16.870687
892.000000	16.918477
893.000000	16.979989
894.000000	17.002963
895.000000	17.057465
896.000000	17.076567
897.000000	17.101358
898.000000	17.133810
899.000000	17.128685
900.000000	17.127838
901.000000	17.132902
902.000000	17.125719
903.000000	17.124437
904.000000	17.108420
905.000000	17.097820
906.000000	17.079419
907.000000	17.051257
908.000000	17.005994
909.000000	16.965080
910.000000	16.917690
911.000000	16.851563
912.000000	16.827428
913.000000	16.785363
914.000000	16.739494
915.000000	16.666888
916.000000	16.598313
917.000000	16.548924
918.000000	16.471899
919.000000	16.410746
920.000000	16.360501
921.000000	16.303953
922.000000	16.247017
923.000000	16.140985
924.000000	16.085549
925.000000	16.029019
926.000000	15.958476
927.000000	15.904113
928.000000	15.803356
929.000000	15.719785
930.000000	15.648112
931.000000	15.589840
932.000000	15.515080
933.000000	15.426587
934.000000	15.362035
935.000000	15.285470
936.000000	15.208105
937.000000	15.132288
938.000000	15.063778
939.000000	14.994731
940.000000	14.922980
941.000000	14.837358
942.000000	14.749332
943.000000	14.702382
944.000000	14.608810
945.000000	14.502869
946.000000	14.375411
947.000000	14.278770
948.000000	14.207005
949.000000	14.128068
950.000000	14.050648
951.000000	13.976889
952.000000	13.903764
953.000000	13.835050
954.000000	13.761078
955.000000	13.686929
956.000000	13.612967
957.000000	13.557595
958.000000	13.474072
959.000000	13.420298
960.000000	13.360474
961.000000	13.307132
962.000000	13.240332
963.000000	13.153845
964.000000	13.085788
965.000000	13.014639
966.000000	12.967530
967.000000	12.913663
968.000000	12.853284
969.000000	12.785028
970.000000	12.736776
971.000000	12.681254
972.000000	12.630169
973.000000	12.585332
974.000000	12.561163
975.000000	12.496839
976.000000	12.445247
977.000000	12.394139
978.000000	12.357749
979.000000	12.311580
980.000000	12.271142
981.000000	12.242106
982.000000	12.207309
983.000000	12.160361
984.000000	12.125905
985.000000	12.079171
986.000000	12.030961
987.000000	11.994465
988.000000	11.968481
989.000000	11.935929
990.000000	11.902988
991.000000	11.870326
992.000000	11.849099
993.000000	11.812656
994.000000	11.772817
995.000000	11.744465
996.000000	11.717559
997.000000	11.693640
998.000000	11.680644
999.000000	11.659603
1000.000000	11.626888
1001.000000	11.603998
1002.000000	11.580936
1003.000000	11.560735
1004.000000	11.530845
1005.000000	11.513964
1006.000000	11.505450
1007.000000	11.473883
1008.000000	11.455005
1009.000000	11.433471
1010.000000	11.410952
1011.000000	11.385721
1012.000000	11.351863
1013.000000	11.334182
1014.000000	11.326381
1015.000000	11.306507
1016.000000	11.286007
1017.000000	11.274046
1018.000000	11.253923
1019.000000	11.234124
1020.000000	11.221179
1021.000000	11.211925
1022.000000	11.205246
1023.000000	11.181181
1024.000000	11.163128
1025.000000	11.168971
1026.000000	11.158961
1027.000000	11.145736
1028.000000	11.140362
1029.000000	11.135355
1030.000000	11.131549
1031.000000	11.126585
1032.000000	11.121621
1033.000000	11.106385
1034.000000	11.094589
1035.000000	11.089704
1036.000000	11.097958
1037.000000	11.093503
1038.000000	11.084485
1039.000000	11.081703
1040.000000	11.081395
1041.000000	11.083326
1042.000000	11.079114
1043.000000	11.067583
1044.000000	11.074963
1045.000000	11.074720
1046.000000	11.062907
1047.000000	11.065969
1048.000000	11.070290
1049.000000	11.069337
1050.000000	11.054541
1051.000000	11.058422
1052.000000	11.052261
1053.000000	11.042841
1054.000000	11.041323
1055.000000	11.040557
1056.000000	11.038009
1057.000000	11.035692
1058.000000	11.033668
1059.000000	11.031180
1060.000000	11.026134
1061.000000	11.028016
1062.000000	11.037068
1063.000000	11.027259
1064.000000	11.035548
1065.000000	11.034940
1066.000000	11.028018
1067.000000	11.027629
1068.000000	11.020889
1069.000000	11.020683
1070.000000	11.005646
1071.000000	10.989902
1072.000000	10.992233
1073.000000	10.996298
1074.000000	10.996700
1075.000000	11.004074
1076.000000	11.000020
1077.000000	10.987973
1078.000000	10.987209
1079.000000	11.002810
1080.000000	11.000401
1081.000000	10.990785
1082.000000	11.003787
1083.000000	11.014579
1084.000000	11.019856
1085.000000	11.029997
1086.000000	11.023470
1087.000000	11.023798
1088.000000	11.033779
1089.000000	11.049918
1090.000000	11.056805
1091.000000	11.058263
1092.000000	11.065767
1093.000000	11.082728
1094.000000	11.080971
1095.000000	11.075975
1096.000000	11.081677
1097.000000	11.102492
1098.000000	11.108346
1099.000000	11.120746
1100.000000	11.120220
1101.000000	11.123482
1102.000000	11.117812
1103.000000	11.123986
1104.000000	11.128560
1105.000000	11.124461
1106.000000	11.130164
1107.000000	11.131971
1108.000000	11.133563
1109.000000	11.128809
1110.000000	11.121440
1111.000000	11.115951
1112.000000	11.114056
1113.000000	11.106996
1114.000000	11.086601
1115.000000	11.092120
1116.000000	11.085725
1117.000000	11.072789
1118.000000	11.063473
1119.000000	11.054345
1120.000000	11.057690
1121.000000	11.050873
1122.000000	11.042526
1123.000000	11.042223
1124.000000	11.009112
1125.000000	10.988726
1126.000000	10.965082
1127.000000	10.971385
1128.000000	10.952470
1129.000000	10.934871
1130.000000	10.943047
1131.000000	10.918751
1132.000000	10.903584
1133.000000	10.870784
1134.000000	10.825775
1135.000000	10.855248
1136.000000	10.822327
1137.000000	10.795416
1138.000000	10.723594
1139.000000	10.671435
1140.000000	10.622655
1141.000000	10.589417
1142.000000	10.549926
1143.000000	10.525509
1144.000000	10.466648
1145.000000	10.429064
1146.000000	10.369701
1147.000000	10.310254
1148.000000	10.266168
1149.000000	10.225812
1150.000000	10.234086
1151.000000	10.237482
1152.000000	10.238310
1153.000000	10.268552
1154.000000	10.282358
1155.000000	10.320101
1156.000000	10.319663
1157.000000	10.345996
1158.000000	10.366575
1159.000000	10.364200
1160.000000	10.351070
1161.000000	10.315571
1162.000000	10.289636
1163.000000	10.257990
1164.000000	10.224484
1165.000000	10.175734
1166.000000	10.134472
1167.000000	10.100857
1168.000000	10.053152
1169.000000	10.011554
1170.000000	9.969164
1171.000000	9.919351
1172.000000	9.896095
1173.000000	9.812711
