PE UV       SUBTECH     SPECTRUM    ASCII       PEDS        4.00        
   -1
CICIMAUCR0014-1.Sample.ASC
24/04/12
10:26:09.00
24/04/12
10:26:09.00
Vinicio Soto Monge
C. cupreomarginata
250,000000
1
Lambda 1050
1050L1511233
PerkinElmer UV WinLab 6.3.2.0749 / 2.02.05 Lambda 900 UV/VIS/NIR, Aug  7 2015 09:38:08

0
0
3350/servo 860,8/2
0
0
UV/VIS
1
1
1
DoubleDePol,CommonBeamDepol,RBeamAtt,SBeamAtt,60mm sphere, WB InGaAs Detector
0
0
0
0
Program
Program
3350/servo 860,8/2
3350/0,2 860,8/0,2
3350/0,2 860,8/0,2
0
15.00
 
 
 
0
 
860,8
319,2
860,8
Front
100
on
S:100 R:100
0
0
0
0
 
0
 
 
 
0
 
 
0
0
0
0
0
 
 
 
 
0
0


0
0
#HDR
-1
-1
#GR
nm
%R
1.0
0.0
2500,000000
-1,000000
2251
8
75,639400
5,339800
#DATA
2482.000000	13.449611
2481.000000	13.409882
2480.000000	13.407270
2479.000000	13.421420
2478.000000	13.439379
2477.000000	13.428712
2476.000000	13.433066
2475.000000	13.426644
2474.000000	13.430127
2473.000000	13.473013
2472.000000	13.450591
2471.000000	13.462673
2470.000000	13.481830
2469.000000	13.516226
2468.000000	13.508062
2467.000000	13.545614
2466.000000	13.572173
2465.000000	13.603848
2464.000000	13.670898
2463.000000	13.721294
2462.000000	13.737621
2461.000000	13.814250
2460.000000	13.838958
2459.000000	13.931261
2458.000000	14.008216
2457.000000	14.091048
2456.000000	14.190099
2455.000000	14.284144
2454.000000	14.395821
2453.000000	14.494763
2452.000000	14.596644
2451.000000	14.737602
2450.000000	14.863429
2449.000000	14.972494
2448.000000	15.090267
2447.000000	15.200420
2446.000000	15.311227
2445.000000	15.423340
2444.000000	15.537629
2443.000000	15.647130
2442.000000	15.769910
2441.000000	15.875927
2440.000000	15.964311
2439.000000	16.065212
2438.000000	16.162413
2437.000000	16.267451
2436.000000	16.368352
2435.000000	16.451076
2434.000000	16.547188
2433.000000	16.649396
2432.000000	16.722106
2431.000000	16.803524
2430.000000	16.892452
2429.000000	16.943937
2428.000000	16.967774
2427.000000	16.960808
2426.000000	16.999884
2425.000000	17.023831
2424.000000	17.052893
2423.000000	17.107970
2422.000000	17.163155
2421.000000	17.201796
2420.000000	17.228464
2419.000000	17.273418
2418.000000	17.331978
2417.000000	17.378347
2416.000000	17.417640
2415.000000	17.465316
2414.000000	17.505916
2413.000000	17.530733
2412.000000	17.582000
2411.000000	17.624559
2410.000000	17.660805
2409.000000	17.703691
2408.000000	17.750713
2407.000000	17.776945
2406.000000	17.825491
2405.000000	17.869901
2404.000000	17.892868
2403.000000	17.941740
2402.000000	17.984408
2401.000000	18.022723
2400.000000	18.066262
2399.000000	18.117311
2398.000000	18.158238
2397.000000	18.194919
2396.000000	18.236608
2395.000000	18.265997
2394.000000	18.304202
2393.000000	18.349374
2392.000000	18.372449
2391.000000	18.406192
2390.000000	18.442003
2389.000000	18.456697
2388.000000	18.480208
2387.000000	18.497406
2386.000000	18.505243
2385.000000	18.497188
2384.000000	18.486195
2383.000000	18.500671
2382.000000	18.490222
2381.000000	18.483909
2380.000000	18.468561
2379.000000	18.441785
2378.000000	18.419362
2377.000000	18.391715
2376.000000	18.368204
2375.000000	18.342952
2374.000000	18.309427
2373.000000	18.278187
2372.000000	18.253697
2371.000000	18.211137
2370.000000	18.151271
2369.000000	18.100657
2368.000000	18.045363
2367.000000	17.958612
2366.000000	17.878609
2365.000000	17.794470
2364.000000	17.709896
2363.000000	17.636968
2362.000000	17.544121
2361.000000	17.445941
2360.000000	17.359625
2359.000000	17.279622
2358.000000	17.202449
2357.000000	17.128651
2356.000000	17.063778
2355.000000	17.032539
2354.000000	16.993462
2353.000000	16.976591
2352.000000	16.981598
2351.000000	16.998361
2350.000000	17.032321
2349.000000	17.091425
2348.000000	17.144216
2347.000000	17.200381
2346.000000	17.278751
2345.000000	17.363870
2344.000000	17.435818
2343.000000	17.508201
2342.000000	17.578952
2341.000000	17.619661
2340.000000	17.653295
2339.000000	17.679745
2338.000000	17.705433
2337.000000	17.720998
2336.000000	17.708045
2335.000000	17.685405
2334.000000	17.665486
2333.000000	17.620314
2332.000000	17.554135
2331.000000	17.517453
2330.000000	17.479792
2329.000000	17.407626
2328.000000	17.336223
2327.000000	17.231403
2326.000000	17.120378
2325.000000	17.020348
2324.000000	16.906929
2323.000000	16.768148
2322.000000	16.637967
2321.000000	16.498534
2320.000000	16.339617
2319.000000	16.180373
2318.000000	16.004258
2317.000000	15.841858
2316.000000	15.690125
2315.000000	15.534908
2314.000000	15.361732
2313.000000	15.210325
2312.000000	15.072307
2311.000000	14.946915
2310.000000	14.830666
2309.000000	14.738146
2308.000000	14.702553
2307.000000	14.689164
2306.000000	14.673490
2305.000000	14.713437
2304.000000	14.770147
2303.000000	14.859946
2302.000000	14.956820
2301.000000	15.075028
2300.000000	15.218598
2299.000000	15.358902
2298.000000	15.492784
2297.000000	15.655293
2296.000000	15.781121
2295.000000	15.897152
2294.000000	15.998924
2293.000000	16.118656
2292.000000	16.210632
2291.000000	16.249164
2290.000000	16.312840
2289.000000	16.303806
2288.000000	16.306200
2287.000000	16.285084
2286.000000	16.289111
2285.000000	16.242089
2284.000000	16.186577
2283.000000	16.113214
2282.000000	16.073158
2281.000000	16.011551
2280.000000	15.933507
2279.000000	15.863954
2278.000000	15.811272
2277.000000	15.747922
2276.000000	15.710152
2275.000000	15.672491
2274.000000	15.648327
2273.000000	15.626993
2272.000000	15.648109
2271.000000	15.696002
2270.000000	15.737255
2269.000000	15.813013
2268.000000	15.901288
2267.000000	16.014925
2266.000000	16.213571
2265.000000	16.416898
2264.000000	16.624252
2263.000000	16.898983
2262.000000	17.155754
2261.000000	17.511358
2260.000000	17.820049
2259.000000	18.156496
2258.000000	18.548564
2257.000000	18.923108
2256.000000	19.285352
2255.000000	19.636820
2254.000000	19.971308
2253.000000	20.319184
2252.000000	20.689918
2251.000000	20.986418
2250.000000	21.247107
2249.000000	21.545893
2248.000000	21.828678
2247.000000	22.063462
2246.000000	22.288558
2245.000000	22.505709
2244.000000	22.693688
2243.000000	22.876552
2242.000000	23.028176
2241.000000	23.200481
2240.000000	23.301056
2239.000000	23.491430
2238.000000	23.587651
2237.000000	23.687464
2236.000000	23.778134
2235.000000	23.855307
2234.000000	23.973297
2233.000000	24.030333
2232.000000	24.075396
2231.000000	24.121003
2230.000000	24.154746
2229.000000	24.184352
2228.000000	24.182175
2227.000000	24.211129
2226.000000	24.217333
2225.000000	24.195999
2224.000000	24.180107
2223.000000	24.163780
2222.000000	24.109792
2221.000000	24.074525
2220.000000	24.042524
2219.000000	23.998768
2218.000000	23.943908
2217.000000	23.901349
2216.000000	23.854871
2215.000000	23.803822
2214.000000	23.773236
2213.000000	23.731983
2212.000000	23.701505
2211.000000	23.650565
2210.000000	23.627489
2209.000000	23.555106
2208.000000	23.542806
2207.000000	23.510914
2206.000000	23.476518
2205.000000	23.454857
2204.000000	23.418611
2203.000000	23.396842
2202.000000	23.363208
2201.000000	23.366365
2200.000000	23.364079
2199.000000	23.319778
2198.000000	23.303124
2197.000000	23.284729
2196.000000	23.270797
2195.000000	23.253708
2194.000000	23.234006
2193.000000	23.216917
2192.000000	23.183936
2191.000000	23.181106
2190.000000	23.164779
2189.000000	23.156289
2188.000000	23.125377
2187.000000	23.108179
2186.000000	23.086845
2185.000000	23.044938
2184.000000	23.032747
2183.000000	23.011305
2182.000000	22.996937
2181.000000	22.969943
2180.000000	22.959929
2179.000000	22.921832
2178.000000	22.926513
2177.000000	22.921179
2176.000000	22.910947
2175.000000	22.890049
2174.000000	22.892879
2173.000000	22.904743
2172.000000	22.926513
2171.000000	22.928363
2170.000000	22.943166
2169.000000	22.955031
2168.000000	22.972773
2167.000000	23.007386
2166.000000	23.031006
2165.000000	23.057238
2164.000000	23.087715
2163.000000	23.138112
2162.000000	23.187855
2161.000000	23.230741
2160.000000	23.283205
2159.000000	23.323479
2158.000000	23.380406
2157.000000	23.438966
2156.000000	23.497199
2155.000000	23.552711
2154.000000	23.622265
2153.000000	23.682348
2152.000000	23.764093
2151.000000	23.843007
2150.000000	23.922139
2149.000000	23.990713
2148.000000	24.067341
2147.000000	24.131888
2146.000000	24.178257
2145.000000	24.247701
2144.000000	24.308547
2143.000000	24.377012
2142.000000	24.429694
2141.000000	24.493370
2140.000000	24.531249
2139.000000	24.576747
2138.000000	24.635742
2137.000000	24.695935
2136.000000	24.739147
2135.000000	24.775284
2134.000000	24.828293
2133.000000	24.846471
2132.000000	24.877274
2131.000000	24.911779
2130.000000	24.943998
2129.000000	24.953467
2128.000000	24.963481
2127.000000	24.977305
2126.000000	24.993741
2125.000000	25.002013
2124.000000	25.009088
2123.000000	25.000272
2122.000000	24.984815
2121.000000	24.982530
2120.000000	24.975346
2119.000000	24.962611
2118.000000	24.950855
2117.000000	24.929630
2116.000000	24.914935
2115.000000	24.888377
2114.000000	24.857246
2113.000000	24.822742
2112.000000	24.768645
2111.000000	24.751556
2110.000000	24.751773
2109.000000	24.719772
2108.000000	24.691254
2107.000000	24.667961
2106.000000	24.635524
2105.000000	24.602870
2104.000000	24.563794
2103.000000	24.524065
2102.000000	24.485206
2101.000000	24.451246
2100.000000	24.428497
2099.000000	24.395516
2098.000000	24.361773
2097.000000	24.339895
2096.000000	24.320956
2095.000000	24.293417
2094.000000	24.279267
2093.000000	24.256518
2092.000000	24.235946
2091.000000	24.222775
2090.000000	24.196108
2089.000000	24.174012
2088.000000	24.172161
2087.000000	24.167263
2086.000000	24.126663
2085.000000	24.104023
2084.000000	24.079750
2083.000000	24.043830
2082.000000	24.021734
2081.000000	23.986250
2080.000000	23.948589
2079.000000	23.918874
2078.000000	23.875661
2077.000000	23.833102
2076.000000	23.785971
2075.000000	23.732200
2074.000000	23.677777
2073.000000	23.629666
2072.000000	23.579379
2071.000000	23.534207
2070.000000	23.472926
2069.000000	23.419917
2068.000000	23.357113
2067.000000	23.298553
2066.000000	23.252075
2065.000000	23.204835
2064.000000	23.161078
2063.000000	23.129513
2062.000000	23.087607
2061.000000	23.046680
2060.000000	23.032747
2059.000000	23.033618
2058.000000	23.032421
2057.000000	23.036013
2056.000000	23.061592
2055.000000	23.101212
2054.000000	23.162929
2053.000000	23.241190
2052.000000	23.308022
2051.000000	23.419047
2050.000000	23.535622
2049.000000	23.652089
2048.000000	23.809482
2047.000000	23.983202
2046.000000	24.140487
2045.000000	24.281226
2044.000000	24.453967
2043.000000	24.641946
2042.000000	24.829381
2041.000000	24.996244
2040.000000	25.167679
2039.000000	25.340855
2038.000000	25.510439
2037.000000	25.671098
2036.000000	25.813688
2035.000000	25.971190
2034.000000	26.118025
2033.000000	26.275418
2032.000000	26.395803
2031.000000	26.493766
2030.000000	26.616328
2029.000000	26.724740
2028.000000	26.841098
2027.000000	26.958979
2026.000000	27.049432
2025.000000	27.136945
2024.000000	27.235452
2023.000000	27.343210
2022.000000	27.413744
2021.000000	27.470562
2020.000000	27.536415
2019.000000	27.614240
2018.000000	27.686515
2017.000000	27.712965
2016.000000	27.780124
2015.000000	27.816043
2014.000000	27.892672
2013.000000	27.919666
2012.000000	27.932619
2011.000000	27.937952
2010.000000	27.961572
2009.000000	27.962116
2008.000000	27.974743
2007.000000	27.962116
2006.000000	27.943612
2005.000000	27.943504
2004.000000	27.906387
2003.000000	27.863392
2002.000000	27.833568
2001.000000	27.801240
2000.000000	27.759225
1999.000000	27.707849
1998.000000	27.669861
1997.000000	27.582130
1996.000000	27.513339
1995.000000	27.440520
1994.000000	27.372599
1993.000000	27.292270
1992.000000	27.206063
1991.000000	27.131067
1990.000000	27.034737
1989.000000	26.941237
1988.000000	26.845125
1987.000000	26.752387
1986.000000	26.620464
1985.000000	26.535563
1984.000000	26.425628
1983.000000	26.329189
1982.000000	26.215879
1981.000000	26.078840
1980.000000	25.970755
1979.000000	25.857336
1978.000000	25.760244
1977.000000	25.642580
1976.000000	25.539719
1975.000000	25.424232
1974.000000	25.327793
1973.000000	25.240280
1972.000000	25.117936
1971.000000	25.001360
1970.000000	24.896867
1969.000000	24.795639
1968.000000	24.675798
1967.000000	24.598843
1966.000000	24.496418
1965.000000	24.387461
1964.000000	24.336738
1963.000000	24.228000
1962.000000	24.106091
1961.000000	24.026959
1960.000000	23.895471
1959.000000	23.805128
1958.000000	23.693342
1957.000000	23.602346
1956.000000	23.495131
1955.000000	23.390202
1954.000000	23.281572
1953.000000	23.184698
1952.000000	23.106546
1951.000000	23.007060
1950.000000	22.911818
1949.000000	22.855000
1948.000000	22.768684
1947.000000	22.675728
1946.000000	22.619998
1945.000000	22.578310
1944.000000	22.526172
1943.000000	22.468048
1942.000000	22.409270
1941.000000	22.396535
1940.000000	22.388154
1939.000000	22.359636
1938.000000	22.358003
1937.000000	22.394576
1936.000000	22.410032
1935.000000	22.424400
1934.000000	22.466197
1933.000000	22.547506
1932.000000	22.626638
1931.000000	22.712736
1930.000000	22.814509
1929.000000	22.906376
1928.000000	23.034707
1927.000000	23.206903
1926.000000	23.357221
1925.000000	23.535513
1924.000000	23.693995
1923.000000	23.857701
1922.000000	24.076702
1921.000000	24.353610
1920.000000	24.622463
1919.000000	24.833627
1918.000000	25.097364
1917.000000	25.351849
1916.000000	25.574550
1915.000000	25.843947
1914.000000	26.210545
1913.000000	26.582259
1912.000000	26.928720
1911.000000	27.256786
1910.000000	27.554592
1909.000000	27.822030
1908.000000	28.145415
1907.000000	28.515496
1906.000000	28.945987
1905.000000	29.427637
1904.000000	29.861067
1903.000000	30.223855
1902.000000	30.606998
1901.000000	31.020400
1900.000000	31.478974
1899.000000	31.971399
1898.000000	32.428340
1897.000000	32.889308
1896.000000	33.252858
1895.000000	33.616735
1894.000000	34.027960
1893.000000	34.459866
1892.000000	34.952074
1891.000000	35.460718
1890.000000	35.911128
1889.000000	36.326598
1888.000000	36.784192
1887.000000	37.227310
1886.000000	37.709612
1885.000000	38.255373
1884.000000	38.871993
1883.000000	39.435387
1882.000000	39.987787
1881.000000	40.560541
1880.000000	41.061021
1879.000000	41.543542
1878.000000	42.017354
1877.000000	42.465478
1876.000000	42.871152
1875.000000	43.274867
1874.000000	43.647343
1873.000000	44.002838
1872.000000	44.320781
1871.000000	44.610859
1870.000000	44.845752
1869.000000	45.063882
1868.000000	45.259916
1867.000000	45.338721
1866.000000	45.361797
1865.000000	45.418833
1864.000000	45.452793
1863.000000	45.481420
1862.000000	45.541395
1861.000000	45.610840
1860.000000	45.665699
1859.000000	45.707823
1858.000000	45.722517
1857.000000	45.704122
1856.000000	45.642623
1855.000000	45.608119
1854.000000	45.580036
1853.000000	45.508632
1852.000000	45.437337
1851.000000	45.363974
1850.000000	45.287672
1849.000000	45.276352
1848.000000	45.273848
1847.000000	45.232269
1846.000000	45.123857
1845.000000	44.981920
1844.000000	44.852174
1843.000000	44.808526
1842.000000	44.822567
1841.000000	44.816145
1840.000000	44.774239
1839.000000	44.680195
1838.000000	44.596600
1837.000000	44.556653
1836.000000	44.500488
1835.000000	44.414390
1834.000000	44.280834
1833.000000	44.146081
1832.000000	44.042459
1831.000000	43.945693
1830.000000	43.862534
1829.000000	43.771211
1828.000000	43.658881
1827.000000	43.570170
1826.000000	43.503338
1825.000000	43.406028
1824.000000	43.304800
1823.000000	43.238948
1822.000000	43.240145
1821.000000	43.270840
1820.000000	43.260173
1819.000000	43.193014
1818.000000	43.121828
1817.000000	43.095487
1816.000000	43.093963
1815.000000	43.081228
1814.000000	43.048791
1813.000000	43.018532
1812.000000	42.997633
1811.000000	42.960407
1810.000000	42.883017
1809.000000	42.828702
1808.000000	42.786578
1807.000000	42.748373
1806.000000	42.698412
1805.000000	42.615252
1804.000000	42.536665
1803.000000	42.472009
1802.000000	42.431845
1801.000000	42.386238
1800.000000	42.313419
1799.000000	42.232763
1798.000000	42.171046
1797.000000	42.117602
1796.000000	42.072757
1795.000000	42.029980
1794.000000	41.952590
1793.000000	41.879771
1792.000000	41.806734
1791.000000	41.748175
1790.000000	41.695601
1789.000000	41.622456
1788.000000	41.538752
1787.000000	41.474968
1786.000000	41.401278
1785.000000	41.317683
1784.000000	41.214278
1783.000000	41.118493
1782.000000	41.024340
1781.000000	40.942596
1780.000000	40.830918
1779.000000	40.750807
1778.000000	40.639565
1777.000000	40.513519
1776.000000	40.382467
1775.000000	40.252612
1774.000000	40.082375
1773.000000	39.928247
1772.000000	39.763561
1771.000000	39.595719
1770.000000	39.441373
1769.000000	39.282892
1768.000000	39.165010
1767.000000	39.034067
1766.000000	38.912593
1765.000000	38.826712
1764.000000	38.765540
1763.000000	38.742356
1762.000000	38.753567
1761.000000	38.784262
1760.000000	38.851638
1759.000000	38.923151
1758.000000	38.970173
1757.000000	39.025359
1756.000000	39.054965
1755.000000	39.088926
1754.000000	39.089796
1753.000000	39.072598
1752.000000	39.042557
1751.000000	38.975942
1750.000000	38.907151
1749.000000	38.819746
1748.000000	38.716885
1747.000000	38.583983
1746.000000	38.456849
1745.000000	38.287809
1744.000000	38.079475
1743.000000	37.852420
1742.000000	37.603268
1741.000000	37.323857
1740.000000	37.065345
1739.000000	36.810969
1738.000000	36.555286
1737.000000	36.350980
1736.000000	36.230486
1735.000000	36.132959
1734.000000	36.079515
1733.000000	36.064058
1732.000000	36.130346
1731.000000	36.234078
1730.000000	36.366872
1729.000000	36.493679
1728.000000	36.619506
1727.000000	36.737061
1726.000000	36.820874
1725.000000	36.916333
1724.000000	36.978702
1723.000000	37.033453
1722.000000	37.077754
1721.000000	37.110843
1720.000000	37.146872
1719.000000	37.198574
1718.000000	37.276400
1717.000000	37.366634
1716.000000	37.445875
1715.000000	37.547539
1714.000000	37.639623
1713.000000	37.719844
1712.000000	37.796146
1711.000000	37.848610
1710.000000	37.868312
1709.000000	37.875713
1708.000000	37.868312
1707.000000	37.838270
1706.000000	37.814432
1705.000000	37.756743
1704.000000	37.705476
1703.000000	37.588030
1702.000000	37.454148
1701.000000	37.305353
1700.000000	37.089291
1699.000000	36.929721
1698.000000	36.743810
1697.000000	36.605138
1696.000000	36.569219
1695.000000	36.572920
1694.000000	36.641058
1693.000000	36.746858
1692.000000	36.927109
1691.000000	37.150572
1690.000000	37.297081
1689.000000	37.448596
1688.000000	37.546124
1687.000000	37.591295
1686.000000	37.617310
1685.000000	37.686101
1684.000000	37.852529
1683.000000	38.139341
1682.000000	38.555029
1681.000000	39.096436
1680.000000	39.738200
1679.000000	40.432864
1678.000000	41.038817
1677.000000	41.651083
1676.000000	42.168543
1675.000000	42.626137
1674.000000	43.019620
1673.000000	43.377075
1672.000000	43.712869
1671.000000	44.000770
1670.000000	44.214329
1669.000000	44.445520
1668.000000	44.645037
1667.000000	44.853153
1666.000000	44.974192
1665.000000	45.114605
1664.000000	45.229221
1663.000000	45.352327
1662.000000	45.421772
1661.000000	45.504387
1660.000000	45.573179
1659.000000	45.611275
1658.000000	45.650569
1657.000000	45.701292
1656.000000	45.719360
1655.000000	45.712830
1654.000000	45.735252
1653.000000	45.699550
1652.000000	45.680284
1651.000000	45.673645
1650.000000	45.626623
1649.000000	45.571981
1648.000000	45.513530
1647.000000	45.480658
1646.000000	45.415785
1645.000000	45.341007
1644.000000	45.271671
1643.000000	45.230092
1642.000000	45.150198
1641.000000	45.086958
1640.000000	45.022302
1639.000000	44.938599
1638.000000	44.857616
1637.000000	44.788716
1636.000000	44.699679
1635.000000	44.615866
1634.000000	44.530857
1633.000000	44.437574
1632.000000	44.345925
1631.000000	44.245350
1630.000000	44.151632
1629.000000	44.047901
1628.000000	43.939598
1627.000000	43.837934
1626.000000	43.724842
1625.000000	43.625573
1624.000000	43.517379
1623.000000	43.424423
1622.000000	43.325264
1621.000000	43.231002
1620.000000	43.121175
1619.000000	43.035185
1618.000000	42.944951
1617.000000	42.854825
1616.000000	42.763067
1615.000000	42.670111
1614.000000	42.585755
1613.000000	42.491058
1612.000000	42.387000
1611.000000	42.305799
1610.000000	42.215021
1609.000000	42.117602
1608.000000	42.019858
1607.000000	41.920371
