PE UV       SUBTECH     SPECTRUM    ASCII       PEDS        4.00        
   -1
CICIMAUCR0245-3.Sample.ASC
24/06/21
16:20:03.00
24/06/21
16:20:03.00
Vinicio Soto Monge
C. resplendens. Ventral. Sex M
250,000000
1
Lambda 1050
1050L1511233
PerkinElmer UV WinLab 6.3.2.0749 / 2.02.05 Lambda 900 UV/VIS/NIR, Aug  7 2015 09:38:08

0
0
3350/servo 860,8/2
0
0
UV/VIS
1
1
1
DoubleDePol,CommonBeamDepol,RBeamAtt,SBeamAtt,60mm sphere, WB InGaAs Detector
0
0
0
0
Program
Program
3350/servo 860,8/2
3350/0,2 860,8/0,2
3350/0,2 860,8/0,2
0
15.00
 
 
 
0
 
860,8
319,2
860,8
Front
100
on
S:100 R:100
0
0
0
0
 
0
 
 
 
0
 
 
0
0
0
0
0
 
 
 
 
0
0


0
0
#HDR
-1
-1
#GR
nm
%R
1.0
0.0
2500,000000
-1,000000
2251
8
54,501800
4,588600
#DATA
2482.000000	6.143077
2481.000000	6.092096
2480.000000	6.196125
2479.000000	6.105760
2478.000000	6.043756
2477.000000	6.083944
2476.000000	6.098641
2475.000000	6.058109
2474.000000	6.144570
2473.000000	6.091981
2472.000000	6.025040
2471.000000	6.083255
2470.000000	6.059257
2469.000000	6.023777
2468.000000	6.031470
2467.000000	6.051564
2466.000000	6.044560
2465.000000	6.058798
2464.000000	6.058683
2463.000000	6.104956
2462.000000	6.068099
2461.000000	6.059028
2460.000000	6.097378
2459.000000	6.090374
2458.000000	6.086585
2457.000000	6.112879
2456.000000	6.101856
2455.000000	6.127921
2454.000000	6.128035
2453.000000	6.157085
2452.000000	6.153411
2451.000000	6.206459
2450.000000	6.215759
2449.000000	6.248598
2448.000000	6.255717
2447.000000	6.281322
2446.000000	6.283963
2445.000000	6.279715
2444.000000	6.307846
2443.000000	6.356301
2442.000000	6.347689
2441.000000	6.375017
2440.000000	6.384777
2439.000000	6.420257
2438.000000	6.440351
2437.000000	6.465152
2436.000000	6.472156
2435.000000	6.506258
2434.000000	6.520037
2433.000000	6.549202
2432.000000	6.566425
2431.000000	6.582500
2430.000000	6.582729
2429.000000	6.596738
2428.000000	6.632562
2427.000000	6.644504
2426.000000	6.643011
2425.000000	6.647719
2424.000000	6.660923
2423.000000	6.672750
2422.000000	6.691925
2421.000000	6.688480
2420.000000	6.694566
2419.000000	6.698929
2418.000000	6.702948
2417.000000	6.744284
2416.000000	6.757029
2415.000000	6.755077
2414.000000	6.741528
2413.000000	6.769430
2412.000000	6.791590
2411.000000	6.796068
2410.000000	6.801006
2409.000000	6.789638
2408.000000	6.816851
2407.000000	6.839930
2406.000000	6.838782
2405.000000	6.847623
2404.000000	6.862091
2403.000000	6.867947
2402.000000	6.882759
2401.000000	6.897456
2400.000000	6.909971
2399.000000	6.903771
2398.000000	6.916746
2397.000000	6.929147
2396.000000	6.950503
2395.000000	6.955441
2394.000000	6.969679
2393.000000	6.969794
2392.000000	6.970368
2391.000000	6.989772
2390.000000	7.011589
2389.000000	7.019741
2388.000000	7.020774
2387.000000	7.039146
2386.000000	7.040409
2385.000000	7.035931
2384.000000	7.020200
2383.000000	7.033290
2382.000000	7.042476
2381.000000	7.040983
2380.000000	7.042016
2379.000000	7.044313
2378.000000	7.047872
2377.000000	7.049135
2376.000000	7.045231
2375.000000	7.049824
2374.000000	7.044657
2373.000000	7.025597
2372.000000	7.014689
2371.000000	7.005273
2370.000000	7.008374
2369.000000	6.989084
2368.000000	6.966923
2367.000000	6.951996
2366.000000	6.941433
2365.000000	6.935921
2364.000000	6.940973
2363.000000	6.916746
2362.000000	6.886088
2361.000000	6.880347
2360.000000	6.862320
2359.000000	6.842112
2358.000000	6.837289
2357.000000	6.832122
2356.000000	6.820525
2355.000000	6.791016
2354.000000	6.781256
2353.000000	6.778386
2352.000000	6.772071
2351.000000	6.769659
2350.000000	6.764607
2349.000000	6.776204
2348.000000	6.790786
2347.000000	6.796528
2346.000000	6.803187
2345.000000	6.810765
2344.000000	6.835567
2343.000000	6.850379
2342.000000	6.856924
2341.000000	6.867258
2340.000000	6.876788
2339.000000	6.883792
2338.000000	6.881381
2337.000000	6.885974
2336.000000	6.888155
2335.000000	6.892174
2334.000000	6.885285
2333.000000	6.882185
2332.000000	6.874606
2331.000000	6.866224
2330.000000	6.840389
2329.000000	6.820181
2328.000000	6.817310
2327.000000	6.811340
2326.000000	6.792624
2325.000000	6.767592
2324.000000	6.747269
2323.000000	6.725223
2322.000000	6.706048
2321.000000	6.685495
2320.000000	6.654838
2319.000000	6.599608
2318.000000	6.582385
2317.000000	6.568951
2316.000000	6.539212
2315.000000	6.508555
2314.000000	6.486968
2313.000000	6.438284
2312.000000	6.408775
2311.000000	6.389599
2310.000000	6.359861
2309.000000	6.345163
2308.000000	6.325644
2307.000000	6.308420
2306.000000	6.317836
2305.000000	6.307846
2304.000000	6.317376
2303.000000	6.307502
2302.000000	6.320247
2301.000000	6.335174
2300.000000	6.351823
2299.000000	6.374673
2298.000000	6.394307
2297.000000	6.428065
2296.000000	6.447699
2295.000000	6.447584
2294.000000	6.481457
2293.000000	6.479620
2292.000000	6.504651
2291.000000	6.541968
2290.000000	6.560224
2289.000000	6.565966
2288.000000	6.565047
2287.000000	6.562291
2286.000000	6.561143
2285.000000	6.562291
2284.000000	6.538293
2283.000000	6.545412
2282.000000	6.533701
2281.000000	6.515674
2280.000000	6.491446
2279.000000	6.501895
2278.000000	6.505799
2277.000000	6.476060
2276.000000	6.440810
2275.000000	6.454244
2274.000000	6.459526
2273.000000	6.456540
2272.000000	6.429557
2271.000000	6.423357
2270.000000	6.443451
2269.000000	6.446666
2268.000000	6.465037
2267.000000	6.464808
2266.000000	6.480883
2265.000000	6.523711
2264.000000	6.530486
2263.000000	6.586748
2262.000000	6.647948
2261.000000	6.699848
2260.000000	6.741758
2259.000000	6.793887
2258.000000	6.888500
2257.000000	6.949011
2256.000000	7.040064
2255.000000	7.125032
2254.000000	7.173143
2253.000000	7.279697
2252.000000	7.372358
2251.000000	7.408642
2250.000000	7.505437
2249.000000	7.592127
2248.000000	7.656427
2247.000000	7.721417
2246.000000	7.784568
2245.000000	7.864370
2244.000000	7.941300
2243.000000	7.981028
2242.000000	8.040965
2241.000000	8.085631
2240.000000	8.118470
2239.000000	8.186215
2238.000000	8.234899
2237.000000	8.246267
2236.000000	8.299659
2235.000000	8.332383
2234.000000	8.373145
2233.000000	8.398405
2232.000000	8.407706
2231.000000	8.443530
2230.000000	8.446286
2229.000000	8.476714
2228.000000	8.483373
2227.000000	8.506912
2226.000000	8.513342
2225.000000	8.497267
2224.000000	8.518279
2223.000000	8.518509
2222.000000	8.536191
2221.000000	8.514031
2220.000000	8.513342
2219.000000	8.518279
2218.000000	8.506797
2217.000000	8.498645
2216.000000	8.504730
2215.000000	8.480847
2214.000000	8.456620
2213.000000	8.462131
2212.000000	8.438134
2211.000000	8.449386
2210.000000	8.429407
2209.000000	8.421599
2208.000000	8.419647
2207.000000	8.413906
2206.000000	8.410577
2205.000000	8.411725
2204.000000	8.402195
2203.000000	8.374523
2202.000000	8.387153
2201.000000	8.359251
2200.000000	8.387727
2199.000000	8.380608
2198.000000	8.365222
2197.000000	8.357414
2196.000000	8.359366
2195.000000	8.371767
2194.000000	8.350410
2193.000000	8.358907
2192.000000	8.337550
2191.000000	8.365911
2190.000000	8.363040
2189.000000	8.342832
2188.000000	8.337205
2187.000000	8.343750
2186.000000	8.324460
2185.000000	8.334909
2184.000000	8.327905
2183.000000	8.346506
2182.000000	8.322508
2181.000000	8.298970
2180.000000	8.308844
2179.000000	8.331235
2178.000000	8.296903
2177.000000	8.298970
2176.000000	8.307237
2175.000000	8.284387
2174.000000	8.300233
2173.000000	8.299199
2172.000000	8.290243
2171.000000	8.307467
2170.000000	8.306893
2169.000000	8.319293
2168.000000	8.314126
2167.000000	8.315963
2166.000000	8.332038
2165.000000	8.340420
2164.000000	8.340535
2163.000000	8.333302
2162.000000	8.361548
2161.000000	8.377967
2160.000000	8.391861
2159.000000	8.389220
2158.000000	8.398980
2157.000000	8.404950
2156.000000	8.428604
2155.000000	8.432048
2154.000000	8.444219
2153.000000	8.478551
2152.000000	8.472351
2151.000000	8.491181
2150.000000	8.519657
2149.000000	8.531254
2148.000000	8.557663
2147.000000	8.570294
2146.000000	8.586369
2145.000000	8.600147
2144.000000	8.600492
2143.000000	8.624604
2142.000000	8.627360
2141.000000	8.644124
2140.000000	8.660314
2139.000000	8.677307
2138.000000	8.678456
2137.000000	8.691316
2136.000000	8.709572
2135.000000	8.718299
2134.000000	8.719677
2133.000000	8.721399
2132.000000	8.711180
2131.000000	8.725073
2130.000000	8.749875
2129.000000	8.747578
2128.000000	8.739770
2127.000000	8.738622
2126.000000	8.742411
2125.000000	8.753090
2124.000000	8.735981
2123.000000	8.722892
2122.000000	8.738163
2121.000000	8.739656
2120.000000	8.702224
2119.000000	8.693957
2118.000000	8.716002
2117.000000	8.700272
2116.000000	8.687527
2115.000000	8.669959
2114.000000	8.659740
2113.000000	8.651817
2112.000000	8.637694
2111.000000	8.632182
2110.000000	8.621734
2109.000000	8.611170
2108.000000	8.607036
2107.000000	8.590961
2106.000000	8.580053
2105.000000	8.560189
2104.000000	8.530565
2103.000000	8.525283
2102.000000	8.522872
2101.000000	8.518853
2100.000000	8.501745
2099.000000	8.482455
2098.000000	8.477747
2097.000000	8.463165
2096.000000	8.465461
2095.000000	8.446401
2094.000000	8.417695
2093.000000	8.419647
2092.000000	8.415514
2091.000000	8.412873
2090.000000	8.409658
2089.000000	8.404376
2088.000000	8.395765
2087.000000	8.395994
2086.000000	8.403802
2085.000000	8.382330
2084.000000	8.381986
2083.000000	8.377278
2082.000000	8.356610
2081.000000	8.352247
2080.000000	8.332383
2079.000000	8.324460
2078.000000	8.325838
2077.000000	8.292999
2076.000000	8.280598
2075.000000	8.283010
2074.000000	8.270150
2073.000000	8.255797
2072.000000	8.229273
2071.000000	8.216069
2070.000000	8.211361
2069.000000	8.197927
2068.000000	8.186789
2067.000000	8.176799
2066.000000	8.166351
2065.000000	8.143272
2064.000000	8.131675
2063.000000	8.130297
2062.000000	8.107906
2061.000000	8.091257
2060.000000	8.091717
2059.000000	8.087698
2058.000000	8.074723
2057.000000	8.064504
2056.000000	8.069786
2055.000000	8.074379
2054.000000	8.079545
2053.000000	8.090568
2052.000000	8.105380
2051.000000	8.129608
2050.000000	8.149931
2049.000000	8.164628
2048.000000	8.196549
2047.000000	8.231110
2046.000000	8.260275
2045.000000	8.293803
2044.000000	8.332498
2043.000000	8.360514
2042.000000	8.410691
2041.000000	8.429063
2040.000000	8.474303
2039.000000	8.519083
2038.000000	8.547329
2037.000000	8.578790
2036.000000	8.615533
2035.000000	8.636660
2034.000000	8.669040
2033.000000	8.697860
2032.000000	8.733570
2031.000000	8.752516
2030.000000	8.772150
2029.000000	8.803726
2028.000000	8.830135
2027.000000	8.839206
2026.000000	8.846440
2025.000000	8.873193
2024.000000	8.911773
2023.000000	8.910625
2022.000000	8.910281
2021.000000	8.924519
2020.000000	8.921992
2019.000000	8.930145
2018.000000	8.943694
2017.000000	8.960687
2016.000000	8.976762
2015.000000	8.960458
2014.000000	8.969299
2013.000000	8.965165
2012.000000	8.961147
2011.000000	8.955176
2010.000000	8.951272
2009.000000	8.929800
2008.000000	8.939790
2007.000000	8.924863
2006.000000	8.931293
2005.000000	8.920385
2004.000000	8.897191
2003.000000	8.879968
2002.000000	8.862744
2001.000000	8.841158
2000.000000	8.828068
1999.000000	8.796492
1998.000000	8.787077
1997.000000	8.753549
1996.000000	8.725992
1995.000000	8.714969
1994.000000	8.686608
1993.000000	8.647798
1992.000000	8.646880
1991.000000	8.603018
1990.000000	8.565012
1989.000000	8.547100
1988.000000	8.516557
1987.000000	8.471088
1986.000000	8.455931
1985.000000	8.425159
1984.000000	8.400817
1983.000000	8.337550
1982.000000	8.299314
1981.000000	8.290243
1980.000000	8.287028
1979.000000	8.254878
1978.000000	8.211590
1977.000000	8.136267
1976.000000	8.139253
1975.000000	8.083794
1974.000000	8.071623
1973.000000	8.046592
1972.000000	8.021561
1971.000000	7.974713
1970.000000	7.949912
1969.000000	7.930277
1968.000000	7.912135
1967.000000	7.870570
1966.000000	7.860580
1965.000000	7.835090
1964.000000	7.807188
1963.000000	7.763441
1962.000000	7.755404
1961.000000	7.738755
1960.000000	7.666417
1959.000000	7.677899
1958.000000	7.655164
1957.000000	7.620948
1956.000000	7.578349
1955.000000	7.607858
1954.000000	7.570196
1953.000000	7.542409
1952.000000	7.510948
1951.000000	7.485917
1950.000000	7.490051
1949.000000	7.450667
1948.000000	7.431721
1947.000000	7.428736
1946.000000	7.400949
1945.000000	7.392912
1944.000000	7.368914
1943.000000	7.374081
1942.000000	7.341471
1941.000000	7.328956
1940.000000	7.360647
1939.000000	7.317359
1938.000000	7.322067
1937.000000	7.322985
1936.000000	7.327578
1935.000000	7.359728
1934.000000	7.324937
1933.000000	7.320459
1932.000000	7.343883
1931.000000	7.351691
1930.000000	7.374655
1929.000000	7.401294
1928.000000	7.423913
1927.000000	7.463527
1926.000000	7.468464
1925.000000	7.506355
1924.000000	7.537472
1923.000000	7.566063
1922.000000	7.580875
1921.000000	7.631970
1920.000000	7.691448
1919.000000	7.764015
1918.000000	7.778942
1917.000000	7.861269
1916.000000	7.894683
1915.000000	7.937511
1914.000000	8.012260
1913.000000	8.065997
1912.000000	8.131904
1911.000000	8.220547
1910.000000	8.305515
1909.000000	8.372111
1908.000000	8.458802
1907.000000	8.529761
1906.000000	8.637120
1905.000000	8.739311
1904.000000	8.820146
1903.000000	8.966084
1902.000000	9.065405
1901.000000	9.152095
1900.000000	9.297000
1899.000000	9.434442
1898.000000	9.581643
1897.000000	9.696580
1896.000000	9.873750
1895.000000	10.002350
1894.000000	10.146451
1893.000000	10.284008
1892.000000	10.421449
1891.000000	10.627325
1890.000000	10.819651
1889.000000	11.006925
1888.000000	11.209241
1887.000000	11.418217
1886.000000	11.662328
1885.000000	11.910343
1884.000000	12.181666
1883.000000	12.530610
1882.000000	12.892068
1881.000000	13.227118
1880.000000	13.613034
1879.000000	13.921445
1878.000000	14.254887
1877.000000	14.628632
1876.000000	14.991813
1875.000000	15.330882
1874.000000	15.670639
1873.000000	15.993633
1872.000000	16.320530
1871.000000	16.625841
1870.000000	16.923344
1869.000000	17.193405
1868.000000	17.472422
1867.000000	17.677838
1866.000000	17.855238
1865.000000	18.019318
1864.000000	18.151133
1863.000000	18.267562
1862.000000	18.384795
1861.000000	18.501110
1860.000000	18.605138
1859.000000	18.718352
1858.000000	18.798268
1857.000000	18.865898
1856.000000	18.924343
1855.000000	18.947881
1854.000000	18.954081
1853.000000	18.994499
1852.000000	18.993350
1851.000000	18.983131
1850.000000	18.976931
1849.000000	18.946733
1848.000000	18.931002
1847.000000	18.953852
1846.000000	18.935825
1845.000000	18.892537
1844.000000	18.845116
1843.000000	18.795742
1842.000000	18.782882
1841.000000	18.782423
1840.000000	18.791609
1839.000000	18.758081
1838.000000	18.720190
1837.000000	18.709741
1836.000000	18.667831
1835.000000	18.647507
1834.000000	18.588259
1833.000000	18.537508
1832.000000	18.474816
1831.000000	18.413386
1830.000000	18.364816
1829.000000	18.313721
1828.000000	18.258951
1827.000000	18.189828
1826.000000	18.139421
1825.000000	18.089933
1824.000000	18.014725
1823.000000	17.976030
1822.000000	17.946291
1821.000000	17.924131
1820.000000	17.917701
1819.000000	17.899214
1818.000000	17.870394
1817.000000	17.805979
1816.000000	17.783818
1815.000000	17.795071
1814.000000	17.805060
1813.000000	17.783589
1812.000000	17.774518
1811.000000	17.762462
1810.000000	17.729967
1809.000000	17.709414
1808.000000	17.684268
1807.000000	17.641899
1806.000000	17.607912
1805.000000	17.564279
1804.000000	17.517891
1803.000000	17.480115
1802.000000	17.436827
1801.000000	17.394688
1800.000000	17.354730
1799.000000	17.313738
1798.000000	17.266891
1797.000000	17.223488
1796.000000	17.185482
1795.000000	17.146902
1794.000000	17.103614
1793.000000	17.056767
1792.000000	17.016006
1791.000000	16.978574
1790.000000	16.915307
1789.000000	16.861341
1788.000000	16.822531
1787.000000	16.784410
1786.000000	16.746060
1785.000000	16.681989
1784.000000	16.604255
1783.000000	16.536740
1782.000000	16.478755
1781.000000	16.438108
1780.000000	16.377597
1779.000000	16.290217
1778.000000	16.232807
1777.000000	16.161732
1776.000000	16.082620
1775.000000	16.012119
1774.000000	15.932088
1773.000000	15.850221
1772.000000	15.755148
1771.000000	15.660650
1770.000000	15.568333
1769.000000	15.476131
1768.000000	15.382781
1767.000000	15.297584
1766.000000	15.212960
1765.000000	15.146249
1764.000000	15.101468
1763.000000	15.066677
1762.000000	15.047043
1761.000000	15.057262
1760.000000	15.091134
1759.000000	15.120069
1758.000000	15.160831
1757.000000	15.233743
1756.000000	15.283116
1755.000000	15.317333
1754.000000	15.375777
1753.000000	15.403220
1752.000000	15.417228
1751.000000	15.426528
1750.000000	15.421706
1749.000000	15.397478
1748.000000	15.370955
1747.000000	15.342594
1746.000000	15.270256
1745.000000	15.209286
1744.000000	15.149578
1743.000000	15.030738
1742.000000	14.911208
1741.000000	14.781690
1740.000000	14.631962
1739.000000	14.462715
1738.000000	14.292549
1737.000000	14.131224
1736.000000	14.016518
1735.000000	13.916623
1734.000000	13.820632
1733.000000	13.780559
1732.000000	13.781478
1731.000000	13.800079
1730.000000	13.836018
1729.000000	13.889065
1728.000000	13.964618
1727.000000	14.033626
1726.000000	14.113657
1725.000000	14.183354
1724.000000	14.257299
1723.000000	14.306672
1722.000000	14.333081
1721.000000	14.374302
1720.000000	14.398529
1719.000000	14.408863
1718.000000	14.410815
1717.000000	14.458237
1716.000000	14.508529
1715.000000	14.529656
1714.000000	14.574436
1713.000000	14.637473
1712.000000	14.691669
1711.000000	14.728642
1710.000000	14.764696
1709.000000	14.785019
1708.000000	14.782608
1707.000000	14.803046
1706.000000	14.782608
1705.000000	14.759873
1704.000000	14.704759
1703.000000	14.652860
1702.000000	14.605898
1701.000000	14.538038
1700.000000	14.448477
1699.000000	14.353060
1698.000000	14.253395
1697.000000	14.138573
1696.000000	14.050734
1695.000000	14.001820
1694.000000	13.982416
1693.000000	14.002509
1692.000000	14.067843
1691.000000	14.156715
1690.000000	14.291975
1689.000000	14.417590
1688.000000	14.493946
1687.000000	14.575699
1686.000000	14.629895
1685.000000	14.642066
1684.000000	14.675939
1683.000000	14.734727
1682.000000	14.874925
1681.000000	15.105142
1680.000000	15.379222
1679.000000	15.761234
1678.000000	16.186993
1677.000000	16.608159
1676.000000	17.049419
1675.000000	17.411337
1674.000000	17.741105
1673.000000	18.045267
1672.000000	18.346674
1671.000000	18.568395
1670.000000	18.758081
1669.000000	18.949718
1668.000000	19.083371
1667.000000	19.234246
1666.000000	19.337701
1665.000000	19.438399
1664.000000	19.543002
1663.000000	19.629922
1662.000000	19.684118
1661.000000	19.735903
1660.000000	19.784357
1659.000000	19.841653
1658.000000	19.882185
1657.000000	19.920995
1656.000000	19.922143
1655.000000	19.951423
1654.000000	19.949241
1653.000000	19.958657
1652.000000	19.921454
1651.000000	19.934200
1650.000000	19.898605
1649.000000	19.882645
1648.000000	19.858877
1647.000000	19.821100
1646.000000	19.795380
1645.000000	19.749337
1644.000000	19.713627
1643.000000	19.628889
1642.000000	19.604432
1641.000000	19.538409
1640.000000	19.516938
1639.000000	19.459067
1638.000000	19.389371
1637.000000	19.327252
1636.000000	19.277075
1635.000000	19.211856
1634.000000	19.159038
1633.000000	19.084060
1632.000000	19.016200
1631.000000	18.957296
1630.000000	18.885992
1629.000000	18.806191
1628.000000	18.752454
1627.000000	18.689647
1626.000000	18.594000
1625.000000	18.539460
1624.000000	18.476308
1623.000000	18.395359
1622.000000	18.334159
1621.000000	18.261132
1620.000000	18.202688
1619.000000	18.144244
1618.000000	18.050434
1617.000000	17.978671
1616.000000	17.928494
1615.000000	17.872805
1614.000000	17.830551
1613.000000	17.761658
1612.000000	17.694602
1611.000000	17.652348
1610.000000	17.592181
1609.000000	17.506639
1608.000000	17.454510
1607.000000	17.410074
1606.000000	17.360586
1605.000000	17.303060
1604.000000	17.231756
1603.000000	17.184908
1602.000000	17.121297
1601.000000	17.066986
1600.000000	17.007509
1599.000000	16.954806
1598.000000	16.890505
1597.000000	16.845380
1596.000000	16.781425
1595.000000	16.732051
1594.000000	16.671311
1593.000000	16.622741
1592.000000	16.587720
1591.000000	16.542481
1590.000000	16.507805
1589.000000	16.459005
1588.000000	16.432137
1587.000000	16.405384
1586.000000	16.378400
1585.000000	16.321219
1584.000000	16.274716
1583.000000	16.249456
1582.000000	16.232807
1581.000000	16.196982
1580.000000	16.171721
