PE UV       SUBTECH     SPECTRUM    ASCII       PEDS        4.00        
   -1
CICIMAUCR0232-2.ASC
24/06/14
14:36:19.00
24/06/14
14:36:19.00
Vinicio Soto Monge
C. resplendens. Sex M. Ventral 
250,000000
1
Lambda 1050
1050L1511233
PerkinElmer UV WinLab 6.3.2.0749 / 2.02.05 Lambda 900 UV/VIS/NIR, Aug  7 2015 09:38:08

0
0
3350/servo 860,8/2
0
0
UV/VIS
1
1
1
DoubleDePol,CommonBeamDepol,RBeamAtt,SBeamAtt,60mm sphere, WB InGaAs Detector
0
0
0
0
Program
Program
3350/servo 860,8/2
3350/0,2 860,8/0,2
3350/0,2 860,8/0,2
0
15.00
 
 
 
0
 
860,8
319,2
860,8
Front
100
on
S:100 R:100
0
0
0
0
 
0
 
 
 
0
 
 
0
0
0
0
0
 
 
 
 
0
0


0
0
#HDR
-1
-1
#GR
nm
%R
1.0
0.0
2500,000000
-1,000000
2251
8
57,698000
4,471100
#DATA
2482.000000	5.316357
2481.000000	5.340371
2480.000000	5.252094
2479.000000	5.349954
2478.000000	5.308690
2477.000000	5.291102
2476.000000	5.325150
2475.000000	5.349954
2474.000000	5.313651
2473.000000	5.339807
2472.000000	5.281181
2471.000000	5.254348
2470.000000	5.267314
2469.000000	5.300234
2468.000000	5.259760
2467.000000	5.270809
2466.000000	5.294936
2465.000000	5.328195
2464.000000	5.326503
2463.000000	5.337101
2462.000000	5.303166
2461.000000	5.271598
2460.000000	5.310719
2459.000000	5.339694
2458.000000	5.304744
2457.000000	5.331239
2456.000000	5.370811
2455.000000	5.369684
2454.000000	5.405987
2453.000000	5.425716
2452.000000	5.453789
2451.000000	5.468220
2450.000000	5.474985
2449.000000	5.504636
2448.000000	5.510837
2447.000000	5.532934
2446.000000	5.585472
2445.000000	5.597310
2444.000000	5.613770
2443.000000	5.652892
2442.000000	5.657853
2441.000000	5.707572
2440.000000	5.752781
2439.000000	5.742973
2438.000000	5.743875
2437.000000	5.779614
2436.000000	5.795398
2435.000000	5.815917
2434.000000	5.837451
2433.000000	5.867553
2432.000000	5.870372
2431.000000	5.904983
2430.000000	5.937340
2429.000000	5.940272
2428.000000	5.974320
2427.000000	5.964737
2426.000000	5.990555
2425.000000	6.006226
2424.000000	6.014682
2423.000000	6.047489
2422.000000	6.063048
2421.000000	6.066543
2420.000000	6.068798
2419.000000	6.085033
2418.000000	6.109836
2417.000000	6.135992
2416.000000	6.137345
2415.000000	6.139374
2414.000000	6.166771
2413.000000	6.181314
2412.000000	6.188304
2411.000000	6.197324
2410.000000	6.217392
2409.000000	6.209274
2408.000000	6.226750
2407.000000	6.237347
2406.000000	6.241068
2405.000000	6.269479
2404.000000	6.274552
2403.000000	6.291802
2402.000000	6.305669
2401.000000	6.299243
2400.000000	6.322580
2399.000000	6.359560
2398.000000	6.389662
2397.000000	6.409617
2396.000000	6.425739
2395.000000	6.436224
2394.000000	6.446709
2393.000000	6.469934
2392.000000	6.461704
2391.000000	6.477263
2390.000000	6.504095
2389.000000	6.518414
2388.000000	6.527095
2387.000000	6.538482
2386.000000	6.544570
2385.000000	6.538707
2384.000000	6.540962
2383.000000	6.568246
2382.000000	6.575687
2381.000000	6.577490
2380.000000	6.592936
2379.000000	6.587524
2378.000000	6.571741
2377.000000	6.575574
2376.000000	6.589216
2375.000000	6.578843
2374.000000	6.572981
2373.000000	6.577378
2372.000000	6.553025
2371.000000	6.542540
2370.000000	6.561143
2369.000000	6.560579
2368.000000	6.532506
2367.000000	6.506688
2366.000000	6.491355
2365.000000	6.485718
2364.000000	6.484929
2363.000000	6.460690
2362.000000	6.436224
2361.000000	6.431602
2360.000000	6.416269
2359.000000	6.380755
2358.000000	6.357305
2357.000000	6.343889
2356.000000	6.332163
2355.000000	6.329007
2354.000000	6.328781
2353.000000	6.327654
2352.000000	6.319536
2351.000000	6.303414
2350.000000	6.313448
2349.000000	6.340732
2348.000000	6.349751
2347.000000	6.349977
2346.000000	6.360236
2345.000000	6.393157
2344.000000	6.411308
2343.000000	6.425965
2342.000000	6.444455
2341.000000	6.467116
2340.000000	6.466214
2339.000000	6.481547
2338.000000	6.513227
2337.000000	6.517512
2336.000000	6.514129
2335.000000	6.526756
2334.000000	6.529237
2333.000000	6.527771
2332.000000	6.528673
2331.000000	6.508041
2330.000000	6.472415
2329.000000	6.482449
2328.000000	6.451219
2327.000000	6.423034
2326.000000	6.421004
2325.000000	6.403078
2324.000000	6.356290
2323.000000	6.329345
2322.000000	6.306796
2321.000000	6.268013
2320.000000	6.242195
2319.000000	6.217279
2318.000000	6.185937
2317.000000	6.145124
2316.000000	6.090670
2315.000000	6.055945
2314.000000	6.037906
2313.000000	5.997545
2312.000000	5.946811
2311.000000	5.931365
2310.000000	5.918738
2309.000000	5.906449
2308.000000	5.875332
2307.000000	5.843201
2306.000000	5.827304
2305.000000	5.838917
2304.000000	5.848161
2303.000000	5.847147
2302.000000	5.855490
2301.000000	5.891003
2300.000000	5.915919
2299.000000	5.933169
2298.000000	5.978153
2297.000000	5.985594
2296.000000	6.022799
2295.000000	6.054480
2294.000000	6.084582
2293.000000	6.105101
2292.000000	6.131482
2291.000000	6.148845
2290.000000	6.174888
2289.000000	6.189319
2288.000000	6.176692
2287.000000	6.191461
2286.000000	6.189319
2285.000000	6.198451
2284.000000	6.175790
2283.000000	6.174663
2282.000000	6.153129
2281.000000	6.135203
2280.000000	6.133963
2279.000000	6.095630
2278.000000	6.078832
2277.000000	6.081312
2276.000000	6.058876
2275.000000	6.048955
2274.000000	6.012427
2273.000000	6.013329
2272.000000	6.011525
2271.000000	6.019191
2270.000000	6.026181
2269.000000	6.042980
2268.000000	6.012539
2267.000000	6.074435
2266.000000	6.104988
2265.000000	6.110851
2264.000000	6.179511
2263.000000	6.235431
2262.000000	6.291013
2261.000000	6.370721
2260.000000	6.454150
2259.000000	6.524840
2258.000000	6.597446
2257.000000	6.692262
2256.000000	6.834092
2255.000000	6.929810
2254.000000	7.030939
2253.000000	7.126883
2252.000000	7.247066
2251.000000	7.339402
2250.000000	7.441095
2249.000000	7.544818
2248.000000	7.677741
2247.000000	7.768048
2246.000000	7.857001
2245.000000	7.962528
2244.000000	8.020026
2243.000000	8.090039
2242.000000	8.189591
2241.000000	8.243369
2240.000000	8.261633
2239.000000	8.351714
2238.000000	8.407070
2237.000000	8.492641
2236.000000	8.500872
2235.000000	8.571336
2234.000000	8.593095
2233.000000	8.631765
2232.000000	8.676524
2231.000000	8.737968
2230.000000	8.714067
2229.000000	8.756684
2228.000000	8.784644
2227.000000	8.782840
2226.000000	8.781712
2225.000000	8.831883
2224.000000	8.814408
2223.000000	8.798398
2222.000000	8.804937
2221.000000	8.814408
2220.000000	8.801330
2219.000000	8.808658
2218.000000	8.799413
2217.000000	8.758375
2216.000000	8.772918
2215.000000	8.743267
2214.000000	8.744395
2213.000000	8.720155
2212.000000	8.727145
2211.000000	8.722072
2210.000000	8.692984
2209.000000	8.685092
2208.000000	8.664912
2207.000000	8.683401
2206.000000	8.648564
2205.000000	8.627819
2204.000000	8.625903
2203.000000	8.618011
2202.000000	8.609217
2201.000000	8.625001
2200.000000	8.604820
2199.000000	8.603242
2198.000000	8.608202
2197.000000	8.589036
2196.000000	8.590614
2195.000000	8.576522
2194.000000	8.570095
2193.000000	8.591742
2192.000000	8.567953
2191.000000	8.540444
2190.000000	8.553184
2189.000000	8.550140
2188.000000	8.551944
2187.000000	8.543488
2186.000000	8.538528
2185.000000	8.528493
2184.000000	8.516656
2183.000000	8.508538
2182.000000	8.496136
2181.000000	8.505381
2180.000000	8.495347
2179.000000	8.495122
2178.000000	8.488019
2177.000000	8.483735
2176.000000	8.473363
2175.000000	8.487906
2174.000000	8.462652
2173.000000	8.437172
2172.000000	8.463667
2171.000000	8.458706
2170.000000	8.469417
2169.000000	8.473024
2168.000000	8.463779
2167.000000	8.480240
2166.000000	8.474715
2165.000000	8.475843
2164.000000	8.490612
2163.000000	8.522744
2162.000000	8.529734
2161.000000	8.525224
2160.000000	8.534807
2159.000000	8.553297
2158.000000	8.552959
2157.000000	8.565022
2156.000000	8.575732
2155.000000	8.610457
2154.000000	8.631314
2153.000000	8.630638
2152.000000	8.669308
2151.000000	8.689151
2150.000000	8.690617
2149.000000	8.709783
2148.000000	8.746762
2147.000000	8.752512
2146.000000	8.783742
2145.000000	8.803246
2144.000000	8.813055
2143.000000	8.836054
2142.000000	8.850711
2141.000000	8.845524
2140.000000	8.852289
2139.000000	8.872244
2138.000000	8.911704
2137.000000	8.913170
2136.000000	8.926135
2135.000000	8.928841
2134.000000	8.949473
2133.000000	8.956575
2132.000000	8.956914
2131.000000	8.979124
2130.000000	8.990285
2129.000000	8.992427
2128.000000	8.987580
2127.000000	8.996824
2126.000000	8.996261
2125.000000	8.981266
2124.000000	8.969766
2123.000000	8.967173
2122.000000	8.975629
2121.000000	8.961311
2120.000000	8.949698
2119.000000	8.934703
2118.000000	8.932336
2117.000000	8.921400
2116.000000	8.891974
2115.000000	8.891636
2114.000000	8.884646
2113.000000	8.850711
2112.000000	8.848907
2111.000000	8.848907
2110.000000	8.824216
2109.000000	8.805501
2108.000000	8.798962
2107.000000	8.779796
2106.000000	8.758375
2105.000000	8.753189
2104.000000	8.720832
2103.000000	8.697607
2102.000000	8.705837
2101.000000	8.691857
2100.000000	8.665926
2099.000000	8.644054
2098.000000	8.629849
2097.000000	8.621280
2096.000000	8.612937
2095.000000	8.597266
2094.000000	8.595350
2093.000000	8.585090
2092.000000	8.569870
2091.000000	8.570095
2090.000000	8.552959
2089.000000	8.543037
2088.000000	8.521053
2087.000000	8.508087
2086.000000	8.494558
2085.000000	8.481142
2084.000000	8.485200
2083.000000	8.471446
2082.000000	8.459383
2081.000000	8.448108
2080.000000	8.425447
2079.000000	8.417893
2078.000000	8.410678
2077.000000	8.378885
2076.000000	8.349233
2075.000000	8.333450
2074.000000	8.319695
2073.000000	8.307293
2072.000000	8.287902
2071.000000	8.269074
2070.000000	8.244158
2069.000000	8.225668
2068.000000	8.215070
2067.000000	8.199399
2066.000000	8.165576
2065.000000	8.157008
2064.000000	8.151822
2063.000000	8.109769
2062.000000	8.095338
2061.000000	8.090603
2060.000000	8.076285
2059.000000	8.073692
2058.000000	8.066476
2057.000000	8.055427
2056.000000	8.057569
2055.000000	8.052609
2054.000000	8.051030
2053.000000	8.075834
2052.000000	8.092745
2051.000000	8.110784
2050.000000	8.144043
2049.000000	8.170988
2048.000000	8.196919
2047.000000	8.242579
2046.000000	8.280010
2045.000000	8.318229
2044.000000	8.360169
2043.000000	8.403011
2042.000000	8.459495
2041.000000	8.520827
2040.000000	8.558145
2039.000000	8.593658
2038.000000	8.648000
2037.000000	8.693886
2036.000000	8.756909
2035.000000	8.776977
2034.000000	8.810687
2033.000000	8.864240
2032.000000	8.879122
2031.000000	8.901783
2030.000000	8.935380
2029.000000	8.955448
2028.000000	8.996486
2027.000000	9.030083
2026.000000	9.041921
2025.000000	9.056240
2024.000000	9.079690
2023.000000	9.090513
2022.000000	9.111596
2021.000000	9.130988
2020.000000	9.146997
2019.000000	9.174844
2018.000000	9.178339
2017.000000	9.168080
2016.000000	9.173717
2015.000000	9.187020
2014.000000	9.177663
2013.000000	9.183751
2012.000000	9.176310
2011.000000	9.179692
2010.000000	9.190064
2009.000000	9.159962
2008.000000	9.149252
2007.000000	9.131890
2006.000000	9.127267
2005.000000	9.114753
2004.000000	9.095248
2003.000000	9.073940
2002.000000	9.060073
2001.000000	9.030647
2000.000000	9.011255
1999.000000	8.997839
1998.000000	8.946992
1997.000000	8.914635
1996.000000	8.881489
1995.000000	8.838309
1994.000000	8.801780
1993.000000	8.779007
1992.000000	8.753640
1991.000000	8.721734
1990.000000	8.681259
1989.000000	8.641687
1988.000000	8.594222
1987.000000	8.548336
1986.000000	8.523195
1985.000000	8.463216
1984.000000	8.414737
1983.000000	8.391737
1982.000000	8.336381
1981.000000	8.303911
1980.000000	8.258251
1979.000000	8.222173
1978.000000	8.181360
1977.000000	8.152611
1976.000000	8.117097
1975.000000	8.052271
1974.000000	8.027355
1973.000000	7.973238
1972.000000	7.943362
1971.000000	7.916642
1970.000000	7.860496
1969.000000	7.846742
1968.000000	7.801645
1967.000000	7.756210
1966.000000	7.739862
1965.000000	7.685859
1964.000000	7.649668
1963.000000	7.629149
1962.000000	7.573567
1961.000000	7.580106
1960.000000	7.529598
1959.000000	7.503667
1958.000000	7.491266
1957.000000	7.454737
1956.000000	7.405018
1955.000000	7.375930
1954.000000	7.361950
1953.000000	7.337260
1952.000000	7.286075
1951.000000	7.279310
1950.000000	7.251801
1949.000000	7.218768
1948.000000	7.208846
1947.000000	7.192950
1946.000000	7.144358
1945.000000	7.153490
1944.000000	7.137593
1943.000000	7.131844
1942.000000	7.099036
1941.000000	7.080884
1940.000000	7.089565
1939.000000	7.067693
1938.000000	7.073556
1937.000000	7.040522
1936.000000	7.091933
1935.000000	7.085845
1934.000000	7.096894
1933.000000	7.083815
1932.000000	7.105800
1931.000000	7.112790
1930.000000	7.132971
1929.000000	7.142892
1928.000000	7.163524
1927.000000	7.217415
1926.000000	7.221586
1925.000000	7.279423
1924.000000	7.344137
1923.000000	7.359808
1922.000000	7.411895
1921.000000	7.455414
1920.000000	7.531740
1919.000000	7.571764
1918.000000	7.632419
1917.000000	7.687211
1916.000000	7.787777
1915.000000	7.848771
1914.000000	7.922392
1913.000000	7.997591
1912.000000	8.109769
1911.000000	8.184517
1910.000000	8.267157
1909.000000	8.377983
1908.000000	8.499519
1907.000000	8.589487
1906.000000	8.706062
1905.000000	8.849809
1904.000000	8.992315
1903.000000	9.108101
1902.000000	9.262219
1901.000000	9.401118
1900.000000	9.557717
1899.000000	9.734835
1898.000000	9.906879
1897.000000	10.090198
1896.000000	10.283325
1895.000000	10.476904
1894.000000	10.656502
1893.000000	10.860001
1892.000000	11.086388
1891.000000	11.345131
1890.000000	11.584144
1889.000000	11.850441
1888.000000	12.109635
1887.000000	12.405245
1886.000000	12.704914
1885.000000	13.045395
1884.000000	13.416768
1883.000000	13.830870
1882.000000	14.276991
1881.000000	14.707328
1880.000000	15.184114
1879.000000	15.617157
1878.000000	16.053356
1877.000000	16.506580
1876.000000	16.956759
1875.000000	17.376273
1874.000000	17.801536
1873.000000	18.208874
1872.000000	18.599638
1871.000000	18.952521
1870.000000	19.297286
1869.000000	19.626719
1868.000000	19.956152
1867.000000	20.195954
1866.000000	20.445002
1865.000000	20.637114
1864.000000	20.817502
1863.000000	20.986051
1862.000000	21.145356
1861.000000	21.302857
1860.000000	21.447505
1859.000000	21.564419
1858.000000	21.654161
1857.000000	21.733532
1856.000000	21.807378
1855.000000	21.875587
1854.000000	21.912228
1853.000000	21.934438
1852.000000	21.951011
1851.000000	21.939061
1850.000000	21.961384
1849.000000	21.967134
1848.000000	21.965442
1847.000000	21.933875
1846.000000	21.886185
1845.000000	21.826657
1844.000000	21.818088
1843.000000	21.790354
1842.000000	21.791143
1841.000000	21.787874
1840.000000	21.765100
1839.000000	21.740747
1838.000000	21.707601
1837.000000	21.664646
1836.000000	21.636799
1835.000000	21.590575
1834.000000	21.532174
1833.000000	21.468137
1832.000000	21.422251
1831.000000	21.376477
1830.000000	21.316837
1829.000000	21.250995
1828.000000	21.175571
1827.000000	21.098568
1826.000000	21.019197
1825.000000	20.968238
1824.000000	20.904990
1823.000000	20.861471
1822.000000	20.835202
1821.000000	20.796644
1820.000000	20.775336
1819.000000	20.747489
1818.000000	20.710397
1817.000000	20.669246
1816.000000	20.653124
1815.000000	20.653575
1814.000000	20.654815
1813.000000	20.630688
1812.000000	20.622796
1811.000000	20.601262
1810.000000	20.560562
1809.000000	20.537676
1808.000000	20.509941
1807.000000	20.469241
1806.000000	20.423468
1805.000000	20.383444
1804.000000	20.336769
1803.000000	20.278369
1802.000000	20.226282
1801.000000	20.172053
1800.000000	20.105422
1799.000000	20.043640
1798.000000	20.004293
1797.000000	19.965396
1796.000000	19.910942
1795.000000	19.863590
1794.000000	19.809700
1793.000000	19.747917
1792.000000	19.693688
1791.000000	19.634386
1790.000000	19.582186
1789.000000	19.538555
1788.000000	19.487482
1787.000000	19.429420
1786.000000	19.359295
1785.000000	19.279586
1784.000000	19.220171
1783.000000	19.149820
1782.000000	19.063008
1781.000000	18.984652
1780.000000	18.910694
1779.000000	18.832451
1778.000000	18.742144
1777.000000	18.653190
1776.000000	18.574835
1775.000000	18.497945
1774.000000	18.411133
1773.000000	18.281705
1772.000000	18.160507
1771.000000	18.060618
1770.000000	17.943817
1769.000000	17.827129
1768.000000	17.717318
1767.000000	17.608634
1766.000000	17.505024
1765.000000	17.423399
1764.000000	17.356994
1763.000000	17.316858
1762.000000	17.316858
1761.000000	17.326553
1760.000000	17.354965
1759.000000	17.405473
1758.000000	17.466016
1757.000000	17.525318
1756.000000	17.579096
1755.000000	17.630168
1754.000000	17.678873
1753.000000	17.712921
1752.000000	17.742685
1751.000000	17.757229
1750.000000	17.752042
1749.000000	17.738062
1748.000000	17.696799
1747.000000	17.650011
1746.000000	17.591385
1745.000000	17.485858
1744.000000	17.374582
1743.000000	17.250114
1742.000000	17.098476
1741.000000	16.941088
1740.000000	16.742887
1739.000000	16.544461
1738.000000	16.349192
1737.000000	16.150202
1736.000000	15.987740
1735.000000	15.852562
1734.000000	15.748952
1733.000000	15.687057
1732.000000	15.682886
1731.000000	15.691116
1730.000000	15.746810
1729.000000	15.849631
1728.000000	15.945462
1727.000000	16.042533
1726.000000	16.128894
1725.000000	16.227430
1724.000000	16.311423
1723.000000	16.359113
1722.000000	16.387411
1721.000000	16.461934
1720.000000	16.471968
1719.000000	16.487977
1718.000000	16.525295
1717.000000	16.580990
1716.000000	16.614812
1715.000000	16.689335
1714.000000	16.754387
1713.000000	16.824851
1712.000000	16.875247
1711.000000	16.923951
1710.000000	16.964426
1709.000000	17.001518
1708.000000	16.994641
1707.000000	16.991033
1706.000000	16.972205
1705.000000	16.950220
1704.000000	16.900050
1703.000000	16.837253
1702.000000	16.761941
1701.000000	16.642209
1700.000000	16.518418
1699.000000	16.388651
1698.000000	16.255390
1697.000000	16.121114
1696.000000	15.997662
1695.000000	15.930129
1694.000000	15.906679
1693.000000	15.938359
1692.000000	16.019646
1691.000000	16.124948
1690.000000	16.287296
1689.000000	16.426307
1688.000000	16.548069
1687.000000	16.649086
1686.000000	16.663630
1685.000000	16.734319
1684.000000	16.754838
1683.000000	16.835787
1682.000000	17.003773
1681.000000	17.282359
1680.000000	17.657226
1679.000000	18.114734
1678.000000	18.609108
1677.000000	19.135727
1676.000000	19.677791
1675.000000	20.104859
1674.000000	20.500696
1673.000000	20.856849
1672.000000	21.192820
1671.000000	21.464529
1670.000000	21.718424
1669.000000	21.930605
1668.000000	22.109527
1667.000000	22.287096
1666.000000	22.391833
1665.000000	22.541104
1664.000000	22.674027
1663.000000	22.748099
1662.000000	22.843704
1661.000000	22.889364
1660.000000	22.960617
1659.000000	22.989705
1658.000000	23.064228
1657.000000	23.088918
1656.000000	23.129392
1655.000000	23.139539
1654.000000	23.143823
1653.000000	23.137284
1652.000000	23.098276
1651.000000	23.095457
1650.000000	23.064904
1649.000000	23.045174
1648.000000	23.016425
1647.000000	22.954529
1646.000000	22.926908
1645.000000	22.878879
1644.000000	22.830626
1643.000000	22.772902
1642.000000	22.710104
1641.000000	22.644714
1640.000000	22.595558
1639.000000	22.496007
1638.000000	22.439636
1637.000000	22.358913
1636.000000	22.321708
1635.000000	22.245832
1634.000000	22.166913
1633.000000	22.083822
1632.000000	21.990697
1631.000000	21.924517
1630.000000	21.834662
1629.000000	21.751909
1628.000000	21.667127
1627.000000	21.593957
1626.000000	21.512219
1625.000000	21.404888
1624.000000	21.335439
1623.000000	21.236339
1622.000000	21.145694
1621.000000	21.100597
1620.000000	20.997664
1619.000000	20.913220
1618.000000	20.834977
1617.000000	20.755945
1616.000000	20.698897
1615.000000	20.612649
1614.000000	20.538352
1613.000000	20.458982
1612.000000	20.379273
1611.000000	20.304187
1610.000000	20.243419
1609.000000	20.157960
1608.000000	20.072502
1607.000000	20.015341
1606.000000	19.966637
1605.000000	19.890423
1604.000000	19.809925
1603.000000	19.743745
1602.000000	19.662233
1601.000000	19.594362
1600.000000	19.536300
1599.000000	19.437876
1598.000000	19.381167
1597.000000	19.316002
1596.000000	19.244185
1595.000000	19.186348
1594.000000	19.118816
1593.000000	19.067292
1592.000000	19.005284
1591.000000	18.930085
1590.000000	18.884425
1589.000000	18.827715
1588.000000	18.765594
1587.000000	18.729066
1586.000000	18.685322
1585.000000	18.645975
1584.000000	18.591746
1583.000000	18.547889
1582.000000	18.507189
1581.000000	18.466377
1580.000000	18.433794
