PE UV       SUBTECH     SPECTRUM    ASCII       PEDS        4.00        
   -1
CICIMAUCR0248-2.ASC
24/06/27
14:42:40.00
24/06/27
14:42:40.00
Vinicio Soto Monge
C. resplendens. Sex F. Ventral
250,000000
1
Lambda 1050
1050L1511233
PerkinElmer UV WinLab 6.3.2.0749 / 2.02.05 Lambda 900 UV/VIS/NIR, Aug  7 2015 09:38:08

0
0
3350/servo 860,8/2
0
0
UV/VIS
1
1
1
DoubleDePol,CommonBeamDepol,RBeamAtt,SBeamAtt,60mm sphere, WB InGaAs Detector
0
0
0
0
Program
Program
3350/servo 860,8/2
3350/0,2 860,8/0,2
3350/0,2 860,8/0,2
0
15.00
 
 
 
0
 
860,8
319,2
860,8
Front
100
on
S:100 R:100
0
0
0
0
 
0
 
 
 
0
 
 
0
0
0
0
0
 
 
 
 
0
0


0
0
#HDR
-1
-1
#GR
nm
%R
1.0
0.0
2500,000000
-1,000000
2251
8
63,654100
4,573200
#DATA
2482.000000	5.705050
2481.000000	5.588083
2480.000000	5.629902
2479.000000	5.605278
2478.000000	5.543504
2477.000000	5.592753
2476.000000	5.616953
2475.000000	5.612707
2474.000000	5.629053
2473.000000	5.661001
2472.000000	5.579592
2471.000000	5.646991
2470.000000	5.626506
2469.000000	5.629371
2468.000000	5.643913
2467.000000	5.643594
2466.000000	5.640410
2465.000000	5.655907
2464.000000	5.648158
2463.000000	5.630114
2462.000000	5.649007
2461.000000	5.681486
2460.000000	5.684352
2459.000000	5.682760
2458.000000	5.704307
2457.000000	5.717786
2456.000000	5.709507
2455.000000	5.744746
2454.000000	5.737529
2453.000000	5.779879
2452.000000	5.782001
2451.000000	5.808855
2450.000000	5.857467
2449.000000	5.850887
2448.000000	5.884321
2447.000000	5.902259
2446.000000	5.933145
2445.000000	5.952357
2444.000000	5.996511
2443.000000	5.995450
2442.000000	5.998952
2441.000000	6.039180
2440.000000	6.070810
2439.000000	6.089490
2438.000000	6.121651
2437.000000	6.159649
2436.000000	6.175252
2435.000000	6.181302
2434.000000	6.211021
2433.000000	6.229914
2432.000000	6.269186
2431.000000	6.297313
2430.000000	6.305274
2429.000000	6.337859
2428.000000	6.342848
2427.000000	6.372461
2426.000000	6.402180
2425.000000	6.434235
2424.000000	6.444318
2423.000000	6.460876
2422.000000	6.471065
2421.000000	6.485182
2420.000000	6.506198
2419.000000	6.523605
2418.000000	6.539632
2417.000000	6.559056
2416.000000	6.576569
2415.000000	6.590473
2414.000000	6.611065
2413.000000	6.617433
2412.000000	6.645772
2411.000000	6.671989
2410.000000	6.660420
2409.000000	6.664241
2408.000000	6.683452
2407.000000	6.700010
2406.000000	6.706803
2405.000000	6.728668
2404.000000	6.749366
2403.000000	6.775582
2402.000000	6.811352
2401.000000	6.839903
2400.000000	6.835021
2399.000000	6.841389
2398.000000	6.849456
2397.000000	6.865589
2396.000000	6.880555
2395.000000	6.895096
2394.000000	6.896052
2393.000000	6.901571
2392.000000	6.924073
2391.000000	6.949440
2390.000000	6.960160
2389.000000	6.964725
2388.000000	6.977780
2387.000000	6.984573
2386.000000	6.989986
2385.000000	7.006650
2384.000000	7.012700
2383.000000	7.008879
2382.000000	7.010683
2381.000000	7.018007
2380.000000	7.032336
2379.000000	7.036688
2378.000000	7.027666
2377.000000	7.031168
2376.000000	7.024375
2375.000000	7.021510
2374.000000	7.015247
2373.000000	7.004846
2372.000000	7.016839
2371.000000	7.034777
2370.000000	7.021616
2369.000000	7.013018
2368.000000	7.001874
2367.000000	6.992109
2366.000000	6.996779
2365.000000	6.987863
2364.000000	6.974065
2363.000000	6.964088
2362.000000	6.957825
2361.000000	6.952412
2360.000000	6.939675
2359.000000	6.930866
2358.000000	6.924603
2357.000000	6.906029
2356.000000	6.899448
2355.000000	6.892974
2354.000000	6.877902
2353.000000	6.874930
2352.000000	6.875248
2351.000000	6.861450
2350.000000	6.870790
2349.000000	6.898917
2348.000000	6.890957
2347.000000	6.880767
2346.000000	6.899554
2345.000000	6.914732
2344.000000	6.924073
2343.000000	6.936916
2342.000000	6.955066
2341.000000	6.963345
2340.000000	6.973853
2339.000000	6.990092
2338.000000	6.999114
2337.000000	7.014823
2336.000000	7.024057
2335.000000	7.018538
2334.000000	7.013761
2333.000000	7.009091
2332.000000	7.010471
2331.000000	7.020554
2330.000000	7.021297
2329.000000	7.010789
2328.000000	7.003784
2327.000000	6.996991
2326.000000	6.990517
2325.000000	6.980115
2324.000000	6.969925
2323.000000	6.945832
2322.000000	6.923860
2321.000000	6.904755
2320.000000	6.891169
2319.000000	6.860601
2318.000000	6.849138
2317.000000	6.817508
2316.000000	6.773141
2315.000000	6.741299
2314.000000	6.720814
2313.000000	6.678039
2312.000000	6.665090
2311.000000	6.648214
2310.000000	6.624969
2309.000000	6.604590
2308.000000	6.562134
2307.000000	6.562771
2306.000000	6.543347
2305.000000	6.522968
2304.000000	6.521164
2303.000000	6.522650
2302.000000	6.548123
2301.000000	6.557251
2300.000000	6.562771
2299.000000	6.583786
2298.000000	6.602573
2297.000000	6.618813
2296.000000	6.653096
2295.000000	6.673369
2294.000000	6.707652
2293.000000	6.728562
2292.000000	6.737053
2291.000000	6.773035
2290.000000	6.785241
2289.000000	6.800631
2288.000000	6.816765
2287.000000	6.827591
2286.000000	6.844786
2285.000000	6.841283
2284.000000	6.829289
2283.000000	6.842981
2282.000000	6.832792
2281.000000	6.807424
2280.000000	6.818145
2279.000000	6.814536
2278.000000	6.800950
2277.000000	6.779934
2276.000000	6.772398
2275.000000	6.763482
2274.000000	6.745014
2273.000000	6.742891
2272.000000	6.726015
2271.000000	6.733126
2270.000000	6.732808
2269.000000	6.738115
2268.000000	6.738539
2267.000000	6.762315
2266.000000	6.787470
2265.000000	6.800419
2264.000000	6.858902
2263.000000	6.904649
2262.000000	6.956658
2261.000000	7.016096
2260.000000	7.074049
2259.000000	7.146755
2258.000000	7.245572
2257.000000	7.319977
2256.000000	7.407542
2255.000000	7.509862
2254.000000	7.612818
2253.000000	7.728617
2252.000000	7.787101
2251.000000	7.909056
2250.000000	8.001717
2249.000000	8.082277
2248.000000	8.177485
2247.000000	8.259957
2246.000000	8.342746
2245.000000	8.416408
2244.000000	8.534330
2243.000000	8.576467
2242.000000	8.643442
2241.000000	8.704260
2240.000000	8.747460
2239.000000	8.797133
2238.000000	8.841076
2237.000000	8.913357
2236.000000	8.941697
2235.000000	8.972477
2234.000000	9.001984
2233.000000	9.018542
2232.000000	9.031067
2231.000000	9.061635
2230.000000	9.079361
2229.000000	9.100589
2228.000000	9.121180
2227.000000	9.081908
2226.000000	9.090187
2225.000000	9.110354
2224.000000	9.092098
2223.000000	9.083500
2222.000000	9.066942
2221.000000	9.037011
2220.000000	9.031491
2219.000000	9.040301
2218.000000	9.009733
2217.000000	9.005699
2216.000000	8.975343
2215.000000	8.952417
2214.000000	8.928641
2213.000000	8.912614
2212.000000	8.866337
2211.000000	8.871432
2210.000000	8.828126
2209.000000	8.822076
2208.000000	8.806155
2207.000000	8.788218
2206.000000	8.782274
2205.000000	8.774844
2204.000000	8.736209
2203.000000	8.751918
2202.000000	8.731539
2201.000000	8.726232
2200.000000	8.721986
2199.000000	8.715830
2198.000000	8.699166
2197.000000	8.691948
2196.000000	8.678044
2195.000000	8.697574
2194.000000	8.674753
2193.000000	8.656922
2192.000000	8.644503
2191.000000	8.655117
2190.000000	8.638029
2189.000000	8.653525
2188.000000	8.637923
2187.000000	8.604807
2186.000000	8.618605
2185.000000	8.598757
2184.000000	8.604488
2183.000000	8.598969
2182.000000	8.606399
2181.000000	8.579652
2180.000000	8.568719
2179.000000	8.564686
2178.000000	8.557044
2177.000000	8.557680
2176.000000	8.537302
2175.000000	8.525520
2174.000000	8.515967
2173.000000	8.545793
2172.000000	8.537195
2171.000000	8.535073
2170.000000	8.520850
2169.000000	8.532950
2168.000000	8.528810
2167.000000	8.535603
2166.000000	8.547809
2165.000000	8.552267
2164.000000	8.561820
2163.000000	8.590584
2162.000000	8.573814
2161.000000	8.580819
2160.000000	8.607566
2159.000000	8.612555
2158.000000	8.643548
2157.000000	8.653313
2156.000000	8.673267
2155.000000	8.709249
2154.000000	8.709886
2153.000000	8.748733
2152.000000	8.739181
2151.000000	8.778559
2150.000000	8.790022
2149.000000	8.822501
2148.000000	8.844472
2147.000000	8.864002
2146.000000	8.915162
2145.000000	8.938937
2144.000000	8.962712
2143.000000	8.987231
2142.000000	8.988611
2141.000000	9.012386
2140.000000	9.052826
2139.000000	9.060468
2138.000000	9.094857
2137.000000	9.123728
2136.000000	9.139224
2135.000000	9.141665
2134.000000	9.168625
2133.000000	9.178071
2132.000000	9.202590
2131.000000	9.213735
2130.000000	9.230505
2129.000000	9.234963
2128.000000	9.235493
2127.000000	9.242923
2126.000000	9.263621
2125.000000	9.262665
2124.000000	9.277950
2123.000000	9.281134
2122.000000	9.278268
2121.000000	9.277525
2120.000000	9.278162
2119.000000	9.272218
2118.000000	9.269883
2117.000000	9.268715
2116.000000	9.273067
2115.000000	9.263621
2114.000000	9.238890
2113.000000	9.232522
2112.000000	9.241013
2111.000000	9.228276
2110.000000	9.214902
2109.000000	9.203864
2108.000000	9.197920
2107.000000	9.185077
2106.000000	9.173401
2105.000000	9.148777
2104.000000	9.141878
2103.000000	9.152704
2102.000000	9.137101
2101.000000	9.113750
2100.000000	9.101013
2099.000000	9.086685
2098.000000	9.076601
2097.000000	9.068428
2096.000000	9.048792
2095.000000	9.029475
2094.000000	9.021514
2093.000000	9.012068
2092.000000	9.006442
2091.000000	8.995828
2090.000000	8.982348
2089.000000	8.972796
2088.000000	8.964411
2087.000000	8.953903
2086.000000	8.942440
2085.000000	8.935965
2084.000000	8.920681
2083.000000	8.917072
2082.000000	8.903805
2081.000000	8.875465
2080.000000	8.847444
2079.000000	8.818680
2078.000000	8.803820
2077.000000	8.786625
2076.000000	8.765503
2075.000000	8.747884
2074.000000	8.714981
2073.000000	8.682077
2072.000000	8.652570
2071.000000	8.632191
2070.000000	8.597165
2069.000000	8.550675
2068.000000	8.525308
2067.000000	8.495588
2066.000000	8.453557
2065.000000	8.414391
2064.000000	8.399850
2063.000000	8.365672
2062.000000	8.315574
2061.000000	8.292754
2060.000000	8.279168
2059.000000	8.244460
2058.000000	8.224824
2057.000000	8.228857
2056.000000	8.206992
2055.000000	8.174938
2054.000000	8.177910
2053.000000	8.182049
2052.000000	8.194149
2051.000000	8.198926
2050.000000	8.208903
2049.000000	8.220791
2048.000000	8.228008
2047.000000	8.263778
2046.000000	8.299971
2045.000000	8.341366
2044.000000	8.377029
2043.000000	8.414391
2042.000000	8.452071
2041.000000	8.484868
2040.000000	8.508856
2039.000000	8.535073
2038.000000	8.570630
2037.000000	8.601198
2036.000000	8.643867
2035.000000	8.675709
2034.000000	8.686641
2033.000000	8.698847
2032.000000	8.738013
2031.000000	8.756375
2030.000000	8.773146
2029.000000	8.776011
2028.000000	8.810507
2027.000000	8.828339
2026.000000	8.852220
2025.000000	8.843623
2024.000000	8.846913
2023.000000	8.854131
2022.000000	8.854980
2021.000000	8.880029
2020.000000	8.885654
2019.000000	8.878331
2018.000000	8.882789
2017.000000	8.884805
2016.000000	8.897755
2015.000000	8.888202
2014.000000	8.883319
2013.000000	8.881833
2012.000000	8.867611
2011.000000	8.841500
2010.000000	8.827490
2009.000000	8.826428
2008.000000	8.817618
2007.000000	8.793949
2006.000000	8.770811
2005.000000	8.742046
2004.000000	8.747141
2003.000000	8.719863
2002.000000	8.678999
2001.000000	8.667430
2000.000000	8.635057
1999.000000	8.624443
1998.000000	8.582942
1997.000000	8.559803
1996.000000	8.523928
1995.000000	8.495376
1994.000000	8.457802
1993.000000	8.428614
1992.000000	8.403565
1991.000000	8.359304
1990.000000	8.334998
1989.000000	8.294983
1988.000000	8.270464
1987.000000	8.226522
1986.000000	8.170905
1985.000000	8.146386
1984.000000	8.109025
1983.000000	8.065189
1982.000000	8.022626
1981.000000	8.006175
1980.000000	7.945887
1979.000000	7.931558
1978.000000	7.878275
1977.000000	7.857153
1976.000000	7.814060
1975.000000	7.774470
1974.000000	7.758018
1973.000000	7.718428
1972.000000	7.690513
1971.000000	7.643280
1970.000000	7.622795
1969.000000	7.580021
1968.000000	7.531621
1967.000000	7.517186
1966.000000	7.493410
1965.000000	7.455730
1964.000000	7.442887
1963.000000	7.408285
1962.000000	7.384510
1961.000000	7.361159
1960.000000	7.336110
1959.000000	7.298218
1958.000000	7.252047
1957.000000	7.229863
1956.000000	7.224981
1955.000000	7.191865
1954.000000	7.127862
1953.000000	7.134974
1952.000000	7.088060
1951.000000	7.066301
1950.000000	7.027772
1949.000000	7.029895
1948.000000	6.986908
1947.000000	7.003678
1946.000000	6.979266
1945.000000	6.927257
1944.000000	6.932989
1943.000000	6.935111
1942.000000	6.906347
1941.000000	6.915263
1940.000000	6.894566
1939.000000	6.885119
1938.000000	6.877689
1937.000000	6.858372
1936.000000	6.865271
1935.000000	6.840752
1934.000000	6.877583
1933.000000	6.863467
1932.000000	6.890320
1931.000000	6.913353
1930.000000	6.895415
1929.000000	6.952837
1928.000000	6.964300
1927.000000	6.993701
1926.000000	6.991896
1925.000000	7.048788
1924.000000	7.061843
1923.000000	7.110986
1922.000000	7.163419
1921.000000	7.205133
1920.000000	7.239416
1919.000000	7.287391
1918.000000	7.310955
1917.000000	7.382175
1916.000000	7.444479
1915.000000	7.518672
1914.000000	7.595305
1913.000000	7.651666
1912.000000	7.728724
1911.000000	7.795167
1910.000000	7.868298
1909.000000	7.967858
1908.000000	8.037805
1907.000000	8.147448
1906.000000	8.256772
1905.000000	8.358030
1904.000000	8.495058
1903.000000	8.643548
1902.000000	8.741940
1901.000000	8.907732
1900.000000	9.058239
1899.000000	9.219679
1898.000000	9.405849
1897.000000	9.567182
1896.000000	9.749956
1895.000000	9.923708
1894.000000	10.128984
1893.000000	10.331075
1892.000000	10.570847
1891.000000	10.813165
1890.000000	11.067372
1889.000000	11.346203
1888.000000	11.598817
1887.000000	11.910764
1886.000000	12.207532
1885.000000	12.537629
1884.000000	12.882480
1883.000000	13.247178
1882.000000	13.645948
1881.000000	13.990055
1880.000000	14.379060
1879.000000	14.773053
1878.000000	15.160784
1877.000000	15.537477
1876.000000	15.920750
1875.000000	16.280991
1874.000000	16.677532
1873.000000	17.034482
1872.000000	17.397376
1871.000000	17.749232
1870.000000	18.084529
1869.000000	18.404755
1868.000000	18.754488
1867.000000	19.019839
1866.000000	19.290497
1865.000000	19.497577
1864.000000	19.711875
1863.000000	19.915028
1862.000000	20.098014
1861.000000	20.281849
1860.000000	20.468338
1859.000000	20.648034
1858.000000	20.791854
1857.000000	20.929837
1856.000000	21.040753
1855.000000	21.151246
1854.000000	21.246029
1853.000000	21.337628
1852.000000	21.396642
1851.000000	21.436233
1850.000000	21.497264
1849.000000	21.542904
1848.000000	21.585360
1847.000000	21.612851
1846.000000	21.621872
1845.000000	21.612001
1844.000000	21.603616
1843.000000	21.613275
1842.000000	21.619537
1841.000000	21.648726
1840.000000	21.663480
1839.000000	21.653608
1838.000000	21.624526
1837.000000	21.594594
1836.000000	21.573579
1835.000000	21.564557
1834.000000	21.526877
1833.000000	21.478477
1832.000000	21.451942
1831.000000	21.436870
1830.000000	21.399296
1829.000000	21.351957
1828.000000	21.316188
1827.000000	21.258341
1826.000000	21.203042
1825.000000	21.173429
1824.000000	21.116432
1823.000000	21.076311
1822.000000	21.073763
1821.000000	21.071216
1820.000000	21.050094
1819.000000	21.012732
1818.000000	20.964969
1817.000000	20.931960
1816.000000	20.915826
1815.000000	20.909670
1814.000000	20.910944
1813.000000	20.871566
1812.000000	20.837282
1811.000000	20.815417
1810.000000	20.800664
1809.000000	20.767654
1808.000000	20.728170
1807.000000	20.685926
1806.000000	20.654615
1805.000000	20.622136
1804.000000	20.578830
1803.000000	20.538285
1802.000000	20.492432
1801.000000	20.465791
1800.000000	20.413357
1799.000000	20.347338
1798.000000	20.313479
1797.000000	20.288005
1796.000000	20.236209
1795.000000	20.191948
1794.000000	20.152889
1793.000000	20.100349
1792.000000	20.051631
1791.000000	20.001957
1790.000000	19.973511
1789.000000	19.939122
1788.000000	19.877454
1787.000000	19.839031
1786.000000	19.805385
1785.000000	19.766219
1784.000000	19.734271
1783.000000	19.701049
1782.000000	19.640124
1781.000000	19.575166
1780.000000	19.525280
1779.000000	19.481338
1778.000000	19.433787
1777.000000	19.375834
1776.000000	19.301324
1775.000000	19.247723
1774.000000	19.186267
1773.000000	19.103266
1772.000000	19.049134
1771.000000	18.983433
1770.000000	18.897035
1769.000000	18.837702
1768.000000	18.763085
1767.000000	18.683480
1766.000000	18.625103
1765.000000	18.579462
1764.000000	18.515990
1763.000000	18.473853
1762.000000	18.446468
1761.000000	18.449759
1760.000000	18.469076
1759.000000	18.499433
1758.000000	18.535520
1757.000000	18.601858
1756.000000	18.665224
1755.000000	18.702267
1754.000000	18.749712
1753.000000	18.787073
1752.000000	18.811698
1751.000000	18.845238
1750.000000	18.863282
1749.000000	18.870500
1748.000000	18.862645
1747.000000	18.847892
1746.000000	18.808620
1745.000000	18.764996
1744.000000	18.702055
1743.000000	18.633276
1742.000000	18.537537
1741.000000	18.418341
1740.000000	18.301693
1739.000000	18.178676
1738.000000	18.039632
1737.000000	17.890292
1736.000000	17.785107
1735.000000	17.675464
1734.000000	17.571128
1733.000000	17.501925
1732.000000	17.481015
1731.000000	17.436224
1730.000000	17.439620
1729.000000	17.486959
1728.000000	17.548626
1727.000000	17.606685
1726.000000	17.682151
1725.000000	17.734054
1724.000000	17.792431
1723.000000	17.851976
1722.000000	17.903560
1721.000000	17.950686
1720.000000	18.014158
1719.000000	18.070307
1718.000000	18.163816
1717.000000	18.218054
1716.000000	18.279191
1715.000000	18.361025
1714.000000	18.453155
1713.000000	18.535839
1712.000000	18.637946
1711.000000	18.715216
1710.000000	18.788559
1709.000000	18.828468
1708.000000	18.841099
1707.000000	18.868801
1706.000000	18.862964
1705.000000	18.852456
1704.000000	18.831015
1703.000000	18.787285
1702.000000	18.728802
1701.000000	18.666498
1700.000000	18.576915
1699.000000	18.484254
1698.000000	18.382041
1697.000000	18.277599
1696.000000	18.171034
1695.000000	18.080390
1694.000000	18.037509
1693.000000	18.036554
1692.000000	18.057676
1691.000000	18.098965
1690.000000	18.198524
1689.000000	18.297341
1688.000000	18.398175
1687.000000	18.476931
1686.000000	18.553670
1685.000000	18.640705
1684.000000	18.712244
1683.000000	18.812016
1682.000000	18.940128
1681.000000	19.120036
1680.000000	19.391331
1679.000000	19.713573
1678.000000	20.051524
1677.000000	20.435434
1676.000000	20.810110
1675.000000	21.167910
1674.000000	21.495141
1673.000000	21.790424
1672.000000	22.046116
1671.000000	22.301384
1670.000000	22.503369
1669.000000	22.702913
1668.000000	22.879106
1667.000000	23.050311
1666.000000	23.156133
1665.000000	23.280848
1664.000000	23.390066
1663.000000	23.476783
1662.000000	23.554478
1661.000000	23.606911
1660.000000	23.690338
1659.000000	23.754022
1658.000000	23.791808
1657.000000	23.833627
1656.000000	23.854962
1655.000000	23.879268
1654.000000	23.883726
1653.000000	23.893491
1652.000000	23.876933
1651.000000	23.864833
1650.000000	23.834476
1649.000000	23.833733
1648.000000	23.802740
1647.000000	23.764848
1646.000000	23.730671
1645.000000	23.684606
1644.000000	23.642575
1643.000000	23.598632
1642.000000	23.548322
1641.000000	23.498648
1640.000000	23.462773
1639.000000	23.394206
1638.000000	23.337421
1637.000000	23.286473
1636.000000	23.238604
1635.000000	23.171523
1634.000000	23.107733
1633.000000	23.043836
1632.000000	22.970918
1631.000000	22.906384
1630.000000	22.843868
1629.000000	22.765430
1628.000000	22.701746
1627.000000	22.621822
1626.000000	22.537334
1625.000000	22.460488
1624.000000	22.406357
1623.000000	22.317517
1622.000000	22.263173
1621.000000	22.166055
1620.000000	22.097382
1619.000000	22.032211
1618.000000	21.976806
1617.000000	21.909619
1616.000000	21.825874
1615.000000	21.754017
1614.000000	21.698612
1613.000000	21.621554
1612.000000	21.561479
1611.000000	21.487711
1610.000000	21.420630
1609.000000	21.355991
1608.000000	21.295066
1607.000000	21.222254
1606.000000	21.154430
1605.000000	21.067289
1604.000000	20.994264
1603.000000	20.922725
1602.000000	20.844924
1601.000000	20.765531
1600.000000	20.703545
1599.000000	20.620650
1598.000000	20.558664
1597.000000	20.486063
1596.000000	20.406140
1595.000000	20.325473
1594.000000	20.274738
1593.000000	20.208825
1592.000000	20.135269
1591.000000	20.065641
1590.000000	20.000471
1589.000000	19.961623
1588.000000	19.891995
1587.000000	19.826613
1586.000000	19.774922
1585.000000	19.720472
1584.000000	19.652012
1583.000000	19.604355
1582.000000	19.559245
1581.000000	19.495455
1580.000000	19.451725
