PE UV       SUBTECH     SPECTRUM    ASCII       PEDS        4.00        
   -1
INBUCR0127-2.Sample.ASC
24/04/26
11:18:18.00
24/04/26
11:18:18.00
Vinicio Soto Monge
C. resplendens
250,000000
1
Lambda 1050
1050L1511233
PerkinElmer UV WinLab 6.3.2.0749 / 2.02.05 Lambda 900 UV/VIS/NIR, Aug  7 2015 09:38:08

0
0
3350/servo 860,8/2
0
0
UV/VIS
1
1
1
DoubleDePol,CommonBeamDepol,RBeamAtt,SBeamAtt,60mm sphere, WB InGaAs Detector
0
0
0
0
Program
Program
3350/servo 860,8/2
3350/0,2 860,8/0,2
3350/0,2 860,8/0,2
0
15.00
 
 
 
0
 
860,8
319,2
860,8
Front
100
on
S:100 R:100
0
0
0
0
 
0
 
 
 
0
 
 
0
0
0
0
0
 
 
 
 
0
0


0
0
#HDR
-1
-1
#GR
nm
%R
1.0
0.0
2500,000000
-1,000000
2251
8
82,877600
5,974600
#DATA
2482.000000	11.938605
2481.000000	11.955488
2480.000000	11.990134
2479.000000	12.022144
2478.000000	12.005261
2477.000000	12.033465
2476.000000	12.047128
2475.000000	12.064109
2474.000000	12.101877
2473.000000	12.173998
2472.000000	12.214890
2471.000000	12.245436
2470.000000	12.284961
2469.000000	12.305748
2468.000000	12.370452
2467.000000	12.437010
2466.000000	12.484343
2465.000000	12.494883
2464.000000	12.546314
2463.000000	12.642736
2462.000000	12.664401
2461.000000	12.693874
2460.000000	12.812059
2459.000000	12.853633
2458.000000	12.930146
2457.000000	13.007244
2456.000000	13.114108
2455.000000	13.187303
2454.000000	13.258057
2453.000000	13.353308
2452.000000	13.469443
2451.000000	13.543320
2450.000000	13.628812
2449.000000	13.744556
2448.000000	13.867426
2447.000000	13.971459
2446.000000	14.047191
2445.000000	14.175916
2444.000000	14.302982
2443.000000	14.395402
2442.000000	14.508902
2441.000000	14.628746
2440.000000	14.737366
2439.000000	14.861992
2438.000000	14.983495
2437.000000	15.086846
2436.000000	15.209324
2435.000000	15.315993
2434.000000	15.405778
2433.000000	15.530892
2432.000000	15.644197
2431.000000	15.756721
2430.000000	15.866318
2429.000000	15.959519
2428.000000	16.059942
2427.000000	16.169441
2426.000000	16.256396
2425.000000	16.341985
2424.000000	16.431184
2423.000000	16.539512
2422.000000	16.614658
2421.000000	16.694294
2420.000000	16.764658
2419.000000	16.830826
2418.000000	16.905094
2417.000000	16.979948
2416.000000	17.048262
2415.000000	17.114040
2414.000000	17.153370
2413.000000	17.198945
2412.000000	17.234274
2411.000000	17.267748
2410.000000	17.277215
2409.000000	17.321815
2408.000000	17.355679
2407.000000	17.394228
2406.000000	17.427312
2405.000000	17.436876
2404.000000	17.447709
2403.000000	17.480305
2402.000000	17.493285
2401.000000	17.498945
2400.000000	17.513487
2399.000000	17.516414
2398.000000	17.533005
2397.000000	17.560917
2396.000000	17.560331
2395.000000	17.564820
2394.000000	17.567748
2393.000000	17.573408
2392.000000	17.580045
2391.000000	17.582192
2390.000000	17.588340
2389.000000	17.594196
2388.000000	17.592341
2387.000000	17.585217
2386.000000	17.570969
2385.000000	17.555842
2384.000000	17.541496
2383.000000	17.526759
2382.000000	17.515926
2381.000000	17.493480
2380.000000	17.469667
2379.000000	17.458835
2378.000000	17.431509
2377.000000	17.406037
2376.000000	17.394911
2375.000000	17.353727
2374.000000	17.325328
2373.000000	17.301906
2372.000000	17.285998
2371.000000	17.276727
2370.000000	17.249889
2369.000000	17.234079
2368.000000	17.203240
2367.000000	17.179232
2366.000000	17.182062
2365.000000	17.179915
2364.000000	17.156102
2363.000000	17.120579
2362.000000	17.125946
2361.000000	17.123506
2360.000000	17.092862
2359.000000	17.070123
2358.000000	17.048555
2357.000000	17.015276
2356.000000	16.990097
2355.000000	16.974873
2354.000000	16.939349
2353.000000	16.910071
2352.000000	16.884795
2351.000000	16.847417
2350.000000	16.809356
2349.000000	16.776467
2348.000000	16.746311
2347.000000	16.710006
2346.000000	16.669896
2345.000000	16.637202
2344.000000	16.610950
2343.000000	16.578939
2342.000000	16.550833
2341.000000	16.529167
2340.000000	16.494034
2339.000000	16.460560
2338.000000	16.446116
2337.000000	16.432453
2336.000000	16.422108
2335.000000	16.411861
2334.000000	16.414496
2333.000000	16.421620
2332.000000	16.413227
2331.000000	16.418204
2330.000000	16.427085
2329.000000	16.422889
2328.000000	16.446897
2327.000000	16.471783
2326.000000	16.488569
2325.000000	16.496766
2324.000000	16.511991
2323.000000	16.537072
2322.000000	16.551906
2321.000000	16.558933
2320.000000	16.557176
2319.000000	16.562251
2318.000000	16.551223
2317.000000	16.545465
2316.000000	16.518822
2315.000000	16.501256
2314.000000	16.455778
2313.000000	16.421132
2312.000000	16.384925
2311.000000	16.348914
2310.000000	16.321588
2309.000000	16.277964
2308.000000	16.230826
2307.000000	16.186227
2306.000000	16.146702
2305.000000	16.108543
2304.000000	16.095173
2303.000000	16.080827
2302.000000	16.058966
2301.000000	16.047840
2300.000000	16.041302
2299.000000	16.017001
2298.000000	16.020222
2297.000000	16.027541
2296.000000	16.039935
2295.000000	16.040228
2294.000000	16.061406
2293.000000	16.078582
2292.000000	16.097808
2291.000000	16.130404
2290.000000	16.156656
2289.000000	16.172173
2288.000000	16.201451
2287.000000	16.230729
2286.000000	16.261568
2285.000000	16.295238
2284.000000	16.303240
2283.000000	16.348718
2282.000000	16.373605
2281.000000	16.407957
2280.000000	16.460560
2279.000000	16.461828
2278.000000	16.493155
2277.000000	16.521555
2276.000000	16.542635
2275.000000	16.569473
2274.000000	16.569180
2273.000000	16.613487
2272.000000	16.627931
2271.000000	16.642375
2270.000000	16.663455
2269.000000	16.684047
2268.000000	16.755289
2267.000000	16.787300
2266.000000	16.834339
2265.000000	16.909778
2264.000000	16.993318
2263.000000	17.091106
2262.000000	17.171815
2261.000000	17.292146
2260.000000	17.397546
2259.000000	17.520318
2258.000000	17.678418
2257.000000	17.842471
2256.000000	18.019016
2255.000000	18.169895
2254.000000	18.346635
2253.000000	18.515373
2252.000000	18.693869
2251.000000	18.875001
2250.000000	19.032906
2249.000000	19.201254
2248.000000	19.371358
2247.000000	19.522626
2246.000000	19.663843
2245.000000	19.791787
2244.000000	19.926269
2243.000000	20.039574
2242.000000	20.126822
2241.000000	20.244128
2240.000000	20.333035
2239.000000	20.374415
2238.000000	20.424577
2237.000000	20.468299
2236.000000	20.513972
2235.000000	20.535930
2234.000000	20.534174
2233.000000	20.534662
2232.000000	20.529294
2231.000000	20.543055
2230.000000	20.489769
2229.000000	20.450537
2228.000000	20.423504
2227.000000	20.369047
2226.000000	20.294389
2225.000000	20.248032
2224.000000	20.166347
2223.000000	20.099496
2222.000000	20.019861
2221.000000	19.955742
2220.000000	19.864396
2219.000000	19.779588
2218.000000	19.705027
2217.000000	19.621292
2216.000000	19.523309
2215.000000	19.430011
2214.000000	19.350863
2213.000000	19.271423
2212.000000	19.194910
2211.000000	19.109809
2210.000000	19.053791
2209.000000	18.986745
2208.000000	18.918918
2207.000000	18.849042
2206.000000	18.790486
2205.000000	18.723928
2204.000000	18.674253
2203.000000	18.623505
2202.000000	18.575978
2201.000000	18.530597
2200.000000	18.486680
2199.000000	18.449888
2198.000000	18.406362
2197.000000	18.351514
2196.000000	18.335997
2195.000000	18.291105
2194.000000	18.254898
2193.000000	18.225327
2192.000000	18.190096
2191.000000	18.188535
2190.000000	18.154280
2189.000000	18.143349
2188.000000	18.116023
2187.000000	18.078548
2186.000000	18.056492
2185.000000	18.032387
2184.000000	18.007110
2183.000000	17.982224
2182.000000	17.953629
2181.000000	17.953532
2180.000000	17.939088
2179.000000	17.895366
2178.000000	17.881313
2177.000000	17.879947
2176.000000	17.881899
2175.000000	17.873311
2174.000000	17.870383
2173.000000	17.879361
2172.000000	17.878385
2171.000000	17.891170
2170.000000	17.924156
2169.000000	17.942406
2168.000000	17.960363
2167.000000	17.984176
2166.000000	18.022627
2165.000000	18.064202
2164.000000	18.113681
2163.000000	18.151742
2162.000000	18.203076
2161.000000	18.273440
2160.000000	18.339901
2159.000000	18.429393
2158.000000	18.485119
2157.000000	18.569341
2156.000000	18.664299
2155.000000	18.773993
2154.000000	18.878905
2153.000000	18.986355
2152.000000	19.096634
2151.000000	19.207012
2150.000000	19.341104
2149.000000	19.473439
2148.000000	19.590258
2147.000000	19.703270
2146.000000	19.830238
2145.000000	19.949887
2144.000000	20.072463
2143.000000	20.193380
2142.000000	20.313419
2141.000000	20.442632
2140.000000	20.555547
2139.000000	20.659288
2138.000000	20.756490
2137.000000	20.855546
2136.000000	20.968754
2135.000000	21.073861
2134.000000	21.170478
2133.000000	21.264459
2132.000000	21.350927
2131.000000	21.419339
2130.000000	21.502000
2129.000000	21.571779
2128.000000	21.652585
2127.000000	21.731245
2126.000000	21.784335
2125.000000	21.826105
2124.000000	21.875097
2123.000000	21.931896
2122.000000	22.000503
2121.000000	22.043054
2120.000000	22.072429
2119.000000	22.113125
2118.000000	22.139865
2117.000000	22.160457
2116.000000	22.195200
2115.000000	22.218525
2114.000000	22.220867
2113.000000	22.220184
2112.000000	22.229943
2111.000000	22.244387
2110.000000	22.253756
2109.000000	22.252780
2108.000000	22.252097
2107.000000	22.256098
2106.000000	22.251902
2105.000000	22.246534
2104.000000	22.253951
2103.000000	22.251804
2102.000000	22.247803
2101.000000	22.241069
2100.000000	22.238727
2099.000000	22.253951
2098.000000	22.247510
2097.000000	22.245461
2096.000000	22.268883
2095.000000	22.288889
2094.000000	22.305187
2093.000000	22.328024
2092.000000	22.354081
2091.000000	22.388629
2090.000000	22.417907
2089.000000	22.438011
2088.000000	22.455870
2087.000000	22.463775
2086.000000	22.469045
2085.000000	22.475194
2084.000000	22.465532
2083.000000	22.457627
2082.000000	22.432546
2081.000000	22.400145
2080.000000	22.382383
2079.000000	22.319631
2078.000000	22.246437
2077.000000	22.191785
2076.000000	22.119273
2075.000000	22.029391
2074.000000	21.939313
2073.000000	21.831375
2072.000000	21.721876
2071.000000	21.620380
2070.000000	21.499853
2069.000000	21.379619
2068.000000	21.246210
2067.000000	21.118266
2066.000000	20.982807
2065.000000	20.842957
2064.000000	20.709353
2063.000000	20.572528
2062.000000	20.445072
2061.000000	20.330693
2060.000000	20.215924
2059.000000	20.099203
2058.000000	20.010199
2057.000000	19.956035
2056.000000	19.906263
2055.000000	19.873374
2054.000000	19.849757
2053.000000	19.849171
2052.000000	19.878254
2051.000000	19.934369
2050.000000	20.016347
2049.000000	20.124870
2048.000000	20.237297
2047.000000	20.367486
2046.000000	20.535442
2045.000000	20.678123
2044.000000	20.849008
2043.000000	21.034141
2042.000000	21.205416
2041.000000	21.383132
2040.000000	21.566411
2039.000000	21.739052
2038.000000	21.902520
2037.000000	22.072234
2036.000000	22.232383
2035.000000	22.388141
2034.000000	22.545753
2033.000000	22.695168
2032.000000	22.837262
2031.000000	22.969403
2030.000000	23.084465
2029.000000	23.219826
2028.000000	23.345037
2027.000000	23.459415
2026.000000	23.573306
2025.000000	23.670704
2024.000000	23.753364
2023.000000	23.854958
2022.000000	23.942499
2021.000000	24.022232
2020.000000	24.117678
2019.000000	24.186481
2018.000000	24.245427
2017.000000	24.296467
2016.000000	24.363904
2015.000000	24.401282
2014.000000	24.447443
2013.000000	24.469206
2012.000000	24.491165
2011.000000	24.526493
2010.000000	24.537716
2009.000000	24.528250
2008.000000	24.527274
2007.000000	24.521614
2006.000000	24.519564
2005.000000	24.478087
2004.000000	24.441197
2003.000000	24.408894
2002.000000	24.351803
2001.000000	24.287684
2000.000000	24.236838
1999.000000	24.174574
1998.000000	24.104698
1997.000000	24.034919
1996.000000	23.968556
1995.000000	23.871549
1994.000000	23.780105
1993.000000	23.694126
1992.000000	23.605902
1991.000000	23.501088
1990.000000	23.403495
1989.000000	23.317711
1988.000000	23.192109
1987.000000	23.100958
1986.000000	22.990385
1985.000000	22.879813
1984.000000	22.783684
1983.000000	22.655350
1982.000000	22.557855
1981.000000	22.458603
1980.000000	22.341394
1979.000000	22.235018
1978.000000	22.146404
1977.000000	22.036027
1976.000000	21.931408
1975.000000	21.826691
1974.000000	21.732709
1973.000000	21.632384
1972.000000	21.547478
1971.000000	21.445884
1970.000000	21.365468
1969.000000	21.245624
1968.000000	21.164037
1967.000000	21.052195
1966.000000	20.979879
1965.000000	20.888533
1964.000000	20.815338
1963.000000	20.696763
1962.000000	20.591070
1961.000000	20.515924
1960.000000	20.409255
1959.000000	20.316347
1958.000000	20.189379
1957.000000	20.105547
1956.000000	20.011370
1955.000000	19.919731
1954.000000	19.816868
1953.000000	19.697805
1952.000000	19.619243
1951.000000	19.524676
1950.000000	19.434402
1949.000000	19.351546
1948.000000	19.262932
1947.000000	19.204377
1946.000000	19.122399
1945.000000	19.057695
1944.000000	19.000115
1943.000000	18.931215
1942.000000	18.877539
1941.000000	18.858118
1940.000000	18.826888
1939.000000	18.786680
1938.000000	18.777604
1937.000000	18.746765
1936.000000	18.726075
1935.000000	18.738860
1934.000000	18.730564
1933.000000	18.764039
1932.000000	18.817910
1931.000000	18.861436
1930.000000	18.930824
1929.000000	18.999139
1928.000000	19.077506
1927.000000	19.175684
1926.000000	19.273862
1925.000000	19.373309
1924.000000	19.483199
1923.000000	19.639347
1922.000000	19.794226
1921.000000	19.971552
1920.000000	20.159028
1919.000000	20.349919
1918.000000	20.537004
1917.000000	20.728676
1916.000000	20.956750
1915.000000	21.217517
1914.000000	21.530107
1913.000000	21.891395
1912.000000	22.213743
1911.000000	22.533749
1910.000000	22.827113
1909.000000	23.138336
1908.000000	23.530365
1907.000000	23.974217
1906.000000	24.518198
1905.000000	25.118685
1904.000000	25.634560
1903.000000	26.156095
1902.000000	26.723694
1901.000000	27.310909
1900.000000	27.988104
1899.000000	28.671643
1898.000000	29.299944
1897.000000	29.974797
1896.000000	30.544250
1895.000000	31.134588
1894.000000	31.778114
1893.000000	32.463898
1892.000000	33.218874
1891.000000	33.956675
1890.000000	34.619524
1889.000000	35.219914
1888.000000	35.840115
1887.000000	36.379412
1886.000000	36.939106
1885.000000	37.491675
1884.000000	38.038877
1883.000000	38.550555
1882.000000	38.977328
1881.000000	39.382240
1880.000000	39.768706
1879.000000	40.139851
1878.000000	40.520560
1877.000000	40.864184
1876.000000	41.199610
1875.000000	41.551431
1874.000000	41.866167
1873.000000	42.181587
1872.000000	42.466850
1871.000000	42.694826
1870.000000	42.903577
1869.000000	43.085392
1868.000000	43.156635
1867.000000	43.225828
1866.000000	43.279992
1865.000000	43.314832
1864.000000	43.372119
1863.000000	43.461124
1862.000000	43.581553
1861.000000	43.717109
1860.000000	43.853056
1859.000000	43.975730
1858.000000	44.035066
1857.000000	44.048241
1856.000000	44.083179
1855.000000	44.136758
1854.000000	44.166133
1853.000000	44.157350
1852.000000	44.161937
1851.000000	44.181943
1850.000000	44.233862
1849.000000	44.301982
1848.000000	44.321208
1847.000000	44.303348
1846.000000	44.228787
1845.000000	44.117142
1844.000000	44.057903
1843.000000	44.059269
1842.000000	44.082301
1841.000000	44.081423
1840.000000	44.042971
1839.000000	44.013889
1838.000000	43.984903
1837.000000	43.928788
1836.000000	43.848371
1835.000000	43.746387
1834.000000	43.632692
1833.000000	43.567305
1832.000000	43.536465
1831.000000	43.513824
1830.000000	43.488450
1829.000000	43.446778
1828.000000	43.407057
1827.000000	43.376218
1826.000000	43.347233
1825.000000	43.301365
1824.000000	43.269745
1823.000000	43.285359
1822.000000	43.347331
1821.000000	43.398177
1820.000000	43.420037
1819.000000	43.387832
1818.000000	43.340695
1817.000000	43.320786
1816.000000	43.309758
1815.000000	43.283700
1814.000000	43.257546
1813.000000	43.245639
1812.000000	43.227877
1811.000000	43.187669
1810.000000	43.139263
1809.000000	43.096225
1808.000000	43.060994
1807.000000	43.043232
1806.000000	43.024787
1805.000000	42.978723
1804.000000	42.943395
1803.000000	42.935002
1802.000000	42.920558
1801.000000	42.888743
1800.000000	42.834872
1799.000000	42.800129
1798.000000	42.776999
1797.000000	42.740793
1796.000000	42.702243
1795.000000	42.673942
1794.000000	42.651203
1793.000000	42.636271
1792.000000	42.607676
1791.000000	42.592257
1790.000000	42.604065
1789.000000	42.595282
1788.000000	42.586499
1787.000000	42.598600
1786.000000	42.608262
1785.000000	42.602699
1784.000000	42.586206
1783.000000	42.579960
1782.000000	42.581033
1781.000000	42.567858
1780.000000	42.545119
1779.000000	42.516037
1778.000000	42.452309
1777.000000	42.399804
1776.000000	42.344957
1775.000000	42.290695
1774.000000	42.227358
1773.000000	42.163239
1772.000000	42.098438
1771.000000	42.050032
1770.000000	42.002992
1769.000000	41.947755
1768.000000	41.889492
1767.000000	41.843916
1766.000000	41.798438
1765.000000	41.770527
1764.000000	41.740858
1763.000000	41.707677
1762.000000	41.699967
1761.000000	41.696844
1760.000000	41.687085
1759.000000	41.692843
1758.000000	41.689330
1757.000000	41.684157
1756.000000	41.719876
1755.000000	41.723097
1754.000000	41.709531
1753.000000	41.701724
1752.000000	41.683279
1751.000000	41.667469
1750.000000	41.616721
1749.000000	41.581587
1748.000000	41.515127
1747.000000	41.419388
1746.000000	41.336825
1745.000000	41.250943
1744.000000	41.149057
1743.000000	41.035947
1742.000000	40.911614
1741.000000	40.782304
1740.000000	40.655921
1739.000000	40.544568
1738.000000	40.432141
1737.000000	40.335817
1736.000000	40.230710
1735.000000	40.153709
1734.000000	40.048797
1733.000000	39.967210
1732.000000	39.883573
1731.000000	39.789591
1730.000000	39.703905
1729.000000	39.640762
1728.000000	39.555954
1727.000000	39.462851
1726.000000	39.415421
1725.000000	39.379117
1724.000000	39.377848
1723.000000	39.415226
1722.000000	39.528336
1721.000000	39.689559
1720.000000	39.923684
1719.000000	40.194406
1718.000000	40.502603
1717.000000	40.814509
1716.000000	41.121828
1715.000000	41.419876
1714.000000	41.696747
1713.000000	41.938874
1712.000000	42.168607
1711.000000	42.378236
1710.000000	42.582595
1709.000000	42.719713
1708.000000	42.854488
1707.000000	42.999803
1706.000000	43.088418
1705.000000	43.164247
1704.000000	43.235002
1703.000000	43.287409
1702.000000	43.306830
1701.000000	43.311514
1700.000000	43.347526
1699.000000	43.332204
1698.000000	43.303609
1697.000000	43.290532
1696.000000	43.223486
1695.000000	43.125698
1694.000000	42.974625
1693.000000	42.827162
1692.000000	42.676089
1691.000000	42.518477
1690.000000	42.392289
1689.000000	42.320266
1688.000000	42.298796
1687.000000	42.358620
1686.000000	42.474657
1685.000000	42.658522
1684.000000	42.911580
1683.000000	43.144436
1682.000000	43.400812
1681.000000	43.697493
1680.000000	43.945769
1679.000000	44.188091
1678.000000	44.402990
1677.000000	44.611155
1676.000000	44.811318
1675.000000	45.015579
1674.000000	45.190368
1673.000000	45.388871
1672.000000	45.589912
1671.000000	45.787342
1670.000000	45.999899
1669.000000	46.230705
1668.000000	46.456632
1667.000000	46.660210
1666.000000	46.854127
1665.000000	47.072051
1664.000000	47.272214
1663.000000	47.469253
1662.000000	47.629403
1661.000000	47.805460
1660.000000	47.974393
1659.000000	48.099897
1658.000000	48.237795
1657.000000	48.344757
1656.000000	48.441374
1655.000000	48.539747
1654.000000	48.607476
1653.000000	48.671887
1652.000000	48.728589
1651.000000	48.776897
1650.000000	48.791926
1649.000000	48.811640
1648.000000	48.834184
1647.000000	48.849701
1646.000000	48.830963
1645.000000	48.838771
1644.000000	48.815544
1643.000000	48.810957
1642.000000	48.810859
1641.000000	48.807151
1640.000000	48.798270
1639.000000	48.789096
1638.000000	48.765576
1637.000000	48.758159
1636.000000	48.748302
1635.000000	48.720586
1634.000000	48.671497
1633.000000	48.637730
1632.000000	48.599766
1631.000000	48.565804
1630.000000	48.536722
1629.000000	48.474750
1628.000000	48.409949
1627.000000	48.366325
1626.000000	48.320944
1625.000000	48.266390
1624.000000	48.207249
1623.000000	48.157184
1622.000000	48.111511
1621.000000	48.071205
1620.000000	48.017334
1619.000000	47.954289
1618.000000	47.916032
1617.000000	47.887633
1616.000000	47.836202
1615.000000	47.781745
1614.000000	47.721433
1613.000000	47.674783
1612.000000	47.610470
1611.000000	47.550938
1610.000000	47.478622
1609.000000	47.402988
1608.000000	47.310275
1607.000000	47.231518
1606.000000	47.138219
