PE UV       SUBTECH     SPECTRUM    ASCII       PEDS        4.00        
   -1
CICIMAUCR0223-2.ASC
24/06/14
12:25:51.00
24/06/14
12:25:51.00
Vinicio Soto Monge
C. resplendens. Sex M. Ventral 
250,000000
1
Lambda 1050
1050L1511233
PerkinElmer UV WinLab 6.3.2.0749 / 2.02.05 Lambda 900 UV/VIS/NIR, Aug  7 2015 09:38:08

0
0
3350/servo 860,8/2
0
0
UV/VIS
1
1
1
DoubleDePol,CommonBeamDepol,RBeamAtt,SBeamAtt,60mm sphere, WB InGaAs Detector
0
0
0
0
Program
Program
3350/servo 860,8/2
3350/0,2 860,8/0,2
3350/0,2 860,8/0,2
0
15.00
 
 
 
0
 
860,8
319,2
860,8
Front
100
on
S:100 R:100
0
0
0
0
 
0
 
 
 
0
 
 
0
0
0
0
0
 
 
 
 
0
0


0
0
#HDR
-1
-1
#GR
nm
%R
1.0
0.0
2500,000000
-1,000000
2251
8
55,741500
4,289200
#DATA
2482.000000	6.493155
2481.000000	6.489821
2480.000000	6.481774
2479.000000	6.491431
2478.000000	6.462115
2477.000000	6.497524
2476.000000	6.483613
2475.000000	6.493615
2474.000000	6.530633
2473.000000	6.562477
2472.000000	6.506606
2471.000000	6.540864
2470.000000	6.566271
2469.000000	6.562362
2468.000000	6.541209
2467.000000	6.506376
2466.000000	6.546727
2465.000000	6.513848
2464.000000	6.549371
2463.000000	6.543393
2462.000000	6.584665
2461.000000	6.616164
2460.000000	6.584550
2459.000000	6.628005
2458.000000	6.632259
2457.000000	6.676864
2456.000000	6.716641
2455.000000	6.748600
2454.000000	6.757682
2453.000000	6.798149
2452.000000	6.817232
2451.000000	6.861837
2450.000000	6.869885
2449.000000	6.933689
2448.000000	6.945070
2447.000000	6.985536
2446.000000	7.017956
2445.000000	7.053939
2444.000000	7.075436
2443.000000	7.118202
2442.000000	7.154070
2441.000000	7.187524
2440.000000	7.247419
2439.000000	7.279953
2438.000000	7.302716
2437.000000	7.329157
2436.000000	7.390891
2435.000000	7.394685
2434.000000	7.434692
2433.000000	7.458029
2432.000000	7.478722
2431.000000	7.511371
2430.000000	7.545975
2429.000000	7.577359
2428.000000	7.617481
2427.000000	7.643348
2426.000000	7.654384
2425.000000	7.675767
2424.000000	7.705887
2423.000000	7.722786
2422.000000	7.741410
2421.000000	7.757964
2420.000000	7.797051
2419.000000	7.792913
2418.000000	7.811996
2417.000000	7.821538
2416.000000	7.868213
2415.000000	7.889136
2414.000000	7.886377
2413.000000	7.889481
2412.000000	7.921900
2411.000000	7.951560
2410.000000	7.971448
2409.000000	7.979611
2408.000000	7.990302
2407.000000	8.000879
2406.000000	8.012605
2405.000000	8.028010
2404.000000	8.051232
2403.000000	8.071580
2402.000000	8.092273
2401.000000	8.127566
2400.000000	8.153778
2399.000000	8.142741
2398.000000	8.156537
2397.000000	8.179184
2396.000000	8.188841
2395.000000	8.205740
2394.000000	8.239769
2393.000000	8.250001
2392.000000	8.253794
2391.000000	8.275637
2390.000000	8.292307
2389.000000	8.291847
2388.000000	8.303803
2387.000000	8.313805
2386.000000	8.320012
2385.000000	8.329899
2384.000000	8.347718
2383.000000	8.358870
2382.000000	8.362893
2381.000000	8.358065
2380.000000	8.362203
2379.000000	8.345879
2378.000000	8.340476
2377.000000	8.371975
2376.000000	8.353696
2375.000000	8.331164
2374.000000	8.344959
2373.000000	8.330014
2372.000000	8.322427
2371.000000	8.324956
2370.000000	8.312770
2369.000000	8.303113
2368.000000	8.292537
2367.000000	8.260232
2366.000000	8.243218
2365.000000	8.229423
2364.000000	8.202751
2363.000000	8.175850
2362.000000	8.146880
2361.000000	8.128601
2360.000000	8.111127
2359.000000	8.100206
2358.000000	8.080432
2357.000000	8.042610
2356.000000	8.011110
2355.000000	7.999269
2354.000000	7.984324
2353.000000	7.970069
2352.000000	7.967540
2351.000000	7.980875
2350.000000	7.980415
2349.000000	7.972598
2348.000000	7.991912
2347.000000	8.022951
2346.000000	8.037666
2345.000000	8.052037
2344.000000	8.066292
2343.000000	8.097676
2342.000000	8.132165
2341.000000	8.151249
2340.000000	8.155502
2339.000000	8.158376
2338.000000	8.178380
2337.000000	8.204821
2336.000000	8.212638
2335.000000	8.203556
2334.000000	8.201717
2333.000000	8.202866
2332.000000	8.207810
2331.000000	8.178150
2330.000000	8.143891
2329.000000	8.126992
2328.000000	8.112736
2327.000000	8.105494
2326.000000	8.083076
2325.000000	8.051462
2324.000000	8.002143
2323.000000	7.948916
2322.000000	7.918336
2321.000000	7.886377
2320.000000	7.846945
2319.000000	7.799006
2318.000000	7.730489
2317.000000	7.710600
2316.000000	7.668984
2315.000000	7.627368
2314.000000	7.546205
2313.000000	7.490908
2312.000000	7.455730
2311.000000	7.427679
2310.000000	7.391121
2309.000000	7.351115
2308.000000	7.329272
2307.000000	7.309843
2306.000000	7.292829
2305.000000	7.286966
2304.000000	7.297198
2303.000000	7.298117
2302.000000	7.321110
2301.000000	7.321799
2300.000000	7.365025
2299.000000	7.394340
2298.000000	7.449867
2297.000000	7.496771
2296.000000	7.535858
2295.000000	7.573451
2294.000000	7.615527
2293.000000	7.632771
2292.000000	7.665305
2291.000000	7.695425
2290.000000	7.718762
2289.000000	7.726005
2288.000000	7.751986
2287.000000	7.782336
2286.000000	7.764402
2285.000000	7.759114
2284.000000	7.761183
2283.000000	7.727959
2282.000000	7.714624
2281.000000	7.685883
2280.000000	7.656453
2279.000000	7.633576
2278.000000	7.615987
2277.000000	7.598283
2276.000000	7.582993
2275.000000	7.553332
2274.000000	7.525742
2273.000000	7.531950
2272.000000	7.503899
2271.000000	7.490678
2270.000000	7.522523
2269.000000	7.512291
2268.000000	7.561725
2267.000000	7.572531
2266.000000	7.600927
2265.000000	7.648636
2264.000000	7.725660
2263.000000	7.786820
2262.000000	7.860740
2261.000000	7.947306
2260.000000	8.068706
2259.000000	8.171827
2258.000000	8.291732
2257.000000	8.415316
2256.000000	8.540164
2255.000000	8.661334
2254.000000	8.794575
2253.000000	8.933103
2252.000000	9.060021
2251.000000	9.179352
2250.000000	9.323859
2249.000000	9.444453
2248.000000	9.543435
2247.000000	9.635520
2246.000000	9.752436
2245.000000	9.868662
2244.000000	9.935915
2243.000000	10.017998
2242.000000	10.108932
2241.000000	10.186072
2240.000000	10.242633
2239.000000	10.340006
2238.000000	10.380932
2237.000000	10.427032
2236.000000	10.482213
2235.000000	10.504861
2234.000000	10.562916
2233.000000	10.597750
2232.000000	10.647758
2231.000000	10.662473
2230.000000	10.685121
2229.000000	10.721104
2228.000000	10.719954
2227.000000	10.746050
2226.000000	10.721104
2225.000000	10.734554
2224.000000	10.754098
2223.000000	10.754213
2222.000000	10.708688
2221.000000	10.733175
2220.000000	10.734209
2219.000000	10.669946
2218.000000	10.689719
2217.000000	10.673854
2216.000000	10.641435
2215.000000	10.642125
2214.000000	10.614534
2213.000000	10.615339
2212.000000	10.592462
2211.000000	10.571768
2210.000000	10.562571
2209.000000	10.535785
2208.000000	10.543373
2207.000000	10.504746
2206.000000	10.507620
2205.000000	10.479339
2204.000000	10.471982
2203.000000	10.462900
2202.000000	10.447725
2201.000000	10.461750
2200.000000	10.442781
2199.000000	10.426802
2198.000000	10.393118
2197.000000	10.400360
2196.000000	10.415190
2195.000000	10.418869
2194.000000	10.405764
2193.000000	10.410477
2192.000000	10.401280
2191.000000	10.383231
2190.000000	10.381162
2189.000000	10.390704
2188.000000	10.371965
2187.000000	10.379897
2186.000000	10.350007
2185.000000	10.339316
2184.000000	10.327590
2183.000000	10.341040
2182.000000	10.319887
2181.000000	10.315978
2180.000000	10.299769
2179.000000	10.301493
2178.000000	10.281375
2177.000000	10.278041
2176.000000	10.270339
2175.000000	10.269994
2174.000000	10.263441
2173.000000	10.271833
2172.000000	10.268154
2171.000000	10.285169
2170.000000	10.276662
2169.000000	10.295285
2168.000000	10.298159
2167.000000	10.317013
2166.000000	10.305287
2165.000000	10.320692
2164.000000	10.337476
2163.000000	10.353456
2162.000000	10.358514
2161.000000	10.360699
2160.000000	10.379093
2159.000000	10.407603
2158.000000	10.433010
2157.000000	10.462210
2156.000000	10.475315
2155.000000	10.514862
2154.000000	10.517621
2153.000000	10.553489
2152.000000	10.586024
2151.000000	10.596370
2150.000000	10.620972
2149.000000	10.649253
2148.000000	10.674889
2147.000000	10.716965
2146.000000	10.726392
2145.000000	10.740762
2144.000000	10.764559
2143.000000	10.810889
2142.000000	10.815027
2141.000000	10.816292
2140.000000	10.841354
2139.000000	10.869174
2138.000000	10.895961
2137.000000	10.916424
2136.000000	10.931599
2135.000000	10.944474
2134.000000	10.955166
2133.000000	10.983102
2132.000000	10.975974
2131.000000	10.982297
2130.000000	10.986206
2129.000000	10.975169
2128.000000	10.994483
2127.000000	11.001840
2126.000000	10.989195
2125.000000	11.001725
2124.000000	10.993103
2123.000000	11.001381
2122.000000	10.996322
2121.000000	10.965857
2120.000000	10.961604
2119.000000	10.952522
2118.000000	10.944474
2117.000000	10.942290
2116.000000	10.935737
2115.000000	10.908721
2114.000000	10.873428
2113.000000	10.882165
2112.000000	10.870899
2111.000000	10.831007
2110.000000	10.823650
2109.000000	10.809049
2108.000000	10.773526
2107.000000	10.762490
2106.000000	10.757087
2105.000000	10.728806
2104.000000	10.707538
2103.000000	10.687305
2102.000000	10.672015
2101.000000	10.663623
2100.000000	10.639251
2099.000000	10.616603
2098.000000	10.607522
2097.000000	10.597635
2096.000000	10.586713
2095.000000	10.568664
2094.000000	10.549351
2093.000000	10.531877
2092.000000	10.517392
2091.000000	10.502102
2090.000000	10.488996
2089.000000	10.487616
2088.000000	10.469223
2087.000000	10.457611
2086.000000	10.453358
2085.000000	10.427721
2084.000000	10.405649
2083.000000	10.400245
2082.000000	10.396337
2081.000000	10.374724
2080.000000	10.361618
2079.000000	10.347363
2078.000000	10.306322
2077.000000	10.273788
2076.000000	10.263211
2075.000000	10.253439
2074.000000	10.220445
2073.000000	10.192280
2072.000000	10.166183
2071.000000	10.129970
2070.000000	10.109737
2069.000000	10.079272
2068.000000	10.045703
2067.000000	10.036162
2066.000000	10.003053
2065.000000	9.973048
2064.000000	9.949136
2063.000000	9.911313
2062.000000	9.895678
2061.000000	9.884412
2060.000000	9.865903
2059.000000	9.855557
2058.000000	9.842336
2057.000000	9.824632
2056.000000	9.813251
2055.000000	9.820493
2054.000000	9.826701
2053.000000	9.821643
2052.000000	9.835553
2051.000000	9.860040
2050.000000	9.896253
2049.000000	9.907634
2048.000000	9.945227
2047.000000	9.996040
2046.000000	10.031908
2045.000000	10.069041
2044.000000	10.130085
2043.000000	10.200787
2042.000000	10.234011
2041.000000	10.281145
2040.000000	10.338166
2039.000000	10.386105
2038.000000	10.429676
2037.000000	10.454048
2036.000000	10.487386
2035.000000	10.528543
2034.000000	10.561192
2033.000000	10.590507
2032.000000	10.635342
2031.000000	10.681672
2030.000000	10.704549
2029.000000	10.713286
2028.000000	10.728921
2027.000000	10.745591
2026.000000	10.766973
2025.000000	10.793760
2024.000000	10.812728
2023.000000	10.825029
2022.000000	10.835836
2021.000000	10.841124
2020.000000	10.852160
2019.000000	10.860207
2018.000000	10.852275
2017.000000	10.853080
2016.000000	10.860322
2015.000000	10.852505
2014.000000	10.851585
2013.000000	10.840204
2012.000000	10.858253
2011.000000	10.852275
2010.000000	10.813993
2009.000000	10.819856
2008.000000	10.797093
2007.000000	10.788701
2006.000000	10.772262
2005.000000	10.745246
2004.000000	10.707423
2003.000000	10.691444
2002.000000	10.658909
2001.000000	10.621087
2000.000000	10.576252
1999.000000	10.567515
1998.000000	10.509689
1997.000000	10.498308
1996.000000	10.457496
1995.000000	10.417260
1994.000000	10.379093
1993.000000	10.327590
1992.000000	10.288158
1991.000000	10.261372
1990.000000	10.199867
1989.000000	10.165264
1988.000000	10.117325
1987.000000	10.069041
1986.000000	10.022021
1985.000000	9.980175
1984.000000	9.933386
1983.000000	9.874870
1982.000000	9.837738
1981.000000	9.796236
1980.000000	9.731743
1979.000000	9.682309
1978.000000	9.657822
1977.000000	9.625518
1976.000000	9.552632
1975.000000	9.527226
1974.000000	9.453535
1973.000000	9.407091
1972.000000	9.370303
1971.000000	9.325468
1970.000000	9.290175
1969.000000	9.262699
1968.000000	9.199355
1967.000000	9.180501
1966.000000	9.135436
1965.000000	9.089566
1964.000000	9.042087
1963.000000	9.033120
1962.000000	8.971156
1961.000000	8.916664
1960.000000	8.904133
1959.000000	8.874243
1958.000000	8.838835
1957.000000	8.788252
1956.000000	8.759971
1955.000000	8.727897
1954.000000	8.702375
1953.000000	8.676739
1952.000000	8.632478
1951.000000	8.569824
1950.000000	8.573158
1949.000000	8.528553
1948.000000	8.504641
1947.000000	8.486247
1946.000000	8.468428
1945.000000	8.472452
1944.000000	8.426927
1943.000000	8.404394
1942.000000	8.396577
1941.000000	8.354731
1940.000000	8.382322
1939.000000	8.371975
1938.000000	8.350707
1937.000000	8.348868
1936.000000	8.352891
1935.000000	8.344959
1934.000000	8.358065
1933.000000	8.362433
1932.000000	8.394163
1931.000000	8.399796
1930.000000	8.416006
1929.000000	8.468313
1928.000000	8.475441
1927.000000	8.529013
1926.000000	8.569939
1925.000000	8.603048
1924.000000	8.649723
1923.000000	8.712377
1922.000000	8.765374
1921.000000	8.811474
1920.000000	8.880106
1919.000000	8.964603
1918.000000	9.037029
1917.000000	9.101408
1916.000000	9.181766
1915.000000	9.253962
1914.000000	9.361451
1913.000000	9.457099
1912.000000	9.571141
1911.000000	9.675182
1910.000000	9.763932
1909.000000	9.886826
1908.000000	10.008111
1907.000000	10.125257
1906.000000	10.229757
1905.000000	10.395187
1904.000000	10.561192
1903.000000	10.728001
1902.000000	10.888603
1901.000000	11.043112
1900.000000	11.194171
1899.000000	11.404207
1898.000000	11.597457
1897.000000	11.811056
1896.000000	12.015688
1895.000000	12.190660
1894.000000	12.407248
1893.000000	12.616593
1892.000000	12.882845
1891.000000	13.150706
1890.000000	13.441099
1889.000000	13.728618
1888.000000	14.045568
1887.000000	14.335042
1886.000000	14.654635
1885.000000	15.060795
1884.000000	15.464656
1883.000000	15.903235
1882.000000	16.382855
1881.000000	16.819825
1880.000000	17.305079
1879.000000	17.762167
1878.000000	18.213047
1877.000000	18.657374
1876.000000	19.118026
1875.000000	19.574079
1874.000000	19.997368
1873.000000	20.435717
1872.000000	20.873147
1871.000000	21.256889
1870.000000	21.634653
1869.000000	21.990345
1868.000000	22.314997
1867.000000	22.554807
1866.000000	22.778638
1865.000000	22.943378
1864.000000	23.131800
1863.000000	23.288148
1862.000000	23.435529
1861.000000	23.598085
1860.000000	23.773172
1859.000000	23.905608
1858.000000	24.027353
1857.000000	24.127829
1856.000000	24.202784
1855.000000	24.270037
1854.000000	24.333496
1853.000000	24.348211
1852.000000	24.352924
1851.000000	24.368214
1850.000000	24.393851
1849.000000	24.407186
1848.000000	24.421786
1847.000000	24.422591
1846.000000	24.409485
1845.000000	24.360397
1844.000000	24.306250
1843.000000	24.254172
1842.000000	24.264749
1841.000000	24.287281
1840.000000	24.276015
1839.000000	24.262679
1838.000000	24.229570
1837.000000	24.189449
1836.000000	24.151741
1835.000000	24.127024
1834.000000	24.070693
1833.000000	23.997692
1832.000000	23.928026
1831.000000	23.864797
1830.000000	23.813869
1829.000000	23.753973
1828.000000	23.695228
1827.000000	23.626366
1826.000000	23.556584
1825.000000	23.493700
1824.000000	23.427252
1823.000000	23.373450
1822.000000	23.338157
1821.000000	23.320913
1820.000000	23.307002
1819.000000	23.281021
1818.000000	23.221471
1817.000000	23.197329
1816.000000	23.184223
1815.000000	23.156862
1814.000000	23.142837
1813.000000	23.132260
1812.000000	23.112142
1811.000000	23.084321
1810.000000	23.045924
1809.000000	22.999250
1808.000000	22.967060
1807.000000	22.933032
1806.000000	22.883943
1805.000000	22.816230
1804.000000	22.778523
1803.000000	22.757370
1802.000000	22.698854
1801.000000	22.639649
1800.000000	22.591595
1799.000000	22.537678
1798.000000	22.471000
1797.000000	22.415129
1796.000000	22.368454
1795.000000	22.316492
1794.000000	22.273496
1793.000000	22.228086
1792.000000	22.174399
1791.000000	22.120137
1790.000000	22.067025
1789.000000	22.014027
1788.000000	21.947120
1787.000000	21.905044
1786.000000	21.855840
1785.000000	21.782264
1784.000000	21.697882
1783.000000	21.624767
1782.000000	21.569240
1781.000000	21.495780
1780.000000	21.430941
1779.000000	21.361734
1778.000000	21.290113
1777.000000	21.199523
1776.000000	21.106634
1775.000000	21.029725
1774.000000	20.948332
1773.000000	20.845901
1772.000000	20.717489
1771.000000	20.606091
1770.000000	20.505269
1769.000000	20.400769
1768.000000	20.302132
1767.000000	20.195217
1766.000000	20.097845
1765.000000	20.021740
1764.000000	19.955867
1763.000000	19.920344
1762.000000	19.923448
1761.000000	19.932070
1760.000000	19.952418
1759.000000	20.005415
1758.000000	20.062092
1757.000000	20.146703
1756.000000	20.222923
1755.000000	20.278794
1754.000000	20.330987
1753.000000	20.358233
1752.000000	20.379961
1751.000000	20.385134
1750.000000	20.368235
1749.000000	20.369384
1748.000000	20.347312
1747.000000	20.293050
1746.000000	20.217060
1745.000000	20.133253
1744.000000	20.036570
1743.000000	19.902984
1742.000000	19.772388
1741.000000	19.609142
1740.000000	19.406580
1739.000000	19.220112
1738.000000	19.039852
1737.000000	18.836944
1736.000000	18.669445
1735.000000	18.552759
1734.000000	18.447569
1733.000000	18.398480
1732.000000	18.390203
1731.000000	18.410206
1730.000000	18.472630
1729.000000	18.537239
1728.000000	18.629553
1727.000000	18.737502
1726.000000	18.829127
1725.000000	18.920176
1724.000000	19.002604
1723.000000	19.061694
1722.000000	19.105610
1721.000000	19.153894
1720.000000	19.188727
1719.000000	19.217008
1718.000000	19.260578
1717.000000	19.314150
1716.000000	19.378069
1715.000000	19.462221
1714.000000	19.533267
1713.000000	19.595577
1712.000000	19.666968
1711.000000	19.710883
1710.000000	19.792276
1709.000000	19.792046
1708.000000	19.816648
1707.000000	19.787333
1706.000000	19.780550
1705.000000	19.733531
1704.000000	19.671796
1703.000000	19.615465
1702.000000	19.537751
1701.000000	19.436815
1700.000000	19.313691
1699.000000	19.189187
1698.000000	19.045140
1697.000000	18.899253
1696.000000	18.788430
1695.000000	18.732559
1694.000000	18.711406
1693.000000	18.746814
1692.000000	18.815101
1691.000000	18.936961
1690.000000	19.091469
1689.000000	19.233102
1688.000000	19.347604
1687.000000	19.443022
1686.000000	19.507516
1685.000000	19.540970
1684.000000	19.592013
1683.000000	19.717436
1682.000000	19.887580
1681.000000	20.195332
1680.000000	20.564245
1679.000000	21.055476
1678.000000	21.538890
1677.000000	22.045412
1676.000000	22.527446
1675.000000	22.977752
1674.000000	23.372990
1673.000000	23.733510
1672.000000	24.029422
1671.000000	24.322804
1670.000000	24.524677
1669.000000	24.741725
1668.000000	24.930607
1667.000000	25.058789
1666.000000	25.172142
1665.000000	25.313775
1664.000000	25.434599
1663.000000	25.533007
1662.000000	25.584395
1661.000000	25.666937
1660.000000	25.717405
1659.000000	25.792590
1658.000000	25.840529
1657.000000	25.859498
1656.000000	25.889158
1655.000000	25.913415
1654.000000	25.917669
1653.000000	25.902379
1652.000000	25.894446
1651.000000	25.863637
1650.000000	25.862257
1649.000000	25.823400
1648.000000	25.785348
1647.000000	25.733500
1646.000000	25.687515
1645.000000	25.644979
1644.000000	25.585199
1643.000000	25.515992
1642.000000	25.478860
1641.000000	25.395283
1640.000000	25.329065
1639.000000	25.273653
1638.000000	25.219736
1637.000000	25.167888
1636.000000	25.097647
1635.000000	25.035222
1634.000000	24.958773
1633.000000	24.873241
1632.000000	24.770580
1631.000000	24.697235
1630.000000	24.621935
1629.000000	24.522378
1628.000000	24.455470
1627.000000	24.380400
1626.000000	24.277049
1625.000000	24.191633
1624.000000	24.134152
1623.000000	24.015397
1622.000000	23.914460
1621.000000	23.841919
1620.000000	23.771793
1619.000000	23.689480
1618.000000	23.612341
1617.000000	23.551411
1616.000000	23.467834
1615.000000	23.386671
1614.000000	23.322062
1613.000000	23.236990
1612.000000	23.149505
1611.000000	23.069031
1610.000000	23.035922
1609.000000	22.943263
1608.000000	22.872677
1607.000000	22.804159
1606.000000	22.719318
1605.000000	22.634131
1604.000000	22.573891
1603.000000	22.486865
1602.000000	22.407082
1601.000000	22.346612
1600.000000	22.258321
1599.000000	22.187505
1598.000000	22.114159
1597.000000	22.030812
1596.000000	21.961835
1595.000000	21.903434
1594.000000	21.855725
1593.000000	21.774677
1592.000000	21.713862
