PE UV       SUBTECH     SPECTRUM    ASCII       PEDS        4.00        
   -1
CICIMAUCR0238-2.ASC
24/06/20
13:42:30.00
24/06/20
13:42:30.00
Vinicio Soto Monge
C. cupreomarginata. Sex M. Ventral 
250,000000
1
Lambda 1050
1050L1511233
PerkinElmer UV WinLab 6.3.2.0749 / 2.02.05 Lambda 900 UV/VIS/NIR, Aug  7 2015 09:38:08

0
0
3350/servo 860,8/2
0
0
UV/VIS
1
1
1
DoubleDePol,CommonBeamDepol,RBeamAtt,SBeamAtt,60mm sphere, WB InGaAs Detector
0
0
0
0
Program
Program
3350/servo 860,8/2
3350/0,2 860,8/0,2
3350/0,2 860,8/0,2
0
15.00
 
 
 
0
 
860,8
319,2
860,8
Front
100
on
S:100 R:100
0
0
0
0
 
0
 
 
 
0
 
 
0
0
0
0
0
 
 
 
 
0
0


0
0
#HDR
-1
-1
#GR
nm
%R
1.0
0.0
2500,000000
-1,000000
2251
8
57,805200
3,677600
#DATA
2482.000000	6.163883
2481.000000	6.195690
2480.000000	6.216895
2479.000000	6.206744
2478.000000	6.185651
2477.000000	6.167492
2476.000000	6.177079
2475.000000	6.160950
2474.000000	6.159258
2473.000000	6.180914
2472.000000	6.142452
2471.000000	6.139971
2470.000000	6.070829
2469.000000	6.121811
2468.000000	6.105682
2467.000000	6.108840
2466.000000	6.074776
2465.000000	6.127225
2464.000000	6.100380
2463.000000	6.121360
2462.000000	6.105682
2461.000000	6.097673
2460.000000	6.109742
2459.000000	6.115495
2458.000000	6.109517
2457.000000	6.154634
2456.000000	6.170424
2455.000000	6.162980
2454.000000	6.158468
2453.000000	6.196028
2452.000000	6.220617
2451.000000	6.228400
2450.000000	6.239792
2449.000000	6.228513
2448.000000	6.290097
2447.000000	6.293707
2446.000000	6.323371
2445.000000	6.352584
2444.000000	6.333071
2443.000000	6.381572
2442.000000	6.376384
2441.000000	6.382587
2440.000000	6.430411
2439.000000	6.452406
2438.000000	6.478686
2437.000000	6.490642
2436.000000	6.489514
2435.000000	6.518728
2434.000000	6.527751
2433.000000	6.563619
2432.000000	6.612458
2431.000000	6.599713
2430.000000	6.592832
2429.000000	6.624076
2428.000000	6.615391
2427.000000	6.633776
2426.000000	6.655432
2425.000000	6.662989
2424.000000	6.669757
2423.000000	6.680810
2422.000000	6.694007
2421.000000	6.700211
2420.000000	6.715889
2419.000000	6.726153
2418.000000	6.737545
2417.000000	6.749163
2416.000000	6.758637
2415.000000	6.765856
2414.000000	6.797663
2413.000000	6.805897
2412.000000	6.809958
2411.000000	6.809732
2410.000000	6.830486
2409.000000	6.826200
2408.000000	6.830712
2407.000000	6.833419
2406.000000	6.840637
2405.000000	6.850901
2404.000000	6.871881
2403.000000	6.887221
2402.000000	6.885190
2401.000000	6.894778
2400.000000	6.903350
2399.000000	6.903801
2398.000000	6.921397
2397.000000	6.948467
2396.000000	6.977229
2395.000000	6.978582
2394.000000	6.998096
2393.000000	7.010052
2392.000000	7.014450
2391.000000	7.019639
2390.000000	7.022008
2389.000000	7.030805
2388.000000	7.057086
2387.000000	7.041633
2386.000000	7.064982
2385.000000	7.086299
2384.000000	7.067350
2383.000000	7.065884
2382.000000	7.065433
2381.000000	7.066109
2380.000000	7.064418
2379.000000	7.055958
2378.000000	7.056296
2377.000000	7.062387
2376.000000	7.066561
2375.000000	7.069268
2374.000000	7.052687
2373.000000	7.052800
2372.000000	7.055620
2371.000000	7.045920
2370.000000	7.029903
2369.000000	7.007232
2368.000000	6.990313
2367.000000	6.989636
2366.000000	6.987268
2365.000000	6.971815
2364.000000	6.952527
2363.000000	6.937639
2362.000000	6.918464
2361.000000	6.907298
2360.000000	6.901771
2359.000000	6.888574
2358.000000	6.874137
2357.000000	6.853383
2356.000000	6.831163
2355.000000	6.818643
2354.000000	6.807815
2353.000000	6.803867
2352.000000	6.808943
2351.000000	6.798453
2350.000000	6.804882
2349.000000	6.827215
2348.000000	6.832291
2347.000000	6.838156
2346.000000	6.844134
2345.000000	6.865790
2344.000000	6.886205
2343.000000	6.904929
2342.000000	6.921848
2341.000000	6.925119
2340.000000	6.953655
2339.000000	6.949933
2338.000000	6.938541
2337.000000	6.963694
2336.000000	6.973958
2335.000000	6.985012
2334.000000	6.994035
2333.000000	6.975086
2332.000000	6.955009
2331.000000	6.942827
2330.000000	6.948016
2329.000000	6.934368
2328.000000	6.907298
2327.000000	6.893650
2326.000000	6.872332
2325.000000	6.859022
2324.000000	6.839509
2323.000000	6.830599
2322.000000	6.799242
2321.000000	6.760216
2320.000000	6.742169
2319.000000	6.720401
2318.000000	6.691075
2317.000000	6.641446
2316.000000	6.622497
2315.000000	6.597344
2314.000000	6.557528
2313.000000	6.527864
2312.000000	6.511283
2311.000000	6.491883
2310.000000	6.455677
2309.000000	6.458835
2308.000000	6.431990
2307.000000	6.407176
2306.000000	6.425110
2305.000000	6.404582
2304.000000	6.411236
2303.000000	6.417327
2302.000000	6.421501
2301.000000	6.444397
2300.000000	6.456353
2299.000000	6.479701
2298.000000	6.498312
2297.000000	6.522788
2296.000000	6.542414
2295.000000	6.573094
2294.000000	6.593735
2293.000000	6.621482
2292.000000	6.660733
2291.000000	6.662876
2290.000000	6.685886
2289.000000	6.689721
2288.000000	6.689608
2287.000000	6.700436
2286.000000	6.695586
2285.000000	6.696376
2284.000000	6.694458
2283.000000	6.692654
2282.000000	6.675396
2281.000000	6.684758
2280.000000	6.658139
2279.000000	6.650920
2278.000000	6.624301
2277.000000	6.610653
2276.000000	6.597118
2275.000000	6.599600
2274.000000	6.590238
2273.000000	6.573770
2272.000000	6.585501
2271.000000	6.563168
2270.000000	6.588321
2269.000000	6.600502
2268.000000	6.603999
2267.000000	6.614037
2266.000000	6.650356
2265.000000	6.683630
2264.000000	6.740365
2263.000000	6.746907
2262.000000	6.818192
2261.000000	6.860940
2260.000000	6.938992
2259.000000	7.006781
2258.000000	7.071411
2257.000000	7.162321
2256.000000	7.223793
2255.000000	7.330044
2254.000000	7.428173
2253.000000	7.513670
2252.000000	7.600633
2251.000000	7.685566
2250.000000	7.779071
2249.000000	7.849566
2248.000000	7.920287
2247.000000	7.987962
2246.000000	8.075038
2245.000000	8.160309
2244.000000	8.222007
2243.000000	8.303104
2242.000000	8.332882
2241.000000	8.402587
2240.000000	8.470714
2239.000000	8.487520
2238.000000	8.548654
2237.000000	8.591402
2236.000000	8.623209
2235.000000	8.658175
2234.000000	8.713218
2233.000000	8.742544
2232.000000	8.761155
2231.000000	8.764538
2230.000000	8.805144
2229.000000	8.823416
2228.000000	8.824093
2227.000000	8.847102
2226.000000	8.850599
2225.000000	8.871127
2224.000000	8.883196
2223.000000	8.885790
2222.000000	8.870450
2221.000000	8.848682
2220.000000	8.846087
2219.000000	8.839997
2218.000000	8.845749
2217.000000	8.833906
2216.000000	8.833793
2215.000000	8.807399
2214.000000	8.834019
2213.000000	8.815408
2212.000000	8.774351
2211.000000	8.788338
2210.000000	8.772659
2209.000000	8.770516
2208.000000	8.771306
2207.000000	8.757545
2206.000000	8.759688
2205.000000	8.721790
2204.000000	8.760252
2203.000000	8.728332
2202.000000	8.724610
2201.000000	8.729122
2200.000000	8.722805
2199.000000	8.721226
2198.000000	8.733408
2197.000000	8.721339
2196.000000	8.737017
2195.000000	8.708480
2194.000000	8.716489
2193.000000	8.710285
2192.000000	8.700134
2191.000000	8.685358
2190.000000	8.664604
2189.000000	8.672500
2188.000000	8.684456
2187.000000	8.645430
2186.000000	8.649941
2185.000000	8.651746
2184.000000	8.649264
2183.000000	8.639790
2182.000000	8.631669
2181.000000	8.626480
2180.000000	8.622871
2179.000000	8.626932
2178.000000	8.599523
2177.000000	8.613848
2176.000000	8.598169
2175.000000	8.582604
2174.000000	8.595914
2173.000000	8.595350
2172.000000	8.605050
2171.000000	8.575837
2170.000000	8.616103
2169.000000	8.587793
2168.000000	8.602004
2167.000000	8.619938
2166.000000	8.634714
2165.000000	8.624676
2164.000000	8.635053
2163.000000	8.657160
2162.000000	8.653325
2161.000000	8.651520
2160.000000	8.678027
2159.000000	8.681185
2158.000000	8.698780
2157.000000	8.727655
2156.000000	8.730024
2155.000000	8.750101
2154.000000	8.763410
2153.000000	8.789127
2152.000000	8.812024
2151.000000	8.824318
2150.000000	8.824093
2149.000000	8.846764
2148.000000	8.869999
2147.000000	8.896054
2146.000000	8.897633
2145.000000	8.897521
2144.000000	8.933163
2143.000000	8.948954
2142.000000	8.951097
2141.000000	8.979070
2140.000000	8.972189
2139.000000	8.969031
2138.000000	8.995876
2137.000000	9.026555
2136.000000	9.030954
2135.000000	9.035015
2134.000000	9.039865
2133.000000	9.048775
2132.000000	9.056896
2131.000000	9.056445
2130.000000	9.067612
2129.000000	9.088591
2128.000000	9.096712
2127.000000	9.094795
2126.000000	9.085771
2125.000000	9.085771
2124.000000	9.084982
2123.000000	9.078214
2122.000000	9.069755
2121.000000	9.063100
2120.000000	9.039752
2119.000000	9.025427
2118.000000	9.033097
2117.000000	9.028473
2116.000000	9.008283
2115.000000	9.006478
2114.000000	9.000162
2113.000000	8.976588
2112.000000	8.970836
2111.000000	8.978054
2110.000000	8.955722
2109.000000	8.932599
2108.000000	8.937675
2107.000000	8.915455
2106.000000	8.879474
2105.000000	8.872706
2104.000000	8.865149
2103.000000	8.853193
2102.000000	8.840673
2101.000000	8.835259
2100.000000	8.813941
2099.000000	8.792736
2098.000000	8.795443
2097.000000	8.788676
2096.000000	8.772434
2095.000000	8.749424
2094.000000	8.741078
2093.000000	8.729911
2092.000000	8.722016
2091.000000	8.723144
2090.000000	8.703292
2089.000000	8.688967
2088.000000	8.691449
2087.000000	8.692238
2086.000000	8.675432
2085.000000	8.653212
2084.000000	8.644189
2083.000000	8.641933
2082.000000	8.626706
2081.000000	8.608659
2080.000000	8.584409
2079.000000	8.581476
2078.000000	8.578205
2077.000000	8.562865
2076.000000	8.554180
2075.000000	8.527223
2074.000000	8.501732
2073.000000	8.489099
2072.000000	8.478045
2071.000000	8.471391
2070.000000	8.443982
2069.000000	8.428078
2068.000000	8.401798
2067.000000	8.383751
2066.000000	8.389616
2065.000000	8.360854
2064.000000	8.337168
2063.000000	8.334461
2062.000000	8.322166
2061.000000	8.308518
2060.000000	8.288667
2059.000000	8.290923
2058.000000	8.287765
2057.000000	8.282802
2056.000000	8.286975
2055.000000	8.277049
2054.000000	8.280771
2053.000000	8.300285
2052.000000	8.310549
2051.000000	8.339198
2050.000000	8.368637
2049.000000	8.395256
2048.000000	8.420296
2047.000000	8.429996
2046.000000	8.458420
2045.000000	8.511094
2044.000000	8.531396
2043.000000	8.580010
2042.000000	8.630203
2041.000000	8.673064
2040.000000	8.709608
2039.000000	8.749763
2038.000000	8.793639
2037.000000	8.828266
2036.000000	8.846990
2035.000000	8.884437
2034.000000	8.921320
2033.000000	8.946021
2032.000000	8.972415
2031.000000	8.998470
2030.000000	9.020013
2029.000000	9.043925
2028.000000	9.063100
2027.000000	9.078778
2026.000000	9.075846
2025.000000	9.072462
2024.000000	9.113405
2023.000000	9.136077
2022.000000	9.146566
2021.000000	9.147243
2020.000000	9.144311
2019.000000	9.145100
2018.000000	9.162809
2017.000000	9.151304
2016.000000	9.164952
2015.000000	9.173524
2014.000000	9.176231
2013.000000	9.169238
2012.000000	9.166643
2011.000000	9.177359
2010.000000	9.165403
2009.000000	9.144649
2008.000000	9.146792
2007.000000	9.136077
2006.000000	9.104833
2005.000000	9.089945
2004.000000	9.075846
2003.000000	9.054077
2002.000000	9.024187
2001.000000	9.012005
2000.000000	8.987078
1999.000000	8.957301
1998.000000	8.934065
1997.000000	8.933050
1996.000000	8.905303
1995.000000	8.862104
1994.000000	8.831086
1993.000000	8.794090
1992.000000	8.751906
1991.000000	8.733295
1990.000000	8.707353
1989.000000	8.673966
1988.000000	8.636293
1987.000000	8.603132
1986.000000	8.569407
1985.000000	8.533539
1984.000000	8.501168
1983.000000	8.478271
1982.000000	8.443982
1981.000000	8.392436
1980.000000	8.374728
1979.000000	8.335927
1978.000000	8.299382
1977.000000	8.261484
1976.000000	8.235091
1975.000000	8.185687
1974.000000	8.151286
1973.000000	8.133239
1972.000000	8.103800
1971.000000	8.080790
1970.000000	8.046389
1969.000000	8.031500
1968.000000	7.996647
1967.000000	7.960215
1966.000000	7.939349
1965.000000	7.904721
1964.000000	7.882388
1963.000000	7.861296
1962.000000	7.851145
1961.000000	7.797230
1960.000000	7.774559
1959.000000	7.759106
1958.000000	7.732375
1957.000000	7.726171
1956.000000	7.710606
1955.000000	7.668760
1954.000000	7.645073
1953.000000	7.618003
1952.000000	7.593753
1951.000000	7.582135
1950.000000	7.559802
1949.000000	7.581233
1948.000000	7.512768
1947.000000	7.494044
1946.000000	7.509497
1945.000000	7.494382
1944.000000	7.452988
1943.000000	7.458740
1942.000000	7.456484
1941.000000	7.439678
1940.000000	7.455356
1939.000000	7.425015
1938.000000	7.418248
1937.000000	7.439452
1936.000000	7.450393
1935.000000	7.455920
1934.000000	7.442723
1933.000000	7.452988
1932.000000	7.487840
1931.000000	7.486713
1930.000000	7.480171
1929.000000	7.511301
1928.000000	7.506790
1927.000000	7.547282
1926.000000	7.589354
1925.000000	7.627139
1924.000000	7.645750
1923.000000	7.654435
1922.000000	7.727299
1921.000000	7.768243
1920.000000	7.852724
1919.000000	7.878779
1918.000000	7.953673
1917.000000	7.987060
1916.000000	8.022590
1915.000000	8.073797
1914.000000	8.134254
1913.000000	8.222007
1912.000000	8.294758
1911.000000	8.390180
1910.000000	8.471391
1909.000000	8.522260
1908.000000	8.593658
1907.000000	8.676899
1906.000000	8.786871
1905.000000	8.886467
1904.000000	9.031180
1903.000000	9.130099
1902.000000	9.258231
1901.000000	9.352977
1900.000000	9.464641
1899.000000	9.634845
1898.000000	9.779671
1897.000000	9.912540
1896.000000	10.070788
1895.000000	10.182340
1894.000000	10.322202
1893.000000	10.449545
1892.000000	10.635314
1891.000000	10.878720
1890.000000	11.082536
1889.000000	11.291315
1888.000000	11.515321
1887.000000	11.757261
1886.000000	12.006870
1885.000000	12.289190
1884.000000	12.606362
1883.000000	12.973727
1882.000000	13.367373
1881.000000	13.771396
1880.000000	14.167072
1879.000000	14.565455
1878.000000	14.954927
1877.000000	15.384441
1876.000000	15.766018
1875.000000	16.164739
1874.000000	16.552971
1873.000000	16.952933
1872.000000	17.330449
1871.000000	17.678640
1870.000000	18.042621
1869.000000	18.368929
1868.000000	18.694336
1867.000000	18.925222
1866.000000	19.113924
1865.000000	19.278149
1864.000000	19.425005
1863.000000	19.573778
1862.000000	19.684879
1861.000000	19.803424
1860.000000	19.943851
1859.000000	20.053823
1858.000000	20.171015
1857.000000	20.268467
1856.000000	20.315276
1855.000000	20.334789
1854.000000	20.359491
1853.000000	20.399758
1852.000000	20.404608
1851.000000	20.397502
1850.000000	20.373703
1849.000000	20.357009
1848.000000	20.342234
1847.000000	20.331969
1846.000000	20.348663
1845.000000	20.320465
1844.000000	20.257752
1843.000000	20.192445
1842.000000	20.155788
1841.000000	20.166277
1840.000000	20.146087
1839.000000	20.138643
1838.000000	20.123191
1837.000000	20.086195
1836.000000	20.049650
1835.000000	20.019760
1834.000000	19.959078
1833.000000	19.891176
1832.000000	19.815154
1831.000000	19.747704
1830.000000	19.681946
1829.000000	19.628032
1828.000000	19.571071
1827.000000	19.499110
1826.000000	19.437412
1825.000000	19.374474
1824.000000	19.304768
1823.000000	19.244199
1822.000000	19.197390
1821.000000	19.156446
1820.000000	19.143475
1819.000000	19.141783
1818.000000	19.114600
1817.000000	19.057979
1816.000000	19.031472
1815.000000	19.016696
1814.000000	19.001921
1813.000000	19.000003
1812.000000	18.981280
1811.000000	18.969324
1810.000000	18.955337
1809.000000	18.907062
1808.000000	18.848072
1807.000000	18.818971
1806.000000	18.779268
1805.000000	18.735167
1804.000000	18.693321
1803.000000	18.650459
1802.000000	18.604440
1801.000000	18.540600
1800.000000	18.501461
1799.000000	18.449012
1798.000000	18.377614
1797.000000	18.344115
1796.000000	18.307796
1795.000000	18.255911
1794.000000	18.211809
1793.000000	18.159361
1792.000000	18.097212
1791.000000	18.037996
1790.000000	17.993105
1789.000000	17.936709
1788.000000	17.872304
1787.000000	17.820645
1786.000000	17.759624
1785.000000	17.684054
1784.000000	17.619762
1783.000000	17.541484
1782.000000	17.471665
1781.000000	17.408614
1780.000000	17.334171
1779.000000	17.255555
1778.000000	17.177277
1777.000000	17.081403
1776.000000	16.995907
1775.000000	16.919208
1774.000000	16.815552
1773.000000	16.705353
1772.000000	16.588839
1771.000000	16.493980
1770.000000	16.400363
1769.000000	16.287796
1768.000000	16.170604
1767.000000	16.071121
1766.000000	15.976601
1765.000000	15.890992
1764.000000	15.843055
1763.000000	15.804706
1762.000000	15.789366
1761.000000	15.793539
1760.000000	15.804367
1759.000000	15.860651
1758.000000	15.933853
1757.000000	15.992279
1756.000000	16.049240
1755.000000	16.090409
1754.000000	16.143421
1753.000000	16.175793
1752.000000	16.186508
1751.000000	16.176469
1750.000000	16.159325
1749.000000	16.146579
1748.000000	16.121652
1747.000000	16.068527
1746.000000	16.011680
1745.000000	15.923476
1744.000000	15.832001
1743.000000	15.704433
1742.000000	15.560397
1741.000000	15.407902
1740.000000	15.223148
1739.000000	15.029145
1738.000000	14.847661
1737.000000	14.670126
1736.000000	14.531617
1735.000000	14.418148
1734.000000	14.311333
1733.000000	14.278736
1732.000000	14.280315
1731.000000	14.307160
1730.000000	14.345509
1729.000000	14.421080
1728.000000	14.532068
1727.000000	14.621513
1726.000000	14.718965
1725.000000	14.800740
1724.000000	14.882289
1723.000000	14.935188
1722.000000	14.960228
1721.000000	14.989329
1720.000000	15.002413
1719.000000	15.036025
1718.000000	15.039747
1717.000000	15.079563
1716.000000	15.122537
1715.000000	15.156374
1714.000000	15.216380
1713.000000	15.266460
1712.000000	15.333007
1711.000000	15.362221
1710.000000	15.401924
1709.000000	15.423805
1708.000000	15.410157
1707.000000	15.397863
1706.000000	15.392336
1705.000000	15.371019
1704.000000	15.292515
1703.000000	15.240518
1702.000000	15.179948
1701.000000	15.076630
1700.000000	14.979516
1699.000000	14.854091
1698.000000	14.726748
1697.000000	14.603691
1696.000000	14.508833
1695.000000	14.449955
1694.000000	14.433262
1693.000000	14.477251
1692.000000	14.564665
1691.000000	14.688962
1690.000000	14.824877
1689.000000	14.961469
1688.000000	15.079563
1687.000000	15.143516
1686.000000	15.202958
1685.000000	15.227095
1684.000000	15.255632
1683.000000	15.356919
1682.000000	15.493624
1681.000000	15.759589
1680.000000	16.116238
1679.000000	16.565378
1678.000000	17.017337
1677.000000	17.526031
1676.000000	18.043298
1675.000000	18.457923
1674.000000	18.854614
1673.000000	19.228295
1672.000000	19.559341
1671.000000	19.823839
1670.000000	20.013556
1669.000000	20.246586
1668.000000	20.431114
1667.000000	20.592407
1666.000000	20.710614
1665.000000	20.824647
1664.000000	20.934732
1663.000000	21.008047
1662.000000	21.098394
1661.000000	21.137984
1660.000000	21.200359
1659.000000	21.260703
1658.000000	21.275704
1657.000000	21.289465
1656.000000	21.325107
1655.000000	21.343831
1654.000000	21.333003
1653.000000	21.331987
1652.000000	21.312474
1651.000000	21.264425
1650.000000	21.246265
1649.000000	21.198328
1648.000000	21.193478
1647.000000	21.149940
1646.000000	21.086325
1645.000000	21.049217
1644.000000	20.972179
1643.000000	20.916122
1642.000000	20.850928
1641.000000	20.793855
1640.000000	20.727081
1639.000000	20.665948
1638.000000	20.604814
1637.000000	20.518641
1636.000000	20.480743
1635.000000	20.402916
1634.000000	20.328134
1633.000000	20.248954
1632.000000	20.154998
1631.000000	20.108866
1630.000000	20.026415
1629.000000	19.914299
1628.000000	19.844706
1627.000000	19.777933
1626.000000	19.686007
1625.000000	19.621377
1624.000000	19.537798
1623.000000	19.439668
1622.000000	19.372106
1621.000000	19.288865
1620.000000	19.208669
1619.000000	19.153852
1618.000000	19.064859
1617.000000	18.976994
1616.000000	18.910784
1615.000000	18.834537
1614.000000	18.767200
1613.000000	18.710803
1612.000000	18.647188
1611.000000	18.573760
1610.000000	18.492776
1609.000000	18.443598
1608.000000	18.379645
1607.000000	18.309826
1606.000000	18.256137
1605.000000	18.178423
1604.000000	18.112101
1603.000000	18.030665
1602.000000	17.986337
1601.000000	17.919451
1600.000000	17.840046
1599.000000	17.780040
1598.000000	17.720598
1597.000000	17.643899
1596.000000	17.581638
1595.000000	17.536070
1594.000000	17.489035
1593.000000	17.427338
1592.000000	17.374213
1591.000000	17.329772
1590.000000	17.256796
1589.000000	17.207167
1588.000000	17.171750
1587.000000	17.136333
1586.000000	17.086028
1585.000000	17.048581
1584.000000	16.994215
1583.000000	16.964550
1582.000000	16.953046
1581.000000	16.899808
1580.000000	16.878039
