PE UV       SUBTECH     SPECTRUM    ASCII       PEDS        4.00        
   -1
CICIMAUCR0209-1.ASC
24/06/06
15:18:11.00
24/06/06
15:18:11.00
Vinicio Soto Monge
C. cupreomarginata. Sex F. Dorsal
250,000000
1
Lambda 1050
1050L1511233
PerkinElmer UV WinLab 6.3.2.0749 / 2.02.05 Lambda 900 UV/VIS/NIR, Aug  7 2015 09:38:08

0
0
3350/servo 860,8/2
0
0
UV/VIS
1
1
1
DoubleDePol,CommonBeamDepol,RBeamAtt,SBeamAtt,60mm sphere, WB InGaAs Detector
0
0
0
0
Program
Program
3350/servo 860,8/2
3350/0,2 860,8/0,2
3350/0,2 860,8/0,2
0
15.00
 
 
 
0
 
860,8
319,2
860,8
Front
100
on
S:100 R:100
0
0
0
0
 
0
 
 
 
0
 
 
0
0
0
0
0
 
 
 
 
0
0


0
0
#HDR
-1
-1
#GR
nm
%R
1.0
0.0
2500,000000
-1,000000
2251
8
73,309700
5,091300
#DATA
2500.000000	9.619240
2499.000000	9.520389
2498.000000	9.676722
2497.000000	9.468178
2496.000000	9.338995
2495.000000	9.455847
2494.000000	9.454852
2493.000000	9.467482
2492.000000	9.360476
2491.000000	9.403935
2490.000000	9.295238
2489.000000	9.375791
2488.000000	9.321790
2487.000000	9.344166
2486.000000	9.265602
2485.000000	9.310354
2484.000000	9.378675
2483.000000	9.269978
2482.000000	9.292851
2481.000000	9.311448
2480.000000	9.252177
2479.000000	9.331337
2478.000000	9.322387
2477.000000	9.319205
2476.000000	9.309260
2475.000000	9.260331
2474.000000	9.319006
2473.000000	9.329746
2472.000000	9.353813
2471.000000	9.378377
2470.000000	9.399261
2469.000000	9.368332
2468.000000	9.439338
2467.000000	9.435758
2466.000000	9.442720
2465.000000	9.488565
2464.000000	9.502985
2463.000000	9.521184
2462.000000	9.573594
2461.000000	9.627097
2460.000000	9.658224
2459.000000	9.716799
2458.000000	9.768612
2457.000000	9.825198
2456.000000	9.875618
2455.000000	9.941751
2454.000000	10.024592
2453.000000	10.084460
2452.000000	10.173963
2451.000000	10.256307
2450.000000	10.317964
2449.000000	10.397424
2448.000000	10.477778
2447.000000	10.553558
2446.000000	10.642266
2445.000000	10.722620
2444.000000	10.806156
2443.000000	10.871693
2442.000000	10.958710
2441.000000	11.053683
2440.000000	11.117032
2439.000000	11.205044
2438.000000	11.281917
2437.000000	11.364062
2436.000000	11.449488
2435.000000	11.527952
2434.000000	11.590505
2433.000000	11.657235
2432.000000	11.742661
2431.000000	11.788905
2430.000000	11.847480
2429.000000	11.918387
2428.000000	11.987404
2427.000000	12.044786
2426.000000	12.106145
2425.000000	12.162532
2424.000000	12.204301
2423.000000	12.255218
2422.000000	12.308721
2421.000000	12.353374
2420.000000	12.431043
2419.000000	12.477386
2418.000000	12.513684
2417.000000	12.545110
2416.000000	12.580116
2415.000000	12.635708
2414.000000	12.675487
2413.000000	12.711288
2412.000000	12.749079
2411.000000	12.782593
2410.000000	12.809344
2409.000000	12.855687
2408.000000	12.889102
2407.000000	12.917146
2406.000000	12.951058
2405.000000	12.985965
2404.000000	13.026639
2403.000000	13.031413
2402.000000	13.060750
2401.000000	13.101524
2400.000000	13.129966
2399.000000	13.149657
2398.000000	13.138817
2397.000000	13.145878
2396.000000	13.178596
2395.000000	13.201469
2394.000000	13.235182
2393.000000	13.275359
2392.000000	13.302708
2391.000000	13.306586
2390.000000	13.316531
2389.000000	13.317028
2388.000000	13.325282
2387.000000	13.334233
2386.000000	13.340498
2385.000000	13.357603
2384.000000	13.362675
2383.000000	13.360984
2382.000000	13.351238
2381.000000	13.336619
2380.000000	13.333039
2379.000000	13.327271
2378.000000	13.315139
2377.000000	13.292067
2376.000000	13.262530
2375.000000	13.255967
2374.000000	13.237569
2373.000000	13.209326
2372.000000	13.197491
2371.000000	13.174021
2370.000000	13.141601
2369.000000	13.106098
2368.000000	13.068805
2367.000000	13.031512
2366.000000	12.992230
2365.000000	12.953644
2364.000000	12.904516
2363.000000	12.859069
2362.000000	12.810140
2361.000000	12.745399
2360.000000	12.688117
2359.000000	12.649829
2358.000000	12.606768
2357.000000	12.543718
2356.000000	12.509508
2355.000000	12.479773
2354.000000	12.430247
2353.000000	12.387882
2352.000000	12.373363
2351.000000	12.375153
2350.000000	12.367694
2349.000000	12.362424
2348.000000	12.349296
2347.000000	12.352280
2346.000000	12.392656
2345.000000	12.426568
2344.000000	12.434026
2343.000000	12.459187
2342.000000	12.485143
2341.000000	12.500657
2340.000000	12.534867
2339.000000	12.548591
2338.000000	12.561619
2337.000000	12.559232
2336.000000	12.565696
2335.000000	12.576735
2334.000000	12.569276
2333.000000	12.550381
2332.000000	12.538049
2331.000000	12.516767
2330.000000	12.472513
2329.000000	12.431640
2328.000000	12.387286
2327.000000	12.338357
2326.000000	12.278390
2325.000000	12.221306
2324.000000	12.161836
2323.000000	12.103957
2322.000000	12.030067
2321.000000	11.929823
2320.000000	11.821027
2319.000000	11.731424
2318.000000	11.644208
2317.000000	11.512836
2316.000000	11.414780
2315.000000	11.316525
2314.000000	11.182469
2313.000000	11.065219
2312.000000	10.974622
2311.000000	10.877461
2310.000000	10.777714
2309.000000	10.690399
2308.000000	10.618895
2307.000000	10.559425
2306.000000	10.521038
2305.000000	10.493093
2304.000000	10.488916
2303.000000	10.495281
2302.000000	10.517358
2301.000000	10.577226
2300.000000	10.622873
2299.000000	10.686222
2298.000000	10.751460
2297.000000	10.821869
2296.000000	10.906699
2295.000000	11.004158
2294.000000	11.056368
2293.000000	11.110369
2292.000000	11.192613
2291.000000	11.259541
2290.000000	11.296238
2289.000000	11.336415
2288.000000	11.361277
2287.000000	11.382658
2286.000000	11.391808
2285.000000	11.375697
2284.000000	11.371520
2283.000000	11.359586
2282.000000	11.336813
2281.000000	11.286194
2280.000000	11.251685
2279.000000	11.223442
2278.000000	11.170237
2277.000000	11.132347
2276.000000	11.081231
2275.000000	11.053087
2274.000000	11.030313
2273.000000	11.006048
2272.000000	10.985163
2271.000000	10.987849
2270.000000	10.989738
2269.000000	10.999385
2268.000000	11.049407
2267.000000	11.105496
2266.000000	11.172027
2265.000000	11.262823
2264.000000	11.381664
2263.000000	11.505676
2262.000000	11.670064
2261.000000	11.833259
2260.000000	12.025393
2259.000000	12.239008
2258.000000	12.440292
2257.000000	12.677874
2256.000000	12.924307
2255.000000	13.130960
2254.000000	13.373913
2253.000000	13.616368
2252.000000	13.847287
2251.000000	14.076416
2250.000000	14.285854
2249.000000	14.485745
2248.000000	14.707217
2247.000000	14.869218
2246.000000	15.042457
2245.000000	15.195707
2244.000000	15.366062
2243.000000	15.482416
2242.000000	15.597776
2241.000000	15.722485
2240.000000	15.821237
2239.000000	15.938387
2238.000000	16.021924
2237.000000	16.104764
2236.000000	16.163140
2235.000000	16.242898
2234.000000	16.284865
2233.000000	16.340656
2232.000000	16.371385
2231.000000	16.396148
2230.000000	16.411164
2229.000000	16.456413
2228.000000	16.455021
2227.000000	16.460590
2226.000000	16.459994
2225.000000	16.448656
2224.000000	16.420712
2223.000000	16.388192
2222.000000	16.380833
2221.000000	16.355772
2220.000000	16.301274
2219.000000	16.273230
2218.000000	16.242401
2217.000000	16.212367
2216.000000	16.162941
2215.000000	16.089747
2214.000000	16.058123
2213.000000	16.011680
2212.000000	15.978266
2211.000000	15.937194
2210.000000	15.901790
2209.000000	15.870265
2208.000000	15.833469
2207.000000	15.801049
2206.000000	15.790706
2205.000000	15.752816
2204.000000	15.752618
2203.000000	15.722584
2202.000000	15.672462
2201.000000	15.638252
2200.000000	15.634871
2199.000000	15.628407
2198.000000	15.593003
2197.000000	15.596782
2196.000000	15.571522
2195.000000	15.548848
2194.000000	15.527367
2193.000000	15.518218
2192.000000	15.483510
2191.000000	15.470085
2190.000000	15.444328
2189.000000	15.459344
2188.000000	15.440449
2187.000000	15.430107
2186.000000	15.414294
2185.000000	15.395697
2184.000000	15.388438
2183.000000	15.374316
2182.000000	15.346968
2181.000000	15.349553
2180.000000	15.316139
2179.000000	15.293763
2178.000000	15.306094
2177.000000	15.316139
2176.000000	15.291674
2175.000000	15.287995
2174.000000	15.311266
2173.000000	15.306890
2172.000000	15.305995
2171.000000	15.337520
2170.000000	15.348062
2169.000000	15.343686
2168.000000	15.368250
2167.000000	15.410117
2166.000000	15.425830
2165.000000	15.458947
2164.000000	15.505488
2163.000000	15.539201
2162.000000	15.573909
2161.000000	15.605235
2160.000000	15.671667
2159.000000	15.707965
2158.000000	15.745756
2157.000000	15.784938
2156.000000	15.834961
2155.000000	15.909845
2154.000000	15.969415
2153.000000	16.009095
2152.000000	16.056134
2151.000000	16.131317
2150.000000	16.188997
2149.000000	16.246279
2148.000000	16.310523
2147.000000	16.363230
2146.000000	16.432546
2145.000000	16.500469
2144.000000	16.549696
2143.000000	16.593254
2142.000000	16.652824
2141.000000	16.704438
2140.000000	16.739543
2139.000000	16.775742
2138.000000	16.819798
2137.000000	16.857190
2136.000000	16.917655
2135.000000	16.943710
2134.000000	16.978119
2133.000000	17.016208
2132.000000	17.021380
2131.000000	17.034208
2130.000000	17.068419
2129.000000	17.086120
2128.000000	17.100242
2127.000000	17.102330
2126.000000	17.093480
2125.000000	17.083833
2124.000000	17.096861
2123.000000	17.086618
2122.000000	17.079159
2121.000000	17.078562
2120.000000	17.065535
2119.000000	17.026451
2118.000000	16.996517
2117.000000	16.997412
2116.000000	16.975037
2115.000000	16.942915
2114.000000	16.918749
2113.000000	16.896771
2112.000000	16.868726
2111.000000	16.822682
2110.000000	16.788074
2109.000000	16.739742
2108.000000	16.696681
2107.000000	16.664261
2106.000000	16.640990
2105.000000	16.614934
2104.000000	16.568094
2103.000000	16.533486
2102.000000	16.505044
2101.000000	16.460193
2100.000000	16.435529
2099.000000	16.408877
2098.000000	16.375164
2097.000000	16.341451
2096.000000	16.296401
2095.000000	16.270743
2094.000000	16.243892
2093.000000	16.218931
2092.000000	16.202025
2091.000000	16.176964
2090.000000	16.164135
2089.000000	16.135195
2088.000000	16.098399
2087.000000	16.082289
2086.000000	16.052454
2085.000000	16.015062
2084.000000	15.980951
2083.000000	15.965238
2082.000000	15.932718
2081.000000	15.884486
2080.000000	15.845900
2079.000000	15.800850
2078.000000	15.752021
2077.000000	15.702396
2076.000000	15.636263
2075.000000	15.579379
2074.000000	15.526074
2073.000000	15.462029
2072.000000	15.400272
2071.000000	15.342890
2070.000000	15.271785
2069.000000	15.198591
2068.000000	15.137828
2067.000000	15.063341
2066.000000	14.981595
2065.000000	14.904124
2064.000000	14.831825
2063.000000	14.757637
2062.000000	14.696078
2061.000000	14.632531
2060.000000	14.571072
2059.000000	14.516276
2058.000000	14.456607
2057.000000	14.402407
2056.000000	14.355866
2055.000000	14.336374
2054.000000	14.313302
2053.000000	14.287545
2052.000000	14.291324
2051.000000	14.295998
2050.000000	14.313103
2049.000000	14.349700
2048.000000	14.394849
2047.000000	14.445568
2046.000000	14.499767
2045.000000	14.568586
2044.000000	14.636907
2043.000000	14.704929
2042.000000	14.792046
2041.000000	14.866334
2040.000000	14.959915
2039.000000	15.047131
2038.000000	15.134148
2037.000000	15.210724
2036.000000	15.293564
2035.000000	15.354725
2034.000000	15.421753
2033.000000	15.496836
2032.000000	15.559091
2031.000000	15.604340
2030.000000	15.644617
2029.000000	15.694739
2028.000000	15.737104
2027.000000	15.779767
2026.000000	15.800850
2025.000000	15.830187
2024.000000	15.851966
2023.000000	15.877127
2022.000000	15.899204
2021.000000	15.907260
2020.000000	15.919094
2019.000000	15.928641
2018.000000	15.942067
2017.000000	15.944752
2016.000000	15.940177
2015.000000	15.936199
2014.000000	15.931525
2013.000000	15.913823
2012.000000	15.902785
2011.000000	15.904575
2010.000000	15.871160
2009.000000	15.840331
2008.000000	15.817458
2007.000000	15.790308
2006.000000	15.741678
2005.000000	15.716717
2004.000000	15.693446
2003.000000	15.649490
2002.000000	15.609511
2001.000000	15.558494
2000.000000	15.511654
1999.000000	15.450991
1998.000000	15.399874
1997.000000	15.332747
1996.000000	15.264823
1995.000000	15.199983
1994.000000	15.153143
1993.000000	15.059264
1992.000000	14.991639
1991.000000	14.927694
1990.000000	14.853605
1989.000000	14.775736
1988.000000	14.674697
1987.000000	14.622188
1986.000000	14.550486
1985.000000	14.446960
1984.000000	14.366507
1983.000000	14.284064
1982.000000	14.204605
1981.000000	14.117985
1980.000000	14.031067
1979.000000	13.951807
1978.000000	13.859320
1977.000000	13.765839
1976.000000	13.691551
1975.000000	13.619252
1974.000000	13.520599
1973.000000	13.454466
1972.000000	13.366255
1971.000000	13.285006
1970.000000	13.194806
1969.000000	13.113955
1968.000000	13.034396
1967.000000	12.962992
1966.000000	12.895467
1965.000000	12.832416
1964.000000	12.774836
1963.000000	12.691598
1962.000000	12.607166
1961.000000	12.529198
1960.000000	12.462866
1959.000000	12.383805
1958.000000	12.326920
1957.000000	12.247262
1956.000000	12.176853
1955.000000	12.117582
1954.000000	12.041802
1953.000000	11.987702
1952.000000	11.921569
1951.000000	11.852452
1950.000000	11.807502
1949.000000	11.747037
1948.000000	11.709943
1947.000000	11.671755
1946.000000	11.614174
1945.000000	11.583942
1944.000000	11.526361
1943.000000	11.496129
1942.000000	11.470670
1941.000000	11.448493
1940.000000	11.444018
1939.000000	11.433974
1938.000000	11.415974
1937.000000	11.399266
1936.000000	11.393498
1935.000000	11.408813
1934.000000	11.401753
1933.000000	11.424427
1932.000000	11.472460
1931.000000	11.508262
1930.000000	11.565246
1929.000000	11.627998
1928.000000	11.658727
1927.000000	11.728440
1926.000000	11.802132
1925.000000	11.862994
1924.000000	11.941160
1923.000000	12.066863
1922.000000	12.159151
1921.000000	12.285948
1920.000000	12.403794
1919.000000	12.533176
1918.000000	12.663155
1917.000000	12.812726
1916.000000	12.952749
1915.000000	13.115247
1914.000000	13.256066
1913.000000	13.427018
1912.000000	13.624224
1911.000000	13.821828
1910.000000	14.023609
1909.000000	14.224395
1908.000000	14.434529
1907.000000	14.667537
1906.000000	14.892688
1905.000000	15.145386
1904.000000	15.437068
1903.000000	15.711247
1902.000000	15.980951
1901.000000	16.268357
1900.000000	16.548702
1899.000000	16.880760
1898.000000	17.214110
1897.000000	17.564765
1896.000000	17.884193
1895.000000	18.198152
1894.000000	18.522154
1893.000000	18.872511
1892.000000	19.243254
1891.000000	19.682816
1890.000000	20.130831
1889.000000	20.559851
1888.000000	20.974849
1887.000000	21.414212
1886.000000	21.855762
1885.000000	22.321280
1884.000000	22.810566
1883.000000	23.327299
1882.000000	23.873072
1881.000000	24.366535
1880.000000	24.885754
1879.000000	25.328697
1878.000000	25.784569
1877.000000	26.243622
1876.000000	26.694720
1875.000000	27.125729
1874.000000	27.540627
1873.000000	27.965272
1872.000000	28.376988
1871.000000	28.734803
1870.000000	29.092618
1869.000000	29.408466
1868.000000	29.713574
1867.000000	29.955830
1866.000000	30.157213
1865.000000	30.292363
1864.000000	30.453967
1863.000000	30.591902
1862.000000	30.701295
1861.000000	30.871152
1860.000000	31.012866
1859.000000	31.167906
1858.000000	31.292714
1857.000000	31.388980
1856.000000	31.466450
1855.000000	31.524926
1854.000000	31.569280
1853.000000	31.637402
1852.000000	31.650629
1851.000000	31.663855
1850.000000	31.705425
1849.000000	31.702640
1848.000000	31.709900
1847.000000	31.750674
1846.000000	31.751370
1845.000000	31.711988
1844.000000	31.668032
1843.000000	31.616418
1842.000000	31.609457
1841.000000	31.643767
1840.000000	31.658386
1839.000000	31.642573
1838.000000	31.613137
1837.000000	31.570175
1836.000000	31.531291
1835.000000	31.513887
1834.000000	31.464760
1833.000000	31.408074
1832.000000	31.331499
1831.000000	31.274018
1830.000000	31.245774
1829.000000	31.210371
1828.000000	31.152989
1827.000000	31.078602
1826.000000	31.016844
1825.000000	30.975971
1824.000000	30.914412
1823.000000	30.868268
1822.000000	30.832666
1821.000000	30.812975
1820.000000	30.812577
1819.000000	30.803428
1818.000000	30.751317
1817.000000	30.704775
1816.000000	30.664300
1815.000000	30.651073
1814.000000	30.647593
1813.000000	30.627703
1812.000000	30.610001
1811.000000	30.579570
1810.000000	30.556001
1809.000000	30.521094
1808.000000	30.464210
1807.000000	30.423038
1806.000000	30.381071
1805.000000	30.333634
1804.000000	30.291866
1803.000000	30.242042
1802.000000	30.202462
1801.000000	30.169147
1800.000000	30.116141
1799.000000	30.066218
1798.000000	30.007642
1797.000000	29.948371
1796.000000	29.900537
1795.000000	29.874282
1794.000000	29.839575
1793.000000	29.785276
1792.000000	29.736248
1791.000000	29.678767
1790.000000	29.635905
1789.000000	29.595727
1788.000000	29.540136
1787.000000	29.494290
1786.000000	29.447748
1785.000000	29.406776
1784.000000	29.361725
1783.000000	29.299968
1782.000000	29.239106
1781.000000	29.186299
1780.000000	29.122453
1779.000000	29.058408
1778.000000	29.005104
1777.000000	28.934694
1776.000000	28.858417
1775.000000	28.778362
1774.000000	28.699598
1773.000000	28.612183
1772.000000	28.523475
1771.000000	28.441629
1770.000000	28.340988
1769.000000	28.228114
1768.000000	28.133936
1767.000000	28.036079
1766.000000	27.947670
1765.000000	27.871592
1764.000000	27.795215
1763.000000	27.750861
1762.000000	27.747381
1761.000000	27.749668
1760.000000	27.764983
1759.000000	27.802873
1758.000000	27.851006
1757.000000	27.903912
1756.000000	27.983173
1755.000000	28.040057
1754.000000	28.089383
1753.000000	28.136224
1752.000000	28.174909
1751.000000	28.194500
1750.000000	28.209915
1749.000000	28.209219
1748.000000	28.202158
1747.000000	28.167351
1746.000000	28.110268
1745.000000	28.044831
1744.000000	27.962786
1743.000000	27.861249
1742.000000	27.756928
1741.000000	27.602683
1740.000000	27.425765
1739.000000	27.273111
1738.000000	27.080480
1737.000000	26.898191
1736.000000	26.719383
1735.000000	26.574586
1734.000000	26.455049
1733.000000	26.359479
1732.000000	26.281313
1731.000000	26.251976
1730.000000	26.272860
1729.000000	26.319899
1728.000000	26.366341
1727.000000	26.423425
1726.000000	26.498210
1725.000000	26.564045
1724.000000	26.635150
1723.000000	26.713714
1722.000000	26.768809
1721.000000	26.836036
1720.000000	26.910025
1719.000000	26.998435
1718.000000	27.072524
1717.000000	27.170978
1716.000000	27.270526
1715.000000	27.383897
1714.000000	27.515169
1713.000000	27.615313
1712.000000	27.710684
1711.000000	27.821370
1710.000000	27.903614
1709.000000	27.949857
1708.000000	28.009626
1707.000000	28.034985
1706.000000	28.040853
1705.000000	28.058753
1704.000000	28.052389
1703.000000	28.024941
1702.000000	27.978797
1701.000000	27.921216
1700.000000	27.846431
1699.000000	27.746684
1698.000000	27.635899
1697.000000	27.538042
1696.000000	27.442372
1695.000000	27.391853
1694.000000	27.356549
1693.000000	27.362416
1692.000000	27.415323
1691.000000	27.492296
1690.000000	27.577921
1689.000000	27.684131
1688.000000	27.782983
1687.000000	27.849812
1686.000000	27.906498
1685.000000	27.974421
1684.000000	28.062135
1683.000000	28.163472
1682.000000	28.330943
1681.000000	28.564647
1680.000000	28.854141
1679.000000	29.220012
1678.000000	29.619297
1677.000000	30.027333
1676.000000	30.398872
1675.000000	30.772201
1674.000000	31.102171
1673.000000	31.387190
1672.000000	31.649734
1671.000000	31.904918
1670.000000	32.103616
1669.000000	32.270192
1668.000000	32.435276
1667.000000	32.553321
1666.000000	32.671565
1665.000000	32.797268
1664.000000	32.892142
1663.000000	32.989701
1662.000000	33.079602
1661.000000	33.142652
1660.000000	33.204907
1659.000000	33.275714
1658.000000	33.328024
1657.000000	33.356764
1656.000000	33.379836
1655.000000	33.395251
1654.000000	33.419317
1653.000000	33.439008
1652.000000	33.438710
1651.000000	33.428367
1650.000000	33.413649
1649.000000	33.364422
1648.000000	33.361339
1647.000000	33.305946
1646.000000	33.296896
1645.000000	33.248266
1644.000000	33.189791
1643.000000	33.158663
1642.000000	33.119481
1641.000000	33.073933
1640.000000	33.027988
1639.000000	32.988109
1638.000000	32.938485
1637.000000	32.888562
1636.000000	32.822329
1635.000000	32.752715
1634.000000	32.693543
1633.000000	32.642725
1632.000000	32.570028
1631.000000	32.490868
1630.000000	32.456956
1629.000000	32.370336
1628.000000	32.286004
1627.000000	32.208733
1626.000000	32.136135
1625.000000	32.051803
1624.000000	31.968267
1623.000000	31.908697
