PE UV       SUBTECH     SPECTRUM    ASCII       PEDS        4.00        
   -1
CICIMAUCR0248-2.Sample.ASC
24/06/24
16:58:41.00
24/06/24
16:58:41.00
Vinicio Soto Monge
C. resplendens. Sex F.Dorsal.  
250,000000
1
Lambda 1050
1050L1511233
PerkinElmer UV WinLab 6.3.2.0749 / 2.02.05 Lambda 900 UV/VIS/NIR, Aug  7 2015 09:38:08

0
0
3350/servo 860,8/2
0
0
UV/VIS
1
1
1
DoubleDePol,CommonBeamDepol,RBeamAtt,SBeamAtt,60mm sphere, WB InGaAs Detector
0
0
0
0
Program
Program
3350/servo 860,8/2
3350/0,2 860,8/0,2
3350/0,2 860,8/0,2
0
15.00
 
 
 
0
 
860,8
319,2
860,8
Front
100
on
S:100 R:100
0
0
0
0
 
0
 
 
 
0
 
 
0
0
0
0
0
 
 
 
 
0
0


0
0
#HDR
-1
-1
#GR
nm
%R
1.0
0.0
2500,000000
-1,000000
2251
8
90,889700
5,727700
#DATA
2500.000000	8.714254
2499.000000	8.494532
2498.000000	8.357750
2497.000000	8.496965
2496.000000	8.472225
2495.000000	8.345076
2494.000000	8.363428
2493.000000	8.482161
2492.000000	8.406724
2491.000000	8.386546
2490.000000	8.330678
2489.000000	8.359170
2488.000000	8.282110
2487.000000	8.251996
2486.000000	8.382389
2485.000000	8.335038
2484.000000	8.335646
2483.000000	8.301882
2482.000000	8.277547
2481.000000	8.326926
2480.000000	8.367586
2479.000000	8.303910
2478.000000	8.358359
2477.000000	8.319525
2476.000000	8.345279
2475.000000	8.346090
2474.000000	8.328853
2473.000000	8.335748
2472.000000	8.381274
2471.000000	8.356331
2470.000000	8.341933
2469.000000	8.413315
2468.000000	8.418486
2467.000000	8.393948
2466.000000	8.411388
2465.000000	8.451135
2464.000000	8.505685
2463.000000	8.493822
2462.000000	8.531946
2461.000000	8.560235
2460.000000	8.598867
2459.000000	8.631110
2458.000000	8.675419
2457.000000	8.732809
2456.000000	8.784621
2455.000000	8.840997
2454.000000	8.879324
2453.000000	8.928298
2452.000000	8.961656
2451.000000	9.033139
2450.000000	9.109490
2449.000000	9.168197
2448.000000	9.229034
2447.000000	9.291898
2446.000000	9.376563
2445.000000	9.419858
2444.000000	9.479276
2443.000000	9.582698
2442.000000	9.650531
2441.000000	9.714410
2440.000000	9.777882
2439.000000	9.849467
2438.000000	9.918821
2437.000000	9.976616
2436.000000	10.040190
2435.000000	10.094031
2434.000000	10.179506
2433.000000	10.244906
2432.000000	10.306756
2431.000000	10.341028
2430.000000	10.403487
2429.000000	10.462397
2428.000000	10.531143
2427.000000	10.585186
2426.000000	10.649369
2425.000000	10.688507
2424.000000	10.751473
2423.000000	10.792842
2422.000000	10.859864
2421.000000	10.912792
2420.000000	10.944630
2419.000000	10.983362
2418.000000	11.000397
2417.000000	11.065796
2416.000000	11.119028
2415.000000	11.155936
2414.000000	11.191018
2413.000000	11.217989
2412.000000	11.261285
2411.000000	11.305696
2410.000000	11.334593
2409.000000	11.365620
2408.000000	11.411856
2407.000000	11.436292
2406.000000	11.479385
2405.000000	11.514670
2404.000000	11.546710
2403.000000	11.570944
2402.000000	11.608054
2401.000000	11.641819
2400.000000	11.658143
2399.000000	11.689474
2398.000000	11.718574
2397.000000	11.738346
2396.000000	11.756597
2395.000000	11.780628
2394.000000	11.817434
2393.000000	11.843695
2392.000000	11.870666
2391.000000	11.889323
2390.000000	11.905039
2389.000000	11.919842
2388.000000	11.949855
2387.000000	11.963949
2386.000000	11.974900
2385.000000	11.987878
2384.000000	11.999437
2383.000000	12.002580
2382.000000	12.010692
2381.000000	12.012112
2380.000000	12.017283
2379.000000	12.030667
2378.000000	12.022961
2377.000000	12.010591
2376.000000	12.006738
2375.000000	12.012618
2374.000000	12.007447
2373.000000	11.990007
2372.000000	11.984127
2371.000000	11.968613
2370.000000	11.955128
2369.000000	11.955128
2368.000000	11.933328
2367.000000	11.910007
2366.000000	11.895711
2365.000000	11.882225
2364.000000	11.861743
2363.000000	11.830818
2362.000000	11.800400
2361.000000	11.762681
2360.000000	11.730235
2359.000000	11.708638
2358.000000	11.672237
2357.000000	11.635431
2356.000000	11.603897
2355.000000	11.571349
2354.000000	11.551070
2353.000000	11.537585
2352.000000	11.524404
2351.000000	11.517205
2350.000000	11.517509
2349.000000	11.510208
2348.000000	11.517205
2347.000000	11.526634
2346.000000	11.546102
2345.000000	11.580678
2344.000000	11.618194
2343.000000	11.658650
2342.000000	11.677915
2341.000000	11.697788
2340.000000	11.724252
2339.000000	11.742909
2338.000000	11.771908
2337.000000	11.785799
2336.000000	11.798879
2335.000000	11.807092
2334.000000	11.809018
2333.000000	11.805774
2332.000000	11.802225
2331.000000	11.781236
2330.000000	11.770285
2329.000000	11.748587
2328.000000	11.716749
2327.000000	11.697788
2326.000000	11.648105
2325.000000	11.606026
2324.000000	11.579664
2323.000000	11.537484
2322.000000	11.470462
2321.000000	11.389448
2320.000000	11.328002
2319.000000	11.256215
2318.000000	11.162324
2317.000000	11.088711
2316.000000	11.011550
2315.000000	10.916341
2314.000000	10.833197
2313.000000	10.741942
2312.000000	10.648558
2311.000000	10.579812
2310.000000	10.490483
2309.000000	10.425287
2308.000000	10.368303
2307.000000	10.326326
2306.000000	10.311725
2305.000000	10.272789
2304.000000	10.258695
2303.000000	10.275223
2302.000000	10.314868
2301.000000	10.332916
2300.000000	10.362929
2299.000000	10.436643
2298.000000	10.491497
2297.000000	10.543107
2296.000000	10.615402
2295.000000	10.683234
2294.000000	10.735554
2293.000000	10.803894
2292.000000	10.873552
2291.000000	10.941081
2290.000000	11.001411
2289.000000	11.021791
2288.000000	11.062653
2287.000000	11.097634
2286.000000	11.090536
2285.000000	11.102602
2284.000000	11.101994
2283.000000	11.096721
2282.000000	11.083946
2281.000000	11.071474
2280.000000	11.042678
2279.000000	11.001106
2278.000000	10.981537
2277.000000	10.947164
2276.000000	10.903261
2275.000000	10.892918
2274.000000	10.872234
2273.000000	10.860878
2272.000000	10.819103
2271.000000	10.826404
2270.000000	10.839281
2269.000000	10.842525
2268.000000	10.870612
2267.000000	10.937532
2266.000000	10.993806
2265.000000	11.064275
2264.000000	11.162527
2263.000000	11.275379
2262.000000	11.409219
2261.000000	11.545899
2260.000000	11.695051
2259.000000	11.874114
2258.000000	12.067067
2257.000000	12.257486
2256.000000	12.441010
2255.000000	12.667425
2254.000000	12.853281
2253.000000	13.057185
2252.000000	13.250139
2251.000000	13.468036
2250.000000	13.650445
2249.000000	13.825959
2248.000000	13.999039
2247.000000	14.177494
2246.000000	14.334452
2245.000000	14.466367
2244.000000	14.582768
2243.000000	14.692882
2242.000000	14.832300
2241.000000	14.927408
2240.000000	14.990577
2239.000000	15.073821
2238.000000	15.172073
2237.000000	15.248626
2236.000000	15.303784
2235.000000	15.361174
2234.000000	15.395648
2233.000000	15.415318
2232.000000	15.487511
2231.000000	15.469970
2230.000000	15.519349
2229.000000	15.519653
2228.000000	15.539527
2227.000000	15.506573
2226.000000	15.520059
2225.000000	15.502416
2224.000000	15.496840
2223.000000	15.451009
2222.000000	15.410654
2221.000000	15.379323
2220.000000	15.338461
2219.000000	15.315952
2218.000000	15.283100
2217.000000	15.223176
2216.000000	15.182009
2215.000000	15.122288
2214.000000	15.088422
2213.000000	15.080716
2212.000000	15.038739
2211.000000	14.961882
2210.000000	14.939879
2209.000000	14.923352
2208.000000	14.877826
2207.000000	14.838181
2206.000000	14.777344
2205.000000	14.778966
2204.000000	14.761628
2203.000000	14.725835
2202.000000	14.714175
2201.000000	14.692172
2200.000000	14.651615
2199.000000	14.632147
2198.000000	14.616228
2197.000000	14.606088
2196.000000	14.587939
2195.000000	14.582463
2194.000000	14.546773
2193.000000	14.531462
2192.000000	14.511386
2191.000000	14.471741
2190.000000	14.466063
2189.000000	14.472653
2188.000000	14.445479
2187.000000	14.423274
2186.000000	14.422361
2185.000000	14.411208
2184.000000	14.383122
2183.000000	14.349864
2182.000000	14.345809
2181.000000	14.349560
2180.000000	14.315289
2179.000000	14.285377
2178.000000	14.274934
2177.000000	14.291360
2176.000000	14.270777
2175.000000	14.255466
2174.000000	14.283755
2173.000000	14.276252
2172.000000	14.289636
2171.000000	14.296328
2170.000000	14.310929
2169.000000	14.312754
2168.000000	14.336379
2167.000000	14.336683
2166.000000	14.371461
2165.000000	14.396404
2164.000000	14.428344
2163.000000	14.453185
2162.000000	14.462615
2161.000000	14.515746
2160.000000	14.558129
2159.000000	14.592400
2158.000000	14.633262
2157.000000	14.665404
2156.000000	14.726849
2155.000000	14.790525
2154.000000	14.833415
2153.000000	14.881882
2152.000000	14.932883
2151.000000	14.992706
2150.000000	15.054962
2149.000000	15.118232
2148.000000	15.173999
2147.000000	15.230172
2146.000000	15.274380
2145.000000	15.318689
2144.000000	15.388145
2143.000000	15.442695
2142.000000	15.491770
2141.000000	15.554736
2140.000000	15.605028
2139.000000	15.646904
2138.000000	15.686650
2137.000000	15.732886
2136.000000	15.767360
2135.000000	15.805485
2134.000000	15.853748
2133.000000	15.885383
2132.000000	15.908197
2131.000000	15.928578
2130.000000	15.962950
2129.000000	15.980492
2128.000000	15.999554
2127.000000	16.009085
2126.000000	16.037070
2125.000000	16.044167
2124.000000	16.057450
2123.000000	16.060999
2122.000000	16.068299
2121.000000	16.073977
2120.000000	16.075194
2119.000000	16.072761
2118.000000	16.048223
2117.000000	16.038489
2116.000000	16.026423
2115.000000	16.015270
2114.000000	15.993065
2113.000000	15.965384
2112.000000	15.958996
2111.000000	15.936993
2110.000000	15.901201
2109.000000	15.873318
2108.000000	15.867437
2107.000000	15.854458
2106.000000	15.812582
2105.000000	15.788856
2104.000000	15.778919
2103.000000	15.757221
2102.000000	15.733596
2101.000000	15.703786
2100.000000	15.680364
2099.000000	15.656840
2098.000000	15.639299
2097.000000	15.621453
2096.000000	15.594787
2095.000000	15.577043
2094.000000	15.554127
2093.000000	15.535572
2092.000000	15.528677
2091.000000	15.517727
2090.000000	15.510021
2089.000000	15.511136
2088.000000	15.503633
2087.000000	15.481326
2086.000000	15.452327
2085.000000	15.425154
2084.000000	15.416129
2083.000000	15.398487
2082.000000	15.350324
2081.000000	15.314329
2080.000000	15.284519
2079.000000	15.246598
2078.000000	15.217193
2077.000000	15.178359
2076.000000	15.133137
2075.000000	15.083657
2074.000000	15.019880
2073.000000	14.950931
2072.000000	14.905912
2071.000000	14.843554
2070.000000	14.760107
2069.000000	14.701095
2068.000000	14.641881
2067.000000	14.579422
2066.000000	14.502463
2065.000000	14.432400
2064.000000	14.351284
2063.000000	14.263780
2062.000000	14.195136
2061.000000	14.133286
2060.000000	14.068089
2059.000000	14.003298
2058.000000	13.939014
2057.000000	13.879799
2056.000000	13.839748
2055.000000	13.788747
2054.000000	13.747175
2053.000000	13.732372
2052.000000	13.734906
2051.000000	13.733690
2050.000000	13.733081
2049.000000	13.740787
2048.000000	13.788747
2047.000000	13.852118
2046.000000	13.898456
2045.000000	13.958786
2044.000000	14.026112
2043.000000	14.093742
2042.000000	14.159243
2041.000000	14.239344
2040.000000	14.320054
2039.000000	14.390017
2038.000000	14.475695
2037.000000	14.534707
2036.000000	14.599701
2035.000000	14.674428
2034.000000	14.726849
2033.000000	14.762844
2032.000000	14.809486
2031.000000	14.851058
2030.000000	14.881882
2029.000000	14.908346
2028.000000	14.934303
2027.000000	14.945862
2026.000000	14.979423
2025.000000	14.993720
2024.000000	15.009740
2023.000000	15.005684
2022.000000	15.010450
2021.000000	15.007611
2020.000000	15.011058
2019.000000	14.996052
2018.000000	14.987433
2017.000000	14.965735
2016.000000	14.956204
2015.000000	14.942516
2014.000000	14.921932
2013.000000	14.905709
2012.000000	14.869309
2011.000000	14.822971
2010.000000	14.825912
2009.000000	14.804416
2008.000000	14.761323
2007.000000	14.740639
2006.000000	14.696330
2005.000000	14.672096
2004.000000	14.618256
2003.000000	14.573744
2002.000000	14.520917
2001.000000	14.490093
2000.000000	14.418103
1999.000000	14.366594
1998.000000	14.301398
1997.000000	14.242792
1996.000000	14.170802
1995.000000	14.121220
1994.000000	14.033108
1993.000000	13.949761
1992.000000	13.893589
1991.000000	13.796047
1990.000000	13.717467
1989.000000	13.656123
1988.000000	13.571661
1987.000000	13.486794
1986.000000	13.394221
1985.000000	13.322231
1984.000000	13.239087
1983.000000	13.143675
1982.000000	13.079695
1981.000000	12.977895
1980.000000	12.898807
1979.000000	12.822457
1978.000000	12.743876
1977.000000	12.660428
1976.000000	12.565422
1975.000000	12.491911
1974.000000	12.396194
1973.000000	12.319743
1972.000000	12.247955
1971.000000	12.172923
1970.000000	12.077004
1969.000000	12.010692
1968.000000	11.953404
1967.000000	11.873708
1966.000000	11.811857
1965.000000	11.733074
1964.000000	11.670108
1963.000000	11.610893
1962.000000	11.551577
1961.000000	11.476140
1960.000000	11.437914
1959.000000	11.359536
1958.000000	11.274973
1957.000000	11.232489
1956.000000	11.168002
1955.000000	11.097431
1954.000000	11.056366
1953.000000	10.988939
1952.000000	10.964402
1951.000000	10.885314
1950.000000	10.870105
1949.000000	10.824477
1948.000000	10.753602
1947.000000	10.702094
1946.000000	10.687696
1945.000000	10.655148
1944.000000	10.622499
1943.000000	10.586707
1942.000000	10.545135
1941.000000	10.543513
1940.000000	10.526377
1939.000000	10.516542
1938.000000	10.533272
1937.000000	10.536314
1936.000000	10.572005
1935.000000	10.564197
1934.000000	10.560851
1933.000000	10.573728
1932.000000	10.613779
1931.000000	10.656264
1930.000000	10.665490
1929.000000	10.736872
1928.000000	10.813324
1927.000000	10.907418
1926.000000	10.972919
1925.000000	11.059408
1924.000000	11.123490
1923.000000	11.176012
1922.000000	11.293123
1921.000000	11.425544
1920.000000	11.563035
1919.000000	11.721211
1918.000000	11.820476
1917.000000	11.983011
1916.000000	12.091199
1915.000000	12.218855
1914.000000	12.352392
1913.000000	12.574851
1912.000000	12.831988
1911.000000	13.035385
1910.000000	13.202686
1909.000000	13.364106
1908.000000	13.506870
1907.000000	13.716453
1906.000000	13.964159
1905.000000	14.264490
1904.000000	14.603047
1903.000000	14.871844
1902.000000	15.135571
1901.000000	15.425965
1900.000000	15.728323
1899.000000	16.109668
1898.000000	16.519302
1897.000000	16.875704
1896.000000	17.203209
1895.000000	17.520776
1894.000000	17.838243
1893.000000	18.208941
1892.000000	18.620299
1891.000000	19.129502
1890.000000	19.666792
1889.000000	20.135640
1888.000000	20.631663
1887.000000	21.076379
1886.000000	21.545532
1885.000000	22.028677
1884.000000	22.574078
1883.000000	23.147768
1882.000000	23.682625
1881.000000	24.206023
1880.000000	24.695962
1879.000000	25.155583
1878.000000	25.611859
1877.000000	26.076145
1876.000000	26.507274
1875.000000	26.946921
1874.000000	27.368215
1873.000000	27.767913
1872.000000	28.181298
1871.000000	28.556053
1870.000000	28.910122
1869.000000	29.212988
1868.000000	29.536031
1867.000000	29.778060
1866.000000	29.969290
1865.000000	30.130507
1864.000000	30.305818
1863.000000	30.448886
1862.000000	30.605946
1861.000000	30.779432
1860.000000	30.930713
1859.000000	31.086658
1858.000000	31.208534
1857.000000	31.316418
1856.000000	31.402908
1855.000000	31.457255
1854.000000	31.548105
1853.000000	31.611578
1852.000000	31.658625
1851.000000	31.696850
1850.000000	31.730716
1849.000000	31.779386
1848.000000	31.813353
1847.000000	31.832313
1846.000000	31.818220
1845.000000	31.770057
1844.000000	31.766306
1843.000000	31.756775
1842.000000	31.800780
1841.000000	31.823898
1840.000000	31.816090
1839.000000	31.783948
1838.000000	31.767320
1837.000000	31.752922
1836.000000	31.718143
1835.000000	31.688232
1834.000000	31.648789
1833.000000	31.594746
1832.000000	31.544961
1831.000000	31.534011
1830.000000	31.505924
1829.000000	31.458877
1828.000000	31.422375
1827.000000	31.370259
1826.000000	31.306684
1825.000000	31.267140
1824.000000	31.231449
1823.000000	31.209041
1822.000000	31.199713
1821.000000	31.211170
1820.000000	31.202755
1819.000000	31.183895
1818.000000	31.131474
1817.000000	31.089801
1816.000000	31.079459
1815.000000	31.081284
1814.000000	31.059890
1813.000000	31.038800
1812.000000	31.029066
1811.000000	31.022272
1810.000000	30.996822
1809.000000	30.937304
1808.000000	30.909927
1807.000000	30.891676
1806.000000	30.864502
1805.000000	30.829420
1804.000000	30.786327
1803.000000	30.761587
1802.000000	30.726403
1801.000000	30.687468
1800.000000	30.644578
1799.000000	30.590737
1798.000000	30.559001
1797.000000	30.526250
1796.000000	30.498468
1795.000000	30.487011
1794.000000	30.447162
1793.000000	30.405793
1792.000000	30.372333
1791.000000	30.332891
1790.000000	30.294259
1789.000000	30.266579
1788.000000	30.233423
1787.000000	30.201686
1786.000000	30.180596
1785.000000	30.140850
1784.000000	30.100292
1783.000000	30.061863
1782.000000	30.019582
1781.000000	29.966248
1780.000000	29.914233
1779.000000	29.879556
1778.000000	29.830684
1777.000000	29.764879
1776.000000	29.706982
1775.000000	29.645740
1774.000000	29.588959
1773.000000	29.515042
1772.000000	29.439503
1771.000000	29.348552
1770.000000	29.262570
1769.000000	29.173039
1768.000000	29.073165
1767.000000	28.994280
1766.000000	28.913874
1765.000000	28.848677
1764.000000	28.800819
1763.000000	28.764621
1762.000000	28.761478
1761.000000	28.773848
1760.000000	28.794330
1759.000000	28.851516
1758.000000	28.893595
1757.000000	28.932531
1756.000000	28.999958
1755.000000	29.051264
1754.000000	29.101555
1753.000000	29.151340
1752.000000	29.201125
1751.000000	29.229008
1750.000000	29.240466
1749.000000	29.256283
1748.000000	29.231746
1747.000000	29.213394
1746.000000	29.175168
1745.000000	29.115751
1744.000000	29.043760
1743.000000	28.943887
1742.000000	28.846751
1741.000000	28.727612
1740.000000	28.592453
1739.000000	28.415824
1738.000000	28.252984
1737.000000	28.089334
1736.000000	27.912907
1735.000000	27.754630
1734.000000	27.623020
1733.000000	27.519192
1732.000000	27.465960
1731.000000	27.414958
1730.000000	27.411916
1729.000000	27.425402
1728.000000	27.469306
1727.000000	27.532982
1726.000000	27.574959
1725.000000	27.629712
1724.000000	27.694604
1723.000000	27.746012
1722.000000	27.799852
1721.000000	27.885125
1720.000000	27.962286
1719.000000	28.054251
1718.000000	28.154632
1717.000000	28.255722
1716.000000	28.384392
1715.000000	28.509006
1714.000000	28.634228
1713.000000	28.771009
1712.000000	28.872404
1711.000000	28.967005
1710.000000	29.040110
1709.000000	29.112912
1708.000000	29.187538
1707.000000	29.207006
1706.000000	29.231239
1705.000000	29.243406
1704.000000	29.245738
1703.000000	29.237830
1702.000000	29.199705
1701.000000	29.149211
1700.000000	29.090706
1699.000000	28.996815
1698.000000	28.919755
1697.000000	28.828297
1696.000000	28.768576
1695.000000	28.696890
1694.000000	28.659982
1693.000000	28.663632
1692.000000	28.678030
1691.000000	28.724570
1690.000000	28.799907
1689.000000	28.867233
1688.000000	28.955851
1687.000000	29.008374
1686.000000	29.062417
1685.000000	29.145561
1684.000000	29.210859
1683.000000	29.347133
1682.000000	29.501658
1681.000000	29.693193
1680.000000	29.963409
1679.000000	30.269621
1678.000000	30.598443
1677.000000	30.950992
1676.000000	31.230537
1675.000000	31.545063
1674.000000	31.815279
1673.000000	32.050109
1672.000000	32.282404
1671.000000	32.458628
1670.000000	32.652190
1669.000000	32.805803
1668.000000	32.966209
1667.000000	33.062939
1666.000000	33.182788
1665.000000	33.296045
1664.000000	33.372294
1663.000000	33.478353
1662.000000	33.571433
1661.000000	33.612700
1660.000000	33.711155
1659.000000	33.753943
1658.000000	33.822891
1657.000000	33.833538
1656.000000	33.872068
1655.000000	33.900357
1654.000000	33.901878
1653.000000	33.916986
1652.000000	33.937163
1651.000000	33.926415
1650.000000	33.910192
1649.000000	33.910395
1648.000000	33.875008
1647.000000	33.843474
1646.000000	33.828468
1645.000000	33.797137
1644.000000	33.759621
1643.000000	33.729304
1642.000000	33.693309
1641.000000	33.666135
1640.000000	33.600229
1639.000000	33.569405
1638.000000	33.536655
1637.000000	33.474196
1636.000000	33.435260
1635.000000	33.365501
1634.000000	33.318960
1633.000000	33.267655
1632.000000	33.210671
1631.000000	33.134220
1630.000000	33.093053
1629.000000	33.017616
1628.000000	32.941975
1627.000000	32.871810
1626.000000	32.799820
1625.000000	32.726918
1624.000000	32.637183
1623.000000	32.581619
1622.000000	32.517842
