PE UV       SUBTECH     SPECTRUM    ASCII       PEDS        4.00        
   -1
CICIMAUCR0215-2.Sample.ASC
24/06/12
17:00:43.00
24/06/12
17:00:43.00
Vinicio Soto Monge
C. cupreomarginata. Sex M. Dorsal.
250,000000
1
Lambda 1050
1050L1511233
PerkinElmer UV WinLab 6.3.2.0749 / 2.02.05 Lambda 900 UV/VIS/NIR, Aug  7 2015 09:38:08

0
0
3350/servo 860,8/2
0
0
UV/VIS
1
1
1
DoubleDePol,CommonBeamDepol,RBeamAtt,SBeamAtt,60mm sphere, WB InGaAs Detector
0
0
0
0
Program
Program
3350/servo 860,8/2
3350/0,2 860,8/0,2
3350/0,2 860,8/0,2
0
15.00
 
 
 
0
 
860,8
319,2
860,8
Front
100
on
S:100 R:100
0
0
0
0
 
0
 
 
 
0
 
 
0
0
0
0
0
 
 
 
 
0
0


0
0
#HDR
-1
-1
#GR
nm
%R
1.0
0.0
2500,000000
-1,000000
2251
8
68,718200
5,596400
#DATA
2500.000000	11.946780
2499.000000	12.272501
2498.000000	12.078838
2497.000000	11.908212
2496.000000	11.938758
2495.000000	11.733987
2494.000000	11.676494
2493.000000	11.823362
2492.000000	11.772452
2491.000000	11.510600
2490.000000	11.732032
2489.000000	11.545260
2488.000000	11.682459
2487.000000	11.531066
2486.000000	11.616122
2485.000000	11.631755
2484.000000	11.485402
2483.000000	11.481391
2482.000000	11.605529
2481.000000	11.755276
2480.000000	11.641217
2479.000000	11.503709
2478.000000	11.562847
2477.000000	11.532815
2476.000000	11.453416
2475.000000	11.515331
2474.000000	11.678551
2473.000000	11.625481
2472.000000	11.642760
2471.000000	11.700561
2470.000000	11.692333
2469.000000	11.632578
2468.000000	11.744991
2467.000000	11.627847
2466.000000	11.708069
2465.000000	11.635458
2464.000000	11.615608
2463.000000	11.677626
2462.000000	11.747151
2461.000000	11.792919
2460.000000	11.875095
2459.000000	11.866764
2458.000000	11.904304
2457.000000	12.053948
2456.000000	12.151654
2455.000000	12.161939
2454.000000	12.273221
2453.000000	12.377510
2452.000000	12.476141
2451.000000	12.573128
2450.000000	12.632780
2449.000000	12.751878
2448.000000	12.848556
2447.000000	12.964672
2446.000000	13.053842
2445.000000	13.165946
2444.000000	13.274246
2443.000000	13.365678
2442.000000	13.428416
2441.000000	13.511312
2440.000000	13.653345
2439.000000	13.727911
2438.000000	13.794762
2437.000000	13.911392
2436.000000	14.013830
2435.000000	14.085412
2434.000000	14.188878
2433.000000	14.253467
2432.000000	14.345825
2431.000000	14.416070
2430.000000	14.470785
2429.000000	14.596981
2428.000000	14.672266
2427.000000	14.694070
2426.000000	14.782416
2425.000000	14.865004
2424.000000	14.894830
2423.000000	14.920439
2422.000000	14.972995
2421.000000	15.022259
2420.000000	15.071318
2419.000000	15.132821
2418.000000	15.212323
2417.000000	15.230733
2416.000000	15.295322
2415.000000	15.326896
2414.000000	15.345821
2413.000000	15.382949
2412.000000	15.420591
2411.000000	15.453709
2410.000000	15.498242
2409.000000	15.560363
2408.000000	15.577230
2407.000000	15.582681
2406.000000	15.610141
2405.000000	15.669793
2404.000000	15.711344
2403.000000	15.706099
2402.000000	15.733559
2401.000000	15.757215
2400.000000	15.799177
2399.000000	15.827974
2398.000000	15.888552
2397.000000	15.933497
2396.000000	15.950570
2395.000000	15.960443
2394.000000	15.983790
2393.000000	16.032334
2392.000000	16.077793
2391.000000	16.104740
2390.000000	16.130246
2389.000000	16.147730
2388.000000	16.174265
2387.000000	16.178174
2386.000000	16.188561
2385.000000	16.217667
2384.000000	16.224147
2383.000000	16.222398
2382.000000	16.203474
2381.000000	16.206148
2380.000000	16.210468
2379.000000	16.201520
2378.000000	16.194115
2377.000000	16.188150
2376.000000	16.174574
2375.000000	16.157912
2374.000000	16.123150
2373.000000	16.097849
2372.000000	16.102066
2371.000000	16.086741
2370.000000	16.055475
2369.000000	16.024312
2368.000000	15.997263
2367.000000	15.948410
2366.000000	15.901203
2365.000000	15.861092
2364.000000	15.814913
2363.000000	15.762460
2362.000000	15.716281
2361.000000	15.649738
2360.000000	15.568488
2359.000000	15.504824
2358.000000	15.443938
2357.000000	15.379863
2356.000000	15.345821
2355.000000	15.295116
2354.000000	15.240504
2353.000000	15.214689
2352.000000	15.188874
2351.000000	15.189285
2350.000000	15.197719
2349.000000	15.212632
2348.000000	15.227133
2347.000000	15.246777
2346.000000	15.292031
2345.000000	15.346335
2344.000000	15.399302
2343.000000	15.454017
2342.000000	15.504619
2341.000000	15.557174
2340.000000	15.601091
2339.000000	15.627934
2338.000000	15.656423
2337.000000	15.677918
2336.000000	15.685632
2335.000000	15.708362
2334.000000	15.696431
2333.000000	15.672982
2332.000000	15.651589
2331.000000	15.628243
2330.000000	15.582578
2329.000000	15.543495
2328.000000	15.513567
2327.000000	15.453092
2326.000000	15.399610
2325.000000	15.331730
2324.000000	15.250583
2323.000000	15.190416
2322.000000	15.116674
2321.000000	14.999324
2320.000000	14.873335
2319.000000	14.756704
2318.000000	14.641925
2317.000000	14.505240
2316.000000	14.389329
2315.000000	14.260460
2314.000000	14.125523
2313.000000	13.986472
2312.000000	13.873030
2311.000000	13.755474
2310.000000	13.640181
2309.000000	13.552143
2308.000000	13.480354
2307.000000	13.426565
2306.000000	13.412577
2305.000000	13.384397
2304.000000	13.376272
2303.000000	13.410829
2302.000000	13.434484
2301.000000	13.506684
2300.000000	13.581660
2299.000000	13.668978
2298.000000	13.757531
2297.000000	13.850609
2296.000000	13.944098
2295.000000	14.029874
2294.000000	14.101971
2293.000000	14.178593
2292.000000	14.255524
2291.000000	14.320935
2290.000000	14.354361
2289.000000	14.392209
2288.000000	14.433554
2287.000000	14.442605
2286.000000	14.423989
2285.000000	14.410619
2284.000000	14.384496
2283.000000	14.363412
2282.000000	14.352407
2281.000000	14.306434
2280.000000	14.231971
2279.000000	14.179518
2278.000000	14.144241
2277.000000	14.084795
2276.000000	14.018458
2275.000000	13.978347
2274.000000	13.961994
2273.000000	13.924043
2272.000000	13.875704
2271.000000	13.910775
2270.000000	13.920237
2269.000000	13.939881
2268.000000	13.989557
2267.000000	14.078418
2266.000000	14.140436
2265.000000	14.257272
2264.000000	14.390152
2263.000000	14.534140
2262.000000	14.707337
2261.000000	14.899458
2260.000000	15.123771
2259.000000	15.345923
2258.000000	15.571882
2257.000000	15.835894
2256.000000	16.105563
2255.000000	16.334400
2254.000000	16.591008
2253.000000	16.834758
2252.000000	17.077378
2251.000000	17.300148
2250.000000	17.512427
2249.000000	17.746099
2248.000000	17.949122
2247.000000	18.126124
2246.000000	18.282557
2245.000000	18.438681
2244.000000	18.593468
2243.000000	18.712567
2242.000000	18.872085
2241.000000	18.988098
2240.000000	19.055875
2239.000000	19.145250
2238.000000	19.245013
2237.000000	19.316390
2236.000000	19.369871
2235.000000	19.428804
2234.000000	19.472309
2233.000000	19.515916
2232.000000	19.573203
2231.000000	19.578037
2230.000000	19.607246
2229.000000	19.612697
2228.000000	19.620410
2227.000000	19.604572
2226.000000	19.593875
2225.000000	19.594595
2224.000000	19.558187
2223.000000	19.528567
2222.000000	19.489073
2221.000000	19.460687
2220.000000	19.427467
2219.000000	19.384270
2218.000000	19.335109
2217.000000	19.292632
2216.000000	19.239460
2215.000000	19.207988
2214.000000	19.153992
2213.000000	19.114807
2212.000000	19.063691
2211.000000	19.002497
2210.000000	18.984704
2209.000000	18.953952
2208.000000	18.907156
2207.000000	18.864885
2206.000000	18.843493
2205.000000	18.808113
2204.000000	18.779727
2203.000000	18.751752
2202.000000	18.732725
2201.000000	18.704750
2200.000000	18.667210
2199.000000	18.653017
2198.000000	18.629465
2197.000000	18.629259
2196.000000	18.621340
2195.000000	18.587606
2194.000000	18.554077
2193.000000	18.548009
2192.000000	18.524560
2191.000000	18.510778
2190.000000	18.489180
2189.000000	18.477866
2188.000000	18.448452
2187.000000	18.441972
2186.000000	18.431379
2185.000000	18.406078
2184.000000	18.386228
2183.000000	18.370698
2182.000000	18.361030
2181.000000	18.345706
2180.000000	18.329456
2179.000000	18.329867
2178.000000	18.310532
2177.000000	18.292019
2176.000000	18.281837
2175.000000	18.271244
2174.000000	18.276592
2173.000000	18.270729
2172.000000	18.268775
2171.000000	18.293870
2170.000000	18.306932
2169.000000	18.311869
2168.000000	18.338609
2167.000000	18.346323
2166.000000	18.368435
2165.000000	18.400730
2164.000000	18.437447
2163.000000	18.467479
2162.000000	18.493294
2161.000000	18.538136
2160.000000	18.585549
2159.000000	18.617946
2158.000000	18.639853
2157.000000	18.696625
2156.000000	18.769339
2155.000000	18.836910
2154.000000	18.891934
2153.000000	18.932560
2152.000000	18.979973
2151.000000	19.033968
2150.000000	19.106785
2149.000000	19.169214
2148.000000	19.248819
2147.000000	19.316802
2146.000000	19.374294
2145.000000	19.432712
2144.000000	19.478068
2143.000000	19.540600
2142.000000	19.602823
2141.000000	19.656613
2140.000000	19.716677
2139.000000	19.752879
2138.000000	19.791036
2137.000000	19.844003
2136.000000	19.895016
2135.000000	19.944075
2134.000000	19.985523
2133.000000	20.025222
2132.000000	20.057928
2131.000000	20.072841
2130.000000	20.114289
2129.000000	20.140104
2128.000000	20.155531
2127.000000	20.159851
2126.000000	20.177335
2125.000000	20.207367
2124.000000	20.213743
2123.000000	20.202224
2122.000000	20.200167
2121.000000	20.222486
2120.000000	20.222074
2119.000000	20.206647
2118.000000	20.201916
2117.000000	20.189163
2116.000000	20.173221
2115.000000	20.148332
2114.000000	20.137018
2113.000000	20.128276
2112.000000	20.103284
2111.000000	20.071812
2110.000000	20.047026
2109.000000	20.030776
2108.000000	20.010926
2107.000000	19.995396
2106.000000	19.962999
2105.000000	19.953948
2104.000000	19.933995
2103.000000	19.898616
2102.000000	19.858402
2101.000000	19.835364
2100.000000	19.819217
2099.000000	19.791242
2098.000000	19.764810
2097.000000	19.748971
2096.000000	19.736012
2095.000000	19.717705
2094.000000	19.708140
2093.000000	19.678725
2092.000000	19.649928
2091.000000	19.637483
2090.000000	19.613828
2089.000000	19.593670
2088.000000	19.599841
2087.000000	19.594595
2086.000000	19.563124
2085.000000	19.524041
2084.000000	19.501929
2083.000000	19.489587
2082.000000	19.456367
2081.000000	19.423250
2080.000000	19.391264
2079.000000	19.350022
2078.000000	19.307648
2077.000000	19.259824
2076.000000	19.223209
2075.000000	19.180939
2074.000000	19.119230
2073.000000	19.060914
2072.000000	19.008359
2071.000000	18.962591
2070.000000	18.913533
2069.000000	18.839790
2068.000000	18.767385
2067.000000	18.711641
2066.000000	18.649315
2065.000000	18.594188
2064.000000	18.535770
2063.000000	18.473238
2062.000000	18.420065
2061.000000	18.368641
2060.000000	18.329559
2059.000000	18.284305
2058.000000	18.255302
2057.000000	18.221259
2056.000000	18.201204
2055.000000	18.207992
2054.000000	18.200381
2053.000000	18.211797
2052.000000	18.232367
2051.000000	18.276386
2050.000000	18.334187
2049.000000	18.390754
2048.000000	18.457091
2047.000000	18.544512
2046.000000	18.623191
2045.000000	18.699711
2044.000000	18.800811
2043.000000	18.904688
2042.000000	19.018747
2041.000000	19.110282
2040.000000	19.201920
2039.000000	19.296335
2038.000000	19.383962
2037.000000	19.485782
2036.000000	19.580197
2035.000000	19.660830
2034.000000	19.735806
2033.000000	19.803995
2032.000000	19.870229
2031.000000	19.928442
2030.000000	19.991694
2029.000000	20.058031
2028.000000	20.104415
2027.000000	20.149360
2026.000000	20.199036
2025.000000	20.235444
2024.000000	20.274116
2023.000000	20.298593
2022.000000	20.320192
2021.000000	20.351252
2020.000000	20.378095
2019.000000	20.412858
2018.000000	20.427463
2017.000000	20.420263
2016.000000	20.455335
2015.000000	20.461711
2014.000000	20.448341
2013.000000	20.463357
2012.000000	20.462123
2011.000000	20.459963
2010.000000	20.436513
2009.000000	20.406584
2008.000000	20.407510
2007.000000	20.381181
2006.000000	20.343744
2005.000000	20.297359
2004.000000	20.278127
2003.000000	20.243672
2002.000000	20.187003
2001.000000	20.133007
2000.000000	20.085594
1999.000000	20.041472
1998.000000	19.989122
1997.000000	19.919905
1996.000000	19.855111
1995.000000	19.803378
1994.000000	19.738275
1993.000000	19.648385
1992.000000	19.560347
1991.000000	19.510980
1990.000000	19.449990
1989.000000	19.356295
1988.000000	19.273708
1987.000000	19.180013
1986.000000	19.098968
1985.000000	19.014016
1984.000000	18.903968
1983.000000	18.822923
1982.000000	18.736530
1981.000000	18.656103
1980.000000	18.563848
1979.000000	18.461719
1978.000000	18.364013
1977.000000	18.288522
1976.000000	18.192153
1975.000000	18.093521
1974.000000	18.009700
1973.000000	17.913434
1972.000000	17.837634
1971.000000	17.751653
1970.000000	17.653330
1969.000000	17.562823
1968.000000	17.483938
1967.000000	17.409682
1966.000000	17.315472
1965.000000	17.243170
1964.000000	17.153692
1963.000000	17.062362
1962.000000	16.991808
1961.000000	16.905827
1960.000000	16.831982
1959.000000	16.744355
1958.000000	16.657653
1957.000000	16.590185
1956.000000	16.500501
1955.000000	16.413594
1954.000000	16.349931
1953.000000	16.267138
1952.000000	16.200595
1951.000000	16.114613
1950.000000	16.053521
1949.000000	15.974122
1948.000000	15.921978
1947.000000	15.832603
1946.000000	15.781487
1945.000000	15.735308
1944.000000	15.675244
1943.000000	15.643978
1942.000000	15.606953
1941.000000	15.590600
1940.000000	15.549975
1939.000000	15.540513
1938.000000	15.506676
1937.000000	15.500299
1936.000000	15.518812
1935.000000	15.507293
1934.000000	15.531874
1933.000000	15.553677
1932.000000	15.583503
1931.000000	15.596977
1930.000000	15.672159
1929.000000	15.726257
1928.000000	15.815324
1927.000000	15.898837
1926.000000	15.994280
1925.000000	16.107414
1924.000000	16.181979
1923.000000	16.270017
1922.000000	16.392201
1921.000000	16.548840
1920.000000	16.714426
1919.000000	16.866333
1918.000000	17.005384
1917.000000	17.193083
1916.000000	17.328020
1915.000000	17.444342
1914.000000	17.637697
1913.000000	17.850285
1912.000000	18.110286
1911.000000	18.369155
1910.000000	18.585343
1909.000000	18.753192
1908.000000	18.939965
1907.000000	19.148027
1906.000000	19.413685
1905.000000	19.714003
1904.000000	20.029645
1903.000000	20.340247
1902.000000	20.611767
1901.000000	20.907354
1900.000000	21.157790
1899.000000	21.526399
1898.000000	21.875570
1897.000000	22.218878
1896.000000	22.569489
1895.000000	22.855305
1894.000000	23.118802
1893.000000	23.452237
1892.000000	23.784952
1891.000000	24.189353
1890.000000	24.632835
1889.000000	25.017900
1888.000000	25.382395
1887.000000	25.787618
1886.000000	26.151805
1885.000000	26.584797
1884.000000	27.009870
1883.000000	27.451090
1882.000000	27.922239
1881.000000	28.371379
1880.000000	28.794703
1879.000000	29.201880
1878.000000	29.575426
1877.000000	29.974684
1876.000000	30.365714
1875.000000	30.725273
1874.000000	31.079072
1873.000000	31.403867
1872.000000	31.729897
1871.000000	32.036180
1870.000000	32.312225
1869.000000	32.540446
1868.000000	32.781317
1867.000000	32.986603
1866.000000	33.138099
1865.000000	33.272110
1864.000000	33.401391
1863.000000	33.484801
1862.000000	33.580964
1861.000000	33.702428
1860.000000	33.828418
1859.000000	33.945665
1858.000000	34.026710
1857.000000	34.104978
1856.000000	34.170492
1855.000000	34.208957
1854.000000	34.249480
1853.000000	34.301110
1852.000000	34.313246
1851.000000	34.321679
1850.000000	34.351505
1849.000000	34.379686
1848.000000	34.399433
1847.000000	34.412289
1846.000000	34.428128
1845.000000	34.401695
1844.000000	34.361379
1843.000000	34.330216
1842.000000	34.312834
1841.000000	34.350991
1840.000000	34.379275
1839.000000	34.380406
1838.000000	34.346569
1837.000000	34.302755
1836.000000	34.289385
1835.000000	34.282803
1834.000000	34.227470
1833.000000	34.180160
1832.000000	34.133158
1831.000000	34.103846
1830.000000	34.084511
1829.000000	34.048308
1828.000000	34.016528
1827.000000	33.961915
1826.000000	33.918925
1825.000000	33.907200
1824.000000	33.869043
1823.000000	33.833355
1822.000000	33.827287
1821.000000	33.846416
1820.000000	33.853204
1819.000000	33.842405
1818.000000	33.789747
1817.000000	33.760435
1816.000000	33.771028
1815.000000	33.778742
1814.000000	33.780490
1813.000000	33.766195
1812.000000	33.752207
1811.000000	33.752310
1810.000000	33.754573
1809.000000	33.722073
1808.000000	33.696360
1807.000000	33.684121
1806.000000	33.661083
1805.000000	33.637942
1804.000000	33.608836
1803.000000	33.583536
1802.000000	33.558132
1801.000000	33.535711
1800.000000	33.508250
1799.000000	33.477293
1798.000000	33.445616
1797.000000	33.409413
1796.000000	33.379381
1795.000000	33.359532
1794.000000	33.345853
1793.000000	33.322403
1792.000000	33.284246
1791.000000	33.252363
1790.000000	33.230971
1789.000000	33.203407
1788.000000	33.168336
1787.000000	33.125243
1786.000000	33.100353
1785.000000	33.089348
1784.000000	33.056746
1783.000000	33.014372
1782.000000	32.969427
1781.000000	32.914197
1780.000000	32.876246
1779.000000	32.844260
1778.000000	32.802915
1777.000000	32.746349
1776.000000	32.691016
1775.000000	32.628176
1774.000000	32.558342
1773.000000	32.493033
1772.000000	32.429061
1771.000000	32.354702
1770.000000	32.277874
1769.000000	32.198989
1768.000000	32.133166
1767.000000	32.057675
1766.000000	31.988664
1765.000000	31.927777
1764.000000	31.882421
1763.000000	31.855064
1762.000000	31.846424
1761.000000	31.842105
1760.000000	31.855269
1759.000000	31.901551
1758.000000	31.951124
1757.000000	32.005222
1756.000000	32.046979
1755.000000	32.082359
1754.000000	32.120104
1753.000000	32.152296
1752.000000	32.161552
1751.000000	32.183562
1750.000000	32.191275
1749.000000	32.153324
1748.000000	32.123087
1747.000000	32.097580
1746.000000	32.047287
1745.000000	31.979202
1744.000000	31.896717
1743.000000	31.807445
1742.000000	31.681250
1741.000000	31.547135
1740.000000	31.411581
1739.000000	31.270267
1738.000000	31.116097
1737.000000	30.958533
1736.000000	30.808374
1735.000000	30.687527
1734.000000	30.603809
1733.000000	30.539837
1732.000000	30.518856
1731.000000	30.516490
1730.000000	30.530889
1729.000000	30.582108
1728.000000	30.643611
1727.000000	30.696167
1726.000000	30.760961
1725.000000	30.817322
1724.000000	30.869672
1723.000000	30.914925
1722.000000	30.954111
1721.000000	30.990313
1720.000000	31.034127
1719.000000	31.088842
1718.000000	31.137798
1717.000000	31.221620
1716.000000	31.294848
1715.000000	31.381035
1714.000000	31.453851
1713.000000	31.548678
1712.000000	31.629517
1711.000000	31.688963
1710.000000	31.736273
1709.000000	31.776590
1708.000000	31.801891
1707.000000	31.802097
1706.000000	31.810324
1705.000000	31.770214
1704.000000	31.737199
1703.000000	31.679193
1702.000000	31.644635
1701.000000	31.554129
1700.000000	31.451589
1699.000000	31.339895
1698.000000	31.232830
1697.000000	31.117948
1696.000000	31.023225
1695.000000	30.965527
1694.000000	30.925107
1693.000000	30.941152
1692.000000	30.973446
1691.000000	31.049965
1690.000000	31.118771
1689.000000	31.222957
1688.000000	31.291865
1687.000000	31.367150
1686.000000	31.423305
1685.000000	31.460948
1684.000000	31.515458
1683.000000	31.612752
1682.000000	31.762294
1681.000000	31.982596
1680.000000	32.287850
1679.000000	32.603492
1678.000000	32.995962
1677.000000	33.341122
1676.000000	33.682784
1675.000000	34.001306
1674.000000	34.277660
1673.000000	34.540952
1672.000000	34.747164
1671.000000	34.946278
1670.000000	35.118035
1669.000000	35.276936
1668.000000	35.405806
1667.000000	35.519042
1666.000000	35.614074
1665.000000	35.721036
1664.000000	35.816891
1663.000000	35.893925
1662.000000	35.963656
1661.000000	36.014874
1660.000000	36.078640
1659.000000	36.136853
1658.000000	36.176141
1657.000000	36.216766
1656.000000	36.217897
1655.000000	36.253586
1654.000000	36.255848
1653.000000	36.265825
1652.000000	36.262636
1651.000000	36.263871
1650.000000	36.239907
1649.000000	36.230033
1648.000000	36.208230
1647.000000	36.187866
1646.000000	36.151149
1645.000000	36.114740
1644.000000	36.074835
1643.000000	36.045318
1642.000000	36.020428
1641.000000	35.997904
1640.000000	35.949874
1639.000000	35.909558
1638.000000	35.877880
1637.000000	35.837049
1636.000000	35.788505
1635.000000	35.725356
1634.000000	35.687713
1633.000000	35.649145
1632.000000	35.608006
1631.000000	35.550925
1630.000000	35.502483
1629.000000	35.426067
1628.000000	35.372997
1627.000000	35.313448
1626.000000	35.257806
1625.000000	35.207102
