PE UV       SUBTECH     SPECTRUM    ASCII       PEDS        4.00        
   -1
CICIMAUCR0240-2.Sample.ASC
24/06/20
11:56:04.00
24/06/20
11:56:04.00
Vinicio Soto Monge
C. resplendens. Sex M. Dorsal.
250,000000
1
Lambda 1050
1050L1511233
PerkinElmer UV WinLab 6.3.2.0749 / 2.02.05 Lambda 900 UV/VIS/NIR, Aug  7 2015 09:38:08

0
0
3350/servo 860,8/2
0
0
UV/VIS
1
1
1
DoubleDePol,CommonBeamDepol,RBeamAtt,SBeamAtt,60mm sphere, WB InGaAs Detector
0
0
0
0
Program
Program
3350/servo 860,8/2
3350/0,2 860,8/0,2
3350/0,2 860,8/0,2
0
15.00
 
 
 
0
 
860,8
319,2
860,8
Front
100
on
S:100 R:100
0
0
0
0
 
0
 
 
 
0
 
 
0
0
0
0
0
 
 
 
 
0
0


0
0
#HDR
-1
-1
#GR
nm
%R
1.0
0.0
2500,000000
-1,000000
2251
8
89,301500
5,619700
#DATA
2500.000000	11.255066
2499.000000	11.021859
2498.000000	11.079978
2497.000000	10.963635
2496.000000	11.056543
2495.000000	10.977071
2494.000000	11.023421
2493.000000	10.977801
2492.000000	10.931347
2491.000000	10.977488
2490.000000	10.847084
2489.000000	10.963323
2488.000000	10.842813
2487.000000	10.877498
2486.000000	10.876456
2485.000000	10.858020
2484.000000	10.879893
2483.000000	10.778132
2482.000000	10.907182
2481.000000	10.910411
2480.000000	10.864582
2479.000000	10.878018
2478.000000	10.872706
2477.000000	10.882081
2476.000000	10.893954
2475.000000	10.938846
2474.000000	10.936763
2473.000000	10.970510
2472.000000	10.976446
2471.000000	10.968218
2470.000000	10.968114
2469.000000	10.981238
2468.000000	11.009985
2467.000000	11.034045
2466.000000	11.077062
2465.000000	11.091748
2464.000000	11.092581
2463.000000	11.142785
2462.000000	11.180594
2461.000000	11.225589
2460.000000	11.288604
2459.000000	11.330058
2458.000000	11.349536
2457.000000	11.405989
2456.000000	11.489210
2455.000000	11.538268
2454.000000	11.595345
2453.000000	11.678358
2452.000000	11.738873
2451.000000	11.826157
2450.000000	11.896775
2449.000000	11.975517
2448.000000	12.088840
2447.000000	12.146647
2446.000000	12.225389
2445.000000	12.288196
2444.000000	12.356106
2443.000000	12.439744
2442.000000	12.531922
2441.000000	12.626913
2440.000000	12.729195
2439.000000	12.785752
2438.000000	12.898866
2437.000000	12.961360
2436.000000	13.038228
2435.000000	13.103951
2434.000000	13.179464
2433.000000	13.238521
2432.000000	13.317055
2431.000000	13.391111
2430.000000	13.461104
2429.000000	13.519952
2428.000000	13.587238
2427.000000	13.664105
2426.000000	13.726912
2425.000000	13.770345
2424.000000	13.850025
2423.000000	13.892312
2422.000000	13.950849
2421.000000	14.013863
2420.000000	14.065108
2419.000000	14.121770
2418.000000	14.168536
2417.000000	14.215094
2416.000000	14.246653
2415.000000	14.285504
2414.000000	14.346540
2413.000000	14.379557
2412.000000	14.412992
2411.000000	14.468611
2410.000000	14.499858
2409.000000	14.555478
2408.000000	14.579017
2407.000000	14.615160
2406.000000	14.661509
2405.000000	14.690153
2404.000000	14.709109
2403.000000	14.742960
2402.000000	14.777748
2401.000000	14.815245
2400.000000	14.839930
2399.000000	14.862844
2398.000000	14.864511
2397.000000	14.889092
2396.000000	14.934087
2395.000000	14.960335
2394.000000	14.985333
2393.000000	15.019913
2392.000000	15.036578
2391.000000	15.060742
2390.000000	15.088968
2389.000000	15.106988
2388.000000	15.115737
2387.000000	15.139068
2386.000000	15.150942
2385.000000	15.170419
2384.000000	15.176460
2383.000000	15.166982
2382.000000	15.167503
2381.000000	15.178439
2380.000000	15.177502
2379.000000	15.187292
2378.000000	15.191979
2377.000000	15.170731
2376.000000	15.152192
2375.000000	15.146255
2374.000000	15.128444
2373.000000	15.129173
2372.000000	15.128652
2371.000000	15.097405
2370.000000	15.081261
2369.000000	15.065637
2368.000000	15.050743
2367.000000	15.028766
2366.000000	14.999290
2365.000000	14.972521
2364.000000	14.948669
2363.000000	14.910548
2362.000000	14.879405
2361.000000	14.858991
2360.000000	14.818265
2359.000000	14.780040
2358.000000	14.742231
2357.000000	14.692340
2356.000000	14.658176
2355.000000	14.621930
2354.000000	14.599120
2353.000000	14.573185
2352.000000	14.554541
2351.000000	14.549333
2350.000000	14.537563
2349.000000	14.536730
2348.000000	14.541417
2347.000000	14.546104
2346.000000	14.576622
2345.000000	14.619638
2344.000000	14.643490
2343.000000	14.661822
2342.000000	14.684111
2341.000000	14.716921
2340.000000	14.738169
2339.000000	14.761083
2338.000000	14.792330
2337.000000	14.795663
2336.000000	14.822119
2335.000000	14.845346
2334.000000	14.839201
2333.000000	14.828264
2332.000000	14.818265
2331.000000	14.807850
2330.000000	14.795455
2329.000000	14.790455
2328.000000	14.751709
2327.000000	14.719421
2326.000000	14.690673
2325.000000	14.649011
2324.000000	14.595266
2323.000000	14.541729
2322.000000	14.484131
2321.000000	14.427053
2320.000000	14.333208
2319.000000	14.244674
2318.000000	14.181347
2317.000000	14.081773
2316.000000	13.963660
2315.000000	13.874710
2314.000000	13.769928
2313.000000	13.669834
2312.000000	13.570573
2311.000000	13.478186
2310.000000	13.387465
2309.000000	13.309348
2308.000000	13.256332
2307.000000	13.209045
2306.000000	13.155404
2305.000000	13.105930
2304.000000	13.083015
2303.000000	13.114783
2302.000000	13.131760
2301.000000	13.164778
2300.000000	13.208524
2299.000000	13.278517
2298.000000	13.331116
2297.000000	13.375070
2296.000000	13.469957
2295.000000	13.544533
2294.000000	13.625359
2293.000000	13.691603
2292.000000	13.759617
2291.000000	13.818986
2290.000000	13.865648
2289.000000	13.898874
2288.000000	13.932413
2287.000000	13.961993
2286.000000	13.993449
2285.000000	14.014384
2284.000000	14.018550
2283.000000	14.001052
2282.000000	13.994178
2281.000000	13.977929
2280.000000	13.956160
2279.000000	13.920539
2278.000000	13.894708
2277.000000	13.869919
2276.000000	13.841067
2275.000000	13.812841
2274.000000	13.794197
2273.000000	13.783156
2272.000000	13.758679
2271.000000	13.728891
2270.000000	13.754201
2269.000000	13.807633
2268.000000	13.833151
2267.000000	13.857837
2266.000000	13.934704
2265.000000	14.027091
2264.000000	14.156245
2263.000000	14.279671
2262.000000	14.431532
2261.000000	14.597349
2260.000000	14.784206
2259.000000	14.974813
2258.000000	15.169377
2257.000000	15.392481
2256.000000	15.616418
2255.000000	15.869623
2254.000000	16.081269
2253.000000	16.324683
2252.000000	16.560910
2251.000000	16.772557
2250.000000	17.015034
2249.000000	17.179393
2248.000000	17.372291
2247.000000	17.567376
2246.000000	17.738610
2245.000000	17.868910
2244.000000	18.042331
2243.000000	18.184713
2242.000000	18.305326
2241.000000	18.412399
2240.000000	18.516973
2239.000000	18.595611
2238.000000	18.694456
2237.000000	18.778823
2236.000000	18.847462
2235.000000	18.889333
2234.000000	18.931725
2233.000000	18.964117
2232.000000	19.008592
2231.000000	19.050151
2230.000000	19.030361
2229.000000	19.055150
2228.000000	19.063170
2227.000000	19.044526
2226.000000	19.039527
2225.000000	19.013383
2224.000000	18.984949
2223.000000	18.975470
2222.000000	18.927454
2221.000000	18.867147
2220.000000	18.834442
2219.000000	18.780385
2218.000000	18.735702
2217.000000	18.687477
2216.000000	18.656439
2215.000000	18.591757
2214.000000	18.541866
2213.000000	18.485309
2212.000000	18.435001
2211.000000	18.371778
2210.000000	18.341990
2209.000000	18.299910
2208.000000	18.268142
2207.000000	18.189296
2206.000000	18.160549
2205.000000	18.153570
2204.000000	18.134093
2203.000000	18.098784
2202.000000	18.077432
2201.000000	18.058788
2200.000000	18.020145
2199.000000	18.011084
2198.000000	17.985461
2197.000000	17.954839
2196.000000	17.935362
2195.000000	17.907865
2194.000000	17.888283
2193.000000	17.895157
2192.000000	17.882971
2191.000000	17.844225
2190.000000	17.818706
2189.000000	17.809436
2188.000000	17.795480
2187.000000	17.784543
2186.000000	17.763399
2185.000000	17.745797
2184.000000	17.725903
2183.000000	17.699030
2182.000000	17.681845
2181.000000	17.682365
2180.000000	17.672470
2179.000000	17.647785
2178.000000	17.628621
2177.000000	17.631120
2176.000000	17.630391
2175.000000	17.631120
2174.000000	17.614559
2173.000000	17.620913
2172.000000	17.625600
2171.000000	17.630287
2170.000000	17.633828
2169.000000	17.677782
2168.000000	17.696531
2167.000000	17.706634
2166.000000	17.726632
2165.000000	17.751005
2164.000000	17.784543
2163.000000	17.827976
2162.000000	17.856932
2161.000000	17.905156
2160.000000	17.939945
2159.000000	17.987336
2158.000000	18.030353
2157.000000	18.098263
2156.000000	18.140134
2155.000000	18.204294
2154.000000	18.278871
2153.000000	18.349489
2152.000000	18.410941
2151.000000	18.488330
2150.000000	18.542387
2149.000000	18.620504
2148.000000	18.684561
2147.000000	18.762782
2146.000000	18.817256
2145.000000	18.892562
2144.000000	18.962867
2143.000000	19.027236
2142.000000	19.101188
2141.000000	19.156495
2140.000000	19.204407
2139.000000	19.258568
2138.000000	19.326791
2137.000000	19.384494
2136.000000	19.439280
2135.000000	19.483651
2134.000000	19.511252
2133.000000	19.569372
2132.000000	19.612493
2131.000000	19.653114
2130.000000	19.689673
2129.000000	19.720191
2128.000000	19.749146
2127.000000	19.759041
2126.000000	19.780185
2125.000000	19.791850
2124.000000	19.806120
2123.000000	19.816327
2122.000000	19.833096
2121.000000	19.845387
2120.000000	19.847783
2119.000000	19.844450
2118.000000	19.831951
2117.000000	19.839138
2116.000000	19.843200
2115.000000	19.824139
2114.000000	19.799662
2113.000000	19.780081
2112.000000	19.766749
2111.000000	19.751854
2110.000000	19.741959
2109.000000	19.724774
2108.000000	19.697693
2107.000000	19.692381
2106.000000	19.672174
2105.000000	19.640823
2104.000000	19.615097
2103.000000	19.583329
2102.000000	19.547915
2101.000000	19.533125
2100.000000	19.525938
2099.000000	19.494171
2098.000000	19.473652
2097.000000	19.449175
2096.000000	19.420324
2095.000000	19.410325
2094.000000	19.401992
2093.000000	19.394805
2092.000000	19.380536
2091.000000	19.368454
2090.000000	19.371057
2089.000000	19.352622
2088.000000	19.336477
2087.000000	19.332311
2086.000000	19.310647
2085.000000	19.289294
2084.000000	19.265338
2083.000000	19.230758
2082.000000	19.206490
2081.000000	19.177326
2080.000000	19.141913
2079.000000	19.095146
2078.000000	19.053171
2077.000000	19.021508
2076.000000	18.975366
2075.000000	18.908810
2074.000000	18.840588
2073.000000	18.775906
2072.000000	18.703622
2071.000000	18.632483
2070.000000	18.560719
2069.000000	18.479893
2068.000000	18.394589
2067.000000	18.315534
2066.000000	18.226167
2065.000000	18.145550
2064.000000	18.071599
2063.000000	17.982962
2062.000000	17.890783
2061.000000	17.808395
2060.000000	17.741526
2059.000000	17.677470
2058.000000	17.614247
2057.000000	17.570501
2056.000000	17.519777
2055.000000	17.478947
2054.000000	17.457283
2053.000000	17.442076
2052.000000	17.443222
2051.000000	17.458429
2050.000000	17.502487
2049.000000	17.549982
2048.000000	17.602581
2047.000000	17.679032
2046.000000	17.757254
2045.000000	17.855474
2044.000000	17.957027
2043.000000	18.057538
2042.000000	18.168673
2041.000000	18.269392
2040.000000	18.374591
2039.000000	18.490517
2038.000000	18.594778
2037.000000	18.700393
2036.000000	18.786322
2035.000000	18.876938
2034.000000	18.968284
2033.000000	19.038798
2032.000000	19.110145
2031.000000	19.205761
2030.000000	19.270130
2029.000000	19.304085
2028.000000	19.350226
2027.000000	19.396472
2026.000000	19.442092
2025.000000	19.484276
2024.000000	19.533021
2023.000000	19.568643
2022.000000	19.580517
2021.000000	19.608326
2020.000000	19.620825
2019.000000	19.652593
2018.000000	19.650926
2017.000000	19.645927
2016.000000	19.664988
2015.000000	19.669883
2014.000000	19.661967
2013.000000	19.650822
2012.000000	19.637594
2011.000000	19.619054
2010.000000	19.604681
2009.000000	19.585829
2008.000000	19.556560
2007.000000	19.536458
2006.000000	19.512815
2005.000000	19.472298
2004.000000	19.429802
2003.000000	19.399909
2002.000000	19.353767
2001.000000	19.306689
2000.000000	19.252944
1999.000000	19.179097
1998.000000	19.129935
1997.000000	19.060671
1996.000000	18.991511
1995.000000	18.919434
1994.000000	18.859857
1993.000000	18.753408
1992.000000	18.699559
1991.000000	18.615088
1990.000000	18.521243
1989.000000	18.444688
1988.000000	18.345218
1987.000000	18.257102
1986.000000	18.169610
1985.000000	18.085556
1984.000000	17.985253
1983.000000	17.903282
1982.000000	17.796000
1981.000000	17.701739
1980.000000	17.617892
1979.000000	17.525089
1978.000000	17.422703
1977.000000	17.328962
1976.000000	17.217202
1975.000000	17.130231
1974.000000	17.049926
1973.000000	16.977641
1972.000000	16.862965
1971.000000	16.769120
1970.000000	16.689856
1969.000000	16.590283
1968.000000	16.501750
1967.000000	16.412383
1966.000000	16.328537
1965.000000	16.257710
1964.000000	16.157199
1963.000000	16.086164
1962.000000	16.028566
1961.000000	15.922222
1960.000000	15.839626
1959.000000	15.774215
1958.000000	15.694639
1957.000000	15.620376
1956.000000	15.530801
1955.000000	15.445497
1954.000000	15.367588
1953.000000	15.295511
1952.000000	15.240204
1951.000000	15.172294
1950.000000	15.110112
1949.000000	15.035640
1948.000000	14.961585
1947.000000	14.922109
1946.000000	14.841596
1945.000000	14.829202
1944.000000	14.781706
1943.000000	14.727961
1942.000000	14.689944
1941.000000	14.684736
1940.000000	14.666926
1939.000000	14.623076
1938.000000	14.615576
1937.000000	14.620368
1936.000000	14.609119
1935.000000	14.604119
1934.000000	14.650990
1933.000000	14.662655
1932.000000	14.709317
1931.000000	14.747751
1930.000000	14.795142
1929.000000	14.863990
1928.000000	14.928567
1927.000000	15.007726
1926.000000	15.111675
1925.000000	15.212082
1924.000000	15.307593
1923.000000	15.410708
1922.000000	15.531843
1921.000000	15.688286
1920.000000	15.846812
1919.000000	16.035857
1918.000000	16.172198
1917.000000	16.342181
1916.000000	16.509561
1915.000000	16.688190
1914.000000	16.909939
1913.000000	17.153770
1912.000000	17.415308
1911.000000	17.670283
1910.000000	17.909844
1909.000000	18.130864
1908.000000	18.366258
1907.000000	18.639357
1906.000000	18.933912
1905.000000	19.284191
1904.000000	19.654259
1903.000000	20.018704
1902.000000	20.360337
1901.000000	20.694472
1900.000000	21.085060
1899.000000	21.522309
1898.000000	21.949664
1897.000000	22.415765
1896.000000	22.834788
1895.000000	23.234437
1894.000000	23.638044
1893.000000	24.072794
1892.000000	24.545665
1891.000000	25.116131
1890.000000	25.651080
1889.000000	26.149157
1888.000000	26.669107
1887.000000	27.214263
1886.000000	27.740462
1885.000000	28.277182
1884.000000	28.828171
1883.000000	29.425301
1882.000000	29.991288
1881.000000	30.495927
1880.000000	31.035980
1879.000000	31.507705
1878.000000	31.969848
1877.000000	32.435116
1876.000000	32.875074
1875.000000	33.271598
1874.000000	33.669373
1873.000000	34.064022
1872.000000	34.458880
1871.000000	34.812075
1870.000000	35.151001
1869.000000	35.425871
1868.000000	35.746048
1867.000000	35.988317
1866.000000	36.191735
1865.000000	36.353698
1864.000000	36.531390
1863.000000	36.693145
1862.000000	36.842401
1861.000000	37.007073
1860.000000	37.164037
1859.000000	37.291733
1858.000000	37.398494
1857.000000	37.513379
1856.000000	37.593371
1855.000000	37.669301
1854.000000	37.724608
1853.000000	37.798455
1852.000000	37.811475
1851.000000	37.837410
1850.000000	37.891363
1849.000000	37.927610
1848.000000	37.943962
1847.000000	37.970939
1846.000000	37.944379
1845.000000	37.887301
1844.000000	37.902300
1843.000000	37.881052
1842.000000	37.896988
1841.000000	37.944483
1840.000000	37.918027
1839.000000	37.886051
1838.000000	37.828973
1837.000000	37.805017
1836.000000	37.788665
1835.000000	37.770437
1834.000000	37.732941
1833.000000	37.662739
1832.000000	37.624618
1831.000000	37.600349
1830.000000	37.582539
1829.000000	37.544938
1828.000000	37.497859
1827.000000	37.434324
1826.000000	37.362351
1825.000000	37.325376
1824.000000	37.278193
1823.000000	37.253612
1822.000000	37.274235
1821.000000	37.281109
1820.000000	37.259132
1819.000000	37.242780
1818.000000	37.195493
1817.000000	37.153205
1816.000000	37.147268
1815.000000	37.144664
1814.000000	37.135602
1813.000000	37.123104
1812.000000	37.108938
1811.000000	37.077275
1810.000000	37.033321
1809.000000	37.001553
1808.000000	36.966556
1807.000000	36.935205
1806.000000	36.906458
1805.000000	36.855629
1804.000000	36.801468
1803.000000	36.764596
1802.000000	36.735328
1801.000000	36.705852
1800.000000	36.659294
1799.000000	36.601487
1798.000000	36.552742
1797.000000	36.520557
1796.000000	36.487435
1795.000000	36.449002
1794.000000	36.406818
1793.000000	36.362968
1792.000000	36.333179
1791.000000	36.288288
1790.000000	36.246104
1789.000000	36.215274
1788.000000	36.176840
1787.000000	36.151009
1786.000000	36.134344
1785.000000	36.106743
1784.000000	36.057581
1783.000000	35.997066
1782.000000	35.943738
1781.000000	35.899471
1780.000000	35.850830
1779.000000	35.797502
1778.000000	35.726571
1777.000000	35.665743
1776.000000	35.608770
1775.000000	35.531381
1774.000000	35.449410
1773.000000	35.372438
1772.000000	35.292446
1771.000000	35.193289
1770.000000	35.092882
1769.000000	35.007786
1768.000000	34.913837
1767.000000	34.818429
1766.000000	34.720418
1765.000000	34.643550
1764.000000	34.586368
1763.000000	34.550955
1762.000000	34.535227
1761.000000	34.537623
1760.000000	34.570640
1759.000000	34.594700
1758.000000	34.622719
1757.000000	34.689275
1756.000000	34.752185
1755.000000	34.807076
1754.000000	34.849155
1753.000000	34.890193
1752.000000	34.930502
1751.000000	34.948000
1750.000000	34.956332
1749.000000	34.951437
1748.000000	34.933939
1747.000000	34.891755
1746.000000	34.839677
1745.000000	34.770934
1744.000000	34.693753
1743.000000	34.598138
1742.000000	34.479816
1741.000000	34.328580
1740.000000	34.182865
1739.000000	34.007882
1738.000000	33.831232
1737.000000	33.649166
1736.000000	33.471058
1735.000000	33.328989
1734.000000	33.194210
1733.000000	33.090366
1732.000000	33.039329
1731.000000	33.002457
1730.000000	32.998083
1729.000000	33.003187
1728.000000	33.034329
1727.000000	33.067139
1726.000000	33.111822
1725.000000	33.177545
1724.000000	33.237018
1723.000000	33.272536
1722.000000	33.344300
1721.000000	33.422938
1720.000000	33.523449
1719.000000	33.651666
1718.000000	33.792277
1717.000000	33.935805
1716.000000	34.083916
1715.000000	34.246401
1714.000000	34.403469
1713.000000	34.545539
1712.000000	34.695420
1711.000000	34.819575
1710.000000	34.928002
1709.000000	35.002682
1708.000000	35.087986
1707.000000	35.140169
1706.000000	35.192039
1705.000000	35.202038
1704.000000	35.219849
1703.000000	35.210787
1702.000000	35.187248
1701.000000	35.152772
1700.000000	35.096944
1699.000000	35.048719
1698.000000	34.962998
1697.000000	34.878215
1696.000000	34.820512
1695.000000	34.770621
1694.000000	34.741457
1693.000000	34.749686
1692.000000	34.768017
1691.000000	34.808534
1690.000000	34.874986
1689.000000	34.927377
1688.000000	34.980184
1687.000000	35.053719
1686.000000	35.130274
1685.000000	35.229952
1684.000000	35.334942
1683.000000	35.494093
1682.000000	35.687721
1681.000000	35.938009
1680.000000	36.221211
1679.000000	36.552742
1678.000000	36.918019
1677.000000	37.294129
1676.000000	37.619618
1675.000000	37.920423
1674.000000	38.220498
1673.000000	38.470787
1672.000000	38.700973
1671.000000	38.912932
1670.000000	39.121974
1669.000000	39.299249
1668.000000	39.452047
1667.000000	39.590888
1666.000000	39.727958
1665.000000	39.837947
1664.000000	39.951790
1663.000000	40.052614
1662.000000	40.146668
1661.000000	40.231243
1660.000000	40.296653
1659.000000	40.371438
1658.000000	40.446430
1657.000000	40.482885
1656.000000	40.544650
1655.000000	40.568190
1654.000000	40.560899
1653.000000	40.589333
1652.000000	40.586313
1651.000000	40.598499
1650.000000	40.576730
1649.000000	40.550379
1648.000000	40.533818
1647.000000	40.511424
1646.000000	40.482573
1645.000000	40.456430
1644.000000	40.406851
1643.000000	40.370188
1642.000000	40.336858
1641.000000	40.291550
1640.000000	40.254574
1639.000000	40.196663
1638.000000	40.165624
1637.000000	40.116775
1636.000000	40.065217
1635.000000	40.018867
1634.000000	39.942625
1633.000000	39.895233
1632.000000	39.836801
1631.000000	39.762329
1630.000000	39.718688
1629.000000	39.637029
1628.000000	39.564015
1627.000000	39.482981
1626.000000	39.421529
1625.000000	39.335391
