PE UV       SUBTECH     SPECTRUM    ASCII       PEDS        4.00        
   -1
CICIMAUCR0261-3.Sample.ASC
24/07/01
14:00:31.00
24/07/01
14:00:31.00
Vinicio Soto Monge
C. resplendens. Sex M. Dorsal.
250,000000
1
Lambda 1050
1050L1511233
PerkinElmer UV WinLab 6.3.2.0749 / 2.02.05 Lambda 900 UV/VIS/NIR, Aug  7 2015 09:38:08

0
0
3350/servo 860,8/2
0
0
UV/VIS
1
1
1
DoubleDePol,CommonBeamDepol,RBeamAtt,SBeamAtt,60mm sphere, WB InGaAs Detector
0
0
0
0
Program
Program
3350/servo 860,8/2
3350/0,2 860,8/0,2
3350/0,2 860,8/0,2
0
15.00
 
 
 
0
 
860,8
319,2
860,8
Front
100
on
S:100 R:100
0
0
0
0
 
0
 
 
 
0
 
 
0
0
0
0
0
 
 
 
 
0
0


0
0
#HDR
-1
-1
#GR
nm
%R
1.0
0.0
2500,000000
-1,000000
2251
8
92,022100
5,605900
#DATA
2482.000000	9.633148
2481.000000	9.583311
2480.000000	9.470611
2479.000000	9.544991
2478.000000	9.577821
2477.000000	9.540578
2476.000000	9.629165
2475.000000	9.569317
2474.000000	9.589661
2473.000000	9.594398
2472.000000	9.572439
2471.000000	9.596228
2470.000000	9.641652
2469.000000	9.603439
2468.000000	9.604731
2467.000000	9.662642
2466.000000	9.621308
2465.000000	9.685031
2464.000000	9.718507
2463.000000	9.714201
2462.000000	9.729809
2461.000000	9.755104
2460.000000	9.794285
2459.000000	9.810001
2458.000000	9.886856
2457.000000	9.929804
2456.000000	9.952947
2455.000000	10.011073
2454.000000	10.082115
2453.000000	10.100952
2452.000000	10.172318
2451.000000	10.222478
2450.000000	10.290076
2449.000000	10.343788
2448.000000	10.392980
2447.000000	10.462731
2446.000000	10.520856
2445.000000	10.576722
2444.000000	10.648948
2443.000000	10.724727
2442.000000	10.768536
2441.000000	10.854110
2440.000000	10.937962
2439.000000	10.983063
2438.000000	11.047540
2437.000000	11.114815
2436.000000	11.170250
2435.000000	11.239032
2434.000000	11.301140
2433.000000	11.340644
2432.000000	11.400384
2431.000000	11.443225
2430.000000	11.507701
2429.000000	11.548820
2428.000000	11.600918
2427.000000	11.664856
2426.000000	11.712433
2425.000000	11.768729
2424.000000	11.819535
2423.000000	11.864098
2422.000000	11.912213
2421.000000	11.955269
2420.000000	11.988207
2419.000000	12.030402
2418.000000	12.055913
2417.000000	12.093372
2416.000000	12.133198
2415.000000	12.172487
2414.000000	12.213928
2413.000000	12.250418
2412.000000	12.288308
2411.000000	12.298857
2410.000000	12.318985
2409.000000	12.365163
2408.000000	12.413493
2407.000000	12.450844
2406.000000	12.457949
2405.000000	12.476786
2404.000000	12.529422
2403.000000	12.580766
2402.000000	12.625437
2401.000000	12.684316
2400.000000	12.706920
2399.000000	12.732969
2398.000000	12.747716
2397.000000	12.786466
2396.000000	12.819297
2395.000000	12.850405
2394.000000	12.880006
2393.000000	12.892061
2392.000000	12.926722
2391.000000	12.962889
2390.000000	12.980865
2389.000000	12.991844
2388.000000	13.035331
2387.000000	13.059227
2386.000000	13.066116
2385.000000	13.086567
2384.000000	13.110356
2383.000000	13.117029
2382.000000	13.122734
2381.000000	13.132314
2380.000000	13.141141
2379.000000	13.146092
2378.000000	13.140926
2377.000000	13.144370
2376.000000	13.154058
2375.000000	13.143617
2374.000000	13.141033
2373.000000	13.153304
2372.000000	13.143509
2371.000000	13.140387
2370.000000	13.130592
2369.000000	13.116491
2368.000000	13.113370
2367.000000	13.100883
2366.000000	13.078064
2365.000000	13.052230
2364.000000	13.028980
2363.000000	12.996365
2362.000000	12.972684
2361.000000	12.937916
2360.000000	12.909714
2359.000000	12.887541
2358.000000	12.860308
2357.000000	12.842547
2356.000000	12.814991
2355.000000	12.788081
2354.000000	12.771827
2353.000000	12.757834
2352.000000	12.744594
2351.000000	12.741796
2350.000000	12.743626
2349.000000	12.756973
2348.000000	12.772258
2347.000000	12.782053
2346.000000	12.805196
2345.000000	12.832106
2344.000000	12.867089
2343.000000	12.901964
2342.000000	12.917895
2341.000000	12.947066
2340.000000	12.977205
2339.000000	13.000670
2338.000000	13.016493
2337.000000	13.029195
2336.000000	13.049862
2335.000000	13.045987
2334.000000	13.044910
2333.000000	13.050831
2332.000000	13.036515
2331.000000	13.013480
2330.000000	12.991736
2329.000000	12.980757
2328.000000	12.966226
2327.000000	12.925538
2326.000000	12.874193
2325.000000	12.824033
2324.000000	12.776241
2323.000000	12.708104
2322.000000	12.638461
2321.000000	12.587978
2320.000000	12.536311
2319.000000	12.459671
2318.000000	12.359673
2317.000000	12.280127
2316.000000	12.218342
2315.000000	12.137073
2314.000000	12.026635
2313.000000	11.931804
2312.000000	11.857317
2311.000000	11.775941
2310.000000	11.695318
2309.000000	11.627182
2308.000000	11.586386
2307.000000	11.559584
2306.000000	11.519434
2305.000000	11.488972
2304.000000	11.474979
2303.000000	11.490371
2302.000000	11.507271
2301.000000	11.517497
2300.000000	11.575192
2299.000000	11.615449
2298.000000	11.675082
2297.000000	11.739666
2296.000000	11.800913
2295.000000	11.858824
2294.000000	11.930081
2293.000000	11.993374
2292.000000	12.038690
2291.000000	12.073781
2290.000000	12.108764
2289.000000	12.146976
2288.000000	12.172810
2287.000000	12.187664
2286.000000	12.203810
2285.000000	12.190032
2284.000000	12.176147
2283.000000	12.135889
2282.000000	12.123295
2281.000000	12.079916
2280.000000	12.056236
2279.000000	12.007582
2278.000000	11.974429
2277.000000	11.923623
2276.000000	11.881751
2275.000000	11.850105
2274.000000	11.820504
2273.000000	11.784229
2272.000000	11.763024
2271.000000	11.718353
2270.000000	11.741711
2269.000000	11.748492
2268.000000	11.746340
2267.000000	11.786059
2266.000000	11.831160
2265.000000	11.907477
2264.000000	12.014687
2263.000000	12.107365
2262.000000	12.222647
2261.000000	12.349986
2260.000000	12.485828
2259.000000	12.658805
2258.000000	12.812085
2257.000000	12.997764
2256.000000	13.178707
2255.000000	13.365571
2254.000000	13.551680
2253.000000	13.725734
2252.000000	13.907108
2251.000000	14.105058
2250.000000	14.276314
2249.000000	14.400208
2248.000000	14.557039
2247.000000	14.692020
2246.000000	14.840241
2245.000000	14.966610
2244.000000	15.068653
2243.000000	15.186950
2242.000000	15.283180
2241.000000	15.388990
2240.000000	15.465415
2239.000000	15.547975
2238.000000	15.604486
2237.000000	15.665518
2236.000000	15.691136
2235.000000	15.749585
2234.000000	15.801575
2233.000000	15.841509
2232.000000	15.893177
2231.000000	15.880690
2230.000000	15.911583
2229.000000	15.905663
2228.000000	15.929774
2227.000000	15.935264
2226.000000	15.939785
2225.000000	15.901465
2224.000000	15.883166
2223.000000	15.888656
2222.000000	15.881336
2221.000000	15.843124
2220.000000	15.784352
2219.000000	15.770359
2218.000000	15.744633
2217.000000	15.716539
2216.000000	15.684678
2215.000000	15.662073
2214.000000	15.612774
2213.000000	15.594045
2212.000000	15.550773
2211.000000	15.531829
2210.000000	15.512023
2209.000000	15.480700
2208.000000	15.456911
2207.000000	15.430001
2206.000000	15.405890
2205.000000	15.387806
2204.000000	15.389959
2203.000000	15.342274
2202.000000	15.345288
2201.000000	15.327420
2200.000000	15.322146
2199.000000	15.306215
2198.000000	15.283718
2197.000000	15.298465
2196.000000	15.275645
2195.000000	15.275537
2194.000000	15.258100
2193.000000	15.256593
2192.000000	15.235280
2191.000000	15.224193
2190.000000	15.223224
2189.000000	15.224085
2188.000000	15.209877
2187.000000	15.200620
2186.000000	15.174248
2185.000000	15.147338
2184.000000	15.180491
2183.000000	15.171126
2182.000000	15.164022
2181.000000	15.151967
2180.000000	15.145185
2179.000000	15.139480
2178.000000	15.140557
2177.000000	15.126133
2176.000000	15.110310
2175.000000	15.134421
2174.000000	15.125272
2173.000000	15.119674
2172.000000	15.136143
2171.000000	15.131730
2170.000000	15.149060
2169.000000	15.172633
2168.000000	15.171880
2167.000000	15.184904
2166.000000	15.207724
2165.000000	15.220749
2164.000000	15.261975
2163.000000	15.286409
2162.000000	15.315149
2161.000000	15.329573
2160.000000	15.361111
2159.000000	15.393511
2158.000000	15.428817
2157.000000	15.474887
2156.000000	15.521495
2155.000000	15.558308
2154.000000	15.599534
2153.000000	15.632365
2152.000000	15.689952
2151.000000	15.738821
2150.000000	15.782738
2149.000000	15.828485
2148.000000	15.871110
2147.000000	15.891239
2146.000000	15.958191
2145.000000	16.024067
2144.000000	16.054852
2143.000000	16.096509
2142.000000	16.126325
2141.000000	16.168197
2140.000000	16.219326
2139.000000	16.250542
2138.000000	16.302209
2137.000000	16.334071
2136.000000	16.356783
2135.000000	16.391551
2134.000000	16.417169
2133.000000	16.430624
2132.000000	16.461840
2131.000000	16.489288
2130.000000	16.488211
2129.000000	16.507264
2128.000000	16.526854
2127.000000	16.534497
2126.000000	16.544077
2125.000000	16.554733
2124.000000	16.559469
2123.000000	16.568403
2122.000000	16.564636
2121.000000	16.563560
2120.000000	16.561084
2119.000000	16.554518
2118.000000	16.538049
2117.000000	16.527070
2116.000000	16.531160
2115.000000	16.500482
2114.000000	16.483583
2113.000000	16.468406
2112.000000	16.438159
2111.000000	16.421259
2110.000000	16.411464
2109.000000	16.391658
2108.000000	16.371745
2107.000000	16.339668
2106.000000	16.309206
2105.000000	16.287570
2104.000000	16.265289
2103.000000	16.236011
2102.000000	16.205225
2101.000000	16.182083
2100.000000	16.156787
2099.000000	16.126756
2098.000000	16.106627
2097.000000	16.079609
2096.000000	16.070891
2095.000000	16.047533
2094.000000	16.016102
2093.000000	15.997265
2092.000000	15.972400
2091.000000	15.961205
2090.000000	15.940538
2089.000000	15.918687
2088.000000	15.897375
2087.000000	15.871003
2086.000000	15.848614
2085.000000	15.832037
2084.000000	15.799207
2083.000000	15.775418
2082.000000	15.750661
2081.000000	15.700178
2080.000000	15.657768
2079.000000	15.640438
2078.000000	15.606100
2077.000000	15.549697
2076.000000	15.512669
2075.000000	15.474241
2074.000000	15.408042
2073.000000	15.357236
2072.000000	15.317948
2071.000000	15.264773
2070.000000	15.201696
2069.000000	15.154873
2068.000000	15.100407
2067.000000	15.034531
2066.000000	14.987600
2065.000000	14.947881
2064.000000	14.884911
2063.000000	14.825494
2062.000000	14.779532
2061.000000	14.743365
2060.000000	14.697402
2059.000000	14.644874
2058.000000	14.611828
2057.000000	14.589547
2056.000000	14.548966
2055.000000	14.520765
2054.000000	14.512799
2053.000000	14.506664
2052.000000	14.510862
2051.000000	14.527761
2050.000000	14.541216
2049.000000	14.564036
2048.000000	14.607630
2047.000000	14.648856
2046.000000	14.676412
2045.000000	14.712364
2044.000000	14.762417
2043.000000	14.824633
2042.000000	14.867151
2041.000000	14.922693
2040.000000	14.983833
2039.000000	15.025597
2038.000000	15.065424
2037.000000	15.116338
2036.000000	15.159717
2035.000000	15.185766
2034.000000	15.219672
2033.000000	15.244968
2032.000000	15.273062
2031.000000	15.300618
2030.000000	15.315364
2029.000000	15.352715
2028.000000	15.363910
2027.000000	15.380810
2026.000000	15.384792
2025.000000	15.383285
2024.000000	15.408688
2023.000000	15.409872
2022.000000	15.400508
2021.000000	15.407504
2020.000000	15.407181
2019.000000	15.404813
2018.000000	15.393296
2017.000000	15.375212
2016.000000	15.373167
2015.000000	15.362295
2014.000000	15.350455
2013.000000	15.318271
2012.000000	15.299541
2011.000000	15.286409
2010.000000	15.257669
2009.000000	15.215905
2008.000000	15.210953
2007.000000	15.165206
2006.000000	15.125272
2005.000000	15.081893
2004.000000	15.062625
2003.000000	15.017955
2002.000000	14.953048
2001.000000	14.902349
2000.000000	14.867474
1999.000000	14.825925
1998.000000	14.763278
1997.000000	14.700308
1996.000000	14.638631
1995.000000	14.582335
1994.000000	14.514737
1993.000000	14.473618
1992.000000	14.398378
1991.000000	14.332394
1990.000000	14.257692
1989.000000	14.221956
1988.000000	14.139503
1987.000000	14.058235
1986.000000	13.994512
1985.000000	13.925622
1984.000000	13.828746
1983.000000	13.772343
1982.000000	13.698071
1981.000000	13.629935
1980.000000	13.568580
1979.000000	13.486558
1978.000000	13.424773
1977.000000	13.332740
1976.000000	13.264389
1975.000000	13.206155
1974.000000	13.130700
1973.000000	13.084522
1972.000000	12.999594
1971.000000	12.941791
1970.000000	12.863322
1969.000000	12.789265
1968.000000	12.714132
1967.000000	12.663757
1966.000000	12.588624
1965.000000	12.519196
1964.000000	12.460747
1963.000000	12.405528
1962.000000	12.355152
1961.000000	12.282065
1960.000000	12.217265
1959.000000	12.151820
1958.000000	12.077225
1957.000000	12.020930
1956.000000	11.959360
1955.000000	11.909845
1954.000000	11.857101
1953.000000	11.794562
1952.000000	11.739020
1951.000000	11.690151
1950.000000	11.645373
1949.000000	11.578744
1948.000000	11.534181
1947.000000	11.490910
1946.000000	11.451944
1945.000000	11.423634
1944.000000	11.395433
1943.000000	11.360665
1942.000000	11.306414
1941.000000	11.311150
1940.000000	11.288654
1939.000000	11.255716
1938.000000	11.252056
1937.000000	11.266372
1936.000000	11.226330
1935.000000	11.259591
1934.000000	11.258084
1933.000000	11.244844
1932.000000	11.270032
1931.000000	11.312227
1930.000000	11.347425
1929.000000	11.401784
1928.000000	11.442364
1927.000000	11.491340
1926.000000	11.569702
1925.000000	11.621369
1924.000000	11.694349
1923.000000	11.777232
1922.000000	11.867758
1921.000000	11.959144
1920.000000	12.088420
1919.000000	12.209408
1918.000000	12.318555
1917.000000	12.428886
1916.000000	12.539755
1915.000000	12.681410
1914.000000	12.826832
1913.000000	12.978389
1912.000000	13.178922
1911.000000	13.349532
1910.000000	13.519926
1909.000000	13.685800
1908.000000	13.848982
1907.000000	14.026266
1906.000000	14.253171
1905.000000	14.484275
1904.000000	14.763170
1903.000000	15.014187
1902.000000	15.251857
1901.000000	15.509439
1900.000000	15.778540
1899.000000	16.080471
1898.000000	16.408558
1897.000000	16.747732
1896.000000	17.039975
1895.000000	17.313381
1894.000000	17.612190
1893.000000	17.933496
1892.000000	18.277083
1891.000000	18.683855
1890.000000	19.111294
1889.000000	19.518820
1888.000000	19.919780
1887.000000	20.334732
1886.000000	20.747102
1885.000000	21.156673
1884.000000	21.608115
1883.000000	22.074413
1882.000000	22.577200
1881.000000	23.007115
1880.000000	23.469967
1879.000000	23.865007
1878.000000	24.258431
1877.000000	24.698357
1876.000000	25.088768
1875.000000	25.480578
1874.000000	25.883582
1873.000000	26.265813
1872.000000	26.615751
1871.000000	26.948897
1870.000000	27.265144
1869.000000	27.543609
1868.000000	27.819275
1867.000000	28.013996
1866.000000	28.198815
1865.000000	28.342299
1864.000000	28.481908
1863.000000	28.615382
1862.000000	28.765648
1861.000000	28.917420
1860.000000	29.085231
1859.000000	29.223441
1858.000000	29.342168
1857.000000	29.447333
1856.000000	29.541195
1855.000000	29.608470
1854.000000	29.668749
1853.000000	29.705131
1852.000000	29.737531
1851.000000	29.794687
1850.000000	29.836344
1849.000000	29.859272
1848.000000	29.921595
1847.000000	29.966804
1846.000000	29.947106
1845.000000	29.912661
1844.000000	29.908571
1843.000000	29.900498
1842.000000	29.939033
1841.000000	29.985318
1840.000000	30.002218
1839.000000	29.996082
1838.000000	29.986718
1837.000000	29.972078
1836.000000	29.956040
1835.000000	29.935373
1834.000000	29.875741
1833.000000	29.819337
1832.000000	29.781878
1831.000000	29.759704
1830.000000	29.740867
1829.000000	29.713204
1828.000000	29.678221
1827.000000	29.620095
1826.000000	29.569935
1825.000000	29.544532
1824.000000	29.498247
1823.000000	29.453791
1822.000000	29.466600
1821.000000	29.477041
1820.000000	29.455298
1819.000000	29.434631
1818.000000	29.392759
1817.000000	29.356592
1816.000000	29.339585
1815.000000	29.328175
1814.000000	29.314182
1813.000000	29.299973
1812.000000	29.287918
1811.000000	29.269619
1810.000000	29.238296
1809.000000	29.205573
1808.000000	29.175757
1807.000000	29.148524
1806.000000	29.124197
1805.000000	29.083724
1804.000000	29.033241
1803.000000	29.004071
1802.000000	28.978345
1801.000000	28.947344
1800.000000	28.911500
1799.000000	28.863385
1798.000000	28.816238
1797.000000	28.776735
1796.000000	28.734432
1795.000000	28.698480
1794.000000	28.663067
1793.000000	28.619149
1792.000000	28.578246
1791.000000	28.539603
1790.000000	28.509033
1789.000000	28.479863
1788.000000	28.451661
1787.000000	28.422814
1786.000000	28.387077
1785.000000	28.344021
1784.000000	28.278576
1783.000000	28.230353
1782.000000	28.193002
1781.000000	28.144564
1780.000000	28.100001
1779.000000	28.059205
1778.000000	28.009260
1777.000000	27.965558
1776.000000	27.917658
1775.000000	27.841449
1774.000000	27.773636
1773.000000	27.724121
1772.000000	27.654586
1771.000000	27.584943
1770.000000	27.524772
1769.000000	27.458681
1768.000000	27.391944
1767.000000	27.327683
1766.000000	27.241032
1765.000000	27.193240
1764.000000	27.142111
1763.000000	27.103899
1762.000000	27.092597
1761.000000	27.089367
1760.000000	27.097548
1759.000000	27.132424
1758.000000	27.169452
1757.000000	27.202282
1756.000000	27.249967
1755.000000	27.291408
1754.000000	27.320686
1753.000000	27.356961
1752.000000	27.383979
1751.000000	27.387854
1750.000000	27.396465
1749.000000	27.405076
1748.000000	27.391729
1747.000000	27.364819
1746.000000	27.325961
1745.000000	27.286241
1744.000000	27.237803
1743.000000	27.179032
1742.000000	27.094104
1741.000000	26.989154
1740.000000	26.876778
1739.000000	26.764079
1738.000000	26.642984
1737.000000	26.523180
1736.000000	26.406821
1735.000000	26.293153
1734.000000	26.216729
1733.000000	26.175933
1732.000000	26.138367
1731.000000	26.127710
1730.000000	26.145579
1729.000000	26.181423
1728.000000	26.227170
1727.000000	26.260108
1726.000000	26.322108
1725.000000	26.394227
1724.000000	26.441266
1723.000000	26.483999
1722.000000	26.536528
1721.000000	26.590025
1720.000000	26.645675
1719.000000	26.703262
1718.000000	26.784315
1717.000000	26.845778
1716.000000	26.905518
1715.000000	26.982481
1714.000000	27.072683
1713.000000	27.150830
1712.000000	27.240279
1711.000000	27.289901
1710.000000	27.370308
1709.000000	27.413257
1708.000000	27.474719
1707.000000	27.476119
1706.000000	27.484514
1705.000000	27.477948
1704.000000	27.459004
1703.000000	27.445764
1702.000000	27.392697
1701.000000	27.343506
1700.000000	27.279245
1699.000000	27.189688
1698.000000	27.111218
1697.000000	27.055246
1696.000000	26.954817
1695.000000	26.905733
1694.000000	26.888080
1693.000000	26.901535
1692.000000	26.925754
1691.000000	26.988078
1690.000000	27.057506
1689.000000	27.166007
1688.000000	27.249536
1687.000000	27.326929
1686.000000	27.384624
1685.000000	27.450285
1684.000000	27.534890
1683.000000	27.608946
1682.000000	27.726812
1681.000000	27.946937
1680.000000	28.175780
1679.000000	28.462318
1678.000000	28.741644
1677.000000	29.068870
1676.000000	29.376613
1675.000000	29.657984
1674.000000	29.892855
1673.000000	30.157758
1672.000000	30.359368
1671.000000	30.515338
1670.000000	30.681427
1669.000000	30.825450
1668.000000	30.944500
1667.000000	31.054508
1666.000000	31.149877
1665.000000	31.237066
1664.000000	31.321886
1663.000000	31.380980
1662.000000	31.448471
1661.000000	31.524142
1660.000000	31.579361
1659.000000	31.614452
1658.000000	31.648359
1657.000000	31.684095
1656.000000	31.724245
1655.000000	31.719078
1654.000000	31.722523
1653.000000	31.713589
1652.000000	31.711436
1651.000000	31.711005
1650.000000	31.692061
1649.000000	31.653633
1648.000000	31.634042
1647.000000	31.599705
1646.000000	31.561708
1645.000000	31.540396
1644.000000	31.508426
1643.000000	31.466231
1642.000000	31.424575
1641.000000	31.383994
1640.000000	31.342122
1639.000000	31.286688
1638.000000	31.263868
1637.000000	31.212847
1636.000000	31.160641
1635.000000	31.110265
1634.000000	31.040945
1633.000000	31.006177
1632.000000	30.931583
1631.000000	30.876040
1630.000000	30.819637
1629.000000	30.760004
1628.000000	30.709306
1627.000000	30.643538
1626.000000	30.573033
1625.000000	30.509203
1624.000000	30.446879
1623.000000	30.402962
1622.000000	30.354739
1621.000000	30.274224
1620.000000	30.215453
1619.000000	30.161310
1618.000000	30.124927
1617.000000	30.058621
1616.000000	30.004155
1615.000000	29.972078
1614.000000	29.916106
1613.000000	29.855181
1612.000000	29.800500
1611.000000	29.751954
1610.000000	29.711266
1609.000000	29.647759
1608.000000	29.594800
1607.000000	29.547869
1606.000000	29.495771
