PE UV       SUBTECH     SPECTRUM    ASCII       PEDS        4.00        
   -1
CICIMAUCR0242-1.Sample.ASC
24/06/20
16:22:23.00
24/06/20
16:22:23.00
Vinicio Soto Monge
C. cupreomarginata. Sex M
250,000000
1
Lambda 1050
1050L1511233
PerkinElmer UV WinLab 6.3.2.0749 / 2.02.05 Lambda 900 UV/VIS/NIR, Aug  7 2015 09:38:08

0
0
3350/servo 860,8/2
0
0
UV/VIS
1
1
1
DoubleDePol,CommonBeamDepol,RBeamAtt,SBeamAtt,60mm sphere, WB InGaAs Detector
0
0
0
0
Program
Program
3350/servo 860,8/2
3350/0,2 860,8/0,2
3350/0,2 860,8/0,2
0
15.00
 
 
 
0
 
860,8
319,2
860,8
Front
100
on
S:100 R:100
0
0
0
0
 
0
 
 
 
0
 
 
0
0
0
0
0
 
 
 
 
0
0


0
0
#HDR
-1
-1
#GR
nm
%R
1.0
0.0
2500,000000
-1,000000
2251
8
67,775100
5,469600
#DATA
2500.000000	10.788348
2499.000000	10.643285
2498.000000	10.681976
2497.000000	10.803890
2496.000000	10.760460
2495.000000	10.651221
2494.000000	10.567446
2493.000000	10.582989
2492.000000	10.525779
2491.000000	10.536913
2490.000000	10.549369
2489.000000	10.562817
2488.000000	10.513544
2487.000000	10.541652
2486.000000	10.538456
2485.000000	10.489844
2484.000000	10.533275
2483.000000	10.550802
2482.000000	10.498442
2481.000000	10.490175
2480.000000	10.545400
2479.000000	10.528976
2478.000000	10.514205
2477.000000	10.538456
2476.000000	10.478160
2475.000000	10.502521
2474.000000	10.507481
2473.000000	10.531511
2472.000000	10.437264
2471.000000	10.519606
2470.000000	10.533936
2469.000000	10.521260
2468.000000	10.543637
2467.000000	10.520158
2466.000000	10.532503
2465.000000	10.542865
2464.000000	10.641962
2463.000000	10.651883
2462.000000	10.629837
2461.000000	10.679881
2460.000000	10.715706
2459.000000	10.801796
2458.000000	10.808851
2457.000000	10.832219
2456.000000	10.934513
2455.000000	10.997675
2454.000000	11.026115
2453.000000	11.088725
2452.000000	11.178012
2451.000000	11.234450
2450.000000	11.338838
2449.000000	11.426802
2448.000000	11.470784
2447.000000	11.572195
2446.000000	11.661372
2445.000000	11.721668
2444.000000	11.789569
2443.000000	11.856920
2442.000000	11.939372
2441.000000	12.012014
2440.000000	12.109458
2439.000000	12.178021
2438.000000	12.221893
2437.000000	12.286929
2436.000000	12.347665
2435.000000	12.425819
2434.000000	12.509704
2433.000000	12.572425
2432.000000	12.628422
2431.000000	12.681553
2430.000000	12.731708
2429.000000	12.777343
2428.000000	12.825073
2427.000000	12.890880
2426.000000	12.928579
2425.000000	12.963632
2424.000000	13.025582
2423.000000	13.050163
2422.000000	13.088082
2421.000000	13.147827
2420.000000	13.158409
2419.000000	13.203273
2418.000000	13.247365
2417.000000	13.272938
2416.000000	13.306779
2415.000000	13.342714
2414.000000	13.361233
2413.000000	13.396837
2412.000000	13.429796
2411.000000	13.484250
2410.000000	13.508060
2409.000000	13.550388
2408.000000	13.577835
2407.000000	13.591945
2406.000000	13.606054
2405.000000	13.649154
2404.000000	13.667893
2403.000000	13.694900
2402.000000	13.715403
2401.000000	13.733701
2400.000000	13.757070
2399.000000	13.779887
2398.000000	13.830263
2397.000000	13.877331
2396.000000	13.932446
2395.000000	13.992852
2394.000000	14.041243
2393.000000	14.076186
2392.000000	14.095367
2391.000000	14.111570
2390.000000	14.135270
2389.000000	14.164922
2388.000000	14.185204
2387.000000	14.200416
2386.000000	14.222572
2385.000000	14.243296
2384.000000	14.261263
2383.000000	14.260381
2382.000000	14.266664
2381.000000	14.273388
2380.000000	14.266885
2379.000000	14.270743
2378.000000	14.272176
2377.000000	14.256192
2376.000000	14.252775
2375.000000	14.260051
2374.000000	14.250350
2373.000000	14.220037
2372.000000	14.210557
2371.000000	14.204935
2370.000000	14.188621
2369.000000	14.167457
2368.000000	14.149600
2367.000000	14.113003
2366.000000	14.060644
2365.000000	14.017434
2364.000000	13.988774
2363.000000	13.943028
2362.000000	13.904668
2361.000000	13.861568
2360.000000	13.812185
2359.000000	13.782533
2358.000000	13.737669
2357.000000	13.694569
2356.000000	13.669657
2355.000000	13.633722
2354.000000	13.602527
2353.000000	13.590843
2352.000000	13.595693
2351.000000	13.598338
2350.000000	13.603299
2349.000000	13.602637
2348.000000	13.619943
2347.000000	13.650477
2346.000000	13.692144
2345.000000	13.747700
2344.000000	13.793887
2343.000000	13.818799
2342.000000	13.849884
2341.000000	13.893645
2340.000000	13.941375
2339.000000	13.969924
2338.000000	13.985136
2337.000000	14.003986
2336.000000	14.010269
2335.000000	14.000128
2334.000000	14.015560
2333.000000	14.021953
2332.000000	13.989545
2331.000000	13.960004
2330.000000	13.927927
2329.000000	13.908416
2328.000000	13.868402
2327.000000	13.809760
2326.000000	13.766880
2325.000000	13.714962
2324.000000	13.641989
2323.000000	13.566812
2322.000000	13.512579
2321.000000	13.417009
2320.000000	13.337864
2319.000000	13.244940
2318.000000	13.131844
2317.000000	13.038479
2316.000000	12.930122
2315.000000	12.827498
2314.000000	12.735015
2313.000000	12.616958
2312.000000	12.514775
2311.000000	12.432212
2310.000000	12.351303
2309.000000	12.284173
2308.000000	12.246364
2307.000000	12.190477
2306.000000	12.166116
2305.000000	12.157518
2304.000000	12.146054
2303.000000	12.160605
2302.000000	12.205138
2301.000000	12.258048
2300.000000	12.330139
2299.000000	12.391647
2298.000000	12.471123
2297.000000	12.562174
2296.000000	12.652342
2295.000000	12.734353
2294.000000	12.825624
2293.000000	12.902454
2292.000000	12.943350
2291.000000	13.019299
2290.000000	13.077280
2289.000000	13.116742
2288.000000	13.129639
2287.000000	13.155212
2286.000000	13.150803
2285.000000	13.138347
2284.000000	13.136473
2283.000000	13.098885
2282.000000	13.075185
2281.000000	13.051596
2280.000000	13.001221
2279.000000	12.951838
2278.000000	12.899919
2277.000000	12.838080
2276.000000	12.846017
2275.000000	12.776241
2274.000000	12.742290
2273.000000	12.713740
2272.000000	12.687175
2271.000000	12.696324
2270.000000	12.714402
2269.000000	12.722889
2268.000000	12.752762
2267.000000	12.810192
2266.000000	12.896722
2265.000000	12.998796
2264.000000	13.115530
2263.000000	13.269521
2262.000000	13.419655
2261.000000	13.588748
2260.000000	13.775809
2259.000000	14.012253
2258.000000	14.220478
2257.000000	14.455930
2256.000000	14.661840
2255.000000	14.913826
2254.000000	15.144097
2253.000000	15.392446
2252.000000	15.628008
2251.000000	15.857728
2250.000000	16.069481
2249.000000	16.255219
2248.000000	16.464436
2247.000000	16.642127
2246.000000	16.810779
2245.000000	16.970723
2244.000000	17.115897
2243.000000	17.264267
2242.000000	17.355317
2241.000000	17.482082
2240.000000	17.593635
2239.000000	17.692952
2238.000000	17.797120
2237.000000	17.860723
2236.000000	17.926199
2235.000000	17.990353
2234.000000	18.045248
2233.000000	18.100143
2232.000000	18.147211
2231.000000	18.183256
2230.000000	18.234073
2229.000000	18.252150
2228.000000	18.254906
2227.000000	18.269897
2226.000000	18.285219
2225.000000	18.262181
2224.000000	18.273315
2223.000000	18.231317
2222.000000	18.217648
2221.000000	18.210263
2220.000000	18.210924
2219.000000	18.147762
2218.000000	18.142471
2217.000000	18.102568
2216.000000	18.059468
2215.000000	18.044146
2214.000000	17.972937
2213.000000	17.954970
2212.000000	17.925428
2211.000000	17.889823
2210.000000	17.864471
2209.000000	17.812001
2208.000000	17.823575
2207.000000	17.778601
2206.000000	17.761075
2205.000000	17.733627
2204.000000	17.713786
2203.000000	17.683362
2202.000000	17.666828
2201.000000	17.670796
2200.000000	17.639711
2199.000000	17.637837
2198.000000	17.619759
2197.000000	17.601682
2196.000000	17.582612
2195.000000	17.563432
2194.000000	17.561668
2193.000000	17.572911
2192.000000	17.550424
2191.000000	17.533339
2190.000000	17.518899
2189.000000	17.515481
2188.000000	17.486270
2187.000000	17.483294
2186.000000	17.470507
2185.000000	17.445816
2184.000000	17.445595
2183.000000	17.440304
2182.000000	17.393787
2181.000000	17.404149
2180.000000	17.379898
2179.000000	17.384197
2178.000000	17.361159
2177.000000	17.373064
2176.000000	17.331838
2175.000000	17.339444
2174.000000	17.347711
2173.000000	17.331397
2172.000000	17.321366
2171.000000	17.325555
2170.000000	17.324563
2169.000000	17.324452
2168.000000	17.350246
2167.000000	17.353884
2166.000000	17.363364
2165.000000	17.372513
2164.000000	17.397755
2163.000000	17.409550
2162.000000	17.410101
2161.000000	17.454193
2160.000000	17.486160
2159.000000	17.510411
2158.000000	17.554282
2157.000000	17.595950
2156.000000	17.629019
2155.000000	17.666276
2154.000000	17.710699
2153.000000	17.760744
2152.000000	17.817733
2151.000000	17.867447
2150.000000	17.912972
2149.000000	17.952655
2148.000000	18.014053
2147.000000	18.065310
2146.000000	18.117449
2145.000000	18.157242
2144.000000	18.207066
2143.000000	18.248072
2142.000000	18.292495
2141.000000	18.326446
2140.000000	18.373845
2139.000000	18.415953
2138.000000	18.440754
2137.000000	18.460596
2136.000000	18.485287
2135.000000	18.536765
2134.000000	18.554292
2133.000000	18.587361
2132.000000	18.628918
2131.000000	18.646003
2130.000000	18.653058
2129.000000	18.671797
2128.000000	18.692300
2127.000000	18.717432
2126.000000	18.729337
2125.000000	18.728676
2124.000000	18.733416
2123.000000	18.734628
2122.000000	18.730329
2121.000000	18.737274
2120.000000	18.734849
2119.000000	18.729668
2118.000000	18.722723
2117.000000	18.693402
2116.000000	18.663309
2115.000000	18.655483
2114.000000	18.659782
2113.000000	18.644019
2112.000000	18.614257
2111.000000	18.597502
2110.000000	18.568511
2109.000000	18.555063
2108.000000	18.536985
2107.000000	18.524860
2106.000000	18.496531
2105.000000	18.468863
2104.000000	18.443510
2103.000000	18.415401
2102.000000	18.386521
2101.000000	18.360617
2100.000000	18.336366
2099.000000	18.300872
2098.000000	18.276181
2097.000000	18.271882
2096.000000	18.253694
2095.000000	18.215333
2094.000000	18.190862
2093.000000	18.180611
2092.000000	18.174438
2091.000000	18.171021
2090.000000	18.148313
2089.000000	18.131118
2088.000000	18.114803
2087.000000	18.097497
2086.000000	18.069830
2085.000000	18.055059
2084.000000	18.046350
2083.000000	18.008762
2082.000000	17.973929
2081.000000	17.947364
2080.000000	17.926310
2079.000000	17.897429
2078.000000	17.862707
2077.000000	17.825229
2076.000000	17.776727
2075.000000	17.745312
2074.000000	17.716762
2073.000000	17.653159
2072.000000	17.602674
2071.000000	17.559684
2070.000000	17.506883
2069.000000	17.455737
2068.000000	17.401724
2067.000000	17.350356
2066.000000	17.293367
2065.000000	17.244756
2064.000000	17.194050
2063.000000	17.153595
2062.000000	17.107409
2061.000000	17.063758
2060.000000	17.028374
2059.000000	16.994533
2058.000000	16.957826
2057.000000	16.930600
2056.000000	16.927293
2055.000000	16.924647
2054.000000	16.919577
2053.000000	16.940079
2052.000000	16.948457
2051.000000	16.974802
2050.000000	17.023083
2049.000000	17.076655
2048.000000	17.152714
2047.000000	17.223151
2046.000000	17.294139
2045.000000	17.372954
2044.000000	17.464335
2043.000000	17.559133
2042.000000	17.647537
2041.000000	17.729549
2040.000000	17.805608
2039.000000	17.904374
2038.000000	18.001928
2037.000000	18.085813
2036.000000	18.154266
2035.000000	18.210594
2034.000000	18.276952
2033.000000	18.338350
2032.000000	18.408788
2031.000000	18.457068
2030.000000	18.507113
2029.000000	18.550654
2028.000000	18.596289
2027.000000	18.628256
2026.000000	18.676537
2025.000000	18.705638
2024.000000	18.724708
2023.000000	18.766595
2022.000000	18.806278
2021.000000	18.824246
2020.000000	18.827222
2019.000000	18.865802
2018.000000	18.873629
2017.000000	18.883990
2016.000000	18.871975
2015.000000	18.877597
2014.000000	18.884211
2013.000000	18.866023
2012.000000	18.856653
2011.000000	18.853016
2010.000000	18.847945
2009.000000	18.815978
2008.000000	18.793822
2007.000000	18.788200
2006.000000	18.732865
2005.000000	18.717212
2004.000000	18.674443
2003.000000	18.630461
2002.000000	18.593644
2001.000000	18.534891
2000.000000	18.491791
1999.000000	18.427306
1998.000000	18.370758
1997.000000	18.317627
1996.000000	18.243001
1995.000000	18.179950
1994.000000	18.104221
1993.000000	18.045910
1992.000000	17.980212
1991.000000	17.912531
1990.000000	17.837574
1989.000000	17.756665
1988.000000	17.685677
1987.000000	17.585698
1986.000000	17.515592
1985.000000	17.423770
1984.000000	17.342640
1983.000000	17.260298
1982.000000	17.175752
1981.000000	17.096496
1980.000000	17.027051
1979.000000	16.938867
1978.000000	16.841644
1977.000000	16.764152
1976.000000	16.678944
1975.000000	16.576430
1974.000000	16.494859
1973.000000	16.426186
1972.000000	16.346489
1971.000000	16.287737
1970.000000	16.195694
1969.000000	16.113352
1968.000000	16.023625
1967.000000	15.951534
1966.000000	15.884955
1965.000000	15.809337
1964.000000	15.738018
1963.000000	15.665707
1962.000000	15.600120
1961.000000	15.533100
1960.000000	15.450097
1959.000000	15.352543
1958.000000	15.306577
1957.000000	15.213102
1956.000000	15.160301
1955.000000	15.101218
1954.000000	14.998153
1953.000000	14.967949
1952.000000	14.885166
1951.000000	14.826965
1950.000000	14.767441
1949.000000	14.718609
1948.000000	14.658753
1947.000000	14.613559
1946.000000	14.559987
1945.000000	14.517438
1944.000000	14.449977
1943.000000	14.418231
1942.000000	14.400925
1941.000000	14.381304
1940.000000	14.328063
1939.000000	14.330929
1938.000000	14.321228
1937.000000	14.315276
1936.000000	14.310095
1935.000000	14.311528
1934.000000	14.322882
1933.000000	14.341180
1932.000000	14.390343
1931.000000	14.424073
1930.000000	14.466512
1929.000000	14.535516
1928.000000	14.577404
1927.000000	14.671981
1926.000000	14.748150
1925.000000	14.822225
1924.000000	14.920550
1923.000000	15.007522
1922.000000	15.126020
1921.000000	15.236581
1920.000000	15.397848
1919.000000	15.529352
1918.000000	15.675848
1917.000000	15.799747
1916.000000	15.979643
1915.000000	16.131981
1914.000000	16.301956
1913.000000	16.503678
1912.000000	16.704848
1911.000000	16.933576
1910.000000	17.131219
1909.000000	17.351679
1908.000000	17.555054
1907.000000	17.745201
1906.000000	18.006006
1905.000000	18.309250
1904.000000	18.594856
1903.000000	18.848166
1902.000000	19.136418
1901.000000	19.420150
1900.000000	19.728685
1899.000000	20.041959
1898.000000	20.398224
1897.000000	20.738946
1896.000000	21.066550
1895.000000	21.379935
1894.000000	21.694422
1893.000000	21.998216
1892.000000	22.354701
1891.000000	22.780410
1890.000000	23.176247
1889.000000	23.602287
1888.000000	23.983133
1887.000000	24.403110
1886.000000	24.799057
1885.000000	25.226531
1884.000000	25.682443
1883.000000	26.176605
1882.000000	26.659083
1881.000000	27.139026
1880.000000	27.608056
1879.000000	28.051622
1878.000000	28.470057
1877.000000	28.905025
1876.000000	29.323129
1875.000000	29.717422
1874.000000	30.088017
1873.000000	30.462138
1872.000000	30.847393
1871.000000	31.180619
1870.000000	31.511641
1869.000000	31.807719
1868.000000	32.108979
1867.000000	32.313125
1866.000000	32.493682
1865.000000	32.617361
1864.000000	32.748314
1863.000000	32.854576
1862.000000	32.941879
1861.000000	33.062030
1860.000000	33.203345
1859.000000	33.326141
1858.000000	33.423475
1857.000000	33.526760
1856.000000	33.582317
1855.000000	33.622440
1854.000000	33.661021
1853.000000	33.710955
1852.000000	33.717900
1851.000000	33.711286
1850.000000	33.712498
1849.000000	33.698609
1848.000000	33.726167
1847.000000	33.768495
1846.000000	33.798478
1845.000000	33.777865
1844.000000	33.702357
1843.000000	33.613732
1842.000000	33.589812
1841.000000	33.619905
1840.000000	33.654738
1839.000000	33.640518
1838.000000	33.601938
1837.000000	33.579451
1836.000000	33.561373
1835.000000	33.538886
1834.000000	33.492699
1833.000000	33.424136
1832.000000	33.340802
1831.000000	33.270916
1830.000000	33.223958
1829.000000	33.200920
1828.000000	33.152859
1827.000000	33.091130
1826.000000	33.035905
1825.000000	32.999088
1824.000000	32.942209
1823.000000	32.878717
1822.000000	32.835286
1821.000000	32.818751
1820.000000	32.849285
1819.000000	32.870560
1818.000000	32.815665
1817.000000	32.752944
1816.000000	32.730016
1815.000000	32.714033
1814.000000	32.698270
1813.000000	32.675672
1812.000000	32.670822
1811.000000	32.650430
1810.000000	32.635879
1809.000000	32.599173
1808.000000	32.559820
1807.000000	32.523885
1806.000000	32.481447
1805.000000	32.453228
1804.000000	32.406931
1803.000000	32.372429
1802.000000	32.338588
1801.000000	32.300779
1800.000000	32.267490
1799.000000	32.215792
1798.000000	32.168282
1797.000000	32.134001
1796.000000	32.081421
1795.000000	32.032148
1794.000000	31.997315
1793.000000	31.961160
1792.000000	31.921477
1791.000000	31.883007
1790.000000	31.837040
1789.000000	31.788760
1788.000000	31.752163
1787.000000	31.706638
1786.000000	31.655491
1785.000000	31.614265
1784.000000	31.561134
1783.000000	31.506350
1782.000000	31.461155
1781.000000	31.403946
1780.000000	31.338800
1779.000000	31.290298
1778.000000	31.231656
1777.000000	31.168935
1776.000000	31.099600
1775.000000	31.021777
1774.000000	30.944726
1773.000000	30.871093
1772.000000	30.803742
1771.000000	30.712030
1770.000000	30.617673
1769.000000	30.529048
1768.000000	30.439541
1767.000000	30.361939
1766.000000	30.291171
1765.000000	30.222938
1764.000000	30.164406
1763.000000	30.134534
1762.000000	30.119873
1761.000000	30.129463
1760.000000	30.147541
1759.000000	30.190861
1758.000000	30.243331
1757.000000	30.283234
1756.000000	30.348601
1755.000000	30.406251
1754.000000	30.456737
1753.000000	30.493003
1752.000000	30.512954
1751.000000	30.509427
1750.000000	30.513175
1749.000000	30.497632
1748.000000	30.473602
1747.000000	30.443950
1746.000000	30.387843
1745.000000	30.313107
1744.000000	30.242670
1743.000000	30.144895
1742.000000	30.017579
1741.000000	29.885083
1740.000000	29.730540
1739.000000	29.558581
1738.000000	29.406242
1737.000000	29.228992
1736.000000	29.076654
1735.000000	28.964880
1734.000000	28.869531
1733.000000	28.802180
1732.000000	28.770214
1731.000000	28.777489
1730.000000	28.817613
1729.000000	28.872177
1728.000000	28.918363
1727.000000	29.008311
1726.000000	29.084590
1725.000000	29.148524
1724.000000	29.217749
1723.000000	29.260738
1722.000000	29.312326
1721.000000	29.370748
1720.000000	29.414069
1719.000000	29.474034
1718.000000	29.532456
1717.000000	29.603885
1716.000000	29.692731
1715.000000	29.764932
1714.000000	29.864580
1713.000000	29.941300
1712.000000	30.030476
1711.000000	30.095071
1710.000000	30.156029
1709.000000	30.194279
1708.000000	30.220844
1707.000000	30.251047
1706.000000	30.228560
1705.000000	30.208168
1704.000000	30.183256
1703.000000	30.163524
1702.000000	30.079639
1701.000000	30.011407
1700.000000	29.932923
1699.000000	29.790395
1698.000000	29.669362
1697.000000	29.562218
1696.000000	29.478553
1695.000000	29.387944
1694.000000	29.356198
1693.000000	29.381992
1692.000000	29.427296
1691.000000	29.503465
1690.000000	29.599586
1689.000000	29.710368
1688.000000	29.802630
1687.000000	29.880563
1686.000000	29.939096
1685.000000	29.997407
1684.000000	30.044696
1683.000000	30.148533
1682.000000	30.286211
1681.000000	30.538197
1680.000000	30.855109
1679.000000	31.239703
1678.000000	31.592550
1677.000000	32.011315
1676.000000	32.406821
1675.000000	32.746661
1674.000000	33.068533
1673.000000	33.365163
1672.000000	33.596206
1671.000000	33.820083
1670.000000	34.013758
1669.000000	34.220881
1668.000000	34.360322
1667.000000	34.479811
1666.000000	34.595112
1665.000000	34.712287
1664.000000	34.812597
1663.000000	34.902875
1662.000000	34.987973
1661.000000	35.051907
1660.000000	35.095558
1659.000000	35.174924
1658.000000	35.230921
1657.000000	35.264651
1656.000000	35.295295
1655.000000	35.316018
1654.000000	35.323955
1653.000000	35.333214
1652.000000	35.329026
1651.000000	35.316349
1650.000000	35.325608
1649.000000	35.299484
1648.000000	35.292760
1647.000000	35.245471
1646.000000	35.216150
1645.000000	35.167759
1644.000000	35.167759
1643.000000	35.107022
1642.000000	35.063701
1641.000000	35.024349
1640.000000	35.000760
1639.000000	34.937157
1638.000000	34.891191
1637.000000	34.817226
1636.000000	34.786582
1635.000000	34.738963
1634.000000	34.675580
1633.000000	34.612639
1632.000000	34.563917
1631.000000	34.506157
1630.000000	34.434948
1629.000000	34.389423
1628.000000	34.302782
1627.000000	34.242375
1626.000000	34.161466
1625.000000	34.106902
