PE UV       SUBTECH     SPECTRUM    ASCII       PEDS        4.00        
   -1
CICIMAUCR0213-1.Sample.ASC
24/06/12
14:50:37.00
24/06/12
14:50:37.00
Vinicio Soto Monge
C. resplendens. Sex M. Dorsal.
250,000000
1
Lambda 1050
1050L1511233
PerkinElmer UV WinLab 6.3.2.0749 / 2.02.05 Lambda 900 UV/VIS/NIR, Aug  7 2015 09:38:08

0
0
3350/servo 860,8/2
0
0
UV/VIS
1
1
1
DoubleDePol,CommonBeamDepol,RBeamAtt,SBeamAtt,60mm sphere, WB InGaAs Detector
0
0
0
0
Program
Program
3350/servo 860,8/2
3350/0,2 860,8/0,2
3350/0,2 860,8/0,2
0
15.00
 
 
 
0
 
860,8
319,2
860,8
Front
100
on
S:100 R:100
0
0
0
0
 
0
 
 
 
0
 
 
0
0
0
0
0
 
 
 
 
0
0


0
0
#HDR
-1
-1
#GR
nm
%R
1.0
0.0
2500,000000
-1,000000
2251
8
89,701000
5,287800
#DATA
2482.000000	8.176050
2481.000000	8.257831
2480.000000	8.354129
2479.000000	8.253653
2478.000000	8.325302
2477.000000	8.302951
2476.000000	8.281853
2475.000000	8.316842
2474.000000	8.275586
2473.000000	8.172290
2472.000000	8.101163
2471.000000	8.211875
2470.000000	8.294804
2469.000000	8.274228
2468.000000	8.222946
2467.000000	8.311411
2466.000000	8.312977
2465.000000	8.327182
2464.000000	8.351309
2463.000000	8.356949
2462.000000	8.327182
2461.000000	8.307651
2460.000000	8.387969
2459.000000	8.427971
2458.000000	8.477374
2457.000000	8.518316
2456.000000	8.539205
2455.000000	8.511945
2454.000000	8.589025
2453.000000	8.676863
2452.000000	8.707570
2451.000000	8.784546
2450.000000	8.807315
2449.000000	8.912178
2448.000000	8.913118
2447.000000	8.985916
2446.000000	9.065712
2445.000000	9.136212
2444.000000	9.207026
2443.000000	9.249012
2442.000000	9.311784
2441.000000	9.372571
2440.000000	9.460827
2439.000000	9.506678
2438.000000	9.541876
2437.000000	9.641934
2436.000000	9.687472
2435.000000	9.766224
2434.000000	9.811030
2433.000000	9.888111
2432.000000	9.940751
2431.000000	9.969264
2430.000000	9.993913
2429.000000	10.068592
2428.000000	10.124365
2427.000000	10.191001
2426.000000	10.208652
2425.000000	10.266201
2424.000000	10.338164
2423.000000	10.362499
2422.000000	10.391431
2421.000000	10.441355
2420.000000	10.483969
2419.000000	10.491907
2418.000000	10.528149
2417.000000	10.604498
2416.000000	10.595725
2415.000000	10.617658
2414.000000	10.664972
2413.000000	10.721372
2412.000000	10.731817
2411.000000	10.754899
2410.000000	10.784352
2409.000000	10.827070
2408.000000	10.843364
2407.000000	10.894019
2406.000000	10.922011
2405.000000	10.968906
2404.000000	10.984573
2403.000000	10.973189
2402.000000	11.011833
2401.000000	11.032096
2400.000000	11.069069
2399.000000	11.100403
2398.000000	11.129647
2397.000000	11.158892
2396.000000	11.181452
2395.000000	11.193776
2394.000000	11.227721
2393.000000	11.253832
2392.000000	11.289448
2391.000000	11.316395
2390.000000	11.358173
2389.000000	11.371750
2388.000000	11.376137
2387.000000	11.385746
2386.000000	11.392222
2385.000000	11.426479
2384.000000	11.471704
2383.000000	11.472122
2382.000000	11.480373
2381.000000	11.481418
2380.000000	11.472122
2379.000000	11.464289
2378.000000	11.467109
2377.000000	11.485178
2376.000000	11.477031
2375.000000	11.480791
2374.000000	11.477971
2373.000000	11.474837
2372.000000	11.473793
2371.000000	11.456142
2370.000000	11.463140
2369.000000	11.463871
2368.000000	11.431702
2367.000000	11.405591
2366.000000	11.397026
2365.000000	11.389506
2364.000000	11.353264
2363.000000	11.326735
2362.000000	11.293103
2361.000000	11.239314
2360.000000	11.206519
2359.000000	11.182496
2358.000000	11.126200
2357.000000	11.062280
2356.000000	11.012773
2355.000000	10.964206
2354.000000	10.942795
2353.000000	10.921593
2352.000000	10.890051
2351.000000	10.882008
2350.000000	10.882322
2349.000000	10.864566
2348.000000	10.875637
2347.000000	10.905195
2346.000000	10.959924
2345.000000	10.998569
2344.000000	11.029171
2343.000000	11.061236
2342.000000	11.110429
2341.000000	11.161921
2340.000000	11.200565
2339.000000	11.233152
2338.000000	11.272319
2337.000000	11.315037
2336.000000	11.331330
2335.000000	11.343446
2334.000000	11.354935
2333.000000	11.352324
2332.000000	11.337597
2331.000000	11.321721
2330.000000	11.324124
2329.000000	11.306577
2328.000000	11.268350
2327.000000	11.235868
2326.000000	11.199416
2325.000000	11.163383
2324.000000	11.124320
2323.000000	11.066249
2322.000000	10.997315
2321.000000	10.929009
2320.000000	10.849108
2319.000000	10.765761
2318.000000	10.680639
2317.000000	10.597187
2316.000000	10.503187
2315.000000	10.396548
2314.000000	10.297430
2313.000000	10.217425
2312.000000	10.116950
2311.000000	10.036422
2310.000000	9.954538
2309.000000	9.868266
2308.000000	9.819282
2307.000000	9.765806
2306.000000	9.712748
2305.000000	9.692277
2304.000000	9.691128
2303.000000	9.710554
2302.000000	9.727370
2301.000000	9.753377
2300.000000	9.805599
2299.000000	9.867848
2298.000000	9.929680
2297.000000	9.985871
2296.000000	10.061280
2295.000000	10.154132
2294.000000	10.239672
2293.000000	10.311844
2292.000000	10.368348
2291.000000	10.451486
2290.000000	10.499218
2289.000000	10.550814
2288.000000	10.607318
2287.000000	10.635936
2286.000000	10.654214
2285.000000	10.659750
2284.000000	10.657661
2283.000000	10.644292
2282.000000	10.639174
2281.000000	10.622463
2280.000000	10.612854
2279.000000	10.578387
2278.000000	10.538698
2277.000000	10.486684
2276.000000	10.469660
2275.000000	10.438953
2274.000000	10.407620
2273.000000	10.397071
2272.000000	10.374719
2271.000000	10.362291
2270.000000	10.370855
2269.000000	10.389968
2268.000000	10.409186
2267.000000	10.454306
2266.000000	10.494309
2265.000000	10.596874
2264.000000	10.685861
2263.000000	10.801690
2262.000000	10.930262
2261.000000	11.070740
2260.000000	11.248088
2259.000000	11.435253
2258.000000	11.625343
2257.000000	11.824310
2256.000000	12.036855
2255.000000	12.272170
2254.000000	12.477822
2253.000000	12.675536
2252.000000	12.880352
2251.000000	13.100522
2250.000000	13.322885
2249.000000	13.495846
2248.000000	13.670269
2247.000000	13.844692
2246.000000	14.009193
2245.000000	14.167427
2244.000000	14.290776
2243.000000	14.408903
2242.000000	14.536222
2241.000000	14.650380
2240.000000	14.742918
2239.000000	14.833367
2238.000000	14.914416
2237.000000	14.978963
2236.000000	15.063042
2235.000000	15.123097
2234.000000	15.183675
2233.000000	15.220753
2232.000000	15.258980
2231.000000	15.298043
2230.000000	15.333449
2229.000000	15.350892
2228.000000	15.371050
2227.000000	15.390163
2226.000000	15.404054
2225.000000	15.397474
2224.000000	15.405099
2223.000000	15.399981
2222.000000	15.370527
2221.000000	15.347967
2220.000000	15.313500
2219.000000	15.302847
2218.000000	15.278616
2217.000000	15.239867
2216.000000	15.204773
2215.000000	15.191091
2214.000000	15.164980
2213.000000	15.140435
2212.000000	15.110982
2211.000000	15.065966
2210.000000	15.046539
2209.000000	15.014057
2208.000000	15.007059
2207.000000	14.967997
2206.000000	14.926637
2205.000000	14.933948
2204.000000	14.903450
2203.000000	14.886843
2202.000000	14.904285
2201.000000	14.847676
2200.000000	14.837023
2199.000000	14.841827
2198.000000	14.820938
2197.000000	14.803078
2196.000000	14.784800
2195.000000	14.772998
2194.000000	14.757122
2193.000000	14.768194
2192.000000	14.758794
2191.000000	14.724640
2190.000000	14.725267
2189.000000	14.708242
2188.000000	14.700827
2187.000000	14.697171
2186.000000	14.683489
2185.000000	14.665629
2184.000000	14.656647
2183.000000	14.632833
2182.000000	14.598993
2181.000000	14.581237
2180.000000	14.583535
2179.000000	14.558782
2178.000000	14.549695
2177.000000	14.538415
2176.000000	14.535490
2175.000000	14.534133
2174.000000	14.511155
2173.000000	14.532462
2172.000000	14.556484
2171.000000	14.552724
2170.000000	14.541026
2169.000000	14.553768
2168.000000	14.573717
2167.000000	14.594397
2166.000000	14.587191
2165.000000	14.622911
2164.000000	14.635026
2163.000000	14.647351
2162.000000	14.676387
2161.000000	14.715136
2160.000000	14.718791
2159.000000	14.752945
2158.000000	14.791589
2157.000000	14.826056
2156.000000	14.856867
2155.000000	14.884859
2154.000000	14.922250
2153.000000	14.965803
2152.000000	15.017399
2151.000000	15.041630
2150.000000	15.084244
2149.000000	15.138346
2148.000000	15.175111
2147.000000	15.206444
2146.000000	15.246865
2145.000000	15.297938
2144.000000	15.324258
2143.000000	15.354547
2142.000000	15.403845
2141.000000	15.448548
2140.000000	15.487923
2139.000000	15.498159
2138.000000	15.528135
2137.000000	15.565004
2136.000000	15.584013
2135.000000	15.613153
2134.000000	15.646262
2133.000000	15.665689
2132.000000	15.689189
2131.000000	15.714778
2130.000000	15.718747
2129.000000	15.725953
2128.000000	15.738696
2127.000000	15.755511
2126.000000	15.758645
2125.000000	15.775565
2124.000000	15.758853
2123.000000	15.760107
2122.000000	15.761569
2121.000000	15.760629
2120.000000	15.760942
2119.000000	15.749976
2118.000000	15.727729
2117.000000	15.712271
2116.000000	15.708198
2115.000000	15.702244
2114.000000	15.676864
2113.000000	15.664853
2112.000000	15.664122
2111.000000	15.641771
2110.000000	15.608348
2109.000000	15.591533
2108.000000	15.573150
2107.000000	15.551948
2106.000000	15.534088
2105.000000	15.503590
2104.000000	15.478210
2103.000000	15.463274
2102.000000	15.449905
2101.000000	15.430896
2100.000000	15.410321
2099.000000	15.384210
2098.000000	15.353294
2097.000000	15.343267
2096.000000	15.323005
2095.000000	15.309114
2094.000000	15.295745
2093.000000	15.284569
2092.000000	15.270991
2091.000000	15.251460
2090.000000	15.232556
2089.000000	15.221589
2088.000000	15.213129
2087.000000	15.197253
2086.000000	15.179915
2085.000000	15.162264
2084.000000	15.140435
2083.000000	15.112340
2082.000000	15.076724
2081.000000	15.067219
2080.000000	15.049882
2079.000000	14.993168
2078.000000	14.952748
2077.000000	14.918177
2076.000000	14.888305
2075.000000	14.866685
2074.000000	14.818432
2073.000000	14.754720
2072.000000	14.708033
2071.000000	14.668031
2070.000000	14.618315
2069.000000	14.569122
2068.000000	14.513348
2067.000000	14.439819
2066.000000	14.384359
2065.000000	14.330047
2064.000000	14.278243
2063.000000	14.228214
2062.000000	14.154789
2061.000000	14.105282
2060.000000	14.052328
2059.000000	13.984753
2058.000000	13.940886
2057.000000	13.901510
2056.000000	13.870594
2055.000000	13.835710
2054.000000	13.807927
2053.000000	13.805421
2052.000000	13.806465
2051.000000	13.815134
2050.000000	13.836545
2049.000000	13.870490
2048.000000	13.912790
2047.000000	13.948510
2046.000000	14.001777
2045.000000	14.059744
2044.000000	14.125335
2043.000000	14.181527
2042.000000	14.253594
2041.000000	14.330987
2040.000000	14.407232
2039.000000	14.496115
2038.000000	14.554708
2037.000000	14.611422
2036.000000	14.691740
2035.000000	14.755451
2034.000000	14.802347
2033.000000	14.855510
2032.000000	14.893214
2031.000000	14.944288
2030.000000	14.981157
2029.000000	15.001941
2028.000000	15.027948
2027.000000	15.055208
2026.000000	15.089571
2025.000000	15.111817
2024.000000	15.127797
2023.000000	15.144300
2022.000000	15.148791
2021.000000	15.142524
2020.000000	15.147537
2019.000000	15.157982
2018.000000	15.154326
2017.000000	15.136675
2016.000000	15.125604
2015.000000	15.116726
2014.000000	15.112026
2013.000000	15.092704
2012.000000	15.072859
2011.000000	15.064817
2010.000000	15.043928
2009.000000	15.023875
2008.000000	14.992123
2007.000000	14.974368
2006.000000	14.942930
2005.000000	14.912223
2004.000000	14.880576
2003.000000	14.833785
2002.000000	14.778116
2001.000000	14.737174
2000.000000	14.705213
1999.000000	14.652260
1998.000000	14.598262
1997.000000	14.568286
1996.000000	14.479404
1995.000000	14.416423
1994.000000	14.370050
1993.000000	14.308532
1992.000000	14.224036
1991.000000	14.147164
1990.000000	14.095777
1989.000000	14.048046
1988.000000	13.956970
1987.000000	13.870385
1986.000000	13.807196
1985.000000	13.718000
1984.000000	13.662749
1983.000000	13.578357
1982.000000	13.489788
1981.000000	13.430464
1980.000000	13.354532
1979.000000	13.273692
1978.000000	13.180422
1977.000000	13.121829
1976.000000	13.024904
1975.000000	12.967982
1974.000000	12.909910
1973.000000	12.812568
1972.000000	12.730161
1971.000000	12.663420
1970.000000	12.582267
1969.000000	12.512184
1968.000000	12.446175
1967.000000	12.376406
1966.000000	12.318648
1965.000000	12.262561
1964.000000	12.187778
1963.000000	12.116756
1962.000000	12.047822
1961.000000	11.962491
1960.000000	11.897735
1959.000000	11.854181
1958.000000	11.773445
1957.000000	11.727281
1956.000000	11.658034
1955.000000	11.597978
1954.000000	11.542831
1953.000000	11.473689
1952.000000	11.407888
1951.000000	11.351384
1950.000000	11.325064
1949.000000	11.279630
1948.000000	11.235972
1947.000000	11.187510
1946.000000	11.143121
1945.000000	11.093718
1944.000000	11.062071
1943.000000	11.033662
1942.000000	11.009327
1941.000000	10.981022
1940.000000	10.961595
1939.000000	10.941960
1938.000000	10.936529
1937.000000	10.907597
1936.000000	10.936529
1935.000000	10.947077
1934.000000	10.947913
1933.000000	10.953135
1932.000000	11.001284
1931.000000	11.022904
1930.000000	11.057058
1929.000000	11.103014
1928.000000	11.150641
1927.000000	11.214874
1926.000000	11.261770
1925.000000	11.340730
1924.000000	11.424704
1923.000000	11.510140
1922.000000	11.593069
1921.000000	11.705765
1920.000000	11.813343
1919.000000	11.935231
1918.000000	12.044584
1917.000000	12.193314
1916.000000	12.340581
1915.000000	12.473539
1914.000000	12.629685
1913.000000	12.788441
1912.000000	12.966206
1911.000000	13.139062
1910.000000	13.307532
1909.000000	13.500859
1908.000000	13.670165
1907.000000	13.905061
1906.000000	14.129827
1905.000000	14.356785
1904.000000	14.599828
1903.000000	14.839947
1902.000000	15.082051
1901.000000	15.382434
1900.000000	15.649395
1899.000000	15.953225
1898.000000	16.273558
1897.000000	16.566108
1896.000000	16.887172
1895.000000	17.214188
1894.000000	17.546010
1893.000000	17.904882
1892.000000	18.260622
1891.000000	18.684459
1890.000000	19.089601
1889.000000	19.477196
1888.000000	19.889335
1887.000000	20.349102
1886.000000	20.767717
1885.000000	21.248999
1884.000000	21.717956
1883.000000	22.223887
1882.000000	22.726372
1881.000000	23.207027
1880.000000	23.710243
1879.000000	24.150060
1878.000000	24.579224
1877.000000	25.050897
1876.000000	25.476719
1875.000000	25.879354
1874.000000	26.281467
1873.000000	26.657364
1872.000000	27.012477
1871.000000	27.353698
1870.000000	27.661915
1869.000000	27.931905
1868.000000	28.231975
1867.000000	28.477003
1866.000000	28.669286
1865.000000	28.860733
1864.000000	29.029830
1863.000000	29.179812
1862.000000	29.349222
1861.000000	29.513201
1860.000000	29.669868
1859.000000	29.786011
1858.000000	29.895155
1857.000000	29.993438
1856.000000	30.075741
1855.000000	30.141854
1854.000000	30.214444
1853.000000	30.255699
1852.000000	30.255177
1851.000000	30.305311
1850.000000	30.357846
1849.000000	30.403489
1848.000000	30.445371
1847.000000	30.440880
1846.000000	30.383331
1845.000000	30.331944
1844.000000	30.331840
1843.000000	30.349073
1842.000000	30.382809
1841.000000	30.397013
1840.000000	30.396178
1839.000000	30.358995
1838.000000	30.301342
1837.000000	30.300924
1836.000000	30.275753
1835.000000	30.231781
1834.000000	30.191257
1833.000000	30.146345
1832.000000	30.109790
1831.000000	30.079187
1830.000000	30.045556
1829.000000	30.005658
1828.000000	29.957300
1827.000000	29.889411
1826.000000	29.835622
1825.000000	29.791755
1824.000000	29.746635
1823.000000	29.723761
1822.000000	29.731595
1821.000000	29.742875
1820.000000	29.700157
1819.000000	29.641041
1818.000000	29.590908
1817.000000	29.565214
1816.000000	29.545161
1815.000000	29.534612
1814.000000	29.514976
1813.000000	29.510485
1812.000000	29.500563
1811.000000	29.471631
1810.000000	29.430898
1809.000000	29.389851
1808.000000	29.351938
1807.000000	29.319560
1806.000000	29.306400
1805.000000	29.258982
1804.000000	29.203313
1803.000000	29.180335
1802.000000	29.147121
1801.000000	29.090617
1800.000000	29.031083
1799.000000	28.993587
1798.000000	28.948258
1797.000000	28.897811
1796.000000	28.864389
1795.000000	28.820104
1794.000000	28.761197
1793.000000	28.707617
1792.000000	28.678686
1791.000000	28.634715
1790.000000	28.597950
1789.000000	28.546876
1788.000000	28.499041
1787.000000	28.465201
1786.000000	28.430107
1785.000000	28.386867
1784.000000	28.328169
1783.000000	28.266024
1782.000000	28.211399
1781.000000	28.154059
1780.000000	28.100479
1779.000000	28.042721
1778.000000	27.969087
1777.000000	27.893574
1776.000000	27.836547
1775.000000	27.765733
1774.000000	27.685311
1773.000000	27.595384
1772.000000	27.511828
1771.000000	27.431405
1770.000000	27.331974
1769.000000	27.226589
1768.000000	27.130813
1767.000000	27.035141
1766.000000	26.948556
1765.000000	26.869074
1764.000000	26.809958
1763.000000	26.770060
1762.000000	26.744889
1761.000000	26.755124
1760.000000	26.792516
1759.000000	26.831056
1758.000000	26.888083
1757.000000	26.953361
1756.000000	27.005688
1755.000000	27.054255
1754.000000	27.113057
1753.000000	27.170606
1752.000000	27.207371
1751.000000	27.223455
1750.000000	27.239122
1749.000000	27.247686
1748.000000	27.238809
1747.000000	27.212071
1746.000000	27.174053
1745.000000	27.118697
1744.000000	27.050286
1743.000000	26.946990
1742.000000	26.832205
1741.000000	26.699873
1740.000000	26.547488
1739.000000	26.372543
1738.000000	26.205013
1737.000000	26.029546
1736.000000	25.855854
1735.000000	25.698560
1734.000000	25.575211
1733.000000	25.473272
1732.000000	25.420005
1731.000000	25.408203
1730.000000	25.424288
1729.000000	25.465126
1728.000000	25.534686
1727.000000	25.606857
1726.000000	25.705140
1725.000000	25.775222
1724.000000	25.847603
1723.000000	25.921759
1722.000000	25.975861
1721.000000	26.039259
1720.000000	26.107671
1719.000000	26.192062
1718.000000	26.242718
1717.000000	26.329094
1716.000000	26.407741
1715.000000	26.511454
1714.000000	26.600024
1713.000000	26.717002
1712.000000	26.816851
1711.000000	26.892678
1710.000000	26.955345
1709.000000	27.006628
1708.000000	27.063863
1707.000000	27.085066
1706.000000	27.084961
1705.000000	27.080784
1704.000000	27.068772
1703.000000	27.061670
1702.000000	27.025428
1701.000000	26.982710
1700.000000	26.894454
1699.000000	26.815598
1698.000000	26.737787
1697.000000	26.643159
1696.000000	26.571510
1695.000000	26.525137
1694.000000	26.519497
1693.000000	26.532135
1692.000000	26.570570
1691.000000	26.668957
1690.000000	26.778833
1689.000000	26.875132
1688.000000	26.979890
1687.000000	27.061043
1686.000000	27.126426
1685.000000	27.183244
1684.000000	27.252595
1683.000000	27.345238
1682.000000	27.495952
1681.000000	27.703484
1680.000000	27.947781
1679.000000	28.279080
1678.000000	28.654246
1677.000000	29.010716
1676.000000	29.374602
1675.000000	29.690339
1674.000000	29.965969
1673.000000	30.231259
1672.000000	30.473571
1671.000000	30.642668
1670.000000	30.835055
1669.000000	30.974176
1668.000000	31.103792
1667.000000	31.201239
1666.000000	31.293568
1665.000000	31.377333
1664.000000	31.494938
1663.000000	31.551651
1662.000000	31.625703
1661.000000	31.673643
1660.000000	31.708319
1659.000000	31.760437
1658.000000	31.793859
1657.000000	31.826133
1656.000000	31.846708
1655.000000	31.841486
1654.000000	31.840337
1653.000000	31.848588
1652.000000	31.838770
1651.000000	31.851304
1650.000000	31.820493
1649.000000	31.799186
1648.000000	31.787070
1647.000000	31.740592
1646.000000	31.692234
1645.000000	31.663721
1644.000000	31.628105
1643.000000	31.591967
1642.000000	31.546847
1641.000000	31.506636
1640.000000	31.459218
1639.000000	31.391015
1638.000000	31.348088
1637.000000	31.314875
1636.000000	31.249388
1635.000000	31.203954
1634.000000	31.136692
1633.000000	31.085409
1632.000000	31.013342
1631.000000	30.950362
1630.000000	30.883831
1629.000000	30.818657
1628.000000	30.750664
1627.000000	30.670137
1626.000000	30.630239
1625.000000	30.544803
1624.000000	30.467722
1623.000000	30.429287
1622.000000	30.336853
1621.000000	30.269799
1620.000000	30.205670
1619.000000	30.146345
1618.000000	30.073756
1617.000000	30.012969
1616.000000	29.942051
1615.000000	29.893275
1614.000000	29.818702
1613.000000	29.743502
1612.000000	29.677075
1611.000000	29.608454
1610.000000	29.556545
1609.000000	29.490640
1608.000000	29.448027
1607.000000	29.367604
1606.000000	29.316531
1605.000000	29.251148
1604.000000	29.166026
