PE UV       SUBTECH     SPECTRUM    ASCII       PEDS        4.00        
   -1
CICIMAUCR0213-3.Sample.ASC
24/06/12
17:14:35.00
24/06/12
17:14:35.00
Vinicio Soto Monge
C. resplendens. Sex M. Dorsal.
250,000000
1
Lambda 1050
1050L1511233
PerkinElmer UV WinLab 6.3.2.0749 / 2.02.05 Lambda 900 UV/VIS/NIR, Aug  7 2015 09:38:08

0
0
3350/servo 860,8/2
0
0
UV/VIS
1
1
1
DoubleDePol,CommonBeamDepol,RBeamAtt,SBeamAtt,60mm sphere, WB InGaAs Detector
0
0
0
0
Program
Program
3350/servo 860,8/2
3350/0,2 860,8/0,2
3350/0,2 860,8/0,2
0
15.00
 
 
 
0
 
860,8
319,2
860,8
Front
100
on
S:100 R:100
0
0
0
0
 
0
 
 
 
0
 
 
0
0
0
0
0
 
 
 
 
0
0


0
0
#HDR
-1
-1
#GR
nm
%R
1.0
0.0
2500,000000
-1,000000
2251
8
90,249400
5,547800
#DATA
2482.000000	8.066500
2481.000000	8.057177
2480.000000	8.115891
2479.000000	8.056781
2478.000000	8.018300
2477.000000	8.081079
2476.000000	8.007688
2475.000000	8.111031
2474.000000	8.062930
2473.000000	8.087724
2472.000000	8.080881
2471.000000	8.034367
2470.000000	7.990729
2469.000000	8.079691
2468.000000	8.063029
2467.000000	8.011655
2466.000000	8.074236
2465.000000	8.062831
2464.000000	8.115395
2463.000000	8.057078
2462.000000	8.054996
2461.000000	8.121940
2460.000000	8.153181
2459.000000	8.225184
2458.000000	8.228655
2457.000000	8.260987
2456.000000	8.301055
2455.000000	8.348561
2454.000000	8.411638
2453.000000	8.426713
2452.000000	8.447342
2451.000000	8.547114
2450.000000	8.667020
2449.000000	8.733171
2448.000000	8.746659
2447.000000	8.807257
2446.000000	8.892549
2445.000000	8.940154
2444.000000	9.036853
2443.000000	9.064920
2442.000000	9.139997
2441.000000	9.171833
2440.000000	9.222909
2439.000000	9.313260
2438.000000	9.378618
2437.000000	9.408470
2436.000000	9.461431
2435.000000	9.571122
2434.000000	9.612181
2433.000000	9.655720
2432.000000	9.750732
2431.000000	9.790502
2430.000000	9.819164
2429.000000	9.891861
2428.000000	9.948393
2427.000000	9.999072
2426.000000	10.039338
2425.000000	10.085357
2424.000000	10.119573
2423.000000	10.160533
2422.000000	10.180270
2421.000000	10.192568
2420.000000	10.241958
2419.000000	10.293927
2418.000000	10.338061
2417.000000	10.352243
2416.000000	10.398460
2415.000000	10.454694
2414.000000	10.484348
2413.000000	10.488811
2412.000000	10.514200
2411.000000	10.562202
2410.000000	10.587889
2409.000000	10.597509
2408.000000	10.628849
2407.000000	10.659892
2406.000000	10.694505
2405.000000	10.736358
2404.000000	10.752226
2403.000000	10.770078
2402.000000	10.798939
2401.000000	10.827204
2400.000000	10.825121
2399.000000	10.846841
2398.000000	10.890479
2397.000000	10.909026
2396.000000	10.956829
2395.000000	10.981227
2394.000000	11.008996
2393.000000	11.037163
2392.000000	11.063346
2391.000000	11.083776
2390.000000	11.102223
2389.000000	11.142688
2388.000000	11.153895
2387.000000	11.151911
2386.000000	11.167085
2385.000000	11.178392
2384.000000	11.199020
2383.000000	11.221831
2382.000000	11.224410
2381.000000	11.236807
2380.000000	11.241667
2379.000000	11.234824
2378.000000	11.219352
2377.000000	11.237799
2376.000000	11.247816
2375.000000	11.209037
2374.000000	11.192673
2373.000000	11.214889
2372.000000	11.199516
2371.000000	11.174920
2370.000000	11.182458
2369.000000	11.189103
2368.000000	11.169366
2367.000000	11.144374
2366.000000	11.127514
2365.000000	11.093198
2364.000000	11.059974
2363.000000	11.035973
2362.000000	10.995508
2361.000000	10.953854
2360.000000	10.924596
2359.000000	10.886512
2358.000000	10.840097
2357.000000	10.798939
2356.000000	10.759367
2355.000000	10.729316
2354.000000	10.694207
2353.000000	10.668223
2352.000000	10.648883
2351.000000	10.622006
2350.000000	10.621808
2349.000000	10.637081
2348.000000	10.651462
2347.000000	10.661578
2346.000000	10.683496
2345.000000	10.714737
2344.000000	10.768789
2343.000000	10.810245
2342.000000	10.831965
2341.000000	10.870049
2340.000000	10.911108
2339.000000	10.934613
2338.000000	10.973094
2337.000000	10.994021
2336.000000	10.993128
2335.000000	11.003046
2334.000000	11.017327
2333.000000	11.026551
2332.000000	11.026253
2331.000000	11.016534
2330.000000	11.012567
2329.000000	10.996599
2328.000000	10.959705
2327.000000	10.922811
2326.000000	10.878876
2325.000000	10.834444
2324.000000	10.802509
2323.000000	10.754110
2322.000000	10.697083
2321.000000	10.628651
2320.000000	10.568351
2319.000000	10.508844
2318.000000	10.428709
2317.000000	10.331912
2316.000000	10.241363
2315.000000	10.145657
2314.000000	10.045289
2313.000000	9.950674
2312.000000	9.869348
2311.000000	9.790006
2310.000000	9.707193
2309.000000	9.627851
2308.000000	9.581238
2307.000000	9.541269
2306.000000	9.505466
2305.000000	9.480572
2304.000000	9.471647
2303.000000	9.468274
2302.000000	9.492077
2301.000000	9.526690
2300.000000	9.569436
2299.000000	9.618330
2298.000000	9.665538
2297.000000	9.740219
2296.000000	9.822636
2295.000000	9.875200
2294.000000	9.936690
2293.000000	10.021982
2292.000000	10.065620
2291.000000	10.117788
2290.000000	10.176104
2289.000000	10.218750
2288.000000	10.234222
2287.000000	10.250487
2286.000000	10.265364
2285.000000	10.256041
2284.000000	10.252173
2283.000000	10.244338
2282.000000	10.211213
2281.000000	10.168368
2280.000000	10.158550
2279.000000	10.113523
2278.000000	10.081390
2277.000000	10.033983
2276.000000	9.994907
2275.000000	9.952062
2274.000000	9.928061
2273.000000	9.887597
2272.000000	9.872125
2271.000000	9.857149
2270.000000	9.858935
2269.000000	9.872522
2268.000000	9.885712
2267.000000	9.926772
2266.000000	9.997287
2265.000000	10.058975
2264.000000	10.159938
2263.000000	10.237594
2262.000000	10.386955
2261.000000	10.520845
2260.000000	10.689347
2259.000000	10.835535
2258.000000	11.038155
2257.000000	11.225898
2256.000000	11.424947
2255.000000	11.603565
2254.000000	11.794284
2253.000000	11.991448
2252.000000	12.185737
2251.000000	12.378241
2250.000000	12.565190
2249.000000	12.735180
2248.000000	12.926989
2247.000000	13.070202
2246.000000	13.211530
2245.000000	13.352957
2244.000000	13.485259
2243.000000	13.601793
2242.000000	13.707715
2241.000000	13.801437
2240.000000	13.908747
2239.000000	13.989974
2238.000000	14.072688
2237.000000	14.135566
2236.000000	14.193089
2235.000000	14.244959
2234.000000	14.318846
2233.000000	14.347211
2232.000000	14.399676
2231.000000	14.389560
2230.000000	14.432503
2229.000000	14.439743
2228.000000	14.464934
2227.000000	14.480109
2226.000000	14.462554
2225.000000	14.474951
2224.000000	14.465430
2223.000000	14.457298
2222.000000	14.460670
2221.000000	14.410982
2220.000000	14.389758
2219.000000	14.371311
2218.000000	14.331045
2217.000000	14.301292
2216.000000	14.270547
2215.000000	14.268563
2214.000000	14.208957
2213.000000	14.200924
2212.000000	14.158476
2211.000000	14.134971
2210.000000	14.115433
2209.000000	14.061381
2208.000000	14.053546
2207.000000	14.000883
2206.000000	13.998404
2205.000000	13.992255
2204.000000	13.963692
2203.000000	13.924417
2202.000000	13.917971
2201.000000	13.915293
2200.000000	13.879589
2199.000000	13.857770
2198.000000	13.847158
2197.000000	13.824843
2196.000000	13.817603
2195.000000	13.802925
2194.000000	13.808280
2193.000000	13.791519
2192.000000	13.777635
2191.000000	13.762460
2190.000000	13.743518
2189.000000	13.736079
2188.000000	13.738460
2187.000000	13.707417
2186.000000	13.710194
2185.000000	13.687681
2184.000000	13.668044
2183.000000	13.659713
2182.000000	13.643943
2181.000000	13.634026
2180.000000	13.616372
2179.000000	13.597429
2178.000000	13.601793
2177.000000	13.621133
2176.000000	13.583743
2175.000000	13.580271
2174.000000	13.588007
2173.000000	13.601892
2172.000000	13.579577
2171.000000	13.587412
2170.000000	13.595346
2169.000000	13.630356
2168.000000	13.637695
2167.000000	13.640175
2166.000000	13.657828
2165.000000	13.674788
2164.000000	13.689069
2163.000000	13.727947
2162.000000	13.753535
2161.000000	13.784974
2160.000000	13.810562
2159.000000	13.849836
2158.000000	13.866795
2157.000000	13.904582
2156.000000	13.958931
2155.000000	13.985709
2154.000000	14.050571
2153.000000	14.082804
2152.000000	14.124359
2151.000000	14.162840
2150.000000	14.217288
2149.000000	14.263406
2148.000000	14.310912
2147.000000	14.354748
2146.000000	14.406816
2145.000000	14.428140
2144.000000	14.474753
2143.000000	14.509862
2142.000000	14.548442
2141.000000	14.593171
2140.000000	14.615387
2139.000000	14.664579
2138.000000	14.700779
2137.000000	14.717837
2136.000000	14.745111
2135.000000	14.772781
2134.000000	14.800650
2133.000000	14.822370
2132.000000	14.829213
2131.000000	14.852024
2130.000000	14.869281
2129.000000	14.877215
2128.000000	14.879595
2127.000000	14.891100
2126.000000	14.885645
2125.000000	14.886240
2124.000000	14.882273
2123.000000	14.883265
2122.000000	14.884455
2121.000000	14.879695
2120.000000	14.864818
2119.000000	14.836354
2118.000000	14.817610
2117.000000	14.808089
2116.000000	14.784782
2115.000000	14.753640
2114.000000	14.746103
2113.000000	14.729540
2112.000000	14.694034
2111.000000	14.669538
2110.000000	14.648413
2109.000000	14.606064
2108.000000	14.592477
2107.000000	14.560839
2106.000000	14.523152
2105.000000	14.481795
2104.000000	14.453926
2103.000000	14.428834
2102.000000	14.393824
2101.000000	14.364170
2100.000000	14.339773
2099.000000	14.320532
2098.000000	14.300399
2097.000000	14.260133
2096.000000	14.227404
2095.000000	14.205685
2094.000000	14.168096
2093.000000	14.153220
2092.000000	14.141120
2091.000000	14.117218
2090.000000	14.082903
2089.000000	14.054736
2088.000000	14.046901
2087.000000	14.032818
2086.000000	14.000685
2085.000000	13.968452
2084.000000	13.947922
2083.000000	13.920748
2082.000000	13.889308
2081.000000	13.859754
2080.000000	13.828810
2079.000000	13.795189
2078.000000	13.743914
2077.000000	13.708508
2076.000000	13.670027
2075.000000	13.615182
2074.000000	13.551212
2073.000000	13.501425
2072.000000	13.465821
2071.000000	13.401752
2070.000000	13.341055
2069.000000	13.286805
2068.000000	13.236126
2067.000000	13.188124
2066.000000	13.123460
2065.000000	13.059193
2064.000000	13.010894
2063.000000	12.960511
2062.000000	12.898228
2061.000000	12.841895
2060.000000	12.787546
2059.000000	12.738850
2058.000000	12.689658
2057.000000	12.653161
2056.000000	12.631639
2055.000000	12.614977
2054.000000	12.615374
2053.000000	12.597224
2052.000000	12.570149
2051.000000	12.581058
2050.000000	12.595439
2049.000000	12.630251
2048.000000	12.664665
2047.000000	12.689261
2046.000000	12.731015
2045.000000	12.779215
2044.000000	12.832969
2043.000000	12.888707
2042.000000	12.948114
2041.000000	13.009902
2040.000000	13.077144
2039.000000	13.131692
2038.000000	13.194372
2037.000000	13.250308
2036.000000	13.298905
2035.000000	13.349585
2034.000000	13.394710
2033.000000	13.426249
2032.000000	13.455209
2031.000000	13.483772
2030.000000	13.539311
2029.000000	13.565395
2028.000000	13.586123
2027.000000	13.603479
2026.000000	13.615777
2025.000000	13.623414
2024.000000	13.646224
2023.000000	13.641166
2022.000000	13.654952
2021.000000	13.667052
2020.000000	13.687284
2019.000000	13.669928
2018.000000	13.660804
2017.000000	13.662093
2016.000000	13.656241
2015.000000	13.632340
2014.000000	13.614091
2013.000000	13.597727
2012.000000	13.582453
2011.000000	13.556866
2010.000000	13.529096
2009.000000	13.496764
2008.000000	13.459275
2007.000000	13.428629
2006.000000	13.394115
2005.000000	13.372296
2004.000000	13.337386
2003.000000	13.282144
2002.000000	13.219166
2001.000000	13.173247
2000.000000	13.133080
1999.000000	13.083293
1998.000000	13.014960
1997.000000	12.948709
1996.000000	12.879087
1995.000000	12.837829
1994.000000	12.770884
1993.000000	12.714849
1992.000000	12.637788
1991.000000	12.557157
1990.000000	12.478807
1989.000000	12.415035
1988.000000	12.351562
1987.000000	12.276088
1986.000000	12.208548
1985.000000	12.129404
1984.000000	12.055418
1983.000000	11.967447
1982.000000	11.885130
1981.000000	11.810747
1980.000000	11.761555
1979.000000	11.671105
1978.000000	11.595929
1977.000000	11.520951
1976.000000	11.446369
1975.000000	11.355324
1974.000000	11.280048
1973.000000	11.218856
1972.000000	11.149333
1971.000000	11.061561
1970.000000	10.992930
1969.000000	10.934812
1968.000000	10.857156
1967.000000	10.795467
1966.000000	10.751730
1965.000000	10.647296
1964.000000	10.594732
1963.000000	10.552185
1962.000000	10.477405
1961.000000	10.404510
1960.000000	10.352838
1959.000000	10.277761
1958.000000	10.219643
1957.000000	10.169062
1956.000000	10.108763
1955.000000	10.062447
1954.000000	9.997783
1953.000000	9.938772
1952.000000	9.875497
1951.000000	9.846736
1950.000000	9.780684
1949.000000	9.753112
1948.000000	9.697970
1947.000000	9.649075
1946.000000	9.601767
1945.000000	9.616842
1944.000000	9.547319
1943.000000	9.508441
1942.000000	9.485333
1941.000000	9.481168
1940.000000	9.455580
1939.000000	9.441893
1938.000000	9.450819
1937.000000	9.423446
1936.000000	9.426719
1935.000000	9.444472
1934.000000	9.442488
1933.000000	9.458357
1932.000000	9.488507
1931.000000	9.523715
1930.000000	9.558129
1929.000000	9.580444
1928.000000	9.641835
1927.000000	9.697970
1926.000000	9.753509
1925.000000	9.834636
1924.000000	9.889084
1923.000000	9.939566
1922.000000	10.054116
1921.000000	10.154186
1920.000000	10.265165
1919.000000	10.389931
1918.000000	10.478496
1917.000000	10.605047
1916.000000	10.703232
1915.000000	10.815005
1914.000000	10.969425
1913.000000	11.123447
1912.000000	11.312281
1911.000000	11.491594
1910.000000	11.635501
1909.000000	11.783176
1908.000000	11.953959
1907.000000	12.136248
1906.000000	12.340553
1905.000000	12.591373
1904.000000	12.880079
1903.000000	13.125344
1902.000000	13.357816
1901.000000	13.606752
1900.000000	13.875622
1899.000000	14.192593
1898.000000	14.509664
1897.000000	14.785079
1896.000000	15.120200
1895.000000	15.379152
1894.000000	15.675296
1893.000000	16.011905
1892.000000	16.373605
1891.000000	16.781423
1890.000000	17.239325
1889.000000	17.652300
1888.000000	18.064977
1887.000000	18.506615
1886.000000	18.920284
1885.000000	19.381856
1884.000000	19.879925
1883.000000	20.403780
1882.000000	20.921388
1881.000000	21.377306
1880.000000	21.861987
1879.000000	22.316021
1878.000000	22.745559
1877.000000	23.213081
1876.000000	23.655611
1875.000000	24.074934
1874.000000	24.500207
1873.000000	24.909214
1872.000000	25.318619
1871.000000	25.682997
1870.000000	26.019209
1869.000000	26.331618
1868.000000	26.619133
1867.000000	26.829786
1866.000000	27.018025
1865.000000	27.180180
1864.000000	27.350269
1863.000000	27.496358
1862.000000	27.649290
1861.000000	27.799047
1860.000000	27.965071
1859.000000	28.108977
1858.000000	28.235528
1857.000000	28.350871
1856.000000	28.428329
1855.000000	28.486447
1854.000000	28.550912
1853.000000	28.610319
1852.000000	28.632733
1851.000000	28.658916
1850.000000	28.712472
1849.000000	28.749465
1848.000000	28.782194
1847.000000	28.802723
1846.000000	28.787549
1845.000000	28.759085
1844.000000	28.726555
1843.000000	28.696504
1842.000000	28.722489
1841.000000	28.747779
1840.000000	28.766821
1839.000000	28.754920
1838.000000	28.731415
1837.000000	28.721299
1836.000000	28.707910
1835.000000	28.660801
1834.000000	28.609129
1833.000000	28.556466
1832.000000	28.514415
1831.000000	28.477818
1830.000000	28.446478
1829.000000	28.421287
1828.000000	28.378145
1827.000000	28.309316
1826.000000	28.246437
1825.000000	28.210237
1824.000000	28.167393
1823.000000	28.131292
1822.000000	28.115622
1821.000000	28.129606
1820.000000	28.124845
1819.000000	28.093208
1818.000000	28.049371
1817.000000	28.013172
1816.000000	28.003353
1815.000000	28.006229
1814.000000	27.984807
1813.000000	27.960112
1812.000000	27.956045
1811.000000	27.936210
1810.000000	27.902589
1809.000000	27.865695
1808.000000	27.830983
1807.000000	27.813329
1806.000000	27.792105
1805.000000	27.734185
1804.000000	27.681026
1803.000000	27.659505
1802.000000	27.633124
1801.000000	27.607734
1800.000000	27.563303
1799.000000	27.492093
1798.000000	27.443000
1797.000000	27.400255
1796.000000	27.363361
1795.000000	27.336980
1794.000000	27.299094
1793.000000	27.254266
1792.000000	27.221339
1791.000000	27.182461
1790.000000	27.137633
1789.000000	27.099946
1788.000000	27.064837
1787.000000	27.037166
1786.000000	27.004140
1785.000000	26.956237
1784.000000	26.906549
1783.000000	26.866085
1782.000000	26.821554
1781.000000	26.760064
1780.000000	26.702839
1779.000000	26.659399
1778.000000	26.597017
1777.000000	26.550502
1776.000000	26.506269
1775.000000	26.441110
1774.000000	26.365040
1773.000000	26.274591
1772.000000	26.208043
1771.000000	26.141792
1770.000000	26.056995
1769.000000	25.971008
1768.000000	25.885418
1767.000000	25.815796
1766.000000	25.736553
1765.000000	25.676055
1764.000000	25.644318
1763.000000	25.603060
1762.000000	25.589374
1761.000000	25.586001
1760.000000	25.597704
1759.000000	25.629243
1758.000000	25.682700
1757.000000	25.728619
1756.000000	25.779596
1755.000000	25.833747
1754.000000	25.875699
1753.000000	25.917948
1752.000000	25.950578
1751.000000	25.981224
1750.000000	25.992133
1749.000000	25.968033
1748.000000	25.954842
1747.000000	25.931337
1746.000000	25.899006
1745.000000	25.848425
1744.000000	25.766009
1743.000000	25.672881
1742.000000	25.574695
1741.000000	25.456277
1740.000000	25.308503
1739.000000	25.159042
1738.000000	25.000854
1737.000000	24.843956
1736.000000	24.693999
1735.000000	24.569135
1734.000000	24.463610
1733.000000	24.386847
1732.000000	24.330415
1731.000000	24.326448
1730.000000	24.321092
1729.000000	24.363738
1728.000000	24.418088
1727.000000	24.470652
1726.000000	24.538092
1725.000000	24.593235
1724.000000	24.651551
1723.000000	24.700446
1722.000000	24.753010
1721.000000	24.800516
1720.000000	24.852981
1719.000000	24.912983
1718.000000	24.978143
1717.000000	25.058774
1716.000000	25.146943
1715.000000	25.225987
1714.000000	25.314652
1713.000000	25.408176
1712.000000	25.507949
1711.000000	25.573009
1710.000000	25.624086
1709.000000	25.674269
1708.000000	25.708486
1707.000000	25.726635
1706.000000	25.711957
1705.000000	25.697675
1704.000000	25.693014
1703.000000	25.656616
1702.000000	25.606630
1701.000000	25.526297
1700.000000	25.450525
1699.000000	25.352439
1698.000000	25.221623
1697.000000	25.126810
1696.000000	25.027533
1695.000000	24.964357
1694.000000	24.921413
1693.000000	24.915959
1692.000000	24.935397
1691.000000	24.999069
1690.000000	25.088031
1689.000000	25.180266
1688.000000	25.240666
1687.000000	25.310685
1686.000000	25.389729
1685.000000	25.431979
1684.000000	25.480179
1683.000000	25.575092
1682.000000	25.709378
1681.000000	25.912295
1680.000000	26.180670
1679.000000	26.507757
1678.000000	26.826910
1677.000000	27.187519
1676.000000	27.542178
1675.000000	27.882456
1674.000000	28.158665
1673.000000	28.436461
1672.000000	28.655742
1671.000000	28.851320
1670.000000	29.054932
1669.000000	29.209252
1668.000000	29.347604
1667.000000	29.450055
1666.000000	29.554985
1665.000000	29.649501
1664.000000	29.753835
1663.000000	29.837045
1662.000000	29.911428
1661.000000	29.983630
1660.000000	30.042640
1659.000000	30.074377
1658.000000	30.109287
1657.000000	30.169984
1656.000000	30.186447
1655.000000	30.189324
1654.000000	30.206184
1653.000000	30.222151
1652.000000	30.223342
1651.000000	30.204299
1650.000000	30.198448
1649.000000	30.156992
1648.000000	30.145983
1647.000000	30.132594
1646.000000	30.078741
1645.000000	30.055335
1644.000000	30.000589
1643.000000	29.990076
1642.000000	29.943562
1641.000000	29.888122
1640.000000	29.845674
1639.000000	29.802135
1638.000000	29.774960
1637.000000	29.714462
1636.000000	29.653468
1635.000000	29.598127
1634.000000	29.563216
1633.000000	29.481891
1632.000000	29.415839
1631.000000	29.353357
1630.000000	29.275304
1629.000000	29.225120
1628.000000	29.158176
1627.000000	29.093512
1626.000000	29.026071
1625.000000	28.941076
1624.000000	28.868081
1623.000000	28.834262
1622.000000	28.739845
1621.000000	28.662090
1620.000000	28.603674
1619.000000	28.534151
1618.000000	28.469289
1617.000000	28.404923
1616.000000	28.345218
1615.000000	28.282240
1614.000000	28.209841
1613.000000	28.171756
1612.000000	28.087852
1611.000000	28.027453
1610.000000	27.956244
1609.000000	27.901795
1608.000000	27.828305
1607.000000	27.752236
1606.000000	27.665059
1605.000000	27.602180
1604.000000	27.543666
1603.000000	27.462836
1602.000000	27.409082
