PE UV       SUBTECH     SPECTRUM    ASCII       PEDS        4.00        
   -1
CICIMAUCR0242-3.Sample.ASC
24/06/21
11:31:23.00
24/06/21
11:31:23.00
Vinicio Soto Monge
C. cupreomarginata. Sex M. Dorsal
250,000000
1
Lambda 1050
1050L1511233
PerkinElmer UV WinLab 6.3.2.0749 / 2.02.05 Lambda 900 UV/VIS/NIR, Aug  7 2015 09:38:08

0
0
3350/servo 860,8/2
0
0
UV/VIS
1
1
1
DoubleDePol,CommonBeamDepol,RBeamAtt,SBeamAtt,60mm sphere, WB InGaAs Detector
0
0
0
0
Program
Program
3350/servo 860,8/2
3350/0,2 860,8/0,2
3350/0,2 860,8/0,2
0
15.00
 
 
 
0
 
860,8
319,2
860,8
Front
100
on
S:100 R:100
0
0
0
0
 
0
 
 
 
0
 
 
0
0
0
0
0
 
 
 
 
0
0


0
0
#HDR
-1
-1
#GR
nm
%R
1.0
0.0
2500,000000
-1,000000
2251
8
69,189700
5,636700
#DATA
2500.000000	10.450990
2499.000000	10.469096
2498.000000	10.533473
2497.000000	10.618286
2496.000000	10.499273
2495.000000	10.458296
2494.000000	10.506050
2493.000000	10.369143
2492.000000	10.352837
2491.000000	10.341931
2490.000000	10.428755
2489.000000	10.328272
2488.000000	10.260083
2487.000000	10.343731
2486.000000	10.302224
2485.000000	10.312389
2484.000000	10.328907
2483.000000	10.415625
2482.000000	10.288777
2481.000000	10.310589
2480.000000	10.391802
2479.000000	10.364695
2478.000000	10.332930
2477.000000	10.302224
2476.000000	10.320966
2475.000000	10.367025
2474.000000	10.415731
2473.000000	10.375707
2472.000000	10.423355
2471.000000	10.445590
2470.000000	10.400590
2469.000000	10.434790
2468.000000	10.454696
2467.000000	10.466237
2466.000000	10.458190
2465.000000	10.475767
2464.000000	10.492920
2463.000000	10.541626
2462.000000	10.579532
2461.000000	10.615533
2460.000000	10.621886
2459.000000	10.690498
2458.000000	10.744393
2457.000000	10.806546
2456.000000	10.844029
2455.000000	10.913912
2454.000000	10.960606
2453.000000	11.029007
2452.000000	11.119643
2451.000000	11.182220
2450.000000	11.260573
2449.000000	11.316374
2448.000000	11.407116
2447.000000	11.502093
2446.000000	11.563505
2445.000000	11.631906
2444.000000	11.722648
2443.000000	11.768707
2442.000000	11.843143
2441.000000	11.924673
2440.000000	12.036485
2439.000000	12.087415
2438.000000	12.161957
2437.000000	12.219346
2436.000000	12.286158
2435.000000	12.352547
2434.000000	12.416288
2433.000000	12.496124
2432.000000	12.561348
2431.000000	12.597561
2430.000000	12.659502
2429.000000	12.711914
2428.000000	12.766656
2427.000000	12.810174
2426.000000	12.858457
2425.000000	12.912669
2424.000000	12.957034
2423.000000	12.992187
2422.000000	13.032529
2421.000000	13.072553
2420.000000	13.114376
2419.000000	13.149847
2418.000000	13.194212
2417.000000	13.227777
2416.000000	13.276272
2415.000000	13.311849
2414.000000	13.365955
2413.000000	13.400896
2412.000000	13.399626
2411.000000	13.431497
2410.000000	13.472262
2409.000000	13.501697
2408.000000	13.518956
2407.000000	13.554109
2406.000000	13.578886
2405.000000	13.609486
2404.000000	13.652157
2403.000000	13.668887
2402.000000	13.702240
2401.000000	13.753699
2400.000000	13.789594
2399.000000	13.826123
2398.000000	13.870700
2397.000000	13.930207
2396.000000	13.951595
2395.000000	13.961336
2394.000000	13.986748
2393.000000	14.018725
2392.000000	14.044243
2391.000000	14.085325
2390.000000	14.115185
2389.000000	14.147479
2388.000000	14.160503
2387.000000	14.162726
2386.000000	14.191209
2385.000000	14.199997
2384.000000	14.206032
2383.000000	14.222232
2382.000000	14.225938
2381.000000	14.226997
2380.000000	14.225621
2379.000000	14.228480
2378.000000	14.232503
2377.000000	14.225727
2376.000000	14.219162
2375.000000	14.216091
2374.000000	14.205185
2373.000000	14.200103
2372.000000	14.192903
2371.000000	14.165691
2370.000000	14.155738
2369.000000	14.137420
2368.000000	14.098984
2367.000000	14.068702
2366.000000	14.054831
2365.000000	14.032702
2364.000000	13.974254
2363.000000	13.930948
2362.000000	13.900983
2361.000000	13.876100
2360.000000	13.844124
2359.000000	13.805264
2358.000000	13.756770
2357.000000	13.714522
2356.000000	13.691016
2355.000000	13.677781
2354.000000	13.662640
2353.000000	13.637016
2352.000000	13.632357
2351.000000	13.630875
2350.000000	13.621028
2349.000000	13.641569
2348.000000	13.672381
2347.000000	13.686781
2346.000000	13.720558
2345.000000	13.749676
2344.000000	13.783982
2343.000000	13.827500
2342.000000	13.867630
2341.000000	13.895689
2340.000000	13.928830
2339.000000	13.956571
2338.000000	13.972030
2337.000000	13.985901
2336.000000	14.005701
2335.000000	14.007501
2334.000000	14.010360
2333.000000	14.003478
2332.000000	13.981878
2331.000000	13.963454
2330.000000	13.945242
2329.000000	13.905218
2328.000000	13.867630
2327.000000	13.829194
2326.000000	13.790335
2325.000000	13.733370
2324.000000	13.690487
2323.000000	13.623251
2322.000000	13.555804
2321.000000	13.484756
2320.000000	13.402591
2319.000000	13.319049
2318.000000	13.223754
2317.000000	13.133541
2316.000000	13.055188
2315.000000	12.961693
2314.000000	12.847021
2313.000000	12.750350
2312.000000	12.666914
2311.000000	12.579137
2310.000000	12.500466
2309.000000	12.448265
2308.000000	12.384418
2307.000000	12.354029
2306.000000	12.329570
2305.000000	12.327876
2304.000000	12.320358
2303.000000	12.322794
2302.000000	12.365676
2301.000000	12.420418
2300.000000	12.471348
2299.000000	12.559972
2298.000000	12.629008
2297.000000	12.696985
2296.000000	12.765385
2295.000000	12.840986
2294.000000	12.921245
2293.000000	13.012834
2292.000000	13.072764
2291.000000	13.137035
2290.000000	13.171765
2289.000000	13.206177
2288.000000	13.219730
2287.000000	13.231272
2286.000000	13.239107
2285.000000	13.231695
2284.000000	13.197495
2283.000000	13.190930
2282.000000	13.164989
2281.000000	13.127929
2280.000000	13.097329
2279.000000	13.046505
2278.000000	12.995999
2277.000000	12.954387
2276.000000	12.931198
2275.000000	12.889798
2274.000000	12.853480
2273.000000	12.819915
2272.000000	12.793021
2271.000000	12.775338
2270.000000	12.795350
2269.000000	12.812609
2268.000000	12.860892
2267.000000	12.924422
2266.000000	12.992187
2265.000000	13.077741
2264.000000	13.190612
2263.000000	13.325084
2262.000000	13.471521
2261.000000	13.634581
2260.000000	13.831523
2259.000000	14.008242
2258.000000	14.229115
2257.000000	14.452211
2256.000000	14.660483
2255.000000	14.881567
2254.000000	15.090792
2253.000000	15.323947
2252.000000	15.526078
2251.000000	15.730751
2250.000000	15.929917
2249.000000	16.142530
2248.000000	16.299661
2247.000000	16.463674
2246.000000	16.618475
2245.000000	16.772959
2244.000000	16.911666
2243.000000	17.034385
2242.000000	17.146091
2241.000000	17.243080
2240.000000	17.335834
2239.000000	17.425199
2238.000000	17.498047
2237.000000	17.585718
2236.000000	17.646707
2235.000000	17.689060
2234.000000	17.758943
2233.000000	17.808603
2232.000000	17.852015
2231.000000	17.872027
2230.000000	17.888227
2229.000000	17.880921
2228.000000	17.936086
2227.000000	17.930792
2226.000000	17.939051
2225.000000	17.912050
2224.000000	17.908345
2223.000000	17.894050
2222.000000	17.879333
2221.000000	17.862179
2220.000000	17.817814
2219.000000	17.755449
2218.000000	17.752908
2217.000000	17.716272
2216.000000	17.676566
2215.000000	17.639825
2214.000000	17.616742
2213.000000	17.559036
2212.000000	17.546542
2211.000000	17.506941
2210.000000	17.492329
2209.000000	17.463317
2208.000000	17.429858
2207.000000	17.394282
2206.000000	17.372258
2205.000000	17.354469
2204.000000	17.335728
2203.000000	17.315081
2202.000000	17.298669
2201.000000	17.258222
2200.000000	17.260128
2199.000000	17.235139
2198.000000	17.225186
2197.000000	17.205280
2196.000000	17.201786
2195.000000	17.179339
2194.000000	17.177221
2193.000000	17.150115
2192.000000	17.140797
2191.000000	17.127774
2190.000000	17.105009
2189.000000	17.095373
2188.000000	17.105962
2187.000000	17.107550
2186.000000	17.069114
2185.000000	17.047091
2184.000000	17.036820
2183.000000	17.030043
2182.000000	17.000078
2181.000000	17.002090
2180.000000	16.975196
2179.000000	16.965349
2178.000000	16.950525
2177.000000	16.923631
2176.000000	16.933796
2175.000000	16.926278
2174.000000	16.934325
2173.000000	16.925325
2172.000000	16.913042
2171.000000	16.918442
2170.000000	16.925431
2169.000000	16.928607
2168.000000	16.934748
2167.000000	16.939619
2166.000000	16.949572
2165.000000	16.968419
2164.000000	16.976149
2163.000000	17.001773
2162.000000	17.021784
2161.000000	17.053444
2160.000000	17.069432
2159.000000	17.105326
2158.000000	17.153609
2157.000000	17.178492
2156.000000	17.211739
2155.000000	17.253775
2154.000000	17.303116
2153.000000	17.332975
2152.000000	17.368764
2151.000000	17.437588
2150.000000	17.484600
2149.000000	17.514247
2148.000000	17.557024
2147.000000	17.609330
2146.000000	17.667248
2145.000000	17.704837
2144.000000	17.722837
2143.000000	17.783296
2142.000000	17.816756
2141.000000	17.854768
2140.000000	17.873085
2139.000000	17.922956
2138.000000	17.942757
2137.000000	17.955568
2136.000000	17.996016
2135.000000	18.013381
2134.000000	18.039851
2133.000000	18.069075
2132.000000	18.090040
2131.000000	18.105499
2130.000000	18.114182
2129.000000	18.125829
2128.000000	18.134405
2127.000000	18.144570
2126.000000	18.155476
2125.000000	18.158017
2124.000000	18.159076
2123.000000	18.156641
2122.000000	18.153888
2121.000000	18.155476
2120.000000	18.134617
2119.000000	18.130488
2118.000000	18.114923
2117.000000	18.079240
2116.000000	18.062087
2115.000000	18.057852
2114.000000	18.036569
2113.000000	18.009992
2112.000000	17.982463
2111.000000	17.951651
2110.000000	17.930474
2109.000000	17.906862
2108.000000	17.876156
2107.000000	17.841003
2106.000000	17.817073
2105.000000	17.785944
2104.000000	17.747931
2103.000000	17.718496
2102.000000	17.687896
2101.000000	17.676037
2100.000000	17.650413
2099.000000	17.621507
2098.000000	17.599907
2097.000000	17.564330
2096.000000	17.525894
2095.000000	17.499000
2094.000000	17.474012
2093.000000	17.457282
2092.000000	17.444576
2091.000000	17.419588
2090.000000	17.397140
2089.000000	17.370776
2088.000000	17.343669
2087.000000	17.328210
2086.000000	17.302587
2085.000000	17.271139
2084.000000	17.246363
2083.000000	17.197974
2082.000000	17.173727
2081.000000	17.160809
2080.000000	17.128197
2079.000000	17.088067
2078.000000	17.038726
2077.000000	16.987161
2076.000000	16.946184
2075.000000	16.906584
2074.000000	16.858724
2073.000000	16.804936
2072.000000	16.749982
2071.000000	16.693970
2070.000000	16.630228
2069.000000	16.573687
2068.000000	16.524875
2067.000000	16.463039
2066.000000	16.398874
2065.000000	16.345085
2064.000000	16.297332
2063.000000	16.230837
2062.000000	16.178848
2061.000000	16.135330
2060.000000	16.084400
2059.000000	16.044271
2058.000000	16.019494
2057.000000	15.991435
2056.000000	15.971741
2055.000000	15.964858
2054.000000	15.950776
2053.000000	15.952258
2052.000000	15.964858
2051.000000	15.998317
2050.000000	16.027647
2049.000000	16.069365
2048.000000	16.108965
2047.000000	16.170272
2046.000000	16.239731
2045.000000	16.296802
2044.000000	16.364885
2043.000000	16.440274
2042.000000	16.510263
2041.000000	16.574851
2040.000000	16.647487
2039.000000	16.698311
2038.000000	16.764594
2037.000000	16.831618
2036.000000	16.875772
2035.000000	16.916113
2034.000000	16.974984
2033.000000	17.030255
2032.000000	17.051220
2031.000000	17.090079
2030.000000	17.127032
2029.000000	17.149374
2028.000000	17.196280
2027.000000	17.213857
2026.000000	17.233233
2025.000000	17.259492
2024.000000	17.282681
2023.000000	17.280351
2022.000000	17.288081
2021.000000	17.296022
2020.000000	17.306293
2019.000000	17.312963
2018.000000	17.298351
2017.000000	17.295069
2016.000000	17.300575
2015.000000	17.277916
2014.000000	17.267857
2013.000000	17.264575
2012.000000	17.259175
2011.000000	17.227410
2010.000000	17.185056
2009.000000	17.145668
2008.000000	17.115597
2007.000000	17.086797
2006.000000	17.039890
2005.000000	17.005267
2004.000000	16.941101
2003.000000	16.909336
2002.000000	16.859889
2001.000000	16.799006
2000.000000	16.747018
1999.000000	16.682852
1998.000000	16.632134
1997.000000	16.579828
1996.000000	16.510898
1995.000000	16.442392
1994.000000	16.390297
1993.000000	16.323802
1992.000000	16.240366
1991.000000	16.162225
1990.000000	16.107801
1989.000000	16.027118
1988.000000	15.945588
1987.000000	15.871893
1986.000000	15.778292
1985.000000	15.709468
1984.000000	15.642762
1983.000000	15.570126
1982.000000	15.482031
1981.000000	15.382818
1980.000000	15.323841
1979.000000	15.230135
1978.000000	15.145428
1977.000000	15.051192
1976.000000	14.984380
1975.000000	14.918944
1974.000000	14.848002
1973.000000	14.765202
1972.000000	14.688542
1971.000000	14.629989
1970.000000	14.563388
1969.000000	14.467246
1968.000000	14.413669
1967.000000	14.308739
1966.000000	14.246162
1965.000000	14.197773
1964.000000	14.121008
1963.000000	14.063302
1962.000000	13.985160
1961.000000	13.938465
1960.000000	13.841794
1959.000000	13.774452
1958.000000	13.720981
1957.000000	13.649934
1956.000000	13.586616
1955.000000	13.553474
1954.000000	13.476073
1953.000000	13.416991
1952.000000	13.363837
1951.000000	13.299778
1950.000000	13.255519
1949.000000	13.203530
1948.000000	13.167953
1947.000000	13.123377
1946.000000	13.081976
1945.000000	13.034435
1944.000000	12.988905
1943.000000	12.946128
1942.000000	12.931622
1941.000000	12.932893
1940.000000	12.907692
1939.000000	12.903245
1938.000000	12.894775
1937.000000	12.876351
1936.000000	12.881857
1935.000000	12.895834
1934.000000	12.910128
1933.000000	12.925587
1932.000000	12.944963
1931.000000	13.005211
1930.000000	13.057517
1929.000000	13.091823
1928.000000	13.168906
1927.000000	13.221742
1926.000000	13.262401
1925.000000	13.344778
1924.000000	13.459979
1923.000000	13.564592
1922.000000	13.664228
1921.000000	13.770958
1920.000000	13.883830
1919.000000	14.030266
1918.000000	14.141761
1917.000000	14.292327
1916.000000	14.450411
1915.000000	14.575353
1914.000000	14.749637
1913.000000	14.967121
1912.000000	15.122451
1911.000000	15.330830
1910.000000	15.510408
1909.000000	15.717409
1908.000000	15.906940
1907.000000	16.119342
1906.000000	16.378650
1905.000000	16.645581
1904.000000	16.932737
1903.000000	17.180503
1902.000000	17.447117
1901.000000	17.703355
1900.000000	18.011475
1899.000000	18.358983
1898.000000	18.698022
1897.000000	19.021177
1896.000000	19.338615
1895.000000	19.641653
1894.000000	19.973491
1893.000000	20.331376
1892.000000	20.714250
1891.000000	21.141277
1890.000000	21.571374
1889.000000	21.961130
1888.000000	22.392393
1887.000000	22.801631
1886.000000	23.233529
1885.000000	23.651132
1884.000000	24.170595
1883.000000	24.657234
1882.000000	25.156368
1881.000000	25.649995
1880.000000	26.132399
1879.000000	26.556991
1878.000000	27.020442
1877.000000	27.470763
1876.000000	27.910072
1875.000000	28.308934
1874.000000	28.697526
1873.000000	29.100623
1872.000000	29.501073
1871.000000	29.829417
1870.000000	30.195879
1869.000000	30.468528
1868.000000	30.755048
1867.000000	30.958238
1866.000000	31.138769
1865.000000	31.293994
1864.000000	31.428889
1863.000000	31.557961
1862.000000	31.685126
1861.000000	31.829869
1860.000000	31.979693
1859.000000	32.105483
1858.000000	32.228095
1857.000000	32.318943
1856.000000	32.388297
1855.000000	32.438485
1854.000000	32.488568
1853.000000	32.529439
1852.000000	32.529439
1851.000000	32.541298
1850.000000	32.577828
1849.000000	32.587145
1848.000000	32.617640
1847.000000	32.662852
1846.000000	32.634369
1845.000000	32.574863
1844.000000	32.543839
1843.000000	32.503286
1842.000000	32.522451
1841.000000	32.568510
1840.000000	32.549239
1839.000000	32.532298
1838.000000	32.498521
1837.000000	32.471627
1836.000000	32.470568
1835.000000	32.435309
1834.000000	32.373791
1833.000000	32.276484
1832.000000	32.206601
1831.000000	32.169118
1830.000000	32.140424
1829.000000	32.109083
1828.000000	32.051800
1827.000000	31.988482
1826.000000	31.925587
1825.000000	31.866293
1824.000000	31.816951
1823.000000	31.772268
1822.000000	31.746962
1821.000000	31.763480
1820.000000	31.769833
1819.000000	31.741986
1818.000000	31.701009
1817.000000	31.655797
1816.000000	31.620855
1815.000000	31.606773
1814.000000	31.608890
1813.000000	31.594702
1812.000000	31.563255
1811.000000	31.539431
1810.000000	31.498031
1809.000000	31.453454
1808.000000	31.433971
1807.000000	31.399030
1806.000000	31.366524
1805.000000	31.325547
1804.000000	31.272711
1803.000000	31.231311
1802.000000	31.192875
1801.000000	31.163122
1800.000000	31.131781
1799.000000	31.069521
1798.000000	31.015627
1797.000000	30.980579
1796.000000	30.937803
1795.000000	30.897991
1794.000000	30.865273
1793.000000	30.824190
1792.000000	30.782048
1791.000000	30.738001
1790.000000	30.690565
1789.000000	30.637836
1788.000000	30.608506
1787.000000	30.579917
1786.000000	30.520093
1785.000000	30.466517
1784.000000	30.429457
1783.000000	30.380116
1782.000000	30.320080
1781.000000	30.270209
1780.000000	30.212397
1779.000000	30.164008
1778.000000	30.120067
1777.000000	30.063419
1776.000000	29.990677
1775.000000	29.925347
1774.000000	29.864359
1773.000000	29.769805
1772.000000	29.689546
1771.000000	29.619239
1770.000000	29.540038
1769.000000	29.455120
1768.000000	29.380472
1767.000000	29.312707
1766.000000	29.238801
1765.000000	29.169871
1764.000000	29.120106
1763.000000	29.108776
1762.000000	29.106447
1761.000000	29.113964
1760.000000	29.156529
1759.000000	29.196236
1758.000000	29.242189
1757.000000	29.297248
1756.000000	29.363531
1755.000000	29.424202
1754.000000	29.459461
1753.000000	29.498850
1752.000000	29.534638
1751.000000	29.544062
1750.000000	29.548297
1749.000000	29.541203
1748.000000	29.512615
1747.000000	29.480109
1746.000000	29.439661
1745.000000	29.363319
1744.000000	29.299684
1743.000000	29.203012
1742.000000	29.081882
1741.000000	28.957893
1740.000000	28.812091
1739.000000	28.652102
1738.000000	28.489465
1737.000000	28.340911
1736.000000	28.228251
1735.000000	28.138780
1734.000000	28.055026
1733.000000	28.009497
1732.000000	28.008544
1731.000000	28.017014
1730.000000	28.051321
1729.000000	28.128615
1728.000000	28.188228
1727.000000	28.263934
1726.000000	28.324499
1725.000000	28.397135
1724.000000	28.463418
1723.000000	28.513924
1722.000000	28.572795
1721.000000	28.628702
1720.000000	28.670526
1719.000000	28.713514
1718.000000	28.801503
1717.000000	28.899339
1716.000000	28.989658
1715.000000	29.076588
1714.000000	29.159388
1713.000000	29.259871
1712.000000	29.344049
1711.000000	29.414249
1710.000000	29.482226
1709.000000	29.525427
1708.000000	29.546921
1707.000000	29.559203
1706.000000	29.544168
1705.000000	29.530403
1704.000000	29.505521
1703.000000	29.448344
1702.000000	29.389790
1701.000000	29.316413
1700.000000	29.219742
1699.000000	29.115341
1698.000000	29.018775
1697.000000	28.905692
1696.000000	28.834962
1695.000000	28.763597
1694.000000	28.734903
1693.000000	28.773973
1692.000000	28.849256
1691.000000	28.913527
1690.000000	29.015175
1689.000000	29.107823
1688.000000	29.194753
1687.000000	29.260930
1686.000000	29.323719
1685.000000	29.393814
1684.000000	29.474179
1683.000000	29.593404
1682.000000	29.760699
1681.000000	30.007725
1680.000000	30.327492
1679.000000	30.682412
1678.000000	31.061792
1677.000000	31.451866
1676.000000	31.826586
1675.000000	32.169224
1674.000000	32.466756
1673.000000	32.724264
1672.000000	32.969066
1671.000000	33.180515
1670.000000	33.352681
1669.000000	33.516694
1668.000000	33.677848
1667.000000	33.784684
1666.000000	33.890568
1665.000000	34.001533
1664.000000	34.111864
1663.000000	34.203770
1662.000000	34.289218
1661.000000	34.349995
1660.000000	34.406007
1659.000000	34.449737
1658.000000	34.522267
1657.000000	34.548420
1656.000000	34.569173
1655.000000	34.588020
1654.000000	34.615338
1653.000000	34.613750
1652.000000	34.581032
1651.000000	34.586538
1650.000000	34.589397
1649.000000	34.568220
1648.000000	34.511043
1647.000000	34.490396
1646.000000	34.457678
1645.000000	34.417443
1644.000000	34.381336
1643.000000	34.354971
1642.000000	34.306477
1641.000000	34.242629
1640.000000	34.199958
1639.000000	34.168617
1638.000000	34.123934
1637.000000	34.081793
1636.000000	34.012439
1635.000000	33.961404
1634.000000	33.892474
1633.000000	33.840803
1632.000000	33.770073
1631.000000	33.715437
1630.000000	33.656460
1629.000000	33.573236
1628.000000	33.506847
1627.000000	33.439717
1626.000000	33.371211
1625.000000	33.306410
