PE UV       SUBTECH     SPECTRUM    ASCII       PEDS        4.00        
   -1
CICIMAUCR0232-2.Sample.ASC
24/06/13
16:37:20.00
24/06/13
16:37:20.00
Vinicio Soto Monge
C. resplendens. Sex M. Dorsal.
250,000000
1
Lambda 1050
1050L1511233
PerkinElmer UV WinLab 6.3.2.0749 / 2.02.05 Lambda 900 UV/VIS/NIR, Aug  7 2015 09:38:08

0
0
3350/servo 860,8/2
0
0
UV/VIS
1
1
1
DoubleDePol,CommonBeamDepol,RBeamAtt,SBeamAtt,60mm sphere, WB InGaAs Detector
0
0
0
0
Program
Program
3350/servo 860,8/2
3350/0,2 860,8/0,2
3350/0,2 860,8/0,2
0
15.00
 
 
 
0
 
860,8
319,2
860,8
Front
100
on
S:100 R:100
0
0
0
0
 
0
 
 
 
0
 
 
0
0
0
0
0
 
 
 
 
0
0


0
0
#HDR
-1
-1
#GR
nm
%R
1.0
0.0
2500,000000
-1,000000
2251
8
91,902200
5,778000
#DATA
2500.000000	8.709667
2499.000000	8.657331
2498.000000	8.731013
2497.000000	8.648300
2496.000000	8.582725
2495.000000	8.534390
2494.000000	8.507196
2493.000000	8.451985
2492.000000	8.546397
2491.000000	8.467892
2490.000000	8.463069
2489.000000	8.416068
2488.000000	8.395339
2487.000000	8.443365
2486.000000	8.420276
2485.000000	8.448907
2484.000000	8.379124
2483.000000	8.386513
2482.000000	8.438953
2481.000000	8.425714
2480.000000	8.457014
2479.000000	8.395441
2478.000000	8.399546
2477.000000	8.397288
2476.000000	8.411245
2475.000000	8.454551
2474.000000	8.434950
2473.000000	8.430332
2472.000000	8.439055
2471.000000	8.438439
2470.000000	8.434745
2469.000000	8.458451
2468.000000	8.501346
2467.000000	8.480925
2466.000000	8.478051
2465.000000	8.493034
2464.000000	8.541266
2463.000000	8.594834
2462.000000	8.606533
2461.000000	8.645632
2460.000000	8.664822
2459.000000	8.688014
2458.000000	8.771856
2457.000000	8.797614
2456.000000	8.876837
2455.000000	8.929585
2454.000000	8.987873
2453.000000	9.067302
2452.000000	9.145910
2451.000000	9.179570
2450.000000	9.247300
2449.000000	9.311951
2448.000000	9.380913
2447.000000	9.478711
2446.000000	9.522017
2445.000000	9.592825
2444.000000	9.687134
2443.000000	9.748912
2442.000000	9.831522
2441.000000	9.905615
2440.000000	9.973345
2439.000000	10.025990
2438.000000	10.112704
2437.000000	10.191107
2436.000000	10.240776
2435.000000	10.292394
2434.000000	10.372541
2433.000000	10.423647
2432.000000	10.476907
2431.000000	10.534580
2430.000000	10.600463
2429.000000	10.669630
2428.000000	10.709652
2427.000000	10.756345
2426.000000	10.819765
2425.000000	10.867483
2424.000000	10.902375
2423.000000	10.932443
2422.000000	10.990116
2421.000000	11.025623
2420.000000	11.064106
2419.000000	11.111619
2418.000000	11.143637
2417.000000	11.178631
2416.000000	11.215575
2415.000000	11.258265
2414.000000	11.293875
2413.000000	11.325379
2412.000000	11.333486
2411.000000	11.371354
2410.000000	11.409426
2409.000000	11.435800
2408.000000	11.464944
2407.000000	11.502298
2406.000000	11.536882
2405.000000	11.562845
2404.000000	11.598967
2403.000000	11.638579
2402.000000	11.664132
2401.000000	11.671315
2400.000000	11.718624
2399.000000	11.737917
2398.000000	11.758646
2397.000000	11.790664
2396.000000	11.802978
2395.000000	11.816730
2394.000000	11.844232
2393.000000	11.887230
2392.000000	11.917093
2391.000000	11.937515
2390.000000	11.957218
2389.000000	11.958347
2388.000000	11.978563
2387.000000	11.995085
2386.000000	11.997856
2385.000000	12.013044
2384.000000	12.028848
2383.000000	12.018175
2382.000000	12.017252
2381.000000	12.030079
2380.000000	12.028027
2379.000000	12.016738
2378.000000	12.022690
2377.000000	12.002987
2376.000000	11.984002
2375.000000	11.976408
2374.000000	11.958347
2373.000000	11.935565
2372.000000	11.918735
2371.000000	11.896261
2370.000000	11.866706
2369.000000	11.847824
2368.000000	11.824632
2367.000000	11.772089
2366.000000	11.733812
2365.000000	11.705386
2364.000000	11.658898
2363.000000	11.599378
2362.000000	11.543655
2361.000000	11.480748
2360.000000	11.429437
2359.000000	11.379461
2358.000000	11.328047
2357.000000	11.281663
2356.000000	11.237330
2355.000000	11.203671
2354.000000	11.168061
2353.000000	11.132657
2352.000000	11.122497
2351.000000	11.112851
2350.000000	11.095200
2349.000000	11.109567
2348.000000	11.128449
2347.000000	11.152463
2346.000000	11.176681
2345.000000	11.198129
2344.000000	11.228197
2343.000000	11.278379
2342.000000	11.321274
2341.000000	11.351240
2340.000000	11.381924
2339.000000	11.409631
2338.000000	11.440315
2337.000000	11.464226
2336.000000	11.467612
2335.000000	11.451911
2334.000000	11.446164
2333.000000	11.433234
2332.000000	11.416712
2331.000000	11.393212
2330.000000	11.356576
2329.000000	11.319633
2328.000000	11.268014
2327.000000	11.211778
2326.000000	11.155336
2325.000000	11.084014
2324.000000	11.004483
2323.000000	10.921770
2322.000000	10.846549
2321.000000	10.768044
2320.000000	10.682457
2319.000000	10.576347
2318.000000	10.462951
2317.000000	10.358072
2316.000000	10.256374
2315.000000	10.126148
2314.000000	10.008749
2313.000000	9.914851
2312.000000	9.807612
2311.000000	9.699038
2310.000000	9.612631
2309.000000	9.541104
2308.000000	9.487536
2307.000000	9.437457
2306.000000	9.396203
2305.000000	9.381631
2304.000000	9.391688
2303.000000	9.415188
2302.000000	9.470090
2301.000000	9.520067
2300.000000	9.565118
2299.000000	9.637260
2298.000000	9.715971
2297.000000	9.803199
2296.000000	9.892069
2295.000000	9.972011
2294.000000	10.055031
2293.000000	10.131484
2292.000000	10.215120
2291.000000	10.267457
2290.000000	10.305735
2289.000000	10.324309
2288.000000	10.360124
2287.000000	10.361971
2286.000000	10.364537
2285.000000	10.360535
2284.000000	10.337445
2283.000000	10.299372
2282.000000	10.262326
2281.000000	10.231642
2280.000000	10.173046
2279.000000	10.147185
2278.000000	10.079660
2277.000000	10.045180
2276.000000	9.998795
2275.000000	9.958260
2274.000000	9.921213
2273.000000	9.900689
2272.000000	9.887348
2271.000000	9.894327
2270.000000	9.894429
2269.000000	9.917211
2268.000000	9.952513
2267.000000	10.008954
2266.000000	10.101827
2265.000000	10.186489
2264.000000	10.290752
2263.000000	10.434525
2262.000000	10.602926
2261.000000	10.773790
2260.000000	10.955943
2259.000000	11.175552
2258.000000	11.379974
2257.000000	11.620826
2256.000000	11.843001
2255.000000	12.100067
2254.000000	12.330349
2253.000000	12.561144
2252.000000	12.784756
2251.000000	13.017295
2250.000000	13.241112
2249.000000	13.438863
2248.000000	13.637640
2247.000000	13.801527
2246.000000	13.994454
2245.000000	14.142639
2244.000000	14.289388
2243.000000	14.430287
2242.000000	14.562052
2241.000000	14.664776
2240.000000	14.794489
2239.000000	14.876689
2238.000000	14.987828
2237.000000	15.093014
2236.000000	15.138578
2235.000000	15.217391
2234.000000	15.281016
2233.000000	15.345770
2232.000000	15.387127
2231.000000	15.422531
2230.000000	15.450752
2229.000000	15.482359
2228.000000	15.502986
2227.000000	15.516737
2226.000000	15.518790
2225.000000	15.517764
2224.000000	15.512530
2223.000000	15.491390
2222.000000	15.489030
2221.000000	15.462861
2220.000000	15.439977
2219.000000	15.408985
2218.000000	15.403751
2217.000000	15.357572
2216.000000	15.313753
2215.000000	15.293536
2214.000000	15.275988
2213.000000	15.208874
2212.000000	15.199740
2211.000000	15.168544
2210.000000	15.151098
2209.000000	15.108100
2208.000000	15.096709
2207.000000	15.070643
2206.000000	15.046322
2205.000000	15.032365
2204.000000	14.999013
2203.000000	14.996243
2202.000000	14.957247
2201.000000	14.936825
2200.000000	14.927281
2199.000000	14.905525
2198.000000	14.892903
2197.000000	14.872071
2196.000000	14.885822
2195.000000	14.850726
2194.000000	14.855959
2193.000000	14.827328
2192.000000	14.812243
2191.000000	14.789769
2190.000000	14.781764
2189.000000	14.785767
2188.000000	14.764011
2187.000000	14.741742
2186.000000	14.721526
2185.000000	14.706132
2184.000000	14.708903
2183.000000	14.686327
2182.000000	14.680169
2181.000000	14.666521
2180.000000	14.648357
2179.000000	14.628859
2178.000000	14.612850
2177.000000	14.596841
2176.000000	14.592018
2175.000000	14.593454
2174.000000	14.583911
2173.000000	14.581653
2172.000000	14.594788
2171.000000	14.583090
2170.000000	14.595096
2169.000000	14.604435
2168.000000	14.626191
2167.000000	14.631732
2166.000000	14.657285
2165.000000	14.675962
2164.000000	14.684274
2163.000000	14.723886
2162.000000	14.746976
2161.000000	14.774581
2160.000000	14.811832
2159.000000	14.828662
2158.000000	14.881409
2157.000000	14.903268
2156.000000	14.942161
2155.000000	14.978079
2154.000000	15.037702
2153.000000	15.068898
2152.000000	15.112615
2151.000000	15.152740
2150.000000	15.204051
2149.000000	15.250333
2148.000000	15.288610
2147.000000	15.337663
2146.000000	15.373889
2145.000000	15.431049
2144.000000	15.486259
2143.000000	15.523305
2142.000000	15.559017
2141.000000	15.594114
2140.000000	15.645219
2139.000000	15.665128
2138.000000	15.706176
2137.000000	15.739733
2136.000000	15.761284
2135.000000	15.799972
2134.000000	15.812389
2133.000000	15.827269
2132.000000	15.849538
2131.000000	15.879401
2130.000000	15.888534
2129.000000	15.891305
2128.000000	15.903312
2127.000000	15.891715
2126.000000	15.908443
2125.000000	15.908237
2124.000000	15.890279
2123.000000	15.894999
2122.000000	15.890894
2121.000000	15.874167
2120.000000	15.868933
2119.000000	15.854361
2118.000000	15.827988
2117.000000	15.814339
2116.000000	15.798330
2115.000000	15.758616
2114.000000	15.725674
2113.000000	15.700635
2112.000000	15.680008
2111.000000	15.650350
2110.000000	15.613099
2109.000000	15.579849
2108.000000	15.553989
2107.000000	15.544343
2106.000000	15.508836
2105.000000	15.490569
2104.000000	15.448392
2103.000000	15.415348
2102.000000	15.378507
2101.000000	15.344231
2100.000000	15.309443
2099.000000	15.270960
2098.000000	15.248588
2097.000000	15.215134
2096.000000	15.193378
2095.000000	15.179627
2094.000000	15.154998
2093.000000	15.131908
2092.000000	15.111897
2091.000000	15.089217
2090.000000	15.054018
2089.000000	15.032776
2088.000000	15.024566
2087.000000	14.997371
2086.000000	14.968432
2085.000000	14.949858
2084.000000	14.932720
2083.000000	14.899368
2082.000000	14.871660
2081.000000	14.851034
2080.000000	14.814808
2079.000000	14.763292
2078.000000	14.731172
2077.000000	14.709622
2076.000000	14.660671
2075.000000	14.614184
2074.000000	14.573033
2073.000000	14.527982
2072.000000	14.486010
2071.000000	14.443217
2070.000000	14.390675
2069.000000	14.331873
2068.000000	14.272147
2067.000000	14.226891
2066.000000	14.193026
2065.000000	14.139048
2064.000000	14.087634
2063.000000	14.035708
2062.000000	13.994249
2061.000000	13.945915
2060.000000	13.905790
2059.000000	13.879006
2058.000000	13.849040
2057.000000	13.819690
2056.000000	13.803989
2055.000000	13.815996
2054.000000	13.813944
2053.000000	13.809120
2052.000000	13.812917
2051.000000	13.835289
2050.000000	13.879108
2049.000000	13.935037
2048.000000	13.989734
2047.000000	14.051717
2046.000000	14.129914
2045.000000	14.193437
2044.000000	14.270813
2043.000000	14.358247
2042.000000	14.433673
2041.000000	14.535884
2040.000000	14.626909
2039.000000	14.711879
2038.000000	14.782277
2037.000000	14.844774
2036.000000	14.931078
2035.000000	15.009994
2034.000000	15.077724
2033.000000	15.133139
2032.000000	15.179729
2031.000000	15.243970
2030.000000	15.299386
2029.000000	15.347823
2028.000000	15.376967
2027.000000	15.419350
2026.000000	15.460090
2025.000000	15.484309
2024.000000	15.510991
2023.000000	15.544343
2022.000000	15.560762
2021.000000	15.582004
2020.000000	15.592472
2019.000000	15.603658
2018.000000	15.613509
2017.000000	15.616588
2016.000000	15.626439
2015.000000	15.627979
2014.000000	15.625824
2013.000000	15.623771
2012.000000	15.604786
2011.000000	15.596269
2010.000000	15.579028
2009.000000	15.546600
2008.000000	15.531823
2007.000000	15.500934
2006.000000	15.461527
2005.000000	15.431049
2004.000000	15.371631
2003.000000	15.320628
2002.000000	15.285327
2001.000000	15.237402
2000.000000	15.202409
1999.000000	15.141862
1998.000000	15.076698
1997.000000	14.996243
1996.000000	14.937543
1995.000000	14.870942
1994.000000	14.807727
1993.000000	14.726965
1992.000000	14.657080
1991.000000	14.610797
1990.000000	14.519157
1989.000000	14.418075
1988.000000	14.368098
1987.000000	14.262706
1986.000000	14.188203
1985.000000	14.103028
1984.000000	14.011284
1983.000000	13.908047
1982.000000	13.823898
1981.000000	13.752371
1980.000000	13.668940
1979.000000	13.560059
1978.000000	13.473960
1977.000000	13.378830
1976.000000	13.326801
1975.000000	13.233313
1974.000000	13.150703
1973.000000	13.075892
1972.000000	12.981994
1971.000000	12.905643
1970.000000	12.814824
1969.000000	12.734369
1968.000000	12.663457
1967.000000	12.573048
1966.000000	12.507678
1965.000000	12.410291
1964.000000	12.317829
1963.000000	12.259951
1962.000000	12.197967
1961.000000	12.111971
1960.000000	12.051117
1959.000000	11.976203
1958.000000	11.898724
1957.000000	11.820835
1956.000000	11.745511
1955.000000	11.670289
1954.000000	11.614771
1953.000000	11.546528
1952.000000	11.486392
1951.000000	11.425435
1950.000000	11.379563
1949.000000	11.306189
1948.000000	11.235483
1947.000000	11.208802
1946.000000	11.149179
1945.000000	11.101768
1944.000000	11.067082
1943.000000	11.017310
1942.000000	10.999147
1941.000000	10.953070
1940.000000	10.947118
1939.000000	10.917563
1938.000000	10.924028
1937.000000	10.936548
1936.000000	10.919102
1935.000000	10.928851
1934.000000	10.944552
1933.000000	10.945681
1932.000000	10.971952
1931.000000	11.017721
1930.000000	11.024904
1929.000000	11.116340
1928.000000	11.191048
1927.000000	11.245540
1926.000000	11.335641
1925.000000	11.431284
1924.000000	11.512047
1923.000000	11.582445
1922.000000	11.687324
1921.000000	11.821758
1920.000000	11.970969
1919.000000	12.128903
1918.000000	12.256154
1917.000000	12.402184
1916.000000	12.520198
1915.000000	12.640573
1914.000000	12.796044
1913.000000	13.001902
1912.000000	13.249219
1911.000000	13.473549
1910.000000	13.641540
1909.000000	13.822256
1908.000000	13.981627
1907.000000	14.186356
1906.000000	14.428953
1905.000000	14.710545
1904.000000	15.037291
1903.000000	15.316010
1902.000000	15.573282
1901.000000	15.836608
1900.000000	16.137801
1899.000000	16.460237
1898.000000	16.821156
1897.000000	17.153854
1896.000000	17.456791
1895.000000	17.724222
1894.000000	17.991961
1893.000000	18.332663
1892.000000	18.675829
1891.000000	19.107248
1890.000000	19.547083
1889.000000	19.945048
1888.000000	20.340550
1887.000000	20.758424
1886.000000	21.163162
1885.000000	21.600328
1884.000000	22.074438
1883.000000	22.620588
1882.000000	23.179258
1881.000000	23.658602
1880.000000	24.178583
1879.000000	24.670857
1878.000000	25.132345
1877.000000	25.603992
1876.000000	26.092982
1875.000000	26.526659
1874.000000	26.952024
1873.000000	27.370616
1872.000000	27.773917
1871.000000	28.166751
1870.000000	28.518126
1869.000000	28.835842
1868.000000	29.128928
1867.000000	29.330681
1866.000000	29.529561
1865.000000	29.665226
1864.000000	29.798326
1863.000000	29.912954
1862.000000	30.022759
1861.000000	30.167968
1860.000000	30.318000
1859.000000	30.452331
1858.000000	30.551053
1857.000000	30.655624
1856.000000	30.715246
1855.000000	30.737823
1854.000000	30.790263
1853.000000	30.823409
1852.000000	30.817970
1851.000000	30.818381
1850.000000	30.817457
1849.000000	30.835005
1848.000000	30.867126
1847.000000	30.869076
1846.000000	30.869383
1845.000000	30.819817
1844.000000	30.762452
1843.000000	30.710834
1842.000000	30.691438
1841.000000	30.709192
1840.000000	30.726330
1839.000000	30.716478
1838.000000	30.692670
1837.000000	30.654803
1836.000000	30.617551
1835.000000	30.593846
1834.000000	30.534325
1833.000000	30.451613
1832.000000	30.370747
1831.000000	30.327133
1830.000000	30.290908
1829.000000	30.233953
1828.000000	30.191878
1827.000000	30.115733
1826.000000	30.053545
1825.000000	30.016293
1824.000000	29.944972
1823.000000	29.889351
1822.000000	29.846455
1821.000000	29.845019
1820.000000	29.872111
1819.000000	29.865543
1818.000000	29.815156
1817.000000	29.765590
1816.000000	29.748760
1815.000000	29.737369
1814.000000	29.712945
1813.000000	29.706788
1812.000000	29.696423
1811.000000	29.663071
1810.000000	29.638339
1809.000000	29.609606
1808.000000	29.564863
1807.000000	29.516425
1806.000000	29.489436
1805.000000	29.455571
1804.000000	29.404568
1803.000000	29.368240
1802.000000	29.321343
1801.000000	29.277215
1800.000000	29.242016
1799.000000	29.183522
1798.000000	29.131391
1797.000000	29.078746
1796.000000	29.019020
1795.000000	28.975099
1794.000000	28.936205
1793.000000	28.893515
1792.000000	28.836868
1791.000000	28.793870
1790.000000	28.749024
1789.000000	28.688991
1788.000000	28.641580
1787.000000	28.598171
1786.000000	28.552197
1785.000000	28.495344
1784.000000	28.432745
1783.000000	28.380717
1782.000000	28.325917
1781.000000	28.251619
1780.000000	28.181631
1779.000000	28.118622
1778.000000	28.065772
1777.000000	28.002763
1776.000000	27.915945
1775.000000	27.832001
1774.000000	27.739129
1773.000000	27.649848
1772.000000	27.548151
1771.000000	27.446145
1770.000000	27.347834
1769.000000	27.244187
1768.000000	27.141258
1767.000000	27.043357
1766.000000	26.965057
1765.000000	26.877213
1764.000000	26.800247
1763.000000	26.770385
1762.000000	26.745242
1761.000000	26.761662
1760.000000	26.803121
1759.000000	26.842630
1758.000000	26.890451
1757.000000	26.949664
1756.000000	27.023756
1755.000000	27.080814
1754.000000	27.121349
1753.000000	27.160242
1752.000000	27.190618
1751.000000	27.209911
1750.000000	27.201394
1749.000000	27.188976
1748.000000	27.153367
1747.000000	27.102364
1746.000000	27.046743
1745.000000	26.967520
1744.000000	26.860383
1743.000000	26.741548
1742.000000	26.607833
1741.000000	26.445794
1740.000000	26.260357
1739.000000	26.054088
1738.000000	25.850283
1737.000000	25.657252
1736.000000	25.492648
1735.000000	25.358419
1734.000000	25.231066
1733.000000	25.161387
1732.000000	25.139118
1731.000000	25.153895
1730.000000	25.182219
1729.000000	25.242252
1728.000000	25.316755
1727.000000	25.416503
1726.000000	25.501781
1725.000000	25.576797
1724.000000	25.633649
1723.000000	25.704048
1722.000000	25.746020
1721.000000	25.792404
1720.000000	25.840842
1719.000000	25.902312
1718.000000	25.962140
1717.000000	26.033564
1716.000000	26.104373
1715.000000	26.182160
1714.000000	26.282523
1713.000000	26.413468
1712.000000	26.491050
1711.000000	26.566784
1710.000000	26.630820
1709.000000	26.683977
1708.000000	26.691161
1707.000000	26.710043
1706.000000	26.691161
1705.000000	26.667661
1704.000000	26.632872
1703.000000	26.584845
1702.000000	26.525838
1701.000000	26.442305
1700.000000	26.307050
1699.000000	26.194269
1698.000000	26.058296
1697.000000	25.932790
1696.000000	25.830785
1695.000000	25.728677
1694.000000	25.689681
1693.000000	25.710205
1692.000000	25.777422
1691.000000	25.866907
1690.000000	26.009859
1689.000000	26.135262
1688.000000	26.247016
1687.000000	26.312694
1686.000000	26.364210
1685.000000	26.419420
1684.000000	26.485303
1683.000000	26.572018
1682.000000	26.736930
1681.000000	26.999127
1680.000000	27.351734
1679.000000	27.773199
1678.000000	28.229966
1677.000000	28.698329
1676.000000	29.132725
1675.000000	29.551625
1674.000000	29.908541
1673.000000	30.209734
1672.000000	30.495329
1671.000000	30.732487
1670.000000	30.935369
1669.000000	31.126552
1668.000000	31.288386
1667.000000	31.419844
1666.000000	31.529546
1665.000000	31.660798
1664.000000	31.767627
1663.000000	31.866554
1662.000000	31.949677
1661.000000	32.037213
1660.000000	32.107714
1659.000000	32.133266
1658.000000	32.209924
1657.000000	32.234451
1656.000000	32.261851
1655.000000	32.269650
1654.000000	32.304541
1653.000000	32.305362
1652.000000	32.301462
1651.000000	32.290892
1650.000000	32.277449
1649.000000	32.243379
1648.000000	32.222649
1647.000000	32.174725
1646.000000	32.162103
1645.000000	32.112639
1644.000000	32.072104
1643.000000	32.043165
1642.000000	31.988673
1641.000000	31.951524
1640.000000	31.890978
1639.000000	31.820272
1638.000000	31.779941
1637.000000	31.728631
1636.000000	31.650844
1635.000000	31.598507
1634.000000	31.546068
1633.000000	31.484187
1632.000000	31.410403
1631.000000	31.348522
1630.000000	31.264270
1629.000000	31.202492
1628.000000	31.110133
1627.000000	31.043121
1626.000000	30.953943
1625.000000	30.872667
1624.000000	30.806579
1623.000000	30.716888
1622.000000	30.657265
1621.000000	30.577324
