PE UV       SUBTECH     SPECTRUM    ASCII       PEDS        4.00        
   -1
CICIMAUCR0257-2.Sample.ASC
24/06/26
13:49:23.00
24/06/26
13:49:23.00
Vinicio Soto Monge
C. resplendens. Sex F. Dorsal.
250,000000
1
Lambda 1050
1050L1511233
PerkinElmer UV WinLab 6.3.2.0749 / 2.02.05 Lambda 900 UV/VIS/NIR, Aug  7 2015 09:38:08

0
0
3350/servo 860,8/2
0
0
UV/VIS
1
1
1
DoubleDePol,CommonBeamDepol,RBeamAtt,SBeamAtt,60mm sphere, WB InGaAs Detector
0
0
0
0
Program
Program
3350/servo 860,8/2
3350/0,2 860,8/0,2
3350/0,2 860,8/0,2
0
15.00
 
 
 
0
 
860,8
319,2
860,8
Front
100
on
S:100 R:100
0
0
0
0
 
0
 
 
 
0
 
 
0
0
0
0
0
 
 
 
 
0
0


0
0
#HDR
-1
-1
#GR
nm
%R
1.0
0.0
2500,000000
-1,000000
2251
8
90,525700
5,794300
#DATA
2482.000000	8.726491
2481.000000	8.767843
2480.000000	8.689417
2479.000000	8.758677
2478.000000	8.718954
2477.000000	8.791371
2476.000000	8.780066
2475.000000	8.749815
2474.000000	8.771306
2473.000000	8.716408
2472.000000	8.705510
2471.000000	8.753482
2470.000000	8.772630
2469.000000	8.758575
2468.000000	8.746658
2467.000000	8.753177
2466.000000	8.751751
2465.000000	8.768149
2464.000000	8.764075
2463.000000	8.854723
2462.000000	8.861038
2461.000000	8.889964
2460.000000	8.921640
2459.000000	8.961362
2458.000000	8.991511
2457.000000	9.028992
2456.000000	9.091122
2455.000000	9.138585
2454.000000	9.216910
2453.000000	9.265595
2452.000000	9.299817
2451.000000	9.360521
2450.000000	9.459827
2449.000000	9.523383
2448.000000	9.586633
2447.000000	9.650902
2446.000000	9.716291
2445.000000	9.773328
2444.000000	9.834847
2443.000000	9.927125
2442.000000	9.990171
2441.000000	10.051690
2440.000000	10.137450
2439.000000	10.218015
2438.000000	10.265070
2437.000000	10.325367
2436.000000	10.373441
2435.000000	10.447488
2434.000000	10.499330
2433.000000	10.552294
2432.000000	10.613201
2431.000000	10.650072
2430.000000	10.696109
2429.000000	10.743776
2428.000000	10.763128
2427.000000	10.834730
2426.000000	10.877508
2425.000000	10.906739
2424.000000	10.933832
2423.000000	10.970499
2422.000000	11.002582
2421.000000	11.038943
2420.000000	11.075712
2419.000000	11.119508
2418.000000	11.140490
2417.000000	11.149657
2416.000000	11.180212
2415.000000	11.208833
2414.000000	11.224518
2413.000000	11.238879
2412.000000	11.254564
2411.000000	11.298157
2410.000000	11.307120
2409.000000	11.322703
2408.000000	11.361305
2407.000000	11.366805
2406.000000	11.385241
2405.000000	11.406120
2404.000000	11.433111
2403.000000	11.460204
2402.000000	11.480982
2401.000000	11.493102
2400.000000	11.512760
2399.000000	11.539139
2398.000000	11.564501
2397.000000	11.600149
2396.000000	11.611251
2395.000000	11.630603
2394.000000	11.636510
2393.000000	11.649343
2392.000000	11.656168
2391.000000	11.660343
2390.000000	11.684992
2389.000000	11.700982
2388.000000	11.710149
2387.000000	11.725834
2386.000000	11.724816
2385.000000	11.720131
2384.000000	11.729196
2383.000000	11.731946
2382.000000	11.731334
2381.000000	11.708010
2380.000000	11.682344
2379.000000	11.691103
2378.000000	11.674501
2377.000000	11.648223
2376.000000	11.635186
2375.000000	11.611047
2374.000000	11.583751
2373.000000	11.562565
2372.000000	11.537713
2371.000000	11.501861
2370.000000	11.457759
2369.000000	11.433824
2368.000000	11.397667
2367.000000	11.343787
2366.000000	11.301009
2365.000000	11.254564
2364.000000	11.210361
2363.000000	11.164934
2362.000000	11.099545
2361.000000	11.036804
2360.000000	10.988628
2359.000000	10.938415
2358.000000	10.891563
2357.000000	10.843998
2356.000000	10.799285
2355.000000	10.775350
2354.000000	10.744896
2353.000000	10.714340
2352.000000	10.710266
2351.000000	10.711285
2350.000000	10.722183
2349.000000	10.731044
2348.000000	10.744489
2347.000000	10.776368
2346.000000	10.810998
2345.000000	10.834933
2344.000000	10.859276
2343.000000	10.910610
2342.000000	10.937499
2341.000000	10.960823
2340.000000	10.981397
2339.000000	10.998304
2338.000000	11.018369
2337.000000	11.035786
2336.000000	11.029980
2335.000000	11.014804
2334.000000	11.002073
2333.000000	10.976712
2332.000000	10.964082
2331.000000	10.930878
2330.000000	10.891563
2329.000000	10.832794
2328.000000	10.795313
2327.000000	10.734609
2326.000000	10.666062
2325.000000	10.612183
2324.000000	10.541599
2323.000000	10.467043
2322.000000	10.396969
2321.000000	10.305608
2320.000000	10.224126
2319.000000	10.135005
2318.000000	10.041505
2317.000000	9.946069
2316.000000	9.850023
2315.000000	9.768948
2314.000000	9.666180
2313.000000	9.566263
2312.000000	9.478059
2311.000000	9.411244
2310.000000	9.359197
2309.000000	9.309595
2308.000000	9.290752
2307.000000	9.240437
2306.000000	9.233410
2305.000000	9.231576
2304.000000	9.238808
2303.000000	9.281178
2302.000000	9.334141
2301.000000	9.378447
2300.000000	9.448318
2299.000000	9.513299
2298.000000	9.589281
2297.000000	9.657318
2296.000000	9.734522
2295.000000	9.802560
2294.000000	9.861736
2293.000000	9.923764
2292.000000	9.971838
2291.000000	10.011255
2290.000000	10.046190
2289.000000	10.077662
2288.000000	10.096607
2287.000000	10.088662
2286.000000	10.095588
2285.000000	10.071857
2284.000000	10.065848
2283.000000	10.046190
2282.000000	9.996282
2281.000000	9.965218
2280.000000	9.925393
2279.000000	9.891578
2278.000000	9.852162
2277.000000	9.807550
2276.000000	9.777708
2275.000000	9.775976
2274.000000	9.741652
2273.000000	9.730856
2272.000000	9.714967
2271.000000	9.741958
2270.000000	9.753467
2269.000000	9.771291
2268.000000	9.802865
2267.000000	9.874060
2266.000000	9.959718
2265.000000	10.055459
2264.000000	10.162505
2263.000000	10.301839
2262.000000	10.454210
2261.000000	10.625831
2260.000000	10.793378
2259.000000	10.972230
2258.000000	11.204657
2257.000000	11.407444
2256.000000	11.613491
2255.000000	11.820353
2254.000000	12.032206
2253.000000	12.265447
2252.000000	12.467522
2251.000000	12.665013
2250.000000	12.876866
2249.000000	13.063154
2248.000000	13.242923
2247.000000	13.408738
2246.000000	13.572414
2245.000000	13.711850
2244.000000	13.870027
2243.000000	13.981657
2242.000000	14.106120
2241.000000	14.220500
2240.000000	14.308500
2239.000000	14.420639
2238.000000	14.516482
2237.000000	14.591751
2236.000000	14.659788
2235.000000	14.754511
2234.000000	14.806863
2233.000000	14.867872
2232.000000	14.922974
2231.000000	14.950067
2230.000000	14.967789
2229.000000	15.022280
2228.000000	15.032567
2227.000000	15.078706
2226.000000	15.063530
2225.000000	15.063225
2224.000000	15.065160
2223.000000	15.048660
2222.000000	15.055993
2221.000000	15.054975
2220.000000	15.032364
2219.000000	14.995901
2218.000000	14.985104
2217.000000	14.963512
2216.000000	14.941104
2215.000000	14.900363
2214.000000	14.887021
2213.000000	14.848520
2212.000000	14.817048
2211.000000	14.801159
2210.000000	14.760113
2209.000000	14.741066
2208.000000	14.721103
2207.000000	14.711937
2206.000000	14.703687
2205.000000	14.675372
2204.000000	14.663353
2203.000000	14.635242
2202.000000	14.640946
2201.000000	14.624446
2200.000000	14.616909
2199.000000	14.578918
2198.000000	14.586862
2197.000000	14.568121
2196.000000	14.585233
2195.000000	14.558242
2194.000000	14.539297
2193.000000	14.555390
2192.000000	14.522186
2191.000000	14.519742
2190.000000	14.498251
2189.000000	14.498556
2188.000000	14.480529
2187.000000	14.466778
2186.000000	14.478797
2185.000000	14.459140
2184.000000	14.436834
2183.000000	14.417686
2182.000000	14.415547
2181.000000	14.402204
2180.000000	14.385500
2179.000000	14.383362
2178.000000	14.360445
2177.000000	14.363195
2176.000000	14.354537
2175.000000	14.360547
2174.000000	14.351787
2173.000000	14.336510
2172.000000	14.334676
2171.000000	14.321537
2170.000000	14.339463
2169.000000	14.367676
2168.000000	14.350565
2167.000000	14.355963
2166.000000	14.371241
2165.000000	14.382343
2164.000000	14.378676
2163.000000	14.417584
2162.000000	14.441723
2161.000000	14.453028
2160.000000	14.485723
2159.000000	14.508029
2158.000000	14.545510
2157.000000	14.574844
2156.000000	14.616399
2155.000000	14.656937
2154.000000	14.700427
2153.000000	14.746159
2152.000000	14.786289
2151.000000	14.818067
2150.000000	14.872863
2149.000000	14.913197
2148.000000	14.970743
2147.000000	15.024215
2146.000000	15.044891
2145.000000	15.069642
2144.000000	15.122910
2143.000000	15.161003
2142.000000	15.205818
2141.000000	15.257559
2140.000000	15.284550
2139.000000	15.319689
2138.000000	15.359004
2137.000000	15.395263
2136.000000	15.420115
2135.000000	15.442624
2134.000000	15.481634
2133.000000	15.522986
2132.000000	15.530013
2131.000000	15.558226
2130.000000	15.590819
2129.000000	15.606199
2128.000000	15.631458
2127.000000	15.639301
2126.000000	15.651421
2125.000000	15.659060
2124.000000	15.678208
2123.000000	15.668736
2122.000000	15.672301
2121.000000	15.672505
2120.000000	15.678921
2119.000000	15.668634
2118.000000	15.662829
2117.000000	15.655801
2116.000000	15.643884
2115.000000	15.640523
2114.000000	15.618319
2113.000000	15.614347
2112.000000	15.592449
2111.000000	15.566680
2110.000000	15.559347
2109.000000	15.550078
2108.000000	15.532763
2107.000000	15.501699
2106.000000	15.484995
2105.000000	15.462791
2104.000000	15.448124
2103.000000	15.440078
2102.000000	15.417467
2101.000000	15.399032
2100.000000	15.389559
2099.000000	15.361448
2098.000000	15.336494
2097.000000	15.331707
2096.000000	15.326818
2095.000000	15.307161
2094.000000	15.288929
2093.000000	15.278337
2092.000000	15.271513
2091.000000	15.268050
2090.000000	15.243300
2089.000000	15.233725
2088.000000	15.248290
2087.000000	15.241466
2086.000000	15.223438
2085.000000	15.208568
2084.000000	15.201438
2083.000000	15.193596
2082.000000	15.184123
2081.000000	15.175262
2080.000000	15.160494
2079.000000	15.135234
2078.000000	15.120568
2077.000000	15.100299
2076.000000	15.079114
2075.000000	15.067605
2074.000000	15.044993
2073.000000	15.007919
2072.000000	14.971660
2071.000000	14.957095
2070.000000	14.938558
2069.000000	14.908206
2068.000000	14.880095
2067.000000	14.845669
2066.000000	14.819187
2065.000000	14.793622
2064.000000	14.770604
2063.000000	14.728131
2062.000000	14.705418
2061.000000	14.707964
2060.000000	14.690344
2059.000000	14.672316
2058.000000	14.658872
2057.000000	14.669261
2056.000000	14.684844
2055.000000	14.705520
2054.000000	14.718863
2053.000000	14.749215
2052.000000	14.802789
2051.000000	14.861659
2050.000000	14.920224
2049.000000	14.979910
2048.000000	15.066382
2047.000000	15.162836
2046.000000	15.264587
2045.000000	15.375300
2044.000000	15.485097
2043.000000	15.594282
2042.000000	15.713958
2041.000000	15.820190
2040.000000	15.933450
2039.000000	16.036117
2038.000000	16.143673
2037.000000	16.259071
2036.000000	16.367849
2035.000000	16.474896
2034.000000	16.572776
2033.000000	16.655073
2032.000000	16.733906
2031.000000	16.822619
2030.000000	16.906749
2029.000000	16.968777
2028.000000	17.058000
2027.000000	17.142333
2026.000000	17.220963
2025.000000	17.260889
2024.000000	17.295315
2023.000000	17.365084
2022.000000	17.436177
2021.000000	17.473760
2020.000000	17.498103
2019.000000	17.544038
2018.000000	17.603826
2017.000000	17.649456
2016.000000	17.682557
2015.000000	17.708733
2014.000000	17.743567
2013.000000	17.766789
2012.000000	17.791641
2011.000000	17.803965
2010.000000	17.818123
2009.000000	17.811808
2008.000000	17.805493
2007.000000	17.818021
2006.000000	17.813743
2005.000000	17.794086
2004.000000	17.783799
2003.000000	17.765873
2002.000000	17.748965
2001.000000	17.731243
2000.000000	17.699261
1999.000000	17.667076
1998.000000	17.632650
1997.000000	17.590178
1996.000000	17.531409
1995.000000	17.491992
1994.000000	17.448909
1993.000000	17.410510
1992.000000	17.340538
1991.000000	17.285130
1990.000000	17.217806
1989.000000	17.171361
1988.000000	17.092833
1987.000000	17.040685
1986.000000	16.973463
1985.000000	16.896259
1984.000000	16.846351
1983.000000	16.753767
1982.000000	16.692351
1981.000000	16.622174
1980.000000	16.544970
1979.000000	16.464304
1978.000000	16.398303
1977.000000	16.333322
1976.000000	16.246238
1975.000000	16.192154
1974.000000	16.106599
1973.000000	16.029700
1972.000000	15.966043
1971.000000	15.885070
1970.000000	15.836385
1969.000000	15.746857
1968.000000	15.702042
1967.000000	15.639403
1966.000000	15.555069
1965.000000	15.510152
1964.000000	15.431013
1963.000000	15.378050
1962.000000	15.307568
1961.000000	15.229753
1960.000000	15.187485
1959.000000	15.115271
1958.000000	15.044993
1957.000000	15.008225
1956.000000	14.927761
1955.000000	14.875409
1954.000000	14.823974
1953.000000	14.767242
1952.000000	14.697881
1951.000000	14.646242
1950.000000	14.566797
1949.000000	14.534510
1948.000000	14.470853
1947.000000	14.410760
1946.000000	14.400167
1945.000000	14.369000
1944.000000	14.311352
1943.000000	14.286908
1942.000000	14.263991
1941.000000	14.232111
1940.000000	14.232926
1939.000000	14.216528
1938.000000	14.224880
1937.000000	14.211130
1936.000000	14.225491
1935.000000	14.243009
1934.000000	14.278658
1933.000000	14.280796
1932.000000	14.323880
1931.000000	14.358306
1930.000000	14.400880
1929.000000	14.482158
1928.000000	14.568733
1927.000000	14.648890
1926.000000	14.715807
1925.000000	14.841391
1924.000000	14.941104
1923.000000	15.027475
1922.000000	15.125558
1921.000000	15.264688
1920.000000	15.432133
1919.000000	15.627792
1918.000000	15.753172
1917.000000	15.899126
1916.000000	16.067080
1915.000000	16.181867
1914.000000	16.323951
1913.000000	16.532850
1912.000000	16.791147
1911.000000	17.027750
1910.000000	17.176861
1909.000000	17.377510
1908.000000	17.559214
1907.000000	17.741530
1906.000000	17.982308
1905.000000	18.227772
1904.000000	18.551662
1903.000000	18.803848
1902.000000	19.060516
1901.000000	19.324720
1900.000000	19.550221
1899.000000	19.857203
1898.000000	20.191482
1897.000000	20.431344
1896.000000	20.714188
1895.000000	20.970040
1894.000000	21.195032
1893.000000	21.447320
1892.000000	21.728330
1891.000000	22.061794
1890.000000	22.395462
1889.000000	22.688694
1888.000000	22.956260
1887.000000	23.279233
1886.000000	23.598641
1885.000000	23.954920
1884.000000	24.350514
1883.000000	24.771673
1882.000000	25.218295
1881.000000	25.633139
1880.000000	26.093816
1879.000000	26.503364
1878.000000	26.893763
1877.000000	27.308404
1876.000000	27.691164
1875.000000	28.041026
1874.000000	28.370314
1873.000000	28.720890
1872.000000	29.026650
1871.000000	29.308780
1870.000000	29.560253
1869.000000	29.765995
1868.000000	29.986912
1867.000000	30.128283
1866.000000	30.258756
1865.000000	30.325469
1864.000000	30.413775
1863.000000	30.483442
1862.000000	30.547099
1861.000000	30.622062
1860.000000	30.687655
1859.000000	30.739294
1858.000000	30.768831
1857.000000	30.787878
1856.000000	30.787674
1855.000000	30.774433
1854.000000	30.749989
1853.000000	30.744081
1852.000000	30.685822
1851.000000	30.640498
1850.000000	30.618396
1849.000000	30.586516
1848.000000	30.540581
1847.000000	30.494544
1846.000000	30.444942
1845.000000	30.359691
1844.000000	30.296747
1843.000000	30.247450
1842.000000	30.232274
1841.000000	30.212413
1840.000000	30.200191
1839.000000	30.164950
1838.000000	30.107913
1837.000000	30.067274
1836.000000	30.017570
1835.000000	29.956051
1834.000000	29.872227
1833.000000	29.803680
1832.000000	29.717819
1831.000000	29.636133
1830.000000	29.589689
1829.000000	29.529800
1828.000000	29.455346
1827.000000	29.376818
1826.000000	29.295030
1825.000000	29.225669
1824.000000	29.160280
1823.000000	29.111187
1822.000000	29.087863
1821.000000	29.079206
1820.000000	29.061381
1819.000000	29.045900
1818.000000	29.000270
1817.000000	28.967270
1816.000000	28.947307
1815.000000	28.937835
1814.000000	28.927446
1813.000000	28.905446
1812.000000	28.903511
1811.000000	28.887214
1810.000000	28.840260
1809.000000	28.794325
1808.000000	28.762853
1807.000000	28.725269
1806.000000	28.679538
1805.000000	28.633093
1804.000000	28.577889
1803.000000	28.539695
1802.000000	28.500991
1801.000000	28.447926
1800.000000	28.409731
1799.000000	28.359925
1798.000000	28.302379
1797.000000	28.253694
1796.000000	28.210203
1795.000000	28.168036
1794.000000	28.120878
1793.000000	28.071276
1792.000000	28.019332
1791.000000	27.974924
1790.000000	27.926748
1789.000000	27.859424
1788.000000	27.790674
1787.000000	27.738525
1786.000000	27.687192
1785.000000	27.626590
1784.000000	27.564562
1783.000000	27.496117
1782.000000	27.422580
1781.000000	27.350774
1780.000000	27.270413
1779.000000	27.186996
1778.000000	27.114477
1777.000000	27.036458
1776.000000	26.942143
1775.000000	26.846096
1774.000000	26.732124
1773.000000	26.616827
1772.000000	26.513040
1771.000000	26.387456
1770.000000	26.264419
1769.000000	26.148307
1768.000000	26.046964
1767.000000	25.942871
1766.000000	25.834297
1765.000000	25.746398
1764.000000	25.694963
1763.000000	25.672963
1762.000000	25.657991
1761.000000	25.654528
1760.000000	25.691602
1759.000000	25.758621
1758.000000	25.819426
1757.000000	25.879010
1756.000000	25.938084
1755.000000	25.975362
1754.000000	26.007140
1753.000000	26.034233
1752.000000	26.029038
1751.000000	26.027103
1750.000000	25.995631
1749.000000	25.958760
1748.000000	25.904371
1747.000000	25.829510
1746.000000	25.755158
1745.000000	25.653000
1744.000000	25.526805
1743.000000	25.373518
1742.000000	25.205971
1741.000000	25.003387
1740.000000	24.785118
1739.000000	24.583654
1738.000000	24.381070
1737.000000	24.178893
1736.000000	24.015522
1735.000000	23.888411
1734.000000	23.802550
1733.000000	23.736448
1732.000000	23.730846
1731.000000	23.771994
1730.000000	23.837077
1729.000000	23.897170
1728.000000	23.981809
1727.000000	24.090180
1726.000000	24.174412
1725.000000	24.245607
1724.000000	24.306310
1723.000000	24.358153
1722.000000	24.406533
1721.000000	24.428737
1720.000000	24.433116
1719.000000	24.461941
1718.000000	24.502478
1717.000000	24.542506
1716.000000	24.586302
1715.000000	24.644969
1714.000000	24.733377
1713.000000	24.817914
1712.000000	24.864562
1711.000000	24.918544
1710.000000	24.940137
1709.000000	24.959081
1708.000000	24.977924
1707.000000	24.956840
1706.000000	24.932498
1705.000000	24.904386
1704.000000	24.858349
1703.000000	24.791636
1702.000000	24.704654
1701.000000	24.611154
1700.000000	24.477626
1699.000000	24.356320
1698.000000	24.198653
1697.000000	24.058810
1696.000000	23.955022
1695.000000	23.899513
1694.000000	23.882707
1693.000000	23.935569
1692.000000	24.006865
1691.000000	24.125319
1690.000000	24.237051
1689.000000	24.378727
1688.000000	24.464385
1687.000000	24.508487
1686.000000	24.539348
1685.000000	24.537922
1684.000000	24.593126
1683.000000	24.685812
1682.000000	24.885544
1681.000000	25.166961
1680.000000	25.571416
1679.000000	26.045844
1678.000000	26.531679
1677.000000	27.022810
1676.000000	27.466274
1675.000000	27.873887
1674.000000	28.239638
1673.000000	28.562713
1672.000000	28.818158
1671.000000	29.030724
1670.000000	29.237484
1669.000000	29.431818
1668.000000	29.580726
1667.000000	29.694698
1666.000000	29.820791
1665.000000	29.919792
1664.000000	30.023273
1663.000000	30.121052
1662.000000	30.168515
1661.000000	30.262830
1660.000000	30.306423
1659.000000	30.356534
1658.000000	30.396765
1657.000000	30.436997
1656.000000	30.447080
1655.000000	30.475803
1654.000000	30.475090
1653.000000	30.475293
1652.000000	30.461238
1651.000000	30.454719
1650.000000	30.415404
1649.000000	30.409803
1648.000000	30.392182
1647.000000	30.351034
1646.000000	30.296543
1645.000000	30.272200
1644.000000	30.218219
1643.000000	30.186339
1642.000000	30.126042
1641.000000	30.105163
1640.000000	30.052811
1639.000000	29.998523
1638.000000	29.938634
1637.000000	29.877930
1636.000000	29.833319
1635.000000	29.772106
1634.000000	29.711606
1633.000000	29.642652
1632.000000	29.579300
1631.000000	29.513300
1630.000000	29.469198
1629.000000	29.398105
1628.000000	29.314382
1627.000000	29.244002
1626.000000	29.165576
1625.000000	29.107622
1624.000000	29.026141
1623.000000	28.957492
1622.000000	28.895974
1621.000000	28.829464
1620.000000	28.768251
1619.000000	28.698584
1618.000000	28.628713
1617.000000	28.566685
1616.000000	28.512093
1615.000000	28.437639
1614.000000	28.369500
1613.000000	28.312361
1612.000000	28.266527
1611.000000	28.213055
1610.000000	28.142675
1609.000000	28.101221
1608.000000	28.031961
1607.000000	27.962295
1606.000000	27.918498
1605.000000	27.836202
1604.000000	27.783340
1603.000000	27.722433
