PE UV       SUBTECH     SPECTRUM    ASCII       PEDS        4.00        
   -1
CICIMAUCR0261-2.Sample.ASC
24/07/01
11:49:43.00
24/07/01
11:49:43.00
Vinicio Soto Monge
C. resplendens. Sex M. Dorsal.
250,000000
1
Lambda 1050
1050L1511233
PerkinElmer UV WinLab 6.3.2.0749 / 2.02.05 Lambda 900 UV/VIS/NIR, Aug  7 2015 09:38:08

0
0
3350/servo 860,8/2
0
0
UV/VIS
1
1
1
DoubleDePol,CommonBeamDepol,RBeamAtt,SBeamAtt,60mm sphere, WB InGaAs Detector
0
0
0
0
Program
Program
3350/servo 860,8/2
3350/0,2 860,8/0,2
3350/0,2 860,8/0,2
0
15.00
 
 
 
0
 
860,8
319,2
860,8
Front
100
on
S:100 R:100
0
0
0
0
 
0
 
 
 
0
 
 
0
0
0
0
0
 
 
 
 
0
0


0
0
#HDR
-1
-1
#GR
nm
%R
1.0
0.0
2500,000000
-1,000000
2251
8
91,641800
5,581900
#DATA
2482.000000	9.405285
2481.000000	9.440359
2480.000000	9.399190
2479.000000	9.428062
2478.000000	9.348182
2477.000000	9.418652
2476.000000	9.415764
2475.000000	9.428276
2474.000000	9.413305
2473.000000	9.433302
2472.000000	9.412984
2471.000000	9.415337
2470.000000	9.396195
2469.000000	9.428810
2468.000000	9.431698
2467.000000	9.415764
2466.000000	9.492757
2465.000000	9.450518
2464.000000	9.493612
2463.000000	9.523982
2462.000000	9.553389
2461.000000	9.549646
2460.000000	9.573599
2459.000000	9.593168
2458.000000	9.700102
2457.000000	9.732503
2456.000000	9.738278
2455.000000	9.791638
2454.000000	9.850452
2453.000000	9.897823
2452.000000	9.958562
2451.000000	10.028925
2450.000000	10.070522
2449.000000	10.115221
2448.000000	10.186546
2447.000000	10.242900
2446.000000	10.317112
2445.000000	10.386085
2444.000000	10.438803
2443.000000	10.496975
2442.000000	10.564237
2441.000000	10.631926
2440.000000	10.700043
2439.000000	10.756932
2438.000000	10.820772
2437.000000	10.882901
2436.000000	10.947489
2435.000000	11.001598
2434.000000	11.052926
2433.000000	11.091743
2432.000000	11.161571
2431.000000	11.220064
2430.000000	11.286363
2429.000000	11.332666
2428.000000	11.374049
2427.000000	11.426340
2426.000000	11.466013
2425.000000	11.524078
2424.000000	11.583105
2423.000000	11.616790
2422.000000	11.656997
2421.000000	11.698380
2420.000000	11.729071
2419.000000	11.764573
2418.000000	11.809592
2417.000000	11.838785
2416.000000	11.869903
2415.000000	11.932887
2414.000000	11.972132
2413.000000	12.010628
2412.000000	12.044740
2411.000000	12.072971
2410.000000	12.102164
2409.000000	12.127935
2408.000000	12.168142
2407.000000	12.199260
2406.000000	12.227811
2405.000000	12.269516
2404.000000	12.300847
2403.000000	12.357202
2402.000000	12.404787
2401.000000	12.425960
2400.000000	12.449807
2399.000000	12.480817
2398.000000	12.521559
2397.000000	12.540701
2396.000000	12.578983
2395.000000	12.613309
2394.000000	12.654372
2393.000000	12.688911
2392.000000	12.718425
2391.000000	12.750398
2390.000000	12.768898
2389.000000	12.797129
2388.000000	12.814987
2387.000000	12.834876
2386.000000	12.852734
2385.000000	12.865139
2384.000000	12.882355
2383.000000	12.897112
2382.000000	12.909410
2381.000000	12.930262
2380.000000	12.943094
2379.000000	12.946088
2378.000000	12.938923
2377.000000	12.936892
2376.000000	12.940100
2375.000000	12.935822
2374.000000	12.954429
2373.000000	12.968330
2372.000000	12.955819
2371.000000	12.950365
2370.000000	12.938709
2369.000000	12.930476
2368.000000	12.926840
2367.000000	12.914222
2366.000000	12.895936
2365.000000	12.874442
2364.000000	12.850275
2363.000000	12.828033
2362.000000	12.810602
2361.000000	12.797022
2360.000000	12.766546
2359.000000	12.726231
2358.000000	12.697145
2357.000000	12.665920
2356.000000	12.651698
2355.000000	12.646352
2354.000000	12.625820
2353.000000	12.605717
2352.000000	12.601118
2351.000000	12.593098
2350.000000	12.589783
2349.000000	12.608390
2348.000000	12.627103
2347.000000	12.639935
2346.000000	12.663461
2345.000000	12.688163
2344.000000	12.720136
2343.000000	12.747725
2342.000000	12.783334
2341.000000	12.805683
2340.000000	12.831561
2339.000000	12.856905
2338.000000	12.869630
2337.000000	12.874014
2336.000000	12.901603
2335.000000	12.922883
2334.000000	12.923311
2333.000000	12.917323
2332.000000	12.906095
2331.000000	12.877329
2330.000000	12.860434
2329.000000	12.841292
2328.000000	12.824932
2327.000000	12.779591
2326.000000	12.741095
2325.000000	12.710405
2324.000000	12.664103
2323.000000	12.613202
2322.000000	12.551822
2321.000000	12.480711
2320.000000	12.412059
2319.000000	12.358378
2318.000000	12.274542
2317.000000	12.201399
2316.000000	12.123230
2315.000000	12.032763
2314.000000	11.947751
2313.000000	11.863701
2312.000000	11.784035
2311.000000	11.706828
2310.000000	11.632937
2309.000000	11.577331
2308.000000	11.514668
2307.000000	11.475209
2306.000000	11.444412
2305.000000	11.421528
2304.000000	11.415754
2303.000000	11.428586
2302.000000	11.440135
2301.000000	11.461949
2300.000000	11.522046
2299.000000	11.574016
2298.000000	11.613796
2297.000000	11.670578
2296.000000	11.733562
2295.000000	11.798257
2294.000000	11.845415
2293.000000	11.921231
2292.000000	11.951921
2291.000000	11.999935
2290.000000	12.039714
2289.000000	12.074682
2288.000000	12.094892
2287.000000	12.103982
2286.000000	12.110718
2285.000000	12.101522
2284.000000	12.088904
2283.000000	12.064737
2282.000000	12.048911
2281.000000	11.997582
2280.000000	11.983360
2279.000000	11.944757
2278.000000	11.910217
2277.000000	11.867336
2276.000000	11.825097
2275.000000	11.783286
2274.000000	11.751741
2273.000000	11.708432
2272.000000	11.688649
2271.000000	11.676245
2270.000000	11.676780
2269.000000	11.687687
2268.000000	11.703299
2267.000000	11.731744
2266.000000	11.785639
2265.000000	11.844666
2264.000000	11.909361
2263.000000	12.036292
2262.000000	12.148252
2261.000000	12.293469
2260.000000	12.441252
2259.000000	12.578128
2258.000000	12.736604
2257.000000	12.906950
2256.000000	13.087455
2255.000000	13.275017
2254.000000	13.453170
2253.000000	13.625654
2252.000000	13.783275
2251.000000	13.956829
2250.000000	14.121080
2249.000000	14.276349
2248.000000	14.404776
2247.000000	14.570524
2246.000000	14.675106
2245.000000	14.793268
2244.000000	14.914211
2243.000000	15.008847
2242.000000	15.135137
2241.000000	15.212985
2240.000000	15.283561
2239.000000	15.353817
2238.000000	15.431130
2237.000000	15.447812
2236.000000	15.526836
2235.000000	15.545015
2234.000000	15.590997
2233.000000	15.630028
2232.000000	15.653019
2231.000000	15.692156
2230.000000	15.686061
2229.000000	15.710977
2228.000000	15.724558
2227.000000	15.709694
2226.000000	15.703492
2225.000000	15.688628
2224.000000	15.675689
2223.000000	15.669914
2222.000000	15.643715
2221.000000	15.644678
2220.000000	15.609710
2219.000000	15.582228
2218.000000	15.536781
2217.000000	15.511866
2216.000000	15.489089
2215.000000	15.450165
2214.000000	15.418619
2213.000000	15.414662
2212.000000	15.354138
2211.000000	15.314786
2210.000000	15.295431
2209.000000	15.278108
2208.000000	15.252123
2207.000000	15.231805
2206.000000	15.214803
2205.000000	15.201008
2204.000000	15.197693
2203.000000	15.165613
2202.000000	15.148610
2201.000000	15.141018
2200.000000	15.114177
2199.000000	15.100811
2198.000000	15.077392
2197.000000	15.069800
2196.000000	15.061673
2195.000000	15.069800
2194.000000	15.043280
2193.000000	15.021786
2192.000000	15.040500
2191.000000	15.016867
2190.000000	15.017937
2189.000000	14.991738
2188.000000	15.000827
2187.000000	14.996871
2186.000000	14.988316
2185.000000	14.981151
2184.000000	14.960192
2183.000000	14.952172
2182.000000	14.958588
2181.000000	14.951103
2180.000000	14.940196
2179.000000	14.929181
2178.000000	14.910468
2177.000000	14.906191
2176.000000	14.921268
2175.000000	14.913034
2174.000000	14.928326
2173.000000	14.923514
2172.000000	14.919557
2171.000000	14.921482
2170.000000	14.930358
2169.000000	14.967464
2168.000000	14.960192
2167.000000	14.961155
2166.000000	14.985857
2165.000000	14.994732
2164.000000	15.034725
2163.000000	15.034405
2162.000000	15.067554
2161.000000	15.084343
2160.000000	15.108189
2159.000000	15.155454
2158.000000	15.175772
2157.000000	15.221325
2156.000000	15.271798
2155.000000	15.300136
2154.000000	15.329650
2153.000000	15.401937
2152.000000	15.440113
2151.000000	15.478716
2150.000000	15.528226
2149.000000	15.573032
2148.000000	15.612170
2147.000000	15.647565
2146.000000	15.702636
2145.000000	15.738031
2144.000000	15.770539
2143.000000	15.819194
2142.000000	15.859401
2141.000000	15.894904
2140.000000	15.924952
2139.000000	15.962593
2138.000000	15.996705
2137.000000	16.026753
2136.000000	16.063432
2135.000000	16.099255
2134.000000	16.137216
2133.000000	16.143205
2132.000000	16.178065
2131.000000	16.202339
2130.000000	16.203409
2129.000000	16.227255
2128.000000	16.249497
2127.000000	16.254202
2126.000000	16.259335
2125.000000	16.246396
2124.000000	16.251315
2123.000000	16.261581
2122.000000	16.265751
2121.000000	16.252812
2120.000000	16.253454
2119.000000	16.255379
2118.000000	16.248856
2117.000000	16.227469
2116.000000	16.208648
2115.000000	16.197955
2114.000000	16.188866
2113.000000	16.163201
2112.000000	16.135398
2111.000000	16.130373
2110.000000	16.104067
2109.000000	16.068565
2108.000000	16.067068
2107.000000	16.049744
2106.000000	16.023866
2105.000000	15.994673
2104.000000	15.972966
2103.000000	15.958102
2102.000000	15.921744
2101.000000	15.892658
2100.000000	15.870202
2099.000000	15.849670
2098.000000	15.827321
2097.000000	15.800909
2096.000000	15.769898
2095.000000	15.733647
2094.000000	15.723595
2093.000000	15.708624
2092.000000	15.694509
2091.000000	15.683495
2090.000000	15.662857
2089.000000	15.632166
2088.000000	15.607465
2087.000000	15.590569
2086.000000	15.565333
2085.000000	15.533252
2084.000000	15.500210
2083.000000	15.483100
2082.000000	15.460109
2081.000000	15.413807
2080.000000	15.377022
2079.000000	15.341413
2078.000000	15.302061
2077.000000	15.269232
2076.000000	15.213626
2075.000000	15.165720
2074.000000	15.133640
2073.000000	15.092470
2072.000000	15.032801
2071.000000	14.972917
2070.000000	14.923407
2069.000000	14.874752
2068.000000	14.811554
2067.000000	14.761723
2066.000000	14.718521
2065.000000	14.674999
2064.000000	14.620249
2063.000000	14.558334
2062.000000	14.506150
2061.000000	14.455035
2060.000000	14.404028
2059.000000	14.369702
2058.000000	14.324576
2057.000000	14.289181
2056.000000	14.260201
2055.000000	14.245552
2054.000000	14.236783
2053.000000	14.233147
2052.000000	14.232826
2051.000000	14.240846
2050.000000	14.261164
2049.000000	14.274958
2048.000000	14.309070
2047.000000	14.342220
2046.000000	14.400606
2045.000000	14.431617
2044.000000	14.459634
2043.000000	14.509572
2042.000000	14.554484
2041.000000	14.612015
2040.000000	14.669545
2039.000000	14.695637
2038.000000	14.730605
2037.000000	14.763113
2036.000000	14.812837
2035.000000	14.839785
2034.000000	14.853258
2033.000000	14.894214
2032.000000	14.915280
2031.000000	14.930679
2030.000000	14.950568
2029.000000	14.970672
2028.000000	14.991738
2027.000000	14.984466
2026.000000	14.996764
2025.000000	15.004035
2024.000000	15.010238
2023.000000	15.022214
2022.000000	15.004035
2021.000000	14.997940
2020.000000	15.010665
2019.000000	15.003501
2018.000000	14.990348
2017.000000	14.970137
2016.000000	14.949071
2015.000000	14.944045
2014.000000	14.926829
2013.000000	14.907260
2012.000000	14.862241
2011.000000	14.850050
2010.000000	14.828449
2009.000000	14.802037
2008.000000	14.768032
2007.000000	14.738946
2006.000000	14.710394
2005.000000	14.655109
2004.000000	14.613726
2003.000000	14.583356
2002.000000	14.536947
2001.000000	14.477706
2000.000000	14.438995
1999.000000	14.389378
1998.000000	14.325966
1997.000000	14.271643
1996.000000	14.218604
1995.000000	14.159790
1994.000000	14.097127
1993.000000	14.055102
1992.000000	13.964315
1991.000000	13.912238
1990.000000	13.841020
1989.000000	13.792472
1988.000000	13.711416
1987.000000	13.632498
1986.000000	13.581491
1985.000000	13.493805
1984.000000	13.412535
1983.000000	13.355966
1982.000000	13.290416
1981.000000	13.228929
1980.000000	13.156107
1979.000000	13.078900
1978.000000	13.004688
1977.000000	12.953787
1976.000000	12.863214
1975.000000	12.791889
1974.000000	12.732754
1973.000000	12.668594
1972.000000	12.629028
1971.000000	12.540166
1970.000000	12.472584
1969.000000	12.399227
1968.000000	12.325763
1967.000000	12.291972
1966.000000	12.216369
1965.000000	12.135527
1964.000000	12.072650
1963.000000	12.013729
1962.000000	11.959834
1961.000000	11.902197
1960.000000	11.849799
1959.000000	11.768529
1958.000000	11.717629
1957.000000	11.679667
1956.000000	11.604813
1955.000000	11.571557
1954.000000	11.488896
1953.000000	11.440135
1952.000000	11.392870
1951.000000	11.325929
1950.000000	11.292779
1949.000000	11.244873
1948.000000	11.201885
1947.000000	11.175259
1946.000000	11.118584
1945.000000	11.078804
1944.000000	11.075382
1943.000000	11.022771
1942.000000	11.009083
1941.000000	10.973046
1940.000000	10.955188
1939.000000	10.940004
1938.000000	10.939362
1937.000000	10.927171
1936.000000	10.929845
1935.000000	10.946633
1934.000000	10.935405
1933.000000	10.964491
1932.000000	10.973688
1931.000000	11.006089
1930.000000	11.060946
1929.000000	11.104254
1928.000000	11.155583
1927.000000	11.187021
1926.000000	11.265725
1925.000000	11.323897
1924.000000	11.407733
1923.000000	11.454571
1922.000000	11.543754
1921.000000	11.640957
1920.000000	11.779223
1919.000000	11.894818
1918.000000	11.989776
1917.000000	12.107297
1916.000000	12.239788
1915.000000	12.355170
1914.000000	12.487661
1913.000000	12.660574
1912.000000	12.863642
1911.000000	12.997844
1910.000000	13.156748
1909.000000	13.319074
1908.000000	13.488458
1907.000000	13.649928
1906.000000	13.880158
1905.000000	14.116054
1904.000000	14.401996
1903.000000	14.639176
1902.000000	14.881810
1901.000000	15.144654
1900.000000	15.394452
1899.000000	15.679217
1898.000000	15.973500
1897.000000	16.307455
1896.000000	16.593397
1895.000000	16.878912
1894.000000	17.154267
1893.000000	17.457532
1892.000000	17.817259
1891.000000	18.248203
1890.000000	18.654981
1889.000000	19.022406
1888.000000	19.419560
1887.000000	19.817675
1886.000000	20.206595
1885.000000	20.640747
1884.000000	21.077253
1883.000000	21.558884
1882.000000	22.025651
1881.000000	22.430825
1880.000000	22.841452
1879.000000	23.251865
1878.000000	23.649660
1877.000000	24.053550
1876.000000	24.436268
1875.000000	24.820375
1874.000000	25.197852
1873.000000	25.581318
1872.000000	25.923508
1871.000000	26.241423
1870.000000	26.540731
1869.000000	26.835014
1868.000000	27.083529
1867.000000	27.264141
1866.000000	27.417057
1865.000000	27.560455
1864.000000	27.694444
1863.000000	27.818701
1862.000000	27.935473
1861.000000	28.098120
1860.000000	28.261195
1859.000000	28.402562
1858.000000	28.513880
1857.000000	28.623701
1856.000000	28.688931
1855.000000	28.757155
1854.000000	28.834255
1853.000000	28.871468
1852.000000	28.902906
1851.000000	28.952417
1850.000000	28.982786
1849.000000	29.019251
1848.000000	29.082342
1847.000000	29.119234
1846.000000	29.129607
1845.000000	29.105547
1844.000000	29.066623
1843.000000	29.064377
1842.000000	29.104477
1841.000000	29.150245
1840.000000	29.152384
1839.000000	29.153025
1838.000000	29.142653
1837.000000	29.128324
1836.000000	29.109610
1835.000000	29.083732
1834.000000	29.037536
1833.000000	28.976691
1832.000000	28.932848
1831.000000	28.900019
1830.000000	28.877884
1829.000000	28.844093
1828.000000	28.820460
1827.000000	28.784209
1826.000000	28.739832
1825.000000	28.699090
1824.000000	28.654391
1823.000000	28.626268
1822.000000	28.629904
1821.000000	28.633432
1820.000000	28.614184
1819.000000	28.603491
1818.000000	28.567026
1817.000000	28.531631
1816.000000	28.508747
1815.000000	28.497626
1814.000000	28.492921
1813.000000	28.476881
1812.000000	28.455066
1811.000000	28.439026
1810.000000	28.415608
1809.000000	28.387056
1808.000000	28.363744
1807.000000	28.334124
1806.000000	28.300653
1805.000000	28.255313
1804.000000	28.215962
1803.000000	28.194147
1802.000000	28.175754
1801.000000	28.155544
1800.000000	28.106675
1799.000000	28.046792
1798.000000	28.002307
1797.000000	27.973542
1796.000000	27.937933
1795.000000	27.903179
1794.000000	27.872489
1793.000000	27.840516
1792.000000	27.802340
1791.000000	27.754648
1790.000000	27.716793
1789.000000	27.688242
1788.000000	27.658086
1787.000000	27.625792
1786.000000	27.600449
1785.000000	27.560241
1784.000000	27.523670
1783.000000	27.484211
1782.000000	27.431493
1781.000000	27.391285
1780.000000	27.354714
1779.000000	27.303172
1778.000000	27.258366
1777.000000	27.224147
1776.000000	27.162874
1775.000000	27.103740
1774.000000	27.051235
1773.000000	26.989427
1772.000000	26.927298
1771.000000	26.854369
1770.000000	26.789353
1769.000000	26.725407
1768.000000	26.669373
1767.000000	26.613554
1766.000000	26.552280
1765.000000	26.494964
1764.000000	26.454649
1763.000000	26.421714
1762.000000	26.401503
1761.000000	26.408668
1760.000000	26.426098
1759.000000	26.439358
1758.000000	26.474860
1757.000000	26.528220
1756.000000	26.583612
1755.000000	26.631625
1754.000000	26.656969
1753.000000	26.679532
1752.000000	26.715783
1751.000000	26.731288
1750.000000	26.718135
1749.000000	26.730326
1748.000000	26.715248
1747.000000	26.703699
1746.000000	26.663599
1745.000000	26.626599
1744.000000	26.584360
1743.000000	26.515174
1742.000000	26.441069
1741.000000	26.337877
1740.000000	26.244417
1739.000000	26.143685
1738.000000	26.007665
1737.000000	25.890786
1736.000000	25.783531
1735.000000	25.687718
1734.000000	25.625161
1733.000000	25.581532
1732.000000	25.560359
1731.000000	25.538865
1730.000000	25.550521
1729.000000	25.581960
1728.000000	25.611901
1727.000000	25.673709
1726.000000	25.731347
1725.000000	25.782034
1724.000000	25.833790
1723.000000	25.885760
1722.000000	25.935698
1721.000000	26.002746
1720.000000	26.045626
1719.000000	26.099521
1718.000000	26.157800
1717.000000	26.241316
1716.000000	26.302910
1715.000000	26.374556
1714.000000	26.448875
1713.000000	26.534957
1712.000000	26.609383
1711.000000	26.681029
1710.000000	26.733320
1709.000000	26.796946
1708.000000	26.821861
1707.000000	26.840254
1706.000000	26.850733
1705.000000	26.828705
1704.000000	26.824535
1703.000000	26.800260
1702.000000	26.752675
1701.000000	26.701560
1700.000000	26.654723
1699.000000	26.587248
1698.000000	26.498065
1697.000000	26.420965
1696.000000	26.363221
1695.000000	26.306653
1694.000000	26.267729
1693.000000	26.292644
1692.000000	26.329430
1691.000000	26.383431
1690.000000	26.453152
1689.000000	26.532284
1688.000000	26.608848
1687.000000	26.681777
1686.000000	26.744762
1685.000000	26.813627
1684.000000	26.876825
1683.000000	26.980445
1682.000000	27.097217
1681.000000	27.282854
1680.000000	27.492766
1679.000000	27.763844
1678.000000	28.044760
1677.000000	28.365562
1676.000000	28.653643
1675.000000	28.922903
1674.000000	29.167675
1673.000000	29.396728
1672.000000	29.564508
1671.000000	29.734105
1670.000000	29.893758
1669.000000	30.007964
1668.000000	30.129441
1667.000000	30.241294
1666.000000	30.323847
1665.000000	30.408325
1664.000000	30.477725
1663.000000	30.550548
1662.000000	30.615136
1661.000000	30.675233
1660.000000	30.724529
1659.000000	30.754792
1658.000000	30.785375
1657.000000	30.833816
1656.000000	30.826438
1655.000000	30.838521
1654.000000	30.861726
1653.000000	30.874986
1652.000000	30.843868
1651.000000	30.839377
1650.000000	30.839377
1649.000000	30.792219
1648.000000	30.775965
1647.000000	30.751584
1646.000000	30.740249
1645.000000	30.680793
1644.000000	30.643901
1643.000000	30.601127
1642.000000	30.585729
1641.000000	30.531406
1640.000000	30.498898
1639.000000	30.448746
1638.000000	30.395065
1637.000000	30.359563
1636.000000	30.315934
1635.000000	30.266210
1634.000000	30.233702
1633.000000	30.186116
1632.000000	30.115326
1631.000000	30.065708
1630.000000	30.005397
1629.000000	29.952465
1628.000000	29.886487
1627.000000	29.836762
1626.000000	29.755278
1625.000000	29.715392
1624.000000	29.650376
1623.000000	29.592845
1622.000000	29.554135
1621.000000	29.488905
1620.000000	29.447308
1619.000000	29.363686
1618.000000	29.338556
1617.000000	29.273112
1616.000000	29.228628
1615.000000	29.173664
1614.000000	29.127682
1613.000000	29.089293
1612.000000	29.029623
1611.000000	28.972093
1610.000000	28.921620
1609.000000	28.873179
1608.000000	28.832437
1607.000000	28.773302
1606.000000	28.711708
