PE UV       SUBTECH     SPECTRUM    ASCII       PEDS        4.00        
   -1
CICIMAUCR0240-1.Sample.ASC
24/06/20
11:15:44.00
24/06/20
11:15:44.00
Vinicio Soto Monge
C. resplendens. Sex M. Dorsal.
250,000000
1
Lambda 1050
1050L1511233
PerkinElmer UV WinLab 6.3.2.0749 / 2.02.05 Lambda 900 UV/VIS/NIR, Aug  7 2015 09:38:08

0
0
3350/servo 860,8/2
0
0
UV/VIS
1
1
1
DoubleDePol,CommonBeamDepol,RBeamAtt,SBeamAtt,60mm sphere, WB InGaAs Detector
0
0
0
0
Program
Program
3350/servo 860,8/2
3350/0,2 860,8/0,2
3350/0,2 860,8/0,2
0
15.00
 
 
 
0
 
860,8
319,2
860,8
Front
100
on
S:100 R:100
0
0
0
0
 
0
 
 
 
0
 
 
0
0
0
0
0
 
 
 
 
0
0


0
0
#HDR
-1
-1
#GR
nm
%R
1.0
0.0
2500,000000
-1,000000
2251
8
90,154900
5,495900
#DATA
2500.000000	10.836742
2499.000000	10.805975
2498.000000	10.699069
2497.000000	10.713045
2496.000000	10.638785
2495.000000	10.800030
2494.000000	10.654430
2493.000000	10.567237
2492.000000	10.570783
2491.000000	10.632319
2490.000000	10.592373
2489.000000	10.551384
2488.000000	10.542101
2487.000000	10.545335
2486.000000	10.485155
2485.000000	10.568802
2484.000000	10.521659
2483.000000	10.514150
2482.000000	10.524997
2481.000000	10.533862
2480.000000	10.514984
2479.000000	10.533340
2478.000000	10.543040
2477.000000	10.610104
2476.000000	10.590704
2475.000000	10.610312
2474.000000	10.619490
2473.000000	10.635448
2472.000000	10.620950
2471.000000	10.631693
2470.000000	10.686867
2469.000000	10.696984
2468.000000	10.734218
2467.000000	10.738703
2466.000000	10.761544
2465.000000	10.790017
2464.000000	10.803993
2463.000000	10.830902
2462.000000	10.880026
2461.000000	10.970765
2460.000000	10.973685
2459.000000	11.027294
2458.000000	11.094671
2457.000000	11.133574
2456.000000	11.179465
2455.000000	11.260087
2454.000000	11.298469
2453.000000	11.363237
2452.000000	11.453872
2451.000000	11.535224
2450.000000	11.631491
2449.000000	11.688855
2448.000000	11.753728
2447.000000	11.828197
2446.000000	11.889837
2445.000000	12.003104
2444.000000	12.076738
2443.000000	12.175195
2442.000000	12.244345
2441.000000	12.334354
2440.000000	12.402564
2439.000000	12.481935
2438.000000	12.568293
2437.000000	12.644744
2436.000000	12.706384
2435.000000	12.794724
2434.000000	12.884941
2433.000000	12.942096
2432.000000	13.015313
2431.000000	13.062039
2430.000000	13.150170
2429.000000	13.246229
2428.000000	13.305470
2427.000000	13.353029
2426.000000	13.418216
2425.000000	13.481107
2424.000000	13.550674
2423.000000	13.604804
2422.000000	13.652155
2421.000000	13.685322
2420.000000	13.751134
2419.000000	13.800988
2418.000000	13.850530
2417.000000	13.901323
2416.000000	13.952637
2415.000000	14.005516
2414.000000	14.052972
2413.000000	14.092292
2412.000000	14.128274
2411.000000	14.171245
2410.000000	14.216093
2409.000000	14.263966
2408.000000	14.290979
2407.000000	14.328109
2406.000000	14.366073
2405.000000	14.397363
2404.000000	14.431468
2403.000000	14.487893
2402.000000	14.529612
2401.000000	14.557981
2400.000000	14.608357
2399.000000	14.645695
2398.000000	14.676463
2397.000000	14.701912
2396.000000	14.722041
2395.000000	14.762926
2394.000000	14.797031
2393.000000	14.825088
2392.000000	14.856273
2391.000000	14.878801
2390.000000	14.908109
2389.000000	14.936478
2388.000000	14.953374
2387.000000	14.962969
2386.000000	14.985497
2385.000000	15.011781
2384.000000	15.023670
2383.000000	15.032849
2382.000000	15.035873
2381.000000	15.042861
2380.000000	15.044217
2379.000000	15.045364
2378.000000	15.042966
2377.000000	15.038064
2376.000000	15.042235
2375.000000	15.050162
2374.000000	15.042235
2373.000000	15.026695
2372.000000	15.011781
2371.000000	14.983516
2370.000000	14.982681
2369.000000	14.988105
2368.000000	14.964221
2367.000000	14.940024
2366.000000	14.927299
2365.000000	14.913532
2364.000000	14.879740
2363.000000	14.849598
2362.000000	14.836456
2361.000000	14.805375
2360.000000	14.760423
2359.000000	14.726839
2358.000000	14.689918
2357.000000	14.664260
2356.000000	14.642775
2355.000000	14.609608
2354.000000	14.580405
2353.000000	14.580614
2352.000000	14.572687
2351.000000	14.549429
2350.000000	14.549324
2349.000000	14.562674
2348.000000	14.584473
2347.000000	14.606792
2346.000000	14.640168
2345.000000	14.670727
2344.000000	14.693568
2343.000000	14.732680
2342.000000	14.769288
2341.000000	14.801829
2340.000000	14.835309
2339.000000	14.861800
2338.000000	14.881617
2337.000000	14.916870
2336.000000	14.942735
2335.000000	14.951288
2334.000000	14.954000
2333.000000	14.950349
2332.000000	14.954104
2331.000000	14.948367
2330.000000	14.934809
2329.000000	14.917182
2328.000000	14.916139
2327.000000	14.888605
2326.000000	14.853352
2325.000000	14.828634
2324.000000	14.779822
2323.000000	14.738729
2322.000000	14.685433
2321.000000	14.619830
2320.000000	14.552453
2319.000000	14.471101
2318.000000	14.390688
2317.000000	14.316636
2316.000000	14.218492
2315.000000	14.126814
2314.000000	14.043480
2313.000000	13.947839
2312.000000	13.862941
2311.000000	13.780650
2310.000000	13.711709
2309.000000	13.636928
2308.000000	13.571533
2307.000000	13.519697
2306.000000	13.507807
2305.000000	13.488095
2304.000000	13.483089
2303.000000	13.506347
2302.000000	13.536906
2301.000000	13.570386
2300.000000	13.631400
2299.000000	13.666236
2298.000000	13.752907
2297.000000	13.825081
2296.000000	13.895065
2295.000000	13.961294
2294.000000	14.057978
2293.000000	14.123268
2292.000000	14.192939
2291.000000	14.255935
2290.000000	14.309335
2289.000000	14.352827
2288.000000	14.377755
2287.000000	14.428548
2286.000000	14.444192
2285.000000	14.440646
2284.000000	14.443775
2283.000000	14.466825
2282.000000	14.459107
2281.000000	14.423124
2280.000000	14.396841
2279.000000	14.370558
2278.000000	14.350220
2277.000000	14.326023
2276.000000	14.299949
2275.000000	14.276064
2274.000000	14.266156
2273.000000	14.266260
2272.000000	14.243315
2271.000000	14.250511
2270.000000	14.265947
2269.000000	14.290666
2268.000000	14.329986
2267.000000	14.398197
2266.000000	14.462757
2265.000000	14.554852
2264.000000	14.688666
2263.000000	14.805480
2262.000000	14.947742
2261.000000	15.118164
2260.000000	15.290255
2259.000000	15.470795
2258.000000	15.679286
2257.000000	15.892992
2256.000000	16.096998
2255.000000	16.317484
2254.000000	16.548712
2253.000000	16.770344
2252.000000	16.975290
2251.000000	17.181382
2250.000000	17.373185
2249.000000	17.568639
2248.000000	17.769412
2247.000000	17.930448
2246.000000	18.104104
2245.000000	18.228010
2244.000000	18.389775
2243.000000	18.480514
2242.000000	18.610678
2241.000000	18.716436
2240.000000	18.821776
2239.000000	18.911473
2238.000000	18.968106
2237.000000	19.055195
2236.000000	19.090969
2235.000000	19.162204
2234.000000	19.208304
2233.000000	19.248354
2232.000000	19.283920
2231.000000	19.301650
2230.000000	19.323449
2229.000000	19.327099
2228.000000	19.328768
2227.000000	19.309577
2226.000000	19.288822
2225.000000	19.289552
2224.000000	19.251587
2223.000000	19.239280
2222.000000	19.198917
2221.000000	19.150836
2220.000000	19.126117
2219.000000	19.086588
2218.000000	19.028390
2217.000000	18.986045
2216.000000	18.935044
2215.000000	18.885711
2214.000000	18.831685
2213.000000	18.790904
2212.000000	18.727283
2211.000000	18.686189
2210.000000	18.634875
2209.000000	18.609426
2208.000000	18.568124
2207.000000	18.544449
2206.000000	18.505963
2205.000000	18.479889
2204.000000	18.449642
2203.000000	18.437544
2202.000000	18.400518
2201.000000	18.382370
2200.000000	18.352332
2199.000000	18.347118
2198.000000	18.325006
2197.000000	18.309049
2196.000000	18.280263
2195.000000	18.268894
2194.000000	18.243237
2193.000000	18.238022
2192.000000	18.222586
2191.000000	18.199328
2190.000000	18.198910
2189.000000	18.174818
2188.000000	18.169916
2187.000000	18.128197
2186.000000	18.120374
2185.000000	18.112239
2184.000000	18.090337
2183.000000	18.058734
2182.000000	18.047992
2181.000000	18.032764
2180.000000	18.028697
2179.000000	18.013886
2178.000000	17.990315
2177.000000	17.972167
2176.000000	17.975088
2175.000000	17.972689
2174.000000	17.962780
2173.000000	17.975609
2172.000000	17.979259
2171.000000	17.994383
2170.000000	17.983223
2169.000000	18.004500
2168.000000	18.015555
2167.000000	18.034329
2166.000000	18.067287
2165.000000	18.082931
2164.000000	18.106398
2163.000000	18.149056
2162.000000	18.183892
2161.000000	18.202144
2160.000000	18.246887
2159.000000	18.287042
2158.000000	18.335853
2157.000000	18.390505
2156.000000	18.444845
2155.000000	18.498245
2154.000000	18.561554
2153.000000	18.613077
2152.000000	18.682226
2151.000000	18.739798
2150.000000	18.803212
2149.000000	18.872257
2148.000000	18.917522
2147.000000	18.984585
2146.000000	19.052587
2145.000000	19.122050
2144.000000	19.190573
2143.000000	19.248250
2142.000000	19.304362
2141.000000	19.366315
2140.000000	19.432857
2139.000000	19.485423
2138.000000	19.539866
2137.000000	19.582211
2136.000000	19.646459
2135.000000	19.686300
2134.000000	19.735842
2133.000000	19.775371
2132.000000	19.822409
2131.000000	19.862564
2130.000000	19.905847
2129.000000	19.922743
2128.000000	19.942143
2127.000000	19.953303
2126.000000	19.983966
2125.000000	20.012752
2124.000000	20.029023
2123.000000	20.057287
2122.000000	20.081276
2121.000000	20.074184
2120.000000	20.065005
2119.000000	20.083049
2118.000000	20.082006
2117.000000	20.077625
2116.000000	20.063441
2115.000000	20.077625
2114.000000	20.069282
2113.000000	20.040808
2112.000000	20.045189
2111.000000	20.038201
2110.000000	20.012961
2109.000000	19.991163
2108.000000	19.984800
2107.000000	19.963107
2106.000000	19.945689
2105.000000	19.925142
2104.000000	19.913252
2103.000000	19.902614
2102.000000	19.867987
2101.000000	19.847858
2100.000000	19.828041
2099.000000	19.816673
2098.000000	19.800402
2097.000000	19.782046
2096.000000	19.765358
2095.000000	19.739492
2094.000000	19.728958
2093.000000	19.732609
2092.000000	19.729897
2091.000000	19.723743
2090.000000	19.714461
2089.000000	19.688073
2088.000000	19.677018
2087.000000	19.660747
2086.000000	19.646772
2085.000000	19.637176
2084.000000	19.600150
2083.000000	19.574702
2082.000000	19.549253
2081.000000	19.526621
2080.000000	19.496583
2079.000000	19.447459
2078.000000	19.403028
2077.000000	19.356928
2076.000000	19.311246
2075.000000	19.265355
2074.000000	19.211954
2073.000000	19.148333
2072.000000	19.082104
2071.000000	19.018795
2070.000000	18.949020
2069.000000	18.871631
2068.000000	18.795389
2067.000000	18.724467
2066.000000	18.645200
2065.000000	18.571983
2064.000000	18.495429
2063.000000	18.409592
2062.000000	18.337522
2061.000000	18.265348
2060.000000	18.184830
2059.000000	18.125381
2058.000000	18.073232
2057.000000	18.020144
2056.000000	17.965284
2055.000000	17.932221
2054.000000	17.910423
2053.000000	17.893110
2052.000000	17.903122
2051.000000	17.930031
2050.000000	17.946719
2049.000000	17.981658
2048.000000	18.037145
2047.000000	18.104938
2046.000000	18.170020
2045.000000	18.225506
2044.000000	18.326988
2043.000000	18.409696
2042.000000	18.505963
2041.000000	18.615476
2040.000000	18.695889
2039.000000	18.793095
2038.000000	18.887275
2037.000000	18.975511
2036.000000	19.054048
2035.000000	19.108595
2034.000000	19.178475
2033.000000	19.245017
2032.000000	19.301337
2031.000000	19.360996
2030.000000	19.399169
2029.000000	19.443182
2028.000000	19.474054
2027.000000	19.507013
2026.000000	19.537989
2025.000000	19.580960
2024.000000	19.600568
2023.000000	19.628207
2022.000000	19.627581
2021.000000	19.647293
2020.000000	19.657931
2019.000000	19.663876
2018.000000	19.646459
2017.000000	19.651674
2016.000000	19.654072
2015.000000	19.637489
2014.000000	19.626121
2013.000000	19.613083
2012.000000	19.597439
2011.000000	19.571469
2010.000000	19.546959
2009.000000	19.526412
2008.000000	19.509829
2007.000000	19.454447
2006.000000	19.424096
2005.000000	19.402506
2004.000000	19.354946
2003.000000	19.305405
2002.000000	19.258262
2001.000000	19.201212
2000.000000	19.151149
1999.000000	19.089300
1998.000000	19.030789
1997.000000	18.980309
1996.000000	18.896141
1995.000000	18.827930
1994.000000	18.754296
1993.000000	18.700270
1992.000000	18.614850
1991.000000	18.543197
1990.000000	18.464035
1989.000000	18.404064
1988.000000	18.301227
1987.000000	18.211113
1986.000000	18.123295
1985.000000	18.047783
1984.000000	17.950995
1983.000000	17.850139
1982.000000	17.788186
1981.000000	17.673459
1980.000000	17.602015
1979.000000	17.515135
1978.000000	17.397904
1977.000000	17.319368
1976.000000	17.230402
1975.000000	17.154473
1974.000000	17.063838
1973.000000	16.975394
1972.000000	16.898109
1971.000000	16.820720
1970.000000	16.745730
1969.000000	16.654157
1968.000000	16.565817
1967.000000	16.483630
1966.000000	16.413333
1965.000000	16.343871
1964.000000	16.256678
1963.000000	16.170215
1962.000000	16.113060
1961.000000	16.034211
1960.000000	15.959847
1959.000000	15.883814
1958.000000	15.817272
1957.000000	15.732791
1956.000000	15.657592
1955.000000	15.602419
1954.000000	15.548810
1953.000000	15.465997
1952.000000	15.378178
1951.000000	15.343134
1950.000000	15.272212
1949.000000	15.224026
1948.000000	15.194406
1947.000000	15.133183
1946.000000	15.071960
1945.000000	15.020542
1944.000000	14.993737
1943.000000	14.962343
1942.000000	14.942110
1941.000000	14.924170
1940.000000	14.875985
1939.000000	14.890899
1938.000000	14.874003
1937.000000	14.865451
1936.000000	14.888918
1935.000000	14.895280
1934.000000	14.910090
1933.000000	14.942735
1932.000000	14.990817
1931.000000	15.002707
1930.000000	15.081243
1929.000000	15.133809
1928.000000	15.224652
1927.000000	15.289734
1926.000000	15.393406
1925.000000	15.450665
1924.000000	15.588338
1923.000000	15.671464
1922.000000	15.786921
1921.000000	15.940030
1920.000000	16.117649
1919.000000	16.264605
1918.000000	16.394873
1917.000000	16.569363
1916.000000	16.740620
1915.000000	16.903950
1914.000000	17.105662
1913.000000	17.335742
1912.000000	17.562277
1911.000000	17.793192
1910.000000	18.012426
1909.000000	18.234372
1908.000000	18.456004
1907.000000	18.718939
1906.000000	19.008469
1905.000000	19.322197
1904.000000	19.640618
1903.000000	19.950069
1902.000000	20.275895
1901.000000	20.610795
1900.000000	20.951640
1899.000000	21.364764
1898.000000	21.758801
1897.000000	22.119984
1896.000000	22.498063
1895.000000	22.839846
1894.000000	23.228773
1893.000000	23.625730
1892.000000	24.068891
1891.000000	24.559403
1890.000000	25.038755
1889.000000	25.500169
1888.000000	25.997252
1887.000000	26.456162
1886.000000	26.930195
1885.000000	27.396406
1884.000000	27.932496
1883.000000	28.450751
1882.000000	28.936987
1881.000000	29.437199
1880.000000	29.927607
1879.000000	30.338436
1878.000000	30.801205
1877.000000	31.243427
1876.000000	31.657072
1875.000000	32.071447
1874.000000	32.456931
1873.000000	32.859521
1872.000000	33.218409
1871.000000	33.553309
1870.000000	33.851288
1869.000000	34.091485
1868.000000	34.352543
1867.000000	34.546223
1866.000000	34.706633
1865.000000	34.846809
1864.000000	35.003569
1863.000000	35.131855
1862.000000	35.284338
1861.000000	35.439638
1860.000000	35.599005
1859.000000	35.723640
1858.000000	35.816570
1857.000000	35.911481
1856.000000	35.980421
1855.000000	36.037368
1854.000000	36.098069
1853.000000	36.149384
1852.000000	36.149071
1851.000000	36.192042
1850.000000	36.230006
1849.000000	36.282885
1848.000000	36.313757
1847.000000	36.322518
1846.000000	36.277461
1845.000000	36.222705
1844.000000	36.223748
1843.000000	36.221453
1842.000000	36.262442
1841.000000	36.299572
1840.000000	36.261608
1839.000000	36.227294
1838.000000	36.208208
1837.000000	36.181925
1836.000000	36.154599
1835.000000	36.101094
1834.000000	36.028711
1833.000000	35.959770
1832.000000	35.920972
1831.000000	35.904806
1830.000000	35.877897
1829.000000	35.840141
1828.000000	35.784133
1827.000000	35.715505
1826.000000	35.673369
1825.000000	35.626748
1824.000000	35.567924
1823.000000	35.538095
1822.000000	35.566047
1821.000000	35.584924
1820.000000	35.554157
1819.000000	35.511916
1818.000000	35.471657
1817.000000	35.445270
1816.000000	35.433484
1815.000000	35.420030
1814.000000	35.388949
1813.000000	35.378415
1812.000000	35.369341
1811.000000	35.342745
1810.000000	35.304989
1809.000000	35.268589
1808.000000	35.239803
1807.000000	35.211226
1806.000000	35.195164
1805.000000	35.151567
1804.000000	35.103382
1803.000000	35.081688
1802.000000	35.061350
1801.000000	35.026097
1800.000000	34.983335
1799.000000	34.932646
1798.000000	34.892492
1797.000000	34.861933
1796.000000	34.825846
1795.000000	34.799041
1794.000000	34.769942
1793.000000	34.735524
1792.000000	34.695995
1791.000000	34.665540
1790.000000	34.631748
1789.000000	34.592532
1788.000000	34.563745
1787.000000	34.547162
1786.000000	34.525260
1785.000000	34.496891
1784.000000	34.466644
1783.000000	34.409906
1782.000000	34.365371
1781.000000	34.334603
1780.000000	34.285896
1779.000000	34.251999
1778.000000	34.205587
1777.000000	34.145720
1776.000000	34.087418
1775.000000	34.028802
1774.000000	33.957671
1773.000000	33.891025
1772.000000	33.823440
1771.000000	33.734057
1770.000000	33.651245
1769.000000	33.566346
1768.000000	33.471122
1767.000000	33.374960
1766.000000	33.309565
1765.000000	33.254183
1764.000000	33.209544
1763.000000	33.174395
1762.000000	33.165530
1761.000000	33.177733
1760.000000	33.195046
1759.000000	33.229256
1758.000000	33.284534
1757.000000	33.343462
1756.000000	33.393316
1755.000000	33.432219
1754.000000	33.478736
1753.000000	33.523480
1752.000000	33.558524
1751.000000	33.569267
1750.000000	33.583034
1749.000000	33.577089
1748.000000	33.562487
1747.000000	33.562904
1746.000000	33.522750
1745.000000	33.449324
1744.000000	33.381009
1743.000000	33.282761
1742.000000	33.180966
1741.000000	33.074687
1740.000000	32.944419
1739.000000	32.789537
1738.000000	32.615881
1737.000000	32.461208
1736.000000	32.310810
1735.000000	32.167818
1734.000000	32.063312
1733.000000	31.954008
1732.000000	31.886214
1731.000000	31.864937
1730.000000	31.863477
1729.000000	31.894036
1728.000000	31.938780
1727.000000	32.007512
1726.000000	32.070717
1725.000000	32.114939
1724.000000	32.160100
1723.000000	32.212249
1722.000000	32.284631
1721.000000	32.364419
1720.000000	32.445354
1719.000000	32.534007
1718.000000	32.633403
1717.000000	32.760229
1716.000000	32.880693
1715.000000	33.001574
1714.000000	33.127357
1713.000000	33.239581
1712.000000	33.359211
1711.000000	33.459024
1710.000000	33.557898
1709.000000	33.631219
1708.000000	33.687227
1707.000000	33.732805
1706.000000	33.736769
1705.000000	33.762113
1704.000000	33.775463
1703.000000	33.774420
1702.000000	33.747511
1701.000000	33.699743
1700.000000	33.656042
1699.000000	33.591586
1698.000000	33.533805
1697.000000	33.474669
1696.000000	33.404059
1695.000000	33.375377
1694.000000	33.371101
1693.000000	33.366616
1692.000000	33.432637
1691.000000	33.470392
1690.000000	33.550910
1689.000000	33.645717
1688.000000	33.705688
1687.000000	33.789230
1686.000000	33.848889
1685.000000	33.940462
1684.000000	34.061135
1683.000000	34.187752
1682.000000	34.350874
1681.000000	34.616520
1680.000000	34.867565
1679.000000	35.173261
1678.000000	35.482817
1677.000000	35.802594
1676.000000	36.133322
1675.000000	36.408668
1674.000000	36.685787
1673.000000	36.910549
1672.000000	37.129887
1671.000000	37.343801
1670.000000	37.498996
1669.000000	37.666916
1668.000000	37.798957
1667.000000	37.912641
1666.000000	38.027264
1665.000000	38.154612
1664.000000	38.243682
1663.000000	38.343391
1662.000000	38.405865
1661.000000	38.491076
1660.000000	38.553759
1659.000000	38.607473
1658.000000	38.664315
1657.000000	38.719384
1656.000000	38.736802
1655.000000	38.755367
1654.000000	38.790932
1653.000000	38.791662
1652.000000	38.794583
1651.000000	38.795834
1650.000000	38.788951
1649.000000	38.770699
1648.000000	38.769551
1647.000000	38.740244
1646.000000	38.717715
1645.000000	38.672554
1644.000000	38.662125
1643.000000	38.624056
1642.000000	38.588073
1641.000000	38.557201
1640.000000	38.525182
1639.000000	38.490763
1638.000000	38.466045
1637.000000	38.421301
1636.000000	38.361747
1635.000000	38.327120
1634.000000	38.258388
1633.000000	38.223553
1632.000000	38.159410
1631.000000	38.108095
1630.000000	38.061370
1629.000000	37.971882
1628.000000	37.917856
1627.000000	37.879474
1626.000000	37.796662
1625.000000	37.718543
