PE UV       SUBTECH     SPECTRUM    ASCII       PEDS        4.00        
   -1
CICIMAUCR0253-2.Sample.ASC
24/06/26
13:13:25.00
24/06/26
13:13:25.00
Vinicio Soto Monge
C. resplendens. Sex M. Dorsal.
250,000000
1
Lambda 1050
1050L1511233
PerkinElmer UV WinLab 6.3.2.0749 / 2.02.05 Lambda 900 UV/VIS/NIR, Aug  7 2015 09:38:08

0
0
3350/servo 860,8/2
0
0
UV/VIS
1
1
1
DoubleDePol,CommonBeamDepol,RBeamAtt,SBeamAtt,60mm sphere, WB InGaAs Detector
0
0
0
0
Program
Program
3350/servo 860,8/2
3350/0,2 860,8/0,2
3350/0,2 860,8/0,2
0
15.00
 
 
 
0
 
860,8
319,2
860,8
Front
100
on
S:100 R:100
0
0
0
0
 
0
 
 
 
0
 
 
0
0
0
0
0
 
 
 
 
0
0


0
0
#HDR
-1
-1
#GR
nm
%R
1.0
0.0
2500,000000
-1,000000
2251
8
93,302000
6,030100
#DATA
2482.000000	9.088804
2481.000000	9.069744
2480.000000	9.116990
2479.000000	9.107459
2478.000000	9.089717
2477.000000	9.094076
2476.000000	9.105229
2475.000000	9.192827
2474.000000	9.114759
2473.000000	9.144161
2472.000000	9.093874
2471.000000	9.203270
2470.000000	9.166264
2469.000000	9.149940
2468.000000	9.230543
2467.000000	9.253558
2466.000000	9.259235
2465.000000	9.259641
2464.000000	9.279918
2463.000000	9.302325
2462.000000	9.352714
2461.000000	9.414154
2460.000000	9.426422
2459.000000	9.490701
2458.000000	9.502766
2457.000000	9.552040
2456.000000	9.600300
2455.000000	9.690838
2454.000000	9.745384
2453.000000	9.808142
2452.000000	9.870090
2451.000000	9.934774
2450.000000	10.015174
2449.000000	10.064651
2448.000000	10.142921
2447.000000	10.210343
2446.000000	10.261543
2445.000000	10.352690
2444.000000	10.412812
2443.000000	10.496659
2442.000000	10.574727
2441.000000	10.657154
2440.000000	10.728834
2439.000000	10.791187
2438.000000	10.878785
2437.000000	10.953811
2436.000000	11.024579
2435.000000	11.078618
2434.000000	11.141884
2433.000000	11.233841
2432.000000	11.296397
2431.000000	11.354390
2430.000000	11.405590
2429.000000	11.466118
2428.000000	11.528876
2427.000000	11.592344
2426.000000	11.658347
2425.000000	11.718571
2424.000000	11.750305
2423.000000	11.812860
2422.000000	11.867305
2421.000000	11.904919
2420.000000	11.945981
2419.000000	11.995153
2418.000000	12.044934
2417.000000	12.089240
2416.000000	12.118541
2415.000000	12.172783
2414.000000	12.223375
2413.000000	12.263524
2412.000000	12.303876
2411.000000	12.347675
2410.000000	12.383261
2409.000000	12.415604
2408.000000	12.451799
2407.000000	12.486574
2406.000000	12.516179
2405.000000	12.553591
2404.000000	12.583601
2403.000000	12.629935
2402.000000	12.677283
2401.000000	12.711957
2400.000000	12.738216
2399.000000	12.771369
2398.000000	12.804421
2397.000000	12.826118
2396.000000	12.841225
2395.000000	12.868396
2394.000000	12.894960
2393.000000	12.932676
2392.000000	12.955792
2391.000000	12.980733
2390.000000	13.003241
2389.000000	13.022403
2388.000000	13.050791
2387.000000	13.079585
2386.000000	13.099659
2385.000000	13.107669
2384.000000	13.117402
2383.000000	13.123992
2382.000000	13.127642
2381.000000	13.136361
2380.000000	13.144574
2379.000000	13.146804
2378.000000	13.144371
2377.000000	13.144472
2376.000000	13.134840
2375.000000	13.137477
2374.000000	13.142343
2373.000000	13.116692
2372.000000	13.099152
2371.000000	13.090940
2370.000000	13.071575
2369.000000	13.054339
2368.000000	13.036090
2367.000000	13.015914
2366.000000	12.990060
2365.000000	12.964410
2364.000000	12.931358
2363.000000	12.887254
2362.000000	12.851465
2361.000000	12.816486
2360.000000	12.771775
2359.000000	12.744096
2358.000000	12.718040
2357.000000	12.677992
2356.000000	12.643318
2355.000000	12.611483
2354.000000	12.589482
2353.000000	12.571638
2352.000000	12.548724
2351.000000	12.543756
2350.000000	12.553185
2349.000000	12.554199
2348.000000	12.554301
2347.000000	12.574984
2346.000000	12.612598
2345.000000	12.638147
2344.000000	12.679513
2343.000000	12.708307
2342.000000	12.723515
2341.000000	12.757277
2340.000000	12.776337
2339.000000	12.802090
2338.000000	12.838386
2337.000000	12.865963
2336.000000	12.873669
2335.000000	12.874480
2334.000000	12.883199
2333.000000	12.881171
2332.000000	12.867991
2331.000000	12.851262
2330.000000	12.843759
2329.000000	12.822265
2328.000000	12.788200
2327.000000	12.743387
2326.000000	12.705063
2325.000000	12.661365
2324.000000	12.609658
2323.000000	12.548623
2322.000000	12.470555
2321.000000	12.397253
2320.000000	12.332568
2319.000000	12.240813
2318.000000	12.150579
2317.000000	12.052031
2316.000000	11.957742
2315.000000	11.862844
2314.000000	11.767338
2313.000000	11.666357
2312.000000	11.555541
2311.000000	11.473925
2310.000000	11.394843
2309.000000	11.332592
2308.000000	11.259289
2307.000000	11.189434
2306.000000	11.151211
2305.000000	11.128196
2304.000000	11.107412
2303.000000	11.116334
2302.000000	11.149285
2301.000000	11.173313
2300.000000	11.220255
2299.000000	11.281493
2298.000000	11.347901
2297.000000	11.418061
2296.000000	11.503428
2295.000000	11.575616
2294.000000	11.654494
2293.000000	11.741484
2292.000000	11.802417
2291.000000	11.868420
2290.000000	11.927934
2289.000000	11.970719
2288.000000	12.015025
2287.000000	12.023035
2286.000000	12.044326
2285.000000	12.046759
2284.000000	12.030436
2283.000000	12.018472
2282.000000	11.977816
2281.000000	11.935639
2280.000000	11.904007
2279.000000	11.842769
2278.000000	11.785891
2277.000000	11.728101
2276.000000	11.688560
2275.000000	11.627830
2274.000000	11.596298
2273.000000	11.531310
2272.000000	11.499474
2271.000000	11.479501
2270.000000	11.473722
2269.000000	11.464800
2268.000000	11.487916
2267.000000	11.542766
2266.000000	11.594778
2265.000000	11.674062
2264.000000	11.771799
2263.000000	11.856456
2262.000000	12.013910
2261.000000	12.175926
2260.000000	12.326789
2259.000000	12.540208
2258.000000	12.738216
2257.000000	12.935007
2256.000000	13.161404
2255.000000	13.394086
2254.000000	13.599293
2253.000000	13.797706
2252.000000	14.035458
2251.000000	14.252425
2250.000000	14.452157
2249.000000	14.624007
2248.000000	14.790788
2247.000000	14.989303
2246.000000	15.156794
2245.000000	15.286062
2244.000000	15.436114
2243.000000	15.570756
2242.000000	15.671128
2241.000000	15.794313
2240.000000	15.876031
2239.000000	15.958762
2238.000000	16.035613
2237.000000	16.123921
2236.000000	16.164172
2235.000000	16.225308
2234.000000	16.265964
2233.000000	16.312703
2232.000000	16.351331
2231.000000	16.382862
2230.000000	16.391987
2229.000000	16.399186
2228.000000	16.420578
2227.000000	16.417030
2226.000000	16.409020
2225.000000	16.400808
2224.000000	16.394725
2223.000000	16.372521
2222.000000	16.361875
2221.000000	16.303578
2220.000000	16.278130
2219.000000	16.248018
2218.000000	16.229160
2217.000000	16.188302
2216.000000	16.134060
2215.000000	16.095736
2214.000000	16.042913
2213.000000	16.030138
2212.000000	15.986238
2211.000000	15.936660
2210.000000	15.906345
2209.000000	15.871772
2208.000000	15.837200
2207.000000	15.813070
2206.000000	15.777483
2205.000000	15.750007
2204.000000	15.737942
2203.000000	15.705296
2202.000000	15.687654
2201.000000	15.671331
2200.000000	15.655413
2199.000000	15.622260
2198.000000	15.617191
2197.000000	15.586065
2196.000000	15.573696
2195.000000	15.546017
2194.000000	15.538515
2193.000000	15.511546
2192.000000	15.495932
2191.000000	15.456493
2190.000000	15.462373
2189.000000	15.453248
2188.000000	15.434999
2187.000000	15.438041
2186.000000	15.401339
2185.000000	15.393430
2184.000000	15.360378
2183.000000	15.340507
2182.000000	15.321649
2181.000000	15.309482
2180.000000	15.267204
2179.000000	15.266596
2178.000000	15.266292
2177.000000	15.262033
2176.000000	15.265379
2175.000000	15.234963
2174.000000	15.219755
2173.000000	15.216409
2172.000000	15.233848
2171.000000	15.238816
2170.000000	15.228373
2169.000000	15.231820
2168.000000	15.229184
2167.000000	15.254632
2166.000000	15.248549
2165.000000	15.265075
2164.000000	15.293058
2163.000000	15.316681
2162.000000	15.345069
2161.000000	15.369807
2160.000000	15.385421
2159.000000	15.405394
2158.000000	15.456898
2157.000000	15.504043
2156.000000	15.528376
2155.000000	15.564064
2154.000000	15.596711
2153.000000	15.661801
2152.000000	15.699212
2151.000000	15.734191
2150.000000	15.780727
2149.000000	15.819457
2148.000000	15.846223
2147.000000	15.893368
2146.000000	15.942439
2145.000000	15.995059
2144.000000	16.032268
2143.000000	16.065320
2142.000000	16.097662
2141.000000	16.159508
2140.000000	16.196818
2139.000000	16.221455
2138.000000	16.253290
2137.000000	16.281679
2136.000000	16.304389
2135.000000	16.324768
2134.000000	16.358631
2133.000000	16.379618
2132.000000	16.401315
2131.000000	16.404356
2130.000000	16.408412
2129.000000	16.415103
2128.000000	16.434468
2127.000000	16.438727
2126.000000	16.437611
2125.000000	16.441058
2124.000000	16.432846
2123.000000	16.431832
2122.000000	16.436395
2121.000000	16.426357
2120.000000	16.400301
2119.000000	16.370189
2118.000000	16.370088
2117.000000	16.354981
2116.000000	16.328114
2115.000000	16.298002
2114.000000	16.265558
2113.000000	16.249640
2112.000000	16.216791
2111.000000	16.173398
2110.000000	16.157480
2109.000000	16.137811
2108.000000	16.113275
2107.000000	16.075255
2106.000000	16.038858
2105.000000	16.006110
2104.000000	15.971537
2103.000000	15.935849
2102.000000	15.914253
2101.000000	15.884040
2100.000000	15.845716
2099.000000	15.811447
2098.000000	15.774036
2097.000000	15.743316
2096.000000	15.728919
2095.000000	15.699314
2094.000000	15.665552
2093.000000	15.635237
2092.000000	15.610195
2091.000000	15.588397
2090.000000	15.571161
2089.000000	15.537298
2088.000000	15.506983
2087.000000	15.495020
2086.000000	15.461157
2085.000000	15.427902
2084.000000	15.398094
2083.000000	15.369098
2082.000000	15.336147
2081.000000	15.298330
2080.000000	15.247738
2079.000000	15.204851
2078.000000	15.166223
2077.000000	15.118470
2076.000000	15.070007
2075.000000	15.026918
2074.000000	14.966390
2073.000000	14.904950
2072.000000	14.847463
2071.000000	14.795249
2070.000000	14.740805
2069.000000	14.685853
2068.000000	14.617721
2067.000000	14.556484
2066.000000	14.502546
2065.000000	14.444553
2064.000000	14.390615
2063.000000	14.326336
2062.000000	14.260333
2061.000000	14.197271
2060.000000	14.159150
2059.000000	14.123056
2058.000000	14.080372
2057.000000	14.040122
2056.000000	14.005752
2055.000000	13.985373
2054.000000	13.981115
2053.000000	13.981419
2052.000000	13.977972
2051.000000	13.995309
2050.000000	14.009807
2049.000000	14.042048
2048.000000	14.080068
2047.000000	14.124273
2046.000000	14.174256
2045.000000	14.230222
2044.000000	14.284768
2043.000000	14.325424
2042.000000	14.368006
2041.000000	14.416266
2040.000000	14.483992
2039.000000	14.537626
2038.000000	14.578383
2037.000000	14.630192
2036.000000	14.685650
2035.000000	14.722555
2034.000000	14.733505
2033.000000	14.750031
2032.000000	14.794540
2031.000000	14.831039
2030.000000	14.841583
2029.000000	14.853445
2028.000000	14.871898
2027.000000	14.892580
2026.000000	14.902111
2025.000000	14.898359
2024.000000	14.893594
2023.000000	14.904544
2022.000000	14.902314
2021.000000	14.888221
2020.000000	14.878488
2019.000000	14.882949
2018.000000	14.866423
2017.000000	14.845334
2016.000000	14.830228
2015.000000	14.801434
2014.000000	14.777709
2013.000000	14.768990
2012.000000	14.728233
2011.000000	14.699439
2010.000000	14.668009
2009.000000	14.618837
2008.000000	14.591462
2007.000000	14.555064
2006.000000	14.516031
2005.000000	14.449521
2004.000000	14.391122
2003.000000	14.338503
2002.000000	14.292169
2001.000000	14.244213
2000.000000	14.177298
1999.000000	14.091423
1998.000000	14.041947
1997.000000	13.967022
1996.000000	13.880742
1995.000000	13.818693
1994.000000	13.746100
1993.000000	13.679692
1992.000000	13.583578
1991.000000	13.503888
1990.000000	13.426733
1989.000000	13.352720
1988.000000	13.275869
1987.000000	13.185737
1986.000000	13.115273
1985.000000	13.048662
1984.000000	12.956400
1983.000000	12.879752
1982.000000	12.797629
1981.000000	12.713376
1980.000000	12.623142
1979.000000	12.533009
1978.000000	12.431927
1977.000000	12.361767
1976.000000	12.283396
1975.000000	12.180590
1974.000000	12.125537
1973.000000	12.042095
1972.000000	11.954497
1971.000000	11.883425
1970.000000	11.787818
1969.000000	11.706810
1968.000000	11.626106
1967.000000	11.536987
1966.000000	11.486091
1965.000000	11.416743
1964.000000	11.340804
1963.000000	11.261925
1962.000000	11.180715
1961.000000	11.120187
1960.000000	11.058138
1959.000000	10.991020
1958.000000	10.924105
1957.000000	10.848775
1956.000000	10.773647
1955.000000	10.715451
1954.000000	10.646002
1953.000000	10.588617
1952.000000	10.533158
1951.000000	10.470298
1950.000000	10.422241
1949.000000	10.344782
1948.000000	10.304227
1947.000000	10.263875
1946.000000	10.204970
1945.000000	10.171512
1944.000000	10.147788
1943.000000	10.097703
1942.000000	10.061305
1941.000000	10.038391
1940.000000	10.025515
1939.000000	10.002095
1938.000000	9.978371
1937.000000	9.986583
1936.000000	9.987698
1935.000000	9.985569
1934.000000	10.005745
1933.000000	10.001081
1932.000000	10.032917
1931.000000	10.031801
1930.000000	10.062015
1929.000000	10.120210
1928.000000	10.179420
1927.000000	10.243091
1926.000000	10.288309
1925.000000	10.378645
1924.000000	10.461376
1923.000000	10.517443
1922.000000	10.608286
1921.000000	10.716668
1920.000000	10.848471
1919.000000	11.017178
1918.000000	11.113901
1917.000000	11.256957
1916.000000	11.366455
1915.000000	11.471593
1914.000000	11.600354
1913.000000	11.814482
1912.000000	12.025975
1911.000000	12.221854
1910.000000	12.398368
1909.000000	12.561702
1908.000000	12.721082
1907.000000	12.890600
1906.000000	13.133016
1905.000000	13.415783
1904.000000	13.672595
1903.000000	13.967934
1902.000000	14.227687
1901.000000	14.491292
1900.000000	14.775682
1899.000000	15.138950
1898.000000	15.497554
1897.000000	15.847237
1896.000000	16.193371
1895.000000	16.505844
1894.000000	16.799460
1893.000000	17.138091
1892.000000	17.537048
1891.000000	18.000993
1890.000000	18.477003
1889.000000	18.945308
1888.000000	19.389382
1887.000000	19.852516
1886.000000	20.315650
1885.000000	20.804333
1884.000000	21.326069
1883.000000	21.889170
1882.000000	22.431792
1881.000000	22.925950
1880.000000	23.454478
1879.000000	23.927143
1878.000000	24.365944
1877.000000	24.849356
1876.000000	25.298701
1875.000000	25.708709
1874.000000	26.138385
1873.000000	26.559748
1872.000000	27.001287
1871.000000	27.386556
1870.000000	27.770507
1869.000000	28.110152
1868.000000	28.472711
1867.000000	28.733173
1866.000000	28.972953
1865.000000	29.122194
1864.000000	29.291002
1863.000000	29.449875
1862.000000	29.596785
1861.000000	29.775631
1860.000000	29.945250
1859.000000	30.113248
1858.000000	30.278711
1857.000000	30.382024
1856.000000	30.479558
1855.000000	30.561377
1854.000000	30.643500
1853.000000	30.736066
1852.000000	30.792538
1851.000000	30.837757
1850.000000	30.851444
1849.000000	30.867058
1848.000000	30.930830
1847.000000	30.979597
1846.000000	31.022686
1845.000000	31.014068
1844.000000	30.979698
1843.000000	30.955670
1842.000000	30.959117
1841.000000	30.974933
1840.000000	31.017515
1839.000000	31.022889
1838.000000	30.997339
1837.000000	30.977670
1836.000000	30.973615
1835.000000	30.965910
1834.000000	30.936609
1833.000000	30.881454
1832.000000	30.821332
1831.000000	30.786252
1830.000000	30.766583
1829.000000	30.748739
1828.000000	30.703927
1827.000000	30.643601
1826.000000	30.599904
1825.000000	30.585912
1824.000000	30.537146
1823.000000	30.489595
1822.000000	30.465871
1821.000000	30.469723
1820.000000	30.486554
1819.000000	30.473779
1818.000000	30.423592
1817.000000	30.380807
1816.000000	30.366512
1815.000000	30.367830
1814.000000	30.365599
1813.000000	30.350189
1812.000000	30.334778
1811.000000	30.294223
1810.000000	30.265227
1809.000000	30.253567
1808.000000	30.216155
1807.000000	30.178338
1806.000000	30.162725
1805.000000	30.118419
1804.000000	30.065900
1803.000000	30.037715
1802.000000	30.015004
1801.000000	29.979316
1800.000000	29.935517
1799.000000	29.895571
1798.000000	29.848629
1797.000000	29.809190
1796.000000	29.779179
1795.000000	29.737915
1794.000000	29.694318
1793.000000	29.663396
1792.000000	29.627707
1791.000000	29.588978
1790.000000	29.552479
1789.000000	29.518920
1788.000000	29.487794
1787.000000	29.439230
1786.000000	29.397458
1785.000000	29.375458
1784.000000	29.337640
1783.000000	29.299620
1782.000000	29.250245
1781.000000	29.198234
1780.000000	29.158490
1779.000000	29.113474
1778.000000	29.055380
1777.000000	29.015941
1776.000000	28.958556
1775.000000	28.898028
1774.000000	28.854229
1773.000000	28.788936
1772.000000	28.734694
1771.000000	28.665650
1770.000000	28.592956
1769.000000	28.539119
1768.000000	28.474941
1767.000000	28.407519
1766.000000	28.331581
1765.000000	28.275615
1764.000000	28.250573
1763.000000	28.213770
1762.000000	28.201806
1761.000000	28.207078
1760.000000	28.222692
1759.000000	28.263956
1758.000000	28.317184
1757.000000	28.366356
1756.000000	28.417050
1755.000000	28.466932
1754.000000	28.517220
1753.000000	28.573185
1752.000000	28.612625
1751.000000	28.632091
1750.000000	28.645271
1749.000000	28.649428
1748.000000	28.632192
1747.000000	28.616173
1746.000000	28.573591
1745.000000	28.538815
1744.000000	28.485384
1743.000000	28.415529
1742.000000	28.335231
1741.000000	28.237190
1740.000000	28.128301
1739.000000	27.995079
1738.000000	27.857091
1737.000000	27.731372
1736.000000	27.608491
1735.000000	27.507308
1734.000000	27.413626
1733.000000	27.349550
1732.000000	27.319134
1731.000000	27.324102
1730.000000	27.334342
1729.000000	27.372666
1728.000000	27.425387
1727.000000	27.478007
1726.000000	27.544821
1725.000000	27.607072
1724.000000	27.678955
1723.000000	27.745870
1722.000000	27.795854
1721.000000	27.851211
1720.000000	27.920559
1719.000000	27.987880
1718.000000	28.050030
1717.000000	28.139859
1716.000000	28.221374
1715.000000	28.319414
1714.000000	28.394643
1713.000000	28.502620
1712.000000	28.590319
1711.000000	28.660276
1710.000000	28.726380
1709.000000	28.784171
1708.000000	28.818946
1707.000000	28.838717
1706.000000	28.842164
1705.000000	28.827463
1704.000000	28.798568
1703.000000	28.777479
1702.000000	28.716647
1701.000000	28.662000
1700.000000	28.594071
1699.000000	28.506574
1698.000000	28.382071
1697.000000	28.287680
1696.000000	28.202820
1695.000000	28.135094
1694.000000	28.099912
1693.000000	28.109544
1692.000000	28.132863
1691.000000	28.210221
1690.000000	28.290418
1689.000000	28.391095
1688.000000	28.474637
1687.000000	28.565378
1686.000000	28.657032
1685.000000	28.721717
1684.000000	28.819149
1683.000000	28.906544
1682.000000	29.057915
1681.000000	29.253287
1680.000000	29.512836
1679.000000	29.814867
1678.000000	30.162015
1677.000000	30.516361
1676.000000	30.866449
1675.000000	31.148912
1674.000000	31.453782
1673.000000	31.736042
1672.000000	31.965683
1671.000000	32.162981
1670.000000	32.349938
1669.000000	32.509318
1668.000000	32.645480
1667.000000	32.748895
1666.000000	32.844097
1665.000000	32.963226
1664.000000	33.041294
1663.000000	33.102531
1662.000000	33.195402
1661.000000	33.259072
1660.000000	33.320918
1659.000000	33.352449
1658.000000	33.379114
1657.000000	33.429402
1656.000000	33.426867
1655.000000	33.464177
1654.000000	33.462251
1653.000000	33.447246
1652.000000	33.470159
1651.000000	33.450997
1650.000000	33.424637
1649.000000	33.408313
1648.000000	33.396857
1647.000000	33.359445
1646.000000	33.330550
1645.000000	33.287461
1644.000000	33.245284
1643.000000	33.214361
1642.000000	33.186175
1641.000000	33.121491
1640.000000	33.087830
1639.000000	33.056096
1638.000000	32.995467
1637.000000	32.951567
1636.000000	32.919630
1635.000000	32.848051
1634.000000	32.785698
1633.000000	32.737540
1632.000000	32.678735
1631.000000	32.638992
1630.000000	32.567210
1629.000000	32.493198
1628.000000	32.435914
1627.000000	32.379341
1626.000000	32.290729
1625.000000	32.225131
1624.000000	32.157101
1623.000000	32.107523
1622.000000	32.041419
1621.000000	31.973186
1620.000000	31.905257
1619.000000	31.834387
1618.000000	31.772440
1617.000000	31.722254
1616.000000	31.664666
1615.000000	31.603530
1614.000000	31.545131
1613.000000	31.478318
1612.000000	31.420122
1611.000000	31.364055
1610.000000	31.306163
1609.000000	31.250806
1608.000000	31.179937
1607.000000	31.107851
1606.000000	31.048438
1605.000000	30.982334
