PE UV       SUBTECH     SPECTRUM    ASCII       PEDS        4.00        
   -1
CICIMAUCR0204-3.Sample.ASC
24/05/31
16:34:21.00
24/05/31
16:34:21.00
Vinicio Soto Monge
C. cupreomarginata. Sex M. Dorsal
250,000000
1
Lambda 1050
1050L1511233
PerkinElmer UV WinLab 6.3.2.0749 / 2.02.05 Lambda 900 UV/VIS/NIR, Aug  7 2015 09:38:08

0
0
3350/servo 860,8/2
0
0
UV/VIS
1
1
1
DoubleDePol,CommonBeamDepol,RBeamAtt,SBeamAtt,60mm sphere, WB InGaAs Detector
0
0
0
0
Program
Program
3350/servo 860,8/2
3350/0,2 860,8/0,2
3350/0,2 860,8/0,2
0
15.00
 
 
 
0
 
860,8
319,2
860,8
Front
100
on
S:100 R:100
0
0
0
0
 
0
 
 
 
0
 
 
0
0
0
0
0
 
 
 
 
0
0


0
0
#HDR
-1
-1
#GR
nm
%R
1.0
0.0
2500,000000
-1,000000
2251
8
68,833200
5,187100
#DATA
2482.000000	11.761877
2481.000000	11.677592
2480.000000	11.737159
2479.000000	11.805134
2478.000000	11.754482
2477.000000	11.767347
2476.000000	11.721659
2475.000000	11.823774
2474.000000	11.805336
2473.000000	11.822760
2472.000000	11.805944
2471.000000	11.847377
2470.000000	11.836639
2469.000000	11.843224
2468.000000	11.839780
2467.000000	11.876654
2466.000000	11.888405
2465.000000	11.917176
2464.000000	11.933486
2463.000000	12.012300
2462.000000	12.032966
2461.000000	12.061837
2460.000000	12.129711
2459.000000	12.197078
2458.000000	12.285111
2457.000000	12.326240
2456.000000	12.431090
2455.000000	12.522466
2454.000000	12.560759
2453.000000	12.656592
2452.000000	12.750501
2451.000000	12.860922
2450.000000	12.946017
2449.000000	13.025338
2448.000000	13.127553
2447.000000	13.233416
2446.000000	13.354271
2445.000000	13.436429
2444.000000	13.517370
2443.000000	13.644811
2442.000000	13.723422
2441.000000	13.838503
2440.000000	13.925827
2439.000000	14.013658
2438.000000	14.131170
2437.000000	14.212112
2436.000000	14.301462
2435.000000	14.382809
2434.000000	14.451999
2433.000000	14.522507
2432.000000	14.604360
2431.000000	14.680540
2430.000000	14.757430
2429.000000	14.813958
2428.000000	14.873119
2427.000000	14.952035
2426.000000	15.009879
2425.000000	15.062962
2424.000000	15.130329
2423.000000	15.170446
2422.000000	15.217856
2421.000000	15.261214
2420.000000	15.320578
2419.000000	15.365861
2418.000000	15.418843
2417.000000	15.455920
2416.000000	15.498569
2415.000000	15.543649
2414.000000	15.588425
2413.000000	15.612738
2412.000000	15.655387
2411.000000	15.688209
2410.000000	15.739266
2409.000000	15.767226
2408.000000	15.794173
2407.000000	15.838645
2406.000000	15.874203
2405.000000	15.907431
2404.000000	15.938024
2403.000000	15.975304
2402.000000	16.015724
2401.000000	16.045913
2400.000000	16.077621
2399.000000	16.114597
2398.000000	16.164438
2397.000000	16.227044
2396.000000	16.257638
2395.000000	16.280431
2394.000000	16.294411
2393.000000	16.322878
2392.000000	16.357929
2391.000000	16.395614
2390.000000	16.420129
2389.000000	16.442720
2388.000000	16.457409
2387.000000	16.480709
2386.000000	16.493169
2385.000000	16.502996
2384.000000	16.511708
2383.000000	16.518293
2382.000000	16.524877
2381.000000	16.521940
2380.000000	16.524067
2379.000000	16.507960
2378.000000	16.493473
2377.000000	16.488611
2376.000000	16.474327
2375.000000	16.457814
2374.000000	16.439580
2373.000000	16.417597
2372.000000	16.377075
2371.000000	16.349419
2370.000000	16.323080
2369.000000	16.276582
2368.000000	16.242645
2367.000000	16.212963
2366.000000	16.160184
2365.000000	16.107607
2364.000000	16.050776
2363.000000	15.976520
2362.000000	15.908950
2361.000000	15.840064
2360.000000	15.773305
2359.000000	15.702797
2358.000000	15.633505
2357.000000	15.589539
2356.000000	15.532607
2355.000000	15.475978
2354.000000	15.441231
2353.000000	15.408307
2352.000000	15.389363
2351.000000	15.381563
2350.000000	15.388755
2349.000000	15.397265
2348.000000	15.409928
2347.000000	15.438192
2346.000000	15.484994
2345.000000	15.550841
2344.000000	15.599771
2343.000000	15.627832
2342.000000	15.670886
2341.000000	15.722551
2340.000000	15.755678
2339.000000	15.786575
2338.000000	15.819499
2337.000000	15.831554
2336.000000	15.840773
2335.000000	15.838949
2334.000000	15.833276
2333.000000	15.802784
2332.000000	15.766213
2331.000000	15.715257
2330.000000	15.668455
2329.000000	15.616993
2328.000000	15.545675
2327.000000	15.476687
2326.000000	15.405774
2325.000000	15.324326
2324.000000	15.218464
2323.000000	15.112500
2322.000000	15.007448
2321.000000	14.888517
2320.000000	14.764217
2319.000000	14.628876
2318.000000	14.481073
2317.000000	14.331954
2316.000000	14.188711
2315.000000	14.041415
2314.000000	13.898678
2313.000000	13.737301
2312.000000	13.594766
2311.000000	13.470568
2310.000000	13.357513
2309.000000	13.254994
2308.000000	13.198263
2307.000000	13.128566
2306.000000	13.091185
2305.000000	13.089261
2304.000000	13.084297
2303.000000	13.109825
2302.000000	13.185398
2301.000000	13.244458
2300.000000	13.321550
2299.000000	13.422145
2298.000000	13.533478
2297.000000	13.645925
2296.000000	13.751787
2295.000000	13.871326
2294.000000	13.961891
2293.000000	14.058940
2292.000000	14.137957
2291.000000	14.203298
2290.000000	14.269956
2289.000000	14.308553
2288.000000	14.323647
2287.000000	14.333676
2286.000000	14.323546
2285.000000	14.321824
2284.000000	14.258509
2283.000000	14.220621
2282.000000	14.182227
2281.000000	14.122154
2280.000000	14.053166
2279.000000	13.982557
2278.000000	13.922180
2277.000000	13.855522
2276.000000	13.790891
2275.000000	13.750876
2274.000000	13.704073
2273.000000	13.666287
2272.000000	13.608848
2271.000000	13.617661
2270.000000	13.638327
2269.000000	13.687561
2268.000000	13.712785
2267.000000	13.801730
2266.000000	13.875378
2265.000000	14.004439
2264.000000	14.169463
2263.000000	14.350797
2262.000000	14.556139
2261.000000	14.781338
2260.000000	15.016464
2259.000000	15.300722
2258.000000	15.554894
2257.000000	15.832061
2256.000000	16.115306
2255.000000	16.407669
2254.000000	16.689699
2253.000000	16.961801
2252.000000	17.228027
2251.000000	17.514919
2250.000000	17.751464
2249.000000	17.978080
2248.000000	18.195174
2247.000000	18.401935
2246.000000	18.605049
2245.000000	18.762172
2244.000000	18.933983
2243.000000	19.085533
2242.000000	19.235260
2241.000000	19.352874
2240.000000	19.460053
2239.000000	19.569360
2238.000000	19.682010
2237.000000	19.778350
2236.000000	19.856557
2235.000000	19.919365
2234.000000	19.977513
2233.000000	20.038397
2232.000000	20.081755
2231.000000	20.106068
2230.000000	20.156112
2229.000000	20.188124
2228.000000	20.201800
2227.000000	20.218211
2226.000000	20.224391
2225.000000	20.218819
2224.000000	20.181235
2223.000000	20.178095
2222.000000	20.154288
2221.000000	20.136358
2220.000000	20.107689
2219.000000	20.093506
2218.000000	20.065648
2217.000000	20.004156
2216.000000	19.976500
2215.000000	19.923113
2214.000000	19.903156
2213.000000	19.863546
2212.000000	19.834574
2211.000000	19.793242
2210.000000	19.750998
2209.000000	19.726381
2208.000000	19.702575
2207.000000	19.675425
2206.000000	19.655266
2205.000000	19.631459
2204.000000	19.615352
2203.000000	19.569360
2202.000000	19.540083
2201.000000	19.522963
2200.000000	19.513542
2199.000000	19.511921
2198.000000	19.488216
2197.000000	19.469069
2196.000000	19.464612
2195.000000	19.467246
2194.000000	19.435538
2193.000000	19.435234
2192.000000	19.391876
2191.000000	19.400487
2190.000000	19.378707
2189.000000	19.382556
2188.000000	19.352064
2187.000000	19.326636
2186.000000	19.321774
2185.000000	19.306376
2184.000000	19.295739
2183.000000	19.278517
2182.000000	19.263220
2181.000000	19.242757
2180.000000	19.235564
2179.000000	19.219052
2178.000000	19.224218
2177.000000	19.189471
2176.000000	19.183798
2175.000000	19.187546
2174.000000	19.177416
2173.000000	19.174275
2172.000000	19.183089
2171.000000	19.203755
2170.000000	19.206997
2169.000000	19.211758
2168.000000	19.214088
2167.000000	19.232120
2166.000000	19.254407
2165.000000	19.287432
2164.000000	19.297461
2163.000000	19.329473
2162.000000	19.362194
2161.000000	19.391673
2160.000000	19.405147
2159.000000	19.462282
2158.000000	19.506856
2157.000000	19.546263
2156.000000	19.582732
2155.000000	19.627914
2154.000000	19.694470
2153.000000	19.752720
2152.000000	19.809045
2151.000000	19.834776
2150.000000	19.889683
2149.000000	19.945603
2148.000000	19.989670
2147.000000	20.066559
2146.000000	20.101408
2145.000000	20.149223
2144.000000	20.207270
2143.000000	20.252654
2142.000000	20.274840
2141.000000	20.333697
2140.000000	20.375536
2139.000000	20.407852
2138.000000	20.467520
2137.000000	20.498721
2136.000000	20.505711
2135.000000	20.531848
2134.000000	20.579156
2133.000000	20.616538
2132.000000	20.625655
2131.000000	20.640141
2130.000000	20.650272
2129.000000	20.678333
2128.000000	20.698290
2127.000000	20.698391
2126.000000	20.698898
2125.000000	20.697885
2124.000000	20.690287
2123.000000	20.675192
2122.000000	20.680055
2121.000000	20.684310
2120.000000	20.664961
2119.000000	20.635684
2118.000000	20.618057
2117.000000	20.604178
2116.000000	20.580169
2115.000000	20.566797
2114.000000	20.528505
2113.000000	20.493859
2112.000000	20.483931
2111.000000	20.442498
2110.000000	20.415146
2109.000000	20.394277
2108.000000	20.350818
2107.000000	20.315767
2106.000000	20.282438
2105.000000	20.235433
2104.000000	20.209094
2103.000000	20.185996
2102.000000	20.138890
2101.000000	20.100597
2100.000000	20.070206
2099.000000	20.041132
2098.000000	19.998990
2097.000000	19.965762
2096.000000	19.942462
2095.000000	19.902548
2094.000000	19.862837
2093.000000	19.837511
2092.000000	19.806310
2091.000000	19.779160
2090.000000	19.764066
2089.000000	19.736613
2088.000000	19.696699
2087.000000	19.669246
2086.000000	19.651011
2085.000000	19.620823
2084.000000	19.588912
2083.000000	19.547580
2082.000000	19.505944
2081.000000	19.473020
2080.000000	19.427636
2079.000000	19.386102
2078.000000	19.342541
2077.000000	19.283177
2076.000000	19.229689
2075.000000	19.174377
2074.000000	19.121395
2073.000000	19.071959
2072.000000	19.017761
2071.000000	18.950191
2070.000000	18.886775
2069.000000	18.840378
2068.000000	18.782128
2067.000000	18.711722
2066.000000	18.656512
2065.000000	18.599073
2064.000000	18.526336
2063.000000	18.467783
2062.000000	18.436075
2061.000000	18.391400
2060.000000	18.329199
2059.000000	18.295972
2058.000000	18.269227
2057.000000	18.240457
2056.000000	18.221615
2055.000000	18.217664
2054.000000	18.231340
2053.000000	18.240356
2052.000000	18.265277
2051.000000	18.298302
2050.000000	18.347535
2049.000000	18.389171
2048.000000	18.463832
2047.000000	18.536467
2046.000000	18.619131
2045.000000	18.695210
2044.000000	18.776050
2043.000000	18.872795
2042.000000	18.972884
2041.000000	19.062537
2040.000000	19.147835
2039.000000	19.236577
2038.000000	19.315493
2037.000000	19.413454
2036.000000	19.492775
2035.000000	19.551936
2034.000000	19.622646
2033.000000	19.688291
2032.000000	19.734789
2031.000000	19.792634
2030.000000	19.846933
2029.000000	19.886644
2028.000000	19.924531
2027.000000	19.970928
2026.000000	19.995039
2025.000000	20.031002
2024.000000	20.060076
2023.000000	20.084287
2022.000000	20.101813
2021.000000	20.128051
2020.000000	20.158037
2019.000000	20.170902
2018.000000	20.186503
2017.000000	20.191467
2016.000000	20.182957
2015.000000	20.179513
2014.000000	20.170902
2013.000000	20.166344
2012.000000	20.156922
2011.000000	20.135952
2010.000000	20.115793
2009.000000	20.085908
2008.000000	20.065445
2007.000000	20.039309
2006.000000	19.980755
2005.000000	19.949351
2004.000000	19.909133
2003.000000	19.860102
2002.000000	19.807931
2001.000000	19.763661
2000.000000	19.712097
1999.000000	19.638247
1998.000000	19.566929
1997.000000	19.500372
1996.000000	19.444149
1995.000000	19.353988
1994.000000	19.285304
1993.000000	19.195448
1992.000000	19.106503
1991.000000	19.036705
1990.000000	18.963057
1989.000000	18.871782
1988.000000	18.770479
1987.000000	18.684370
1986.000000	18.593501
1985.000000	18.500707
1984.000000	18.411559
1983.000000	18.319778
1982.000000	18.218778
1981.000000	18.120513
1980.000000	18.012118
1979.000000	17.926922
1978.000000	17.825618
1977.000000	17.728063
1976.000000	17.637294
1975.000000	17.529304
1974.000000	17.450186
1973.000000	17.357898
1972.000000	17.255278
1971.000000	17.180414
1970.000000	17.065637
1969.000000	16.976996
1968.000000	16.910237
1967.000000	16.811770
1966.000000	16.714822
1965.000000	16.644922
1964.000000	16.552229
1963.000000	16.461765
1962.000000	16.367654
1961.000000	16.301300
1960.000000	16.203440
1959.000000	16.135060
1958.000000	16.042874
1957.000000	15.960717
1956.000000	15.880990
1955.000000	15.800150
1954.000000	15.712624
1953.000000	15.663289
1952.000000	15.602202
1951.000000	15.514777
1950.000000	15.444067
1949.000000	15.361099
1948.000000	15.329087
1947.000000	15.264557
1946.000000	15.213905
1945.000000	15.142688
1944.000000	15.101458
1943.000000	15.070155
1942.000000	15.020921
1941.000000	14.983236
1940.000000	14.966318
1939.000000	14.967534
1938.000000	14.942613
1937.000000	14.967534
1936.000000	14.956695
1935.000000	14.952035
1934.000000	14.978475
1933.000000	14.998938
1932.000000	15.058708
1931.000000	15.071168
1930.000000	15.131950
1929.000000	15.228898
1928.000000	15.293023
1927.000000	15.401824
1926.000000	15.513865
1925.000000	15.604431
1924.000000	15.705026
1923.000000	15.817777
1922.000000	15.919081
1921.000000	16.095451
1920.000000	16.303427
1919.000000	16.471085
1918.000000	16.628714
1917.000000	16.786039
1916.000000	16.953392
1915.000000	17.083973
1914.000000	17.264800
1913.000000	17.527076
1912.000000	17.766457
1911.000000	18.016373
1910.000000	18.210167
1909.000000	18.431820
1908.000000	18.615180
1907.000000	18.833591
1906.000000	19.097285
1905.000000	19.404235
1904.000000	19.726888
1903.000000	20.038599
1902.000000	20.303711
1901.000000	20.570951
1900.000000	20.886208
1899.000000	21.226589
1898.000000	21.581557
1897.000000	21.888305
1896.000000	22.223418
1895.000000	22.499775
1894.000000	22.763469
1893.000000	23.062720
1892.000000	23.403608
1891.000000	23.823410
1890.000000	24.232171
1889.000000	24.587646
1888.000000	24.946059
1887.000000	25.329393
1886.000000	25.707965
1885.000000	26.127363
1884.000000	26.556485
1883.000000	27.037375
1882.000000	27.476729
1881.000000	27.945968
1880.000000	28.401025
1879.000000	28.781319
1878.000000	29.192410
1877.000000	29.635716
1876.000000	30.020265
1875.000000	30.361557
1874.000000	30.742966
1873.000000	31.101683
1872.000000	31.436390
1871.000000	31.738478
1870.000000	32.037932
1869.000000	32.289470
1868.000000	32.543337
1867.000000	32.725076
1866.000000	32.869738
1865.000000	32.981273
1864.000000	33.112158
1863.000000	33.209916
1862.000000	33.285894
1861.000000	33.407864
1860.000000	33.520311
1859.000000	33.619690
1858.000000	33.693743
1857.000000	33.774178
1856.000000	33.813788
1855.000000	33.838202
1854.000000	33.882776
1853.000000	33.920056
1852.000000	33.908811
1851.000000	33.899086
1850.000000	33.913977
1849.000000	33.918030
1848.000000	33.920663
1847.000000	33.946395
1846.000000	33.913977
1845.000000	33.852385
1844.000000	33.826350
1843.000000	33.791906
1842.000000	33.787246
1841.000000	33.822703
1840.000000	33.812066
1839.000000	33.795553
1838.000000	33.758881
1837.000000	33.712484
1836.000000	33.674090
1835.000000	33.670240
1834.000000	33.626680
1833.000000	33.551107
1832.000000	33.478675
1831.000000	33.432582
1830.000000	33.397429
1829.000000	33.352147
1828.000000	33.296429
1827.000000	33.242029
1826.000000	33.192694
1825.000000	33.139712
1824.000000	33.080348
1823.000000	33.040131
1822.000000	33.017337
1821.000000	33.015919
1820.000000	33.002851
1819.000000	32.981375
1818.000000	32.955643
1817.000000	32.908740
1816.000000	32.879159
1815.000000	32.876221
1814.000000	32.868522
1813.000000	32.863153
1812.000000	32.836612
1811.000000	32.817161
1810.000000	32.804600
1809.000000	32.773904
1808.000000	32.746147
1807.000000	32.705727
1806.000000	32.665509
1805.000000	32.626507
1804.000000	32.585581
1803.000000	32.537259
1802.000000	32.497244
1801.000000	32.466042
1800.000000	32.429877
1799.000000	32.373045
1798.000000	32.325331
1797.000000	32.291901
1796.000000	32.241553
1795.000000	32.202652
1794.000000	32.177529
1793.000000	32.138426
1792.000000	32.107528
1791.000000	32.062144
1790.000000	31.990826
1789.000000	31.941593
1788.000000	31.899855
1787.000000	31.850216
1786.000000	31.810708
1785.000000	31.762994
1784.000000	31.707581
1783.000000	31.652168
1782.000000	31.586523
1781.000000	31.529793
1780.000000	31.473468
1779.000000	31.403062
1778.000000	31.357576
1777.000000	31.304290
1776.000000	31.219499
1775.000000	31.132682
1774.000000	31.048498
1773.000000	30.957730
1772.000000	30.864227
1771.000000	30.778220
1770.000000	30.687553
1769.000000	30.579766
1768.000000	30.479880
1767.000000	30.395494
1766.000000	30.324987
1765.000000	30.255897
1764.000000	30.199572
1763.000000	30.151757
1762.000000	30.133218
1761.000000	30.151048
1760.000000	30.181743
1759.000000	30.211628
1758.000000	30.248705
1757.000000	30.296419
1756.000000	30.364495
1755.000000	30.425277
1754.000000	30.455871
1753.000000	30.464077
1752.000000	30.478158
1751.000000	30.486465
1750.000000	30.476638
1749.000000	30.464988
1748.000000	30.430545
1747.000000	30.374929
1746.000000	30.321846
1745.000000	30.251339
1744.000000	30.165332
1743.000000	30.044476
1742.000000	29.922000
1741.000000	29.771868
1740.000000	29.601677
1739.000000	29.436451
1738.000000	29.259777
1737.000000	29.087763
1736.000000	28.958500
1735.000000	28.843621
1734.000000	28.762477
1733.000000	28.704734
1732.000000	28.688626
1731.000000	28.721753
1730.000000	28.756601
1729.000000	28.817890
1728.000000	28.905720
1727.000000	28.997603
1726.000000	29.085737
1725.000000	29.164450
1724.000000	29.228880
1723.000000	29.284394
1722.000000	29.342340
1721.000000	29.376074
1720.000000	29.421559
1719.000000	29.478593
1718.000000	29.521951
1717.000000	29.579087
1716.000000	29.655672
1715.000000	29.750290
1714.000000	29.836601
1713.000000	29.938006
1712.000000	30.017631
1711.000000	30.067878
1710.000000	30.131294
1709.000000	30.166345
1708.000000	30.178096
1707.000000	30.201295
1706.000000	30.189746
1705.000000	30.186302
1704.000000	30.161482
1703.000000	30.121670
1702.000000	30.062812
1701.000000	29.989468
1700.000000	29.897788
1699.000000	29.790305
1698.000000	29.683227
1697.000000	29.579593
1696.000000	29.496119
1695.000000	29.466943
1694.000000	29.456408
1693.000000	29.504628
1692.000000	29.592864
1691.000000	29.701360
1690.000000	29.834474
1689.000000	29.950264
1688.000000	30.088341
1687.000000	30.145375
1686.000000	30.209399
1685.000000	30.284870
1684.000000	30.355175
1683.000000	30.464685
1682.000000	30.660302
1681.000000	30.918728
1680.000000	31.272177
1679.000000	31.665134
1678.000000	32.100741
1677.000000	32.525913
1676.000000	32.940752
1675.000000	33.306560
1674.000000	33.618170
1673.000000	33.923601
1672.000000	34.168452
1671.000000	34.382406
1670.000000	34.564449
1669.000000	34.757028
1668.000000	34.904425
1667.000000	35.043515
1666.000000	35.161939
1665.000000	35.257266
1664.000000	35.371638
1663.000000	35.449236
1662.000000	35.535547
1661.000000	35.618312
1660.000000	35.689124
1659.000000	35.727619
1658.000000	35.780601
1657.000000	35.834292
1656.000000	35.855262
1655.000000	35.902166
1654.000000	35.911992
1653.000000	35.927390
1652.000000	35.949778
1651.000000	35.943092
1650.000000	35.937115
1649.000000	35.920704
1648.000000	35.931544
1647.000000	35.892339
1646.000000	35.879777
1645.000000	35.850197
1644.000000	35.827505
1643.000000	35.781310
1642.000000	35.759023
1641.000000	35.728328
1640.000000	35.691555
1639.000000	35.657010
1638.000000	35.623175
1637.000000	35.580830
1636.000000	35.542841
1635.000000	35.514375
1634.000000	35.466357
1633.000000	35.432825
1632.000000	35.382882
1631.000000	35.305891
1630.000000	35.270131
1629.000000	35.216947
1628.000000	35.136005
1627.000000	35.094774
1626.000000	35.029940
1625.000000	34.981213
1624.000000	34.912630
1623.000000	34.874337
1622.000000	34.815581
1621.000000	34.736058
1620.000000	34.687837
1619.000000	34.635058
1618.000000	34.585925
1617.000000	34.525042
1616.000000	34.478847
1615.000000	34.435591
1614.000000	34.375315
1613.000000	34.332869
1612.000000	34.263374
1611.000000	34.223258
1610.000000	34.158221
1609.000000	34.108481
1608.000000	34.061982
1607.000000	34.006063
