PE UV       SUBTECH     SPECTRUM    ASCII       PEDS        4.00        
   -1
CICIMAUCR0247-1.Sample.ASC
24/06/24
15:55:28.00
24/06/24
15:55:28.00
Vinicio Soto Monge
C. resplendens. Sex M.Dorsal.  
250,000000
1
Lambda 1050
1050L1511233
PerkinElmer UV WinLab 6.3.2.0749 / 2.02.05 Lambda 900 UV/VIS/NIR, Aug  7 2015 09:38:08

0
0
3350/servo 860,8/2
0
0
UV/VIS
1
1
1
DoubleDePol,CommonBeamDepol,RBeamAtt,SBeamAtt,60mm sphere, WB InGaAs Detector
0
0
0
0
Program
Program
3350/servo 860,8/2
3350/0,2 860,8/0,2
3350/0,2 860,8/0,2
0
15.00
 
 
 
0
 
860,8
319,2
860,8
Front
100
on
S:100 R:100
0
0
0
0
 
0
 
 
 
0
 
 
0
0
0
0
0
 
 
 
 
0
0


0
0
#HDR
-1
-1
#GR
nm
%R
1.0
0.0
2500,000000
-1,000000
2251
8
91,138500
5,778400
#DATA
2482.000000	10.955001
2481.000000	10.887928
2480.000000	10.967045
2479.000000	11.043150
2478.000000	10.994974
2477.000000	10.964345
2476.000000	11.000892
2475.000000	11.058101
2474.000000	11.044811
2473.000000	11.112091
2472.000000	11.067030
2471.000000	11.109599
2470.000000	11.117179
2469.000000	11.161824
2468.000000	11.158917
2467.000000	11.208235
2466.000000	11.203355
2465.000000	11.299810
2464.000000	11.376123
2463.000000	11.322860
2462.000000	11.390763
2461.000000	11.429387
2460.000000	11.463234
2459.000000	11.510891
2458.000000	11.569761
2457.000000	11.663828
2456.000000	11.673795
2455.000000	11.736715
2454.000000	11.828498
2453.000000	11.850198
2452.000000	11.950079
2451.000000	11.990987
2450.000000	12.082147
2449.000000	12.153477
2448.000000	12.243391
2447.000000	12.315031
2446.000000	12.391344
2445.000000	12.462570
2444.000000	12.538052
2443.000000	12.615818
2442.000000	12.696596
2441.000000	12.781423
2440.000000	12.846003
2439.000000	12.942355
2438.000000	12.997591
2437.000000	13.072657
2436.000000	13.160184
2435.000000	13.226529
2434.000000	13.292356
2433.000000	13.364515
2432.000000	13.432418
2431.000000	13.525032
2430.000000	13.596984
2429.000000	13.649001
2428.000000	13.724795
2427.000000	13.777955
2426.000000	13.833295
2425.000000	13.895591
2424.000000	13.967231
2423.000000	14.030047
2422.000000	14.085387
2421.000000	14.125879
2420.000000	14.177170
2419.000000	14.226072
2418.000000	14.287123
2417.000000	14.342359
2416.000000	14.390119
2415.000000	14.429262
2414.000000	14.470689
2413.000000	14.515854
2412.000000	14.569013
2411.000000	14.624664
2410.000000	14.683534
2409.000000	14.715202
2408.000000	14.755383
2407.000000	14.791722
2406.000000	14.813733
2405.000000	14.863986
2404.000000	14.898145
2403.000000	14.940299
2402.000000	14.970408
2401.000000	14.998753
2400.000000	15.043503
2399.000000	15.081400
2398.000000	15.115351
2397.000000	15.151691
2396.000000	15.173598
2395.000000	15.202566
2394.000000	15.236517
2393.000000	15.270053
2392.000000	15.294037
2391.000000	15.318644
2390.000000	15.364121
2389.000000	15.395165
2388.000000	15.394542
2387.000000	15.395580
2386.000000	15.417488
2385.000000	15.435346
2384.000000	15.452893
2383.000000	15.463068
2382.000000	15.483314
2381.000000	15.497538
2380.000000	15.499304
2379.000000	15.502003
2378.000000	15.502418
2377.000000	15.507091
2376.000000	15.505014
2375.000000	15.501692
2374.000000	15.507610
2373.000000	15.517266
2372.000000	15.505741
2371.000000	15.502107
2370.000000	15.495150
2369.000000	15.478642
2368.000000	15.478642
2367.000000	15.469817
2366.000000	15.455489
2365.000000	15.442822
2364.000000	15.425898
2363.000000	15.413750
2362.000000	15.403263
2361.000000	15.391427
2360.000000	15.355711
2359.000000	15.329754
2358.000000	15.315426
2357.000000	15.294245
2356.000000	15.267354
2355.000000	15.255621
2354.000000	15.250845
2353.000000	15.230911
2352.000000	15.205784
2351.000000	15.205265
2350.000000	15.225719
2349.000000	15.228626
2348.000000	15.232676
2347.000000	15.254272
2346.000000	15.284278
2345.000000	15.316360
2344.000000	15.334841
2343.000000	15.339306
2342.000000	15.355815
2341.000000	15.401498
2340.000000	15.443133
2339.000000	15.458499
2338.000000	15.475216
2337.000000	15.498161
2336.000000	15.513216
2335.000000	15.539900
2334.000000	15.548725
2333.000000	15.554332
2332.000000	15.566687
2331.000000	15.563676
2330.000000	15.573540
2329.000000	15.553086
2328.000000	15.539381
2327.000000	15.531178
2326.000000	15.516643
2325.000000	15.507610
2324.000000	15.479784
2323.000000	15.450712
2322.000000	15.410531
2321.000000	15.353115
2320.000000	15.308989
2319.000000	15.265693
2318.000000	15.201839
2317.000000	15.136116
2316.000000	15.074651
2315.000000	15.004048
2314.000000	14.928047
2313.000000	14.855783
2312.000000	14.787465
2311.000000	14.717693
2310.000000	14.643249
2309.000000	14.584587
2308.000000	14.535165
2307.000000	14.505471
2306.000000	14.467989
2305.000000	14.425109
2304.000000	14.423448
2303.000000	14.433934
2302.000000	14.448574
2301.000000	14.472869
2300.000000	14.510662
2299.000000	14.551051
2298.000000	14.600992
2297.000000	14.673567
2296.000000	14.732645
2295.000000	14.776875
2294.000000	14.844155
2293.000000	14.927736
2292.000000	14.979130
2291.000000	15.027306
2290.000000	15.083891
2289.000000	15.136220
2288.000000	15.171314
2287.000000	15.196855
2286.000000	15.228211
2285.000000	15.239632
2284.000000	15.247419
2283.000000	15.244200
2282.000000	15.215752
2281.000000	15.228523
2280.000000	15.203708
2279.000000	15.193637
2278.000000	15.161139
2277.000000	15.118985
2276.000000	15.086487
2275.000000	15.074859
2274.000000	15.037585
2273.000000	15.024606
2272.000000	15.004360
2271.000000	14.991901
2270.000000	15.004568
2269.000000	14.997300
2268.000000	15.009759
2267.000000	15.071328
2266.000000	15.140996
2265.000000	15.208172
2264.000000	15.289158
2263.000000	15.416138
2262.000000	15.547064
2261.000000	15.691591
2260.000000	15.842140
2259.000000	16.032144
2258.000000	16.183316
2257.000000	16.390140
2256.000000	16.571526
2255.000000	16.765371
2254.000000	16.964926
2253.000000	17.182133
2252.000000	17.369540
2251.000000	17.555910
2250.000000	17.738334
2249.000000	17.921589
2248.000000	18.091554
2247.000000	18.266710
2246.000000	18.413314
2245.000000	18.536972
2244.000000	18.681188
2243.000000	18.804534
2242.000000	18.898290
2241.000000	19.030462
2240.000000	19.102933
2239.000000	19.187241
2238.000000	19.252548
2237.000000	19.337582
2236.000000	19.362189
2235.000000	19.418879
2234.000000	19.450131
2233.000000	19.504225
2232.000000	19.526340
2231.000000	19.558422
2230.000000	19.560499
2229.000000	19.551985
2228.000000	19.564652
2227.000000	19.563510
2226.000000	19.533608
2225.000000	19.517930
2224.000000	19.498618
2223.000000	19.449300
2222.000000	19.426562
2221.000000	19.378802
2220.000000	19.342254
2219.000000	19.297505
2218.000000	19.243100
2217.000000	19.186825
2216.000000	19.131797
2215.000000	19.103660
2214.000000	19.033161
2213.000000	19.000871
2212.000000	18.931930
2211.000000	18.889153
2210.000000	18.870568
2209.000000	18.809310
2208.000000	18.789998
2207.000000	18.750752
2206.000000	18.721369
2205.000000	18.685756
2204.000000	18.660422
2203.000000	18.625017
2202.000000	18.585459
2201.000000	18.590650
2200.000000	18.558879
2199.000000	18.536245
2198.000000	18.516829
2197.000000	18.490873
2196.000000	18.465643
2195.000000	18.451314
2194.000000	18.450692
2193.000000	18.425773
2192.000000	18.420686
2191.000000	18.381750
2190.000000	18.396494
2189.000000	18.371887
2188.000000	18.336586
2187.000000	18.341985
2186.000000	18.335028
2185.000000	18.325684
2184.000000	18.292355
2183.000000	18.278442
2182.000000	18.261830
2181.000000	18.254562
2180.000000	18.217081
2179.000000	18.198288
2178.000000	18.201922
2177.000000	18.179911
2176.000000	18.171293
2175.000000	18.156030
2174.000000	18.153746
2173.000000	18.159041
2172.000000	18.151566
2171.000000	18.155096
2170.000000	18.154161
2169.000000	18.162052
2168.000000	18.180430
2167.000000	18.189359
2166.000000	18.212512
2165.000000	18.228294
2164.000000	18.251759
2163.000000	18.269306
2162.000000	18.290590
2161.000000	18.320389
2160.000000	18.348526
2159.000000	18.398674
2158.000000	18.426707
2157.000000	18.487965
2156.000000	18.510288
2155.000000	18.567393
2154.000000	18.642979
2153.000000	18.681914
2152.000000	18.734555
2151.000000	18.785638
2150.000000	18.835994
2149.000000	18.894241
2148.000000	18.958925
2147.000000	19.013538
2146.000000	19.060364
2145.000000	19.121622
2144.000000	19.172186
2143.000000	19.204787
2142.000000	19.257947
2141.000000	19.305188
2140.000000	19.356167
2139.000000	19.400294
2138.000000	19.466432
2137.000000	19.495503
2136.000000	19.517411
2135.000000	19.568701
2134.000000	19.607636
2133.000000	19.632243
2132.000000	19.661211
2131.000000	19.680315
2130.000000	19.699523
2129.000000	19.715824
2128.000000	19.736278
2127.000000	19.737316
2126.000000	19.751437
2125.000000	19.763377
2124.000000	19.769918
2123.000000	19.760470
2122.000000	19.759951
2121.000000	19.763689
2120.000000	19.766284
2119.000000	19.753617
2118.000000	19.741262
2117.000000	19.719977
2116.000000	19.709387
2115.000000	19.695993
2114.000000	19.667649
2113.000000	19.637954
2112.000000	19.608052
2111.000000	19.588740
2110.000000	19.567975
2109.000000	19.540045
2108.000000	19.506924
2107.000000	19.481590
2106.000000	19.453765
2105.000000	19.428223
2104.000000	19.399879
2103.000000	19.370807
2102.000000	19.339763
2101.000000	19.317440
2100.000000	19.284630
2099.000000	19.249641
2098.000000	19.214443
2097.000000	19.166579
2096.000000	19.144775
2095.000000	19.141557
2094.000000	19.117677
2093.000000	19.088190
2092.000000	19.061921
2091.000000	19.051227
2090.000000	19.031500
2089.000000	18.998587
2088.000000	18.968581
2087.000000	18.953630
2086.000000	18.929127
2085.000000	18.890191
2084.000000	18.856863
2083.000000	18.819485
2082.000000	18.774217
2081.000000	18.732271
2080.000000	18.690013
2079.000000	18.650247
2078.000000	18.602591
2077.000000	18.539048
2076.000000	18.476752
2075.000000	18.402412
2074.000000	18.339493
2073.000000	18.277819
2072.000000	18.206386
2071.000000	18.136719
2070.000000	18.071100
2069.000000	17.991049
2068.000000	17.908299
2067.000000	17.833543
2066.000000	17.757334
2065.000000	17.678426
2064.000000	17.595364
2063.000000	17.522166
2062.000000	17.450837
2061.000000	17.380027
2060.000000	17.310151
2059.000000	17.248582
2058.000000	17.198849
2057.000000	17.155345
2056.000000	17.121290
2055.000000	17.091907
2054.000000	17.062731
2053.000000	17.052972
2052.000000	17.062628
2051.000000	17.087650
2050.000000	17.106650
2049.000000	17.124197
2048.000000	17.159602
2047.000000	17.204871
2046.000000	17.261353
2045.000000	17.301534
2044.000000	17.362169
2043.000000	17.424880
2042.000000	17.478247
2041.000000	17.538467
2040.000000	17.587577
2039.000000	17.635338
2038.000000	17.688289
2037.000000	17.728990
2036.000000	17.757957
2035.000000	17.798138
2034.000000	17.837800
2033.000000	17.857216
2032.000000	17.873621
2031.000000	17.891375
2030.000000	17.912452
2029.000000	17.922627
2028.000000	17.931972
2027.000000	17.936228
2026.000000	17.942458
2025.000000	17.945261
2024.000000	17.929480
2023.000000	17.920343
2022.000000	17.910895
2021.000000	17.893556
2020.000000	17.872167
2019.000000	17.853271
2018.000000	17.845484
2017.000000	17.818073
2016.000000	17.801669
2015.000000	17.759722
2014.000000	17.724110
2013.000000	17.688186
2012.000000	17.641567
2011.000000	17.611873
2010.000000	17.559129
2009.000000	17.528396
2008.000000	17.469007
2007.000000	17.427061
2006.000000	17.369229
2005.000000	17.314720
2004.000000	17.258861
2003.000000	17.177460
2002.000000	17.127831
2001.000000	17.057125
2000.000000	16.984550
1999.000000	16.911352
1998.000000	16.847602
1997.000000	16.756545
1996.000000	16.675560
1995.000000	16.600078
1994.000000	16.528334
1993.000000	16.441949
1992.000000	16.365844
1991.000000	16.265963
1990.000000	16.162239
1989.000000	16.078866
1988.000000	16.003592
1987.000000	15.928213
1986.000000	15.822517
1985.000000	15.737067
1984.000000	15.648503
1983.000000	15.552671
1982.000000	15.439499
1981.000000	15.357268
1980.000000	15.288742
1979.000000	15.202773
1978.000000	15.099258
1977.000000	15.028552
1976.000000	14.929397
1975.000000	14.840002
1974.000000	14.744792
1973.000000	14.686338
1972.000000	14.591336
1971.000000	14.487613
1970.000000	14.406316
1969.000000	14.326473
1968.000000	14.250679
1967.000000	14.168656
1966.000000	14.080818
1965.000000	14.008035
1964.000000	13.949685
1963.000000	13.870153
1962.000000	13.787299
1961.000000	13.725211
1960.000000	13.653258
1959.000000	13.553584
1958.000000	13.505201
1957.000000	13.435222
1956.000000	13.329733
1955.000000	13.288929
1954.000000	13.232966
1953.000000	13.181157
1952.000000	13.116265
1951.000000	13.043897
1950.000000	12.980044
1949.000000	12.907780
1948.000000	12.869779
1947.000000	12.841850
1946.000000	12.787652
1945.000000	12.734493
1944.000000	12.705214
1943.000000	12.671574
1942.000000	12.629524
1941.000000	12.625474
1940.000000	12.606059
1939.000000	12.585086
1938.000000	12.593392
1937.000000	12.583424
1936.000000	12.605851
1935.000000	12.598895
1934.000000	12.614988
1933.000000	12.644059
1932.000000	12.651846
1931.000000	12.700957
1930.000000	12.768652
1929.000000	12.805510
1928.000000	12.879435
1927.000000	12.949726
1926.000000	13.037045
1925.000000	13.122598
1924.000000	13.191955
1923.000000	13.283011
1922.000000	13.389122
1921.000000	13.545694
1920.000000	13.692090
1919.000000	13.847207
1918.000000	13.953422
1917.000000	14.119753
1916.000000	14.246422
1915.000000	14.380982
1914.000000	14.545340
1913.000000	14.791514
1912.000000	15.035508
1911.000000	15.243474
1910.000000	15.423925
1909.000000	15.632306
1908.000000	15.816599
1907.000000	16.054778
1906.000000	16.336046
1905.000000	16.674003
1904.000000	17.009572
1903.000000	17.307140
1902.000000	17.617376
1901.000000	17.952633
1900.000000	18.314574
1899.000000	18.735593
1898.000000	19.160765
1897.000000	19.539941
1896.000000	19.927216
1895.000000	20.295698
1894.000000	20.676744
1893.000000	21.095790
1892.000000	21.577963
1891.000000	22.184313
1890.000000	22.731170
1889.000000	23.246256
1888.000000	23.797577
1887.000000	24.286084
1886.000000	24.807296
1885.000000	25.350623
1884.000000	25.977219
1883.000000	26.550033
1882.000000	27.109557
1881.000000	27.660671
1880.000000	28.183232
1879.000000	28.655542
1878.000000	29.167513
1877.000000	29.677823
1876.000000	30.148783
1875.000000	30.645180
1874.000000	31.111571
1873.000000	31.570279
1872.000000	32.051517
1871.000000	32.465164
1870.000000	32.877669
1869.000000	33.250305
1868.000000	33.581513
1867.000000	33.851359
1866.000000	34.090992
1865.000000	34.282242
1864.000000	34.468196
1863.000000	34.631827
1862.000000	34.841350
1861.000000	35.057726
1860.000000	35.283031
1859.000000	35.457252
1858.000000	35.621818
1857.000000	35.769253
1856.000000	35.885124
1855.000000	35.980852
1854.000000	36.097762
1853.000000	36.177708
1852.000000	36.224119
1851.000000	36.303755
1850.000000	36.363870
1849.000000	36.437380
1848.000000	36.496146
1847.000000	36.568825
1846.000000	36.589902
1845.000000	36.549928
1844.000000	36.538404
1843.000000	36.532693
1842.000000	36.568929
1841.000000	36.624788
1840.000000	36.635067
1839.000000	36.644100
1838.000000	36.629356
1837.000000	36.613367
1836.000000	36.604957
1835.000000	36.589175
1834.000000	36.532589
1833.000000	36.468009
1832.000000	36.420560
1831.000000	36.395018
1830.000000	36.387647
1829.000000	36.339783
1828.000000	36.281847
1827.000000	36.255786
1826.000000	36.231179
1825.000000	36.170337
1824.000000	36.116554
1823.000000	36.074920
1822.000000	36.090909
1821.000000	36.106483
1820.000000	36.091947
1819.000000	36.074297
1818.000000	36.040657
1817.000000	35.987393
1816.000000	35.957284
1815.000000	35.942748
1814.000000	35.918037
1813.000000	35.918971
1812.000000	35.907135
1811.000000	35.872561
1810.000000	35.832276
1809.000000	35.794794
1808.000000	35.756586
1807.000000	35.718585
1806.000000	35.699585
1805.000000	35.665114
1804.000000	35.612993
1803.000000	35.576965
1802.000000	35.552773
1801.000000	35.528893
1800.000000	35.481237
1799.000000	35.423924
1798.000000	35.368584
1797.000000	35.327884
1796.000000	35.287495
1795.000000	35.256036
1794.000000	35.231013
1793.000000	35.193532
1792.000000	35.157504
1791.000000	35.115661
1790.000000	35.078284
1789.000000	35.065305
1788.000000	35.032392
1787.000000	34.988473
1786.000000	34.971342
1785.000000	34.943412
1784.000000	34.903231
1783.000000	34.875406
1782.000000	34.829306
1781.000000	34.789022
1780.000000	34.771994
1779.000000	34.740846
1778.000000	34.697031
1777.000000	34.649789
1776.000000	34.606494
1775.000000	34.543678
1774.000000	34.498410
1773.000000	34.466119
1772.000000	34.418047
1771.000000	34.363227
1770.000000	34.297608
1769.000000	34.246733
1768.000000	34.191601
1767.000000	34.138337
1766.000000	34.084347
1765.000000	34.047073
1764.000000	34.007723
1763.000000	33.990280
1762.000000	33.985296
1761.000000	33.996821
1760.000000	34.011565
1759.000000	34.044789
1758.000000	34.093796
1757.000000	34.135742
1756.000000	34.178415
1755.000000	34.226071
1754.000000	34.268536
1753.000000	34.309237
1752.000000	34.353882
1751.000000	34.372883
1750.000000	34.377970
1749.000000	34.375167
1748.000000	34.371221
1747.000000	34.351183
1746.000000	34.323461
1745.000000	34.282657
1744.000000	34.225864
1743.000000	34.161179
1742.000000	34.088604
1741.000000	33.995160
1740.000000	33.888737
1739.000000	33.788752
1738.000000	33.676722
1737.000000	33.561163
1736.000000	33.470418
1735.000000	33.390575
1734.000000	33.297234
1733.000000	33.252693
1732.000000	33.226320
1731.000000	33.202025
1730.000000	33.206282
1729.000000	33.219883
1728.000000	33.259857
1727.000000	33.295054
1726.000000	33.329317
1725.000000	33.388187
1724.000000	33.416428
1723.000000	33.465434
1722.000000	33.524408
1721.000000	33.609650
1720.000000	33.689701
1719.000000	33.783664
1718.000000	33.881988
1717.000000	33.981455
1716.000000	34.087981
1715.000000	34.205513
1714.000000	34.318062
1713.000000	34.433622
1712.000000	34.534438
1711.000000	34.624144
1710.000000	34.700042
1709.000000	34.770333
1708.000000	34.810410
1707.000000	34.853187
1706.000000	34.861700
1705.000000	34.848099
1704.000000	34.837301
1703.000000	34.804803
1702.000000	34.763584
1701.000000	34.720600
1700.000000	34.633177
1699.000000	34.565067
1698.000000	34.486677
1697.000000	34.390845
1696.000000	34.320242
1695.000000	34.282345
1694.000000	34.247044
1693.000000	34.243514
1692.000000	34.244241
1691.000000	34.308925
1690.000000	34.349625
1689.000000	34.412233
1688.000000	34.492180
1687.000000	34.587182
1686.000000	34.672216
1685.000000	34.778120
1684.000000	34.886723
1683.000000	35.014015
1682.000000	35.176712
1681.000000	35.385716
1680.000000	35.641961
1679.000000	35.928939
1678.000000	36.233360
1677.000000	36.536223
1676.000000	36.836906
1675.000000	37.131256
1674.000000	37.402037
1673.000000	37.656310
1672.000000	37.874969
1671.000000	38.074629
1670.000000	38.257364
1669.000000	38.419231
1668.000000	38.573206
1667.000000	38.658968
1666.000000	38.765909
1665.000000	38.846272
1664.000000	38.975432
1663.000000	39.046450
1662.000000	39.117987
1661.000000	39.176130
1660.000000	39.239257
1659.000000	39.301553
1658.000000	39.352636
1657.000000	39.379008
1656.000000	39.390222
1655.000000	39.392194
1654.000000	39.436944
1653.000000	39.431545
1652.000000	39.445769
1651.000000	39.417528
1650.000000	39.413167
1649.000000	39.378593
1648.000000	39.361877
1647.000000	39.345991
1646.000000	39.303630
1645.000000	39.255973
1644.000000	39.219322
1643.000000	39.177376
1642.000000	39.139168
1641.000000	39.115287
1640.000000	39.060674
1639.000000	38.995990
1638.000000	38.958924
1637.000000	38.913448
1636.000000	38.874201
1635.000000	38.815020
1634.000000	38.755215
1633.000000	38.706624
1632.000000	38.639863
1631.000000	38.586600
1630.000000	38.511429
1629.000000	38.430237
1628.000000	38.374689
1627.000000	38.301491
1626.000000	38.232238
1625.000000	38.153953
1624.000000	38.095394
1623.000000	38.009218
1622.000000	37.942872
1621.000000	37.853270
1620.000000	37.784744
1619.000000	37.725562
1618.000000	37.658075
1617.000000	37.583527
1616.000000	37.521127
1615.000000	37.459454
1614.000000	37.390097
1613.000000	37.325517
1612.000000	37.261767
1611.000000	37.186181
1610.000000	37.112775
1609.000000	37.033659
1608.000000	36.960149
1607.000000	36.879372
