PE UV       SUBTECH     SPECTRUM    ASCII       PEDS        4.00        
   -1
CICIMAUCR0260-3.Sample.ASC
24/07/01
13:47:05.00
24/07/01
13:47:05.00
Vinicio Soto Monge
C. resplendens. Sex F. Dorsal.
250,000000
1
Lambda 1050
1050L1511233
PerkinElmer UV WinLab 6.3.2.0749 / 2.02.05 Lambda 900 UV/VIS/NIR, Aug  7 2015 09:38:08

0
0
3350/servo 860,8/2
0
0
UV/VIS
1
1
1
DoubleDePol,CommonBeamDepol,RBeamAtt,SBeamAtt,60mm sphere, WB InGaAs Detector
0
0
0
0
Program
Program
3350/servo 860,8/2
3350/0,2 860,8/0,2
3350/0,2 860,8/0,2
0
15.00
 
 
 
0
 
860,8
319,2
860,8
Front
100
on
S:100 R:100
0
0
0
0
 
0
 
 
 
0
 
 
0
0
0
0
0
 
 
 
 
0
0


0
0
#HDR
-1
-1
#GR
nm
%R
1.0
0.0
2500,000000
-1,000000
2251
8
90,775700
5,523800
#DATA
2500.000000	8.776880
2499.000000	8.647531
2498.000000	8.817468
2497.000000	8.661470
2496.000000	8.663930
2495.000000	8.594848
2494.000000	8.597821
2493.000000	8.518079
2492.000000	8.601921
2491.000000	8.538373
2490.000000	8.571992
2489.000000	8.553543
2488.000000	8.568712
2487.000000	8.539398
2486.000000	8.482001
2485.000000	8.556208
2484.000000	8.525049
2483.000000	8.476569
2482.000000	8.483846
2481.000000	8.509265
2480.000000	8.533556
2479.000000	8.531506
2478.000000	8.501373
2477.000000	8.556720
2476.000000	8.578039
2475.000000	8.537861
2474.000000	8.571582
2473.000000	8.545958
2472.000000	8.551493
2471.000000	8.559590
2470.000000	8.598538
2469.000000	8.630209
2468.000000	8.625802
2467.000000	8.655936
2466.000000	8.695089
2465.000000	8.711181
2464.000000	8.694781
2463.000000	8.723788
2462.000000	8.759353
2461.000000	8.771960
2460.000000	8.833458
2459.000000	8.862464
2458.000000	8.920066
2457.000000	8.950507
2456.000000	8.996118
2455.000000	9.058025
2454.000000	9.108043
2453.000000	9.133256
2452.000000	9.199673
2451.000000	9.262196
2450.000000	9.319490
2449.000000	9.369713
2448.000000	9.433363
2447.000000	9.516794
2446.000000	9.554307
2445.000000	9.611807
2444.000000	9.696673
2443.000000	9.750791
2442.000000	9.803986
2441.000000	9.873990
2440.000000	9.950042
2439.000000	9.998932
2438.000000	10.071909
2437.000000	10.114034
2436.000000	10.164974
2435.000000	10.252710
2434.000000	10.310313
2433.000000	10.373655
2432.000000	10.449706
2431.000000	10.484350
2430.000000	10.550562
2429.000000	10.619541
2428.000000	10.667201
2427.000000	10.711889
2426.000000	10.748583
2425.000000	10.798191
2424.000000	10.846978
2423.000000	10.892384
2422.000000	10.938404
2421.000000	10.983092
2420.000000	11.032700
2419.000000	11.076875
2418.000000	11.118181
2417.000000	11.146982
2416.000000	11.194335
2415.000000	11.236666
2414.000000	11.263724
2413.000000	11.305235
2412.000000	11.332806
2411.000000	11.360480
2410.000000	11.401888
2409.000000	11.441861
2408.000000	11.473327
2407.000000	11.510431
2406.000000	11.534722
2405.000000	11.569058
2404.000000	11.588020
2403.000000	11.629428
2402.000000	11.678420
2401.000000	11.719009
2400.000000	11.742787
2399.000000	11.754677
2398.000000	11.788808
2397.000000	11.808999
2396.000000	11.833188
2395.000000	11.868652
2394.000000	11.897555
2393.000000	11.917542
2392.000000	11.943986
2391.000000	11.961718
2390.000000	11.971660
2389.000000	11.989801
2388.000000	12.013888
2387.000000	12.034182
2386.000000	12.044534
2385.000000	12.064930
2384.000000	12.091784
2383.000000	12.099061
2382.000000	12.104186
2381.000000	12.098036
2380.000000	12.104903
2379.000000	12.115358
2378.000000	12.106133
2377.000000	12.100701
2376.000000	12.103879
2375.000000	12.089837
2374.000000	12.090349
2373.000000	12.094654
2372.000000	12.072412
2371.000000	12.061035
2370.000000	12.063393
2369.000000	12.040024
2368.000000	12.016143
2367.000000	12.009993
2366.000000	11.994004
2365.000000	11.969302
2364.000000	11.944396
2363.000000	11.923487
2362.000000	11.901553
2361.000000	11.875621
2360.000000	11.852560
2359.000000	11.819966
2358.000000	11.788603
2357.000000	11.771794
2356.000000	11.746375
2355.000000	11.719521
2354.000000	11.702199
2353.000000	11.688567
2352.000000	11.671041
2351.000000	11.659356
2350.000000	11.654437
2349.000000	11.666121
2348.000000	11.664174
2347.000000	11.673501
2346.000000	11.703737
2345.000000	11.714294
2344.000000	11.729566
2343.000000	11.763184
2342.000000	11.798442
2341.000000	11.827654
2340.000000	11.842823
2339.000000	11.870292
2338.000000	11.889561
2337.000000	11.900323
2336.000000	11.912007
2335.000000	11.916517
2334.000000	11.919284
2333.000000	11.917747
2332.000000	11.904730
2331.000000	11.910880
2330.000000	11.903500
2329.000000	11.883821
2328.000000	11.842105
2327.000000	11.828781
2326.000000	11.803362
2325.000000	11.763902
2324.000000	11.728848
2323.000000	11.684980
2322.000000	11.631683
2321.000000	11.568545
2320.000000	11.514325
2319.000000	11.460515
2318.000000	11.409473
2317.000000	11.331269
2316.000000	11.254500
2315.000000	11.184495
2314.000000	11.100962
2313.000000	11.024090
2312.000000	10.953266
2311.000000	10.875062
2310.000000	10.815717
2309.000000	10.758627
2308.000000	10.702562
2307.000000	10.650802
2306.000000	10.626921
2305.000000	10.607447
2304.000000	10.581515
2303.000000	10.580388
2302.000000	10.615749
2301.000000	10.636760
2300.000000	10.666279
2299.000000	10.706867
2298.000000	10.770414
2297.000000	10.831502
2296.000000	10.887566
2295.000000	10.940044
2294.000000	11.007076
2293.000000	11.082205
2292.000000	11.135605
2291.000000	11.170556
2290.000000	11.212989
2289.000000	11.251937
2288.000000	11.283301
2287.000000	11.305952
2286.000000	11.313332
2285.000000	11.297958
2284.000000	11.295805
2283.000000	11.291501
2282.000000	11.277561
2281.000000	11.242200
2280.000000	11.200177
2279.000000	11.155694
2278.000000	11.138680
2277.000000	11.110494
2276.000000	11.058221
2275.000000	11.021528
2274.000000	10.985552
2273.000000	10.956033
2272.000000	10.927745
2271.000000	10.901403
2270.000000	10.905503
2269.000000	10.902838
2268.000000	10.924772
2267.000000	10.962798
2266.000000	10.989242
2265.000000	11.053916
2264.000000	11.142267
2263.000000	11.234001
2262.000000	11.357303
2261.000000	11.482347
2260.000000	11.627788
2259.000000	11.782658
2258.000000	11.942141
2257.000000	12.111156
2256.000000	12.278633
2255.000000	12.476654
2254.000000	12.667808
2253.000000	12.866444
2252.000000	13.046836
2251.000000	13.240962
2250.000000	13.413256
2249.000000	13.571099
2248.000000	13.737449
2247.000000	13.884530
2246.000000	14.035096
2245.000000	14.159935
2244.000000	14.287542
2243.000000	14.389934
2242.000000	14.483923
2241.000000	14.583343
2240.000000	14.683993
2239.000000	14.751333
2238.000000	14.838044
2237.000000	14.902206
2236.000000	14.952634
2235.000000	15.014131
2234.000000	15.041190
2233.000000	15.088133
2232.000000	15.129951
2231.000000	15.142250
2230.000000	15.156804
2229.000000	15.175459
2228.000000	15.181096
2227.000000	15.186528
2226.000000	15.187246
2225.000000	15.172999
2224.000000	15.172384
2223.000000	15.136305
2222.000000	15.132821
2221.000000	15.104224
2220.000000	15.073271
2219.000000	15.031658
2218.000000	14.997527
2217.000000	14.962268
2216.000000	14.952224
2215.000000	14.896466
2214.000000	14.861310
2213.000000	14.825335
2212.000000	14.778084
2211.000000	14.745286
2210.000000	14.751743
2209.000000	14.686966
2208.000000	14.669644
2207.000000	14.628031
2206.000000	14.611529
2205.000000	14.603330
2204.000000	14.569199
2203.000000	14.549315
2202.000000	14.536298
2201.000000	14.495915
2200.000000	14.505754
2199.000000	14.477363
2198.000000	14.465576
2197.000000	14.429600
2196.000000	14.432162
2195.000000	14.416071
2194.000000	14.408076
2193.000000	14.403156
2192.000000	14.356111
2191.000000	14.383477
2190.000000	14.381632
2189.000000	14.367283
2188.000000	14.345861
2187.000000	14.338687
2186.000000	14.332025
2185.000000	14.319315
2184.000000	14.301071
2183.000000	14.292666
2182.000000	14.275140
2181.000000	14.255870
2180.000000	14.268067
2179.000000	14.264275
2178.000000	14.252796
2177.000000	14.250848
2176.000000	14.233936
2175.000000	14.238651
2174.000000	14.243161
2173.000000	14.230862
2172.000000	14.237831
2171.000000	14.241111
2170.000000	14.264275
2169.000000	14.274320
2168.000000	14.285594
2167.000000	14.298714
2166.000000	14.319930
2165.000000	14.351601
2164.000000	14.359596
2163.000000	14.388192
2162.000000	14.406436
2161.000000	14.458504
2160.000000	14.490790
2159.000000	14.510161
2158.000000	14.546752
2157.000000	14.586008
2156.000000	14.622189
2155.000000	14.686351
2154.000000	14.723762
2153.000000	14.764657
2152.000000	14.818570
2151.000000	14.864693
2150.000000	14.925575
2149.000000	14.974158
2148.000000	15.022126
2147.000000	15.070196
2146.000000	15.115601
2145.000000	15.148605
2144.000000	15.190628
2143.000000	15.229884
2142.000000	15.280106
2141.000000	15.317312
2140.000000	15.351751
2139.000000	15.393466
2138.000000	15.427905
2137.000000	15.460088
2136.000000	15.478640
2135.000000	15.504366
2134.000000	15.525993
2133.000000	15.563813
2132.000000	15.587182
2131.000000	15.600404
2130.000000	15.630333
2129.000000	15.648577
2128.000000	15.628590
2127.000000	15.636278
2126.000000	15.647655
2125.000000	15.644067
2124.000000	15.648577
2123.000000	15.640582
2122.000000	15.621108
2121.000000	15.612396
2120.000000	15.607374
2119.000000	15.582468
2118.000000	15.566273
2117.000000	15.559509
2116.000000	15.531015
2115.000000	15.500881
2114.000000	15.484072
2113.000000	15.449429
2112.000000	15.408738
2111.000000	15.390699
2110.000000	15.379937
2109.000000	15.343653
2108.000000	15.309727
2107.000000	15.268729
2106.000000	15.239928
2105.000000	15.214509
2104.000000	15.183453
2103.000000	15.154242
2102.000000	15.108119
2101.000000	15.080958
2100.000000	15.060561
2099.000000	15.029095
2098.000000	14.998039
2097.000000	14.977643
2096.000000	14.943512
2095.000000	14.902719
2094.000000	14.875660
2093.000000	14.858748
2092.000000	14.834047
2091.000000	14.805348
2090.000000	14.787514
2089.000000	14.776137
2088.000000	14.746516
2087.000000	14.723864
2086.000000	14.700393
2085.000000	14.662059
2084.000000	14.636948
2083.000000	14.610607
2082.000000	14.576373
2081.000000	14.549315
2080.000000	14.508009
2079.000000	14.460246
2078.000000	14.423553
2077.000000	14.373330
2076.000000	14.329667
2075.000000	14.286312
2074.000000	14.222047
2073.000000	14.161985
2072.000000	14.109405
2071.000000	14.052212
2070.000000	13.987948
2069.000000	13.927475
2068.000000	13.867413
2067.000000	13.810631
2066.000000	13.750773
2065.000000	13.674107
2064.000000	13.616095
2063.000000	13.554290
2062.000000	13.493100
2061.000000	13.436933
2060.000000	13.389990
2059.000000	13.335975
2058.000000	13.284112
2057.000000	13.251929
2056.000000	13.213595
2055.000000	13.181309
2054.000000	13.163270
2053.000000	13.162553
2052.000000	13.165525
2051.000000	13.172597
2050.000000	13.191559
2049.000000	13.202628
2048.000000	13.249469
2047.000000	13.293337
2046.000000	13.342022
2045.000000	13.406799
2044.000000	13.449847
2043.000000	13.494228
2042.000000	13.533073
2041.000000	13.602258
2040.000000	13.658733
2039.000000	13.698911
2038.000000	13.746366
2037.000000	13.796589
2036.000000	13.833180
2035.000000	13.886580
2034.000000	13.932600
2033.000000	13.950844
2032.000000	13.972676
2031.000000	13.993995
2030.000000	14.013162
2029.000000	14.031611
2028.000000	14.039093
2027.000000	14.059899
2026.000000	14.059592
2025.000000	14.069124
2024.000000	14.089213
2023.000000	14.064512
2022.000000	14.052622
2021.000000	14.059079
2020.000000	14.051290
2019.000000	14.023514
2018.000000	14.026383
2017.000000	14.024846
2016.000000	13.995327
2015.000000	13.969909
2014.000000	13.948282
2013.000000	13.919481
2012.000000	13.902774
2011.000000	13.874690
2010.000000	13.860136
2009.000000	13.812988
2008.000000	13.764815
2007.000000	13.705368
2006.000000	13.669392
2005.000000	13.635466
2004.000000	13.580119
2003.000000	13.520876
2002.000000	13.478956
2001.000000	13.436420
2000.000000	13.375333
1999.000000	13.304816
1998.000000	13.226202
1997.000000	13.167678
1996.000000	13.115815
1995.000000	13.042736
1994.000000	12.959612
1993.000000	12.888173
1992.000000	12.821756
1991.000000	12.759541
1990.000000	12.691074
1989.000000	12.616868
1988.000000	12.527799
1987.000000	12.448263
1986.000000	12.377849
1985.000000	12.295955
1984.000000	12.196842
1983.000000	12.122840
1982.000000	12.049351
1981.000000	11.964075
1980.000000	11.869472
1979.000000	11.816687
1978.000000	11.723313
1977.000000	11.640805
1976.000000	11.548661
1975.000000	11.487062
1974.000000	11.418595
1973.000000	11.333421
1972.000000	11.266594
1971.000000	11.186033
1970.000000	11.112236
1969.000000	11.042642
1968.000000	10.977352
1967.000000	10.893614
1966.000000	10.820944
1965.000000	10.756987
1964.000000	10.673966
1963.000000	10.611752
1962.000000	10.557531
1961.000000	10.476868
1960.000000	10.436792
1959.000000	10.373450
1958.000000	10.307238
1957.000000	10.224422
1956.000000	10.181784
1955.000000	10.108499
1954.000000	10.058277
1953.000000	9.982430
1952.000000	9.951477
1951.000000	9.886187
1950.000000	9.840884
1949.000000	9.768522
1948.000000	9.728037
1947.000000	9.708460
1946.000000	9.637226
1945.000000	9.600738
1944.000000	9.591615
1943.000000	9.550925
1942.000000	9.513514
1941.000000	9.496192
1940.000000	9.502240
1939.000000	9.475488
1938.000000	9.469749
1937.000000	9.457859
1936.000000	9.451197
1935.000000	9.455809
1934.000000	9.457142
1933.000000	9.471798
1932.000000	9.492400
1931.000000	9.520484
1930.000000	9.547235
1929.000000	9.602582
1928.000000	9.676379
1927.000000	9.718812
1926.000000	9.794659
1925.000000	9.839244
1924.000000	9.902176
1923.000000	9.953834
1922.000000	10.080416
1921.000000	10.179631
1920.000000	10.312875
1919.000000	10.426850
1918.000000	10.523606
1917.000000	10.665049
1916.000000	10.747148
1915.000000	10.875062
1914.000000	11.008203
1913.000000	11.159384
1912.000000	11.363452
1911.000000	11.540667
1910.000000	11.690002
1909.000000	11.849075
1908.000000	12.007840
1907.000000	12.183312
1906.000000	12.397938
1905.000000	12.644336
1904.000000	12.928146
1903.000000	13.165013
1902.000000	13.402392
1901.000000	13.648996
1900.000000	13.909539
1899.000000	14.198781
1898.000000	14.521846
1897.000000	14.857313
1896.000000	15.161929
1895.000000	15.452401
1894.000000	15.743283
1893.000000	16.064093
1892.000000	16.423237
1891.000000	16.849720
1890.000000	17.308284
1889.000000	17.712423
1888.000000	18.104468
1887.000000	18.548990
1886.000000	18.943597
1885.000000	19.400111
1884.000000	19.869335
1883.000000	20.388371
1882.000000	20.876556
1881.000000	21.321386
1880.000000	21.775850
1879.000000	22.229597
1878.000000	22.659565
1877.000000	23.093428
1876.000000	23.549635
1875.000000	23.946189
1874.000000	24.340796
1873.000000	24.730791
1872.000000	25.112996
1871.000000	25.469167
1870.000000	25.786493
1869.000000	26.055030
1868.000000	26.357392
1867.000000	26.580421
1866.000000	26.768910
1865.000000	26.942332
1864.000000	27.100483
1863.000000	27.270318
1862.000000	27.417603
1861.000000	27.595740
1860.000000	27.761475
1859.000000	27.904866
1858.000000	28.035343
1857.000000	28.141528
1856.000000	28.229059
1855.000000	28.305725
1854.000000	28.382392
1853.000000	28.428412
1852.000000	28.438867
1851.000000	28.478225
1850.000000	28.543310
1849.000000	28.611264
1848.000000	28.661282
1847.000000	28.687213
1846.000000	28.652775
1845.000000	28.605627
1844.000000	28.609829
1843.000000	28.598042
1842.000000	28.623973
1841.000000	28.655439
1840.000000	28.648777
1839.000000	28.644575
1838.000000	28.628073
1837.000000	28.603269
1836.000000	28.585845
1835.000000	28.547409
1834.000000	28.476893
1833.000000	28.441019
1832.000000	28.413140
1831.000000	28.385262
1830.000000	28.345904
1829.000000	28.301011
1828.000000	28.271389
1827.000000	28.228034
1826.000000	28.169202
1825.000000	28.131176
1824.000000	28.078288
1823.000000	28.049077
1822.000000	28.053484
1821.000000	28.064451
1820.000000	28.040877
1819.000000	28.000597
1818.000000	27.956421
1817.000000	27.927825
1816.000000	27.914193
1815.000000	27.913988
1814.000000	27.883035
1813.000000	27.853106
1812.000000	27.849724
1811.000000	27.836912
1810.000000	27.804728
1809.000000	27.765165
1808.000000	27.730419
1807.000000	27.701310
1806.000000	27.679684
1805.000000	27.641556
1804.000000	27.595330
1803.000000	27.560892
1802.000000	27.525018
1801.000000	27.495602
1800.000000	27.458704
1799.000000	27.408276
1798.000000	27.368098
1797.000000	27.337759
1796.000000	27.296761
1795.000000	27.252381
1794.000000	27.224502
1793.000000	27.196623
1792.000000	27.154600
1791.000000	27.113090
1790.000000	27.078754
1789.000000	27.046775
1788.000000	27.008442
1787.000000	26.981896
1786.000000	26.956989
1785.000000	26.916914
1784.000000	26.885140
1783.000000	26.841477
1782.000000	26.791562
1781.000000	26.760301
1780.000000	26.714178
1779.000000	26.659548
1778.000000	26.615065
1777.000000	26.576937
1776.000000	26.529891
1775.000000	26.475364
1774.000000	26.418274
1773.000000	26.373381
1772.000000	26.304402
1771.000000	26.247619
1770.000000	26.191862
1769.000000	26.122267
1768.000000	26.061283
1767.000000	25.996711
1766.000000	25.938186
1765.000000	25.884786
1764.000000	25.835588
1763.000000	25.819291
1762.000000	25.809349
1761.000000	25.808939
1760.000000	25.823698
1759.000000	25.848707
1758.000000	25.898623
1757.000000	25.935828
1756.000000	25.996198
1755.000000	26.048881
1754.000000	26.088751
1753.000000	26.118577
1752.000000	26.162753
1751.000000	26.188274
1750.000000	26.197499
1749.000000	26.190837
1748.000000	26.180177
1747.000000	26.157526
1746.000000	26.142254
1745.000000	26.084242
1744.000000	26.020797
1743.000000	25.950383
1742.000000	25.865619
1741.000000	25.774808
1740.000000	25.667496
1739.000000	25.548703
1738.000000	25.428476
1737.000000	25.287135
1736.000000	25.171316
1735.000000	25.078660
1734.000000	24.980982
1733.000000	24.918767
1732.000000	24.869672
1731.000000	24.856450
1730.000000	24.854298
1729.000000	24.884841
1728.000000	24.917332
1727.000000	24.966223
1726.000000	25.008143
1725.000000	25.052524
1724.000000	25.104489
1723.000000	25.150612
1722.000000	25.204524
1721.000000	25.265201
1720.000000	25.317781
1719.000000	25.371694
1718.000000	25.443851
1717.000000	25.534252
1716.000000	25.608561
1715.000000	25.700909
1714.000000	25.804327
1713.000000	25.901082
1712.000000	25.993636
1711.000000	26.067535
1710.000000	26.133849
1709.000000	26.174232
1708.000000	26.212053
1707.000000	26.237882
1706.000000	26.227325
1705.000000	26.227838
1704.000000	26.201701
1703.000000	26.173105
1702.000000	26.123292
1701.000000	26.061795
1700.000000	25.995993
1699.000000	25.907847
1698.000000	25.825338
1697.000000	25.729710
1696.000000	25.662371
1695.000000	25.572687
1694.000000	25.540196
1693.000000	25.541939
1692.000000	25.591342
1691.000000	25.614813
1690.000000	25.702139
1689.000000	25.780958
1688.000000	25.841943
1687.000000	25.929064
1686.000000	26.012085
1685.000000	26.053185
1684.000000	26.135592
1683.000000	26.268118
1682.000000	26.390703
1681.000000	26.591183
1680.000000	26.832560
1679.000000	27.107452
1678.000000	27.417501
1677.000000	27.744871
1676.000000	28.054202
1675.000000	28.365788
1674.000000	28.634838
1673.000000	28.891076
1672.000000	29.097912
1671.000000	29.334881
1670.000000	29.482474
1669.000000	29.625763
1668.000000	29.770589
1667.000000	29.880156
1666.000000	29.982139
1665.000000	30.057371
1664.000000	30.167041
1663.000000	30.230690
1662.000000	30.293520
1661.000000	30.331546
1660.000000	30.415182
1659.000000	30.460485
1658.000000	30.468274
1657.000000	30.505070
1656.000000	30.541251
1655.000000	30.557753
1654.000000	30.573435
1653.000000	30.556523
1652.000000	30.556625
1651.000000	30.537459
1650.000000	30.528542
1649.000000	30.545556
1648.000000	30.476576
1647.000000	30.466532
1646.000000	30.436911
1645.000000	30.401242
1644.000000	30.360654
1643.000000	30.329803
1642.000000	30.294545
1641.000000	30.263694
1640.000000	30.227615
1639.000000	30.178930
1638.000000	30.143159
1637.000000	30.118458
1636.000000	30.066595
1635.000000	30.008685
1634.000000	29.956823
1633.000000	29.919002
1632.000000	29.859965
1631.000000	29.796725
1630.000000	29.752447
1629.000000	29.687977
1628.000000	29.608543
1627.000000	29.545816
1626.000000	29.471507
1625.000000	29.436556
1624.000000	29.368909
1623.000000	29.300238
1622.000000	29.231463
1621.000000	29.183803
