PE UV       SUBTECH     SPECTRUM    ASCII       PEDS        4.00        
   -1
CICIMAUCR0253-3.Sample.ASC
24/06/26
14:04:18.00
24/06/26
14:04:18.00
Vinicio Soto Monge
C. resplendens. Sex M. Dorsal.
250,000000
1
Lambda 1050
1050L1511233
PerkinElmer UV WinLab 6.3.2.0749 / 2.02.05 Lambda 900 UV/VIS/NIR, Aug  7 2015 09:38:08

0
0
3350/servo 860,8/2
0
0
UV/VIS
1
1
1
DoubleDePol,CommonBeamDepol,RBeamAtt,SBeamAtt,60mm sphere, WB InGaAs Detector
0
0
0
0
Program
Program
3350/servo 860,8/2
3350/0,2 860,8/0,2
3350/0,2 860,8/0,2
0
15.00
 
 
 
0
 
860,8
319,2
860,8
Front
100
on
S:100 R:100
0
0
0
0
 
0
 
 
 
0
 
 
0
0
0
0
0
 
 
 
 
0
0


0
0
#HDR
-1
-1
#GR
nm
%R
1.0
0.0
2500,000000
-1,000000
2251
8
90,933900
5,761100
#DATA
2500.000000	9.670082
2499.000000	9.767049
2498.000000	9.664396
2497.000000	9.652424
2496.000000	9.633969
2495.000000	9.590274
2494.000000	9.574811
2493.000000	9.630477
2492.000000	9.631674
2491.000000	9.619803
2490.000000	9.510465
2489.000000	9.540992
2488.000000	9.547676
2487.000000	9.479041
2486.000000	9.555856
2485.000000	9.557253
2484.000000	9.559148
2483.000000	9.551168
2482.000000	9.590573
2481.000000	9.555358
2480.000000	9.605936
2479.000000	9.617109
2478.000000	9.547476
2477.000000	9.571519
2476.000000	9.598354
2475.000000	9.587680
2474.000000	9.618007
2473.000000	9.572915
2472.000000	9.673175
2471.000000	9.643546
2470.000000	9.699711
2469.000000	9.687839
2468.000000	9.722357
2467.000000	9.730936
2466.000000	9.718466
2465.000000	9.774531
2464.000000	9.798973
2463.000000	9.847955
2462.000000	9.869503
2461.000000	9.909208
2460.000000	9.895541
2459.000000	9.994802
2458.000000	10.021838
2457.000000	10.113019
2456.000000	10.131973
2455.000000	10.233230
2454.000000	10.309547
2453.000000	10.376386
2452.000000	10.450209
2451.000000	10.506175
2450.000000	10.592767
2449.000000	10.650927
2448.000000	10.742208
2447.000000	10.839474
2446.000000	10.918485
2445.000000	10.989315
2444.000000	11.058548
2443.000000	11.155715
2442.000000	11.242806
2441.000000	11.311641
2440.000000	11.389953
2439.000000	11.469961
2438.000000	11.557151
2437.000000	11.635962
2436.000000	11.725647
2435.000000	11.793584
2434.000000	11.859525
2433.000000	11.943524
2432.000000	12.015750
2431.000000	12.078998
2430.000000	12.137059
2429.000000	12.170778
2428.000000	12.254577
2427.000000	12.325207
2426.000000	12.395339
2425.000000	12.432350
2424.000000	12.498990
2423.000000	12.549169
2422.000000	12.609225
2421.000000	12.666288
2420.000000	12.724947
2419.000000	12.774828
2418.000000	12.827302
2417.000000	12.856831
2416.000000	12.902920
2415.000000	12.938734
2414.000000	12.999089
2413.000000	13.055953
2412.000000	13.100346
2411.000000	13.132269
2410.000000	13.163594
2409.000000	13.207389
2408.000000	13.257668
2407.000000	13.298770
2406.000000	13.316926
2405.000000	13.367006
2404.000000	13.407209
2403.000000	13.434145
2402.000000	13.473251
2401.000000	13.510062
2400.000000	13.540589
2399.000000	13.583486
2398.000000	13.627979
2397.000000	13.676263
2396.000000	13.699707
2395.000000	13.722652
2394.000000	13.759064
2393.000000	13.780613
2392.000000	13.783705
2391.000000	13.823909
2390.000000	13.871195
2389.000000	13.892344
2388.000000	13.915489
2387.000000	13.939930
2386.000000	13.953597
2385.000000	13.966666
2384.000000	13.979735
2383.000000	13.991905
2382.000000	13.993901
2381.000000	14.003178
2380.000000	14.016147
2379.000000	14.020636
2378.000000	14.013853
2377.000000	14.009463
2376.000000	14.009962
2375.000000	14.007468
2374.000000	13.997692
2373.000000	13.998390
2372.000000	13.991606
2371.000000	13.972851
2370.000000	13.959184
2369.000000	13.941826
2368.000000	13.924767
2367.000000	13.899926
2366.000000	13.883665
2365.000000	13.845158
2364.000000	13.792085
2363.000000	13.768941
2362.000000	13.735321
2361.000000	13.687037
2360.000000	13.660800
2359.000000	13.621195
2358.000000	13.566128
2357.000000	13.517943
2356.000000	13.482030
2355.000000	13.441826
2354.000000	13.418981
2353.000000	13.405114
2352.000000	13.372094
2351.000000	13.355434
2350.000000	13.356930
2349.000000	13.369799
2348.000000	13.377181
2347.000000	13.380773
2346.000000	13.389452
2345.000000	13.415090
2344.000000	13.466866
2343.000000	13.506571
2342.000000	13.535401
2341.000000	13.581092
2340.000000	13.608227
2339.000000	13.642245
2338.000000	13.678358
2337.000000	13.698610
2336.000000	13.716666
2335.000000	13.732528
2334.000000	13.725345
2333.000000	13.738314
2332.000000	13.749088
2331.000000	13.734823
2330.000000	13.711778
2329.000000	13.666886
2328.000000	13.637855
2327.000000	13.604136
2326.000000	13.556451
2325.000000	13.501383
2324.000000	13.436140
2323.000000	13.371695
2322.000000	13.309943
2321.000000	13.224747
2320.000000	13.119999
2319.000000	13.020139
2318.000000	12.918483
2317.000000	12.793583
2316.000000	12.698910
2315.000000	12.602342
2314.000000	12.487717
2313.000000	12.360223
2312.000000	12.243404
2311.000000	12.129078
2310.000000	12.046077
2309.000000	11.969062
2308.000000	11.871796
2307.000000	11.814334
2306.000000	11.765252
2305.000000	11.729837
2304.000000	11.712079
2303.000000	11.712877
2302.000000	11.728041
2301.000000	11.764454
2300.000000	11.819521
2299.000000	11.874290
2298.000000	11.956692
2297.000000	12.041289
2296.000000	12.124689
2295.000000	12.218264
2294.000000	12.290890
2293.000000	12.367605
2292.000000	12.464473
2291.000000	12.525526
2290.000000	12.601045
2289.000000	12.645438
2288.000000	12.693822
2287.000000	12.730534
2286.000000	12.752082
2285.000000	12.753379
2284.000000	12.741807
2283.000000	12.732828
2282.000000	12.715869
2281.000000	12.678559
2280.000000	12.651025
2279.000000	12.590370
2278.000000	12.547473
2277.000000	12.511859
2276.000000	12.466767
2275.000000	12.420379
2274.000000	12.374589
2273.000000	12.336380
2272.000000	12.313934
2271.000000	12.290989
2270.000000	12.280115
2269.000000	12.282609
2268.000000	12.325207
2267.000000	12.358328
2266.000000	12.427861
2265.000000	12.497893
2264.000000	12.617306
2263.000000	12.742106
2262.000000	12.874688
2261.000000	13.056152
2260.000000	13.248490
2259.000000	13.461379
2258.000000	13.680353
2257.000000	13.912995
2256.000000	14.126083
2255.000000	14.387356
2254.000000	14.642643
2253.000000	14.849446
2252.000000	15.094259
2251.000000	15.328297
2250.000000	15.543081
2249.000000	15.780611
2248.000000	15.975842
2247.000000	16.151819
2246.000000	16.323008
2245.000000	16.473547
2244.000000	16.621991
2243.000000	16.757964
2242.000000	16.872788
2241.000000	16.999484
2240.000000	17.093658
2239.000000	17.186834
2238.000000	17.266044
2237.000000	17.344456
2236.000000	17.415984
2235.000000	17.469655
2234.000000	17.529013
2233.000000	17.572010
2232.000000	17.591862
2231.000000	17.636255
2230.000000	17.667879
2229.000000	17.664288
2228.000000	17.694116
2227.000000	17.685138
2226.000000	17.672668
2225.000000	17.668977
2224.000000	17.672867
2223.000000	17.635357
2222.000000	17.616702
2221.000000	17.582285
2220.000000	17.535497
2219.000000	17.509061
2218.000000	17.480729
2217.000000	17.433742
2216.000000	17.389548
2215.000000	17.345553
2214.000000	17.302058
2213.000000	17.258063
2212.000000	17.212972
2211.000000	17.173267
2210.000000	17.139149
2209.000000	17.101838
2208.000000	17.067720
2207.000000	17.032106
2206.000000	17.004472
2205.000000	16.963770
2204.000000	16.943020
2203.000000	16.906308
2202.000000	16.887852
2201.000000	16.859620
2200.000000	16.828794
2199.000000	16.836077
2198.000000	16.792581
2197.000000	16.770634
2196.000000	16.736416
2195.000000	16.731428
2194.000000	16.701200
2193.000000	16.704492
2192.000000	16.692322
2191.000000	16.675263
2190.000000	16.665287
2189.000000	16.628774
2188.000000	16.638750
2187.000000	16.602936
2186.000000	16.572709
2185.000000	16.582685
2184.000000	16.554353
2183.000000	16.517940
2182.000000	16.502078
2181.000000	16.482725
2180.000000	16.472250
2179.000000	16.460279
2178.000000	16.450502
2177.000000	16.439928
2176.000000	16.422470
2175.000000	16.398727
2174.000000	16.400023
2173.000000	16.407306
2172.000000	16.399026
2171.000000	16.404413
2170.000000	16.420973
2169.000000	16.426560
2168.000000	16.422869
2167.000000	16.450403
2166.000000	16.453395
2165.000000	16.467561
2164.000000	16.484620
2163.000000	16.525522
2162.000000	16.559441
2161.000000	16.567222
2160.000000	16.598347
2159.000000	16.635857
2158.000000	16.663092
2157.000000	16.689129
2156.000000	16.731528
2155.000000	16.777417
2154.000000	16.822210
2153.000000	16.880669
2152.000000	16.929552
2151.000000	16.965466
2150.000000	17.016144
2149.000000	17.051559
2148.000000	17.100841
2147.000000	17.151220
2146.000000	17.184340
2145.000000	17.216962
2144.000000	17.256567
2143.000000	17.289488
2142.000000	17.337273
2141.000000	17.373586
2140.000000	17.413789
2139.000000	17.443219
2138.000000	17.476938
2137.000000	17.509160
2136.000000	17.518638
2135.000000	17.543777
2134.000000	17.567520
2133.000000	17.586275
2132.000000	17.606826
2131.000000	17.612313
2130.000000	17.623586
2129.000000	17.630469
2128.000000	17.630768
2127.000000	17.622289
2126.000000	17.632165
2125.000000	17.628274
2124.000000	17.615405
2123.000000	17.601140
2122.000000	17.583682
2121.000000	17.580489
2120.000000	17.571411
2119.000000	17.550661
2118.000000	17.520533
2117.000000	17.494196
2116.000000	17.475441
2115.000000	17.445613
2114.000000	17.406208
2113.000000	17.380370
2112.000000	17.359420
2111.000000	17.329093
2110.000000	17.289288
2109.000000	17.248686
2108.000000	17.225541
2107.000000	17.203295
2106.000000	17.171671
2105.000000	17.139149
2104.000000	17.096950
2103.000000	17.058842
2102.000000	17.033403
2101.000000	17.005969
2100.000000	16.957385
2099.000000	16.914887
2098.000000	16.890845
2097.000000	16.865705
2096.000000	16.838371
2095.000000	16.814029
2094.000000	16.784101
2093.000000	16.755969
2092.000000	16.715566
2091.000000	16.687633
2090.000000	16.671771
2089.000000	16.640047
2088.000000	16.609221
2087.000000	16.578794
2086.000000	16.554253
2085.000000	16.516045
2084.000000	16.475941
2083.000000	16.442023
2082.000000	16.407206
2081.000000	16.372091
2080.000000	16.316723
2079.000000	16.269936
2078.000000	16.219956
2077.000000	16.169976
2076.000000	16.133264
2075.000000	16.075902
2074.000000	16.009860
2073.000000	15.946612
2072.000000	15.869597
2071.000000	15.803855
2070.000000	15.750284
2069.000000	15.680551
2068.000000	15.616804
2067.000000	15.545775
2066.000000	15.474147
2065.000000	15.405013
2064.000000	15.319717
2063.000000	15.253177
2062.000000	15.181948
2061.000000	15.095556
2060.000000	15.048568
2059.000000	15.002978
2058.000000	14.944019
2057.000000	14.890149
2056.000000	14.856430
2055.000000	14.825005
2054.000000	14.787096
2053.000000	14.765448
2052.000000	14.763453
2051.000000	14.768341
2050.000000	14.773229
2049.000000	14.804055
2048.000000	14.840767
2047.000000	14.867104
2046.000000	14.911298
2045.000000	14.953696
2044.000000	15.011258
2043.000000	15.075803
2042.000000	15.150623
2041.000000	15.228237
2040.000000	15.281010
2039.000000	15.343859
2038.000000	15.409302
2037.000000	15.461876
2036.000000	15.500982
2035.000000	15.537395
2034.000000	15.599545
2033.000000	15.637454
2032.000000	15.672869
2031.000000	15.713871
2030.000000	15.725244
2029.000000	15.768340
2028.000000	15.797370
2027.000000	15.798667
2026.000000	15.819118
2025.000000	15.811636
2024.000000	15.816325
2023.000000	15.816924
2022.000000	15.832686
2021.000000	15.830890
2020.000000	15.814529
2019.000000	15.814829
2018.000000	15.800363
2017.000000	15.779912
2016.000000	15.775822
2015.000000	15.753775
2014.000000	15.707686
2013.000000	15.686038
2012.000000	15.668879
2011.000000	15.632766
2010.000000	15.608923
2009.000000	15.582686
2008.000000	15.535100
2007.000000	15.501082
2006.000000	15.446812
2005.000000	15.407906
2004.000000	15.361916
2003.000000	15.294578
2002.000000	15.229833
2001.000000	15.189630
2000.000000	15.137455
1999.000000	15.068421
1998.000000	15.004374
1997.000000	14.931649
1996.000000	14.869299
1995.000000	14.787994
1994.000000	14.739810
1993.000000	14.650524
1992.000000	14.575005
1991.000000	14.502480
1990.000000	14.408804
1989.000000	14.342663
1988.000000	14.243701
1987.000000	14.151722
1986.000000	14.077400
1985.000000	13.997891
1984.000000	13.915688
1983.000000	13.835082
1982.000000	13.742704
1981.000000	13.675565
1980.000000	13.576303
1979.000000	13.474448
1978.000000	13.377481
1977.000000	13.304057
1976.000000	13.200605
1975.000000	13.117904
1974.000000	13.035901
1973.000000	12.966368
1972.000000	12.879676
1971.000000	12.798770
1970.000000	12.716069
1969.000000	12.627781
1968.000000	12.528918
1967.000000	12.463774
1966.000000	12.384664
1965.000000	12.315032
1964.000000	12.246496
1963.000000	12.178260
1962.000000	12.074808
1961.000000	12.044082
1960.000000	11.950008
1959.000000	11.877781
1958.000000	11.798173
1957.000000	11.736720
1956.000000	11.689932
1955.000000	11.608727
1954.000000	11.537199
1953.000000	11.467666
1952.000000	11.406812
1951.000000	11.327902
1950.000000	11.290491
1949.000000	11.239115
1948.000000	11.171278
1947.000000	11.140651
1946.000000	11.104937
1945.000000	11.036501
1944.000000	11.006473
1943.000000	10.970161
1942.000000	10.922974
1941.000000	10.913098
1940.000000	10.896936
1939.000000	10.867308
1938.000000	10.841370
1937.000000	10.847655
1936.000000	10.796677
1935.000000	10.813138
1934.000000	10.801565
1933.000000	10.849650
1932.000000	10.906912
1931.000000	10.922076
1930.000000	10.967766
1929.000000	10.996398
1928.000000	11.038197
1927.000000	11.084386
1926.000000	11.150428
1925.000000	11.211780
1924.000000	11.297475
1923.000000	11.406912
1922.000000	11.497794
1921.000000	11.581393
1920.000000	11.708687
1919.000000	11.814234
1918.000000	11.902921
1917.000000	12.070618
1916.000000	12.221257
1915.000000	12.397434
1914.000000	12.541787
1913.000000	12.723451
1912.000000	12.881571
1911.000000	13.051264
1910.000000	13.235322
1909.000000	13.463474
1908.000000	13.697313
1907.000000	13.931949
1906.000000	14.175465
1905.000000	14.441027
1904.000000	14.677958
1903.000000	14.947012
1902.000000	15.220655
1901.000000	15.526421
1900.000000	15.822710
1899.000000	16.193120
1898.000000	16.548268
1897.000000	16.874085
1896.000000	17.250182
1895.000000	17.629272
1894.000000	18.003873
1893.000000	18.419674
1892.000000	18.832383
1891.000000	19.331086
1890.000000	19.786792
1889.000000	20.248384
1888.000000	20.725438
1887.000000	21.246288
1886.000000	21.781403
1885.000000	22.301055
1884.000000	22.835871
1883.000000	23.402710
1882.000000	23.963264
1881.000000	24.484513
1880.000000	25.036886
1879.000000	25.542273
1878.000000	26.024116
1877.000000	26.524614
1876.000000	26.983612
1875.000000	27.433532
1874.000000	27.874174
1873.000000	28.285886
1872.000000	28.695203
1871.000000	29.057732
1870.000000	29.410286
1869.000000	29.713558
1868.000000	30.031295
1867.000000	30.317109
1866.000000	30.537479
1865.000000	30.739395
1864.000000	30.956473
1863.000000	31.130356
1862.000000	31.304737
1861.000000	31.484506
1860.000000	31.669960
1859.000000	31.827781
1858.000000	31.954178
1857.000000	32.059226
1856.000000	32.161181
1855.000000	32.252761
1854.000000	32.339154
1853.000000	32.411181
1852.000000	32.460163
1851.000000	32.517725
1850.000000	32.571196
1849.000000	32.636540
1848.000000	32.671555
1847.000000	32.693702
1846.000000	32.688415
1845.000000	32.672154
1844.000000	32.677342
1843.000000	32.683227
1842.000000	32.716248
1841.000000	32.750466
1840.000000	32.739891
1839.000000	32.738794
1838.000000	32.721535
1837.000000	32.714951
1836.000000	32.684624
1835.000000	32.650805
1834.000000	32.625965
1833.000000	32.592146
1832.000000	32.565809
1831.000000	32.548451
1830.000000	32.538276
1829.000000	32.496276
1828.000000	32.446795
1827.000000	32.386839
1826.000000	32.342545
1825.000000	32.326783
1824.000000	32.285283
1823.000000	32.258447
1822.000000	32.279297
1821.000000	32.288675
1820.000000	32.252961
1819.000000	32.199888
1818.000000	32.153998
1817.000000	32.127462
1816.000000	32.129357
1815.000000	32.130953
1814.000000	32.109006
1813.000000	32.100127
1812.000000	32.087358
1811.000000	32.064413
1810.000000	32.041967
1809.000000	32.005156
1808.000000	31.979218
1807.000000	31.942506
1806.000000	31.914373
1805.000000	31.876065
1804.000000	31.834166
1803.000000	31.799150
1802.000000	31.754956
1801.000000	31.730315
1800.000000	31.683827
1799.000000	31.630156
1798.000000	31.593444
1797.000000	31.554138
1796.000000	31.528699
1795.000000	31.504158
1794.000000	31.469242
1793.000000	31.426744
1792.000000	31.386740
1791.000000	31.352722
1790.000000	31.317507
1789.000000	31.285483
1788.000000	31.262140
1787.000000	31.231214
1786.000000	31.202682
1785.000000	31.168664
1784.000000	31.121677
1783.000000	31.072694
1782.000000	31.033489
1781.000000	30.992786
1780.000000	30.936422
1779.000000	30.887140
1778.000000	30.830376
1777.000000	30.777902
1776.000000	30.725628
1775.000000	30.672455
1774.000000	30.620879
1773.000000	30.553142
1772.000000	30.488198
1771.000000	30.417567
1770.000000	30.348134
1769.000000	30.267129
1768.000000	30.178741
1767.000000	30.098434
1766.000000	30.023214
1765.000000	29.963557
1764.000000	29.914575
1763.000000	29.882253
1762.000000	29.879659
1761.000000	29.891929
1760.000000	29.912979
1759.000000	29.965453
1758.000000	30.008948
1757.000000	30.083869
1756.000000	30.157891
1755.000000	30.215652
1754.000000	30.282891
1753.000000	30.333170
1752.000000	30.369183
1751.000000	30.419363
1750.000000	30.446697
1749.000000	30.442507
1748.000000	30.442308
1747.000000	30.432432
1746.000000	30.421358
1745.000000	30.385444
1744.000000	30.337360
1743.000000	30.258549
1742.000000	30.152703
1741.000000	30.057731
1740.000000	29.928442
1739.000000	29.787979
1738.000000	29.653901
1737.000000	29.503263
1736.000000	29.365094
1735.000000	29.223933
1734.000000	29.123474
1733.000000	29.047756
1732.000000	28.991791
1731.000000	28.972138
1730.000000	28.984009
1729.000000	29.015135
1728.000000	29.079181
1727.000000	29.160486
1726.000000	29.246379
1725.000000	29.326487
1724.000000	29.403203
1723.000000	29.478322
1722.000000	29.534089
1721.000000	29.626766
1720.000000	29.699791
1719.000000	29.787779
1718.000000	29.884348
1717.000000	29.990293
1716.000000	30.087560
1715.000000	30.174152
1714.000000	30.307931
1713.000000	30.425149
1712.000000	30.523313
1711.000000	30.618684
1710.000000	30.710265
1709.000000	30.776007
1708.000000	30.843744
1707.000000	30.880556
1706.000000	30.900209
1705.000000	30.908489
1704.000000	30.896817
1703.000000	30.881853
1702.000000	30.841849
1701.000000	30.801944
1700.000000	30.743784
1699.000000	30.677643
1698.000000	30.590951
1697.000000	30.509247
1696.000000	30.423852
1695.000000	30.379758
1694.000000	30.362599
1693.000000	30.359108
1692.000000	30.404499
1691.000000	30.499171
1690.000000	30.607412
1689.000000	30.682032
1688.000000	30.794562
1687.000000	30.905396
1686.000000	30.997375
1685.000000	31.066010
1684.000000	31.163975
1683.000000	31.279897
1682.000000	31.433927
1681.000000	31.634645
1680.000000	31.879856
1679.000000	32.206372
1678.000000	32.532689
1677.000000	32.897313
1676.000000	33.222632
1675.000000	33.567804
1674.000000	33.855513
1673.000000	34.111698
1672.000000	34.345037
1671.000000	34.558026
1670.000000	34.728118
1669.000000	34.889530
1668.000000	35.038672
1667.000000	35.141725
1666.000000	35.248169
1665.000000	35.353117
1664.000000	35.441405
1663.000000	35.517822
1662.000000	35.613991
1661.000000	35.644418
1660.000000	35.697690
1659.000000	35.747570
1658.000000	35.796951
1657.000000	35.837354
1656.000000	35.849525
1655.000000	35.885838
1654.000000	35.869876
1653.000000	35.883943
1652.000000	35.874964
1651.000000	35.863392
1650.000000	35.853815
1649.000000	35.855112
1648.000000	35.822690
1647.000000	35.801740
1646.000000	35.768021
1645.000000	35.734202
1644.000000	35.679733
1643.000000	35.664869
1642.000000	35.622670
1641.000000	35.585459
1640.000000	35.540567
1639.000000	35.511138
1638.000000	35.449486
1637.000000	35.437814
1636.000000	35.365587
1635.000000	35.308823
1634.000000	35.274606
1633.000000	35.218640
1632.000000	35.153696
1631.000000	35.091944
1630.000000	35.034482
1629.000000	34.966645
1628.000000	34.902200
1627.000000	34.830372
1626.000000	34.769618
1625.000000	34.713154
1624.000000	34.643022
1623.000000	34.555033
