PE UV       SUBTECH     SPECTRUM    ASCII       PEDS        4.00        
   -1
CICIMAUCR0239-2.Sample.ASC
24/06/20
11:42:40.00
24/06/20
11:42:40.00
Vinicio Soto Monge
C. cupreomarginata. Sex M. Dorsal.
250,000000
1
Lambda 1050
1050L1511233
PerkinElmer UV WinLab 6.3.2.0749 / 2.02.05 Lambda 900 UV/VIS/NIR, Aug  7 2015 09:38:08

0
0
3350/servo 860,8/2
0
0
UV/VIS
1
1
1
DoubleDePol,CommonBeamDepol,RBeamAtt,SBeamAtt,60mm sphere, WB InGaAs Detector
0
0
0
0
Program
Program
3350/servo 860,8/2
3350/0,2 860,8/0,2
3350/0,2 860,8/0,2
0
15.00
 
 
 
0
 
860,8
319,2
860,8
Front
100
on
S:100 R:100
0
0
0
0
 
0
 
 
 
0
 
 
0
0
0
0
0
 
 
 
 
0
0


0
0
#HDR
-1
-1
#GR
nm
%R
1.0
0.0
2500,000000
-1,000000
2251
8
72,155700
5,345900
#DATA
2482.000000	8.690427
2481.000000	8.728414
2480.000000	8.706678
2479.000000	8.680755
2478.000000	8.683148
2477.000000	8.705582
2476.000000	8.672181
2475.000000	8.740279
2474.000000	8.713259
2473.000000	8.683348
2472.000000	8.737686
2471.000000	8.731505
2470.000000	8.755434
2469.000000	8.716549
2468.000000	8.746161
2467.000000	8.772683
2466.000000	8.782853
2465.000000	8.780460
2464.000000	8.824330
2463.000000	8.831010
2462.000000	8.874580
2461.000000	8.889337
2460.000000	8.932808
2459.000000	8.959130
2458.000000	8.984754
2457.000000	9.027826
2456.000000	9.086153
2455.000000	9.164022
2454.000000	9.201012
2453.000000	9.259240
2452.000000	9.320059
2451.000000	9.382574
2450.000000	9.441001
2449.000000	9.482577
2448.000000	9.563836
2447.000000	9.645095
2446.000000	9.703323
2445.000000	9.789467
2444.000000	9.795449
2443.000000	9.858463
2442.000000	9.933141
2441.000000	10.023473
2440.000000	10.083994
2439.000000	10.156180
2438.000000	10.195962
2437.000000	10.255485
2436.000000	10.312117
2435.000000	10.380016
2434.000000	10.430765
2433.000000	10.484107
2432.000000	10.531666
2431.000000	10.570950
2430.000000	10.630672
2429.000000	10.666865
2428.000000	10.690495
2427.000000	10.753807
2426.000000	10.804158
2425.000000	10.832673
2424.000000	10.887112
2423.000000	10.921410
2422.000000	10.951920
2421.000000	10.987514
2420.000000	11.026199
2419.000000	11.048633
2418.000000	11.094597
2417.000000	11.127599
2416.000000	11.148636
2415.000000	11.175357
2414.000000	11.221321
2413.000000	11.253625
2412.000000	11.275161
2411.000000	11.297495
2410.000000	11.324913
2409.000000	11.350338
2408.000000	11.387827
2407.000000	11.425814
2406.000000	11.443462
2405.000000	11.469285
2404.000000	11.505578
2403.000000	11.522627
2402.000000	11.542169
2401.000000	11.578561
2400.000000	11.607775
2399.000000	11.617645
2398.000000	11.632900
2397.000000	11.661814
2396.000000	11.676870
2395.000000	11.715056
2394.000000	11.760621
2393.000000	11.770691
2392.000000	11.785149
2391.000000	11.809576
2390.000000	11.821142
2389.000000	11.856537
2388.000000	11.869997
2387.000000	11.887246
2386.000000	11.908383
2385.000000	11.912571
2384.000000	11.916060
2383.000000	11.917356
2382.000000	11.920547
2381.000000	11.918054
2380.000000	11.922142
2379.000000	11.924635
2378.000000	11.926430
2377.000000	11.926629
2376.000000	11.910676
2375.000000	11.907386
2374.000000	11.914066
2373.000000	11.891433
2372.000000	11.875182
2371.000000	11.856038
2370.000000	11.832010
2369.000000	11.807881
2368.000000	11.796814
2367.000000	11.773084
2366.000000	11.729912
2365.000000	11.700001
2364.000000	11.668295
2363.000000	11.622032
2362.000000	11.582151
2361.000000	11.534891
2360.000000	11.486235
2359.000000	11.439773
2358.000000	11.396900
2357.000000	11.366490
2356.000000	11.333388
2355.000000	11.303377
2354.000000	11.273566
2353.000000	11.242657
2352.000000	11.223813
2351.000000	11.227502
2350.000000	11.241262
2349.000000	11.245349
2348.000000	11.260006
2347.000000	11.280844
2346.000000	11.316538
2345.000000	11.346350
2344.000000	11.377059
2343.000000	11.415146
2342.000000	11.462206
2341.000000	11.494311
2340.000000	11.517542
2339.000000	11.534990
2338.000000	11.560315
2337.000000	11.580854
2336.000000	11.590925
2335.000000	11.599300
2334.000000	11.606379
2333.000000	11.585241
2332.000000	11.552439
2331.000000	11.534492
2330.000000	11.501390
2329.000000	11.460412
2328.000000	11.417240
2327.000000	11.376161
2326.000000	11.312550
2325.000000	11.251930
2324.000000	11.183732
2323.000000	11.118825
2322.000000	11.054515
2321.000000	10.985719
2320.000000	10.894191
2319.000000	10.789701
2318.000000	10.701662
2317.000000	10.604151
2316.000000	10.505244
2315.000000	10.410326
2314.000000	10.323583
2313.000000	10.244817
2312.000000	10.151494
2311.000000	10.067842
2310.000000	10.000940
2309.000000	9.924367
2308.000000	9.882691
2307.000000	9.847495
2306.000000	9.822968
2305.000000	9.810006
2304.000000	9.810804
2303.000000	9.833536
2302.000000	9.860457
2301.000000	9.894655
2300.000000	9.949891
2299.000000	10.026065
2298.000000	10.088879
2297.000000	10.156878
2296.000000	10.231257
2295.000000	10.287291
2294.000000	10.375728
2293.000000	10.451603
2292.000000	10.495174
2291.000000	10.541038
2290.000000	10.595277
2289.000000	10.619107
2288.000000	10.633065
2287.000000	10.646924
2286.000000	10.649118
2285.000000	10.632068
2284.000000	10.610133
2283.000000	10.581618
2282.000000	10.555495
2281.000000	10.514118
2280.000000	10.456688
2279.000000	10.419598
2278.000000	10.365858
2277.000000	10.317202
2276.000000	10.274429
2275.000000	10.233151
2274.000000	10.182402
2273.000000	10.161265
2272.000000	10.143517
2271.000000	10.129858
2270.000000	10.128960
2269.000000	10.132749
2268.000000	10.172132
2267.000000	10.218495
2266.000000	10.278118
2265.000000	10.347911
2264.000000	10.441035
2263.000000	10.558786
2262.000000	10.679727
2261.000000	10.825196
2260.000000	10.979039
2259.000000	11.150830
2258.000000	11.327905
2257.000000	11.524023
2256.000000	11.728018
2255.000000	11.909879
2254.000000	12.097522
2253.000000	12.289154
2252.000000	12.507307
2251.000000	12.704821
2250.000000	12.858067
2249.000000	13.025769
2248.000000	13.185496
2247.000000	13.356987
2246.000000	13.485506
2245.000000	13.622200
2244.000000	13.722802
2243.000000	13.852816
2242.000000	13.933776
2241.000000	14.034876
2240.000000	14.152129
2239.000000	14.247945
2238.000000	14.311357
2237.000000	14.369684
2236.000000	14.449846
2235.000000	14.490126
2234.000000	14.555532
2233.000000	14.594816
2232.000000	14.626721
2231.000000	14.687940
2230.000000	14.709177
2229.000000	14.743076
2228.000000	14.760225
2227.000000	14.767404
2226.000000	14.772888
2225.000000	14.787744
2224.000000	14.817555
2223.000000	14.758132
2222.000000	14.761123
2221.000000	14.770694
2220.000000	14.744073
2219.000000	14.731211
2218.000000	14.727821
2217.000000	14.697711
2216.000000	14.670491
2215.000000	14.670990
2214.000000	14.613760
2213.000000	14.603490
2212.000000	14.590329
2211.000000	14.570089
2210.000000	14.558025
2209.000000	14.534894
2208.000000	14.502988
2207.000000	14.487036
2206.000000	14.474473
2205.000000	14.466496
2204.000000	14.471183
2203.000000	14.432896
2202.000000	14.420234
2201.000000	14.410762
2200.000000	14.385537
2199.000000	14.391818
2198.000000	14.383044
2197.000000	14.357021
2196.000000	14.340969
2195.000000	14.349045
2194.000000	14.325515
2193.000000	14.317837
2192.000000	14.311456
2191.000000	14.295803
2190.000000	14.289521
2189.000000	14.277357
2188.000000	14.266490
2187.000000	14.269979
2186.000000	14.252531
2185.000000	14.243458
2184.000000	14.238572
2183.000000	14.214544
2182.000000	14.214843
2181.000000	14.200784
2180.000000	14.184533
2179.000000	14.184134
2178.000000	14.173465
2177.000000	14.172768
2176.000000	14.162997
2175.000000	14.156815
2174.000000	14.175759
2173.000000	14.158410
2172.000000	14.148041
2171.000000	14.141959
2170.000000	14.159008
2169.000000	14.159607
2168.000000	14.155918
2167.000000	14.166586
2166.000000	14.192310
2165.000000	14.184433
2164.000000	14.203776
2163.000000	14.221922
2162.000000	14.246150
2161.000000	14.268384
2160.000000	14.280049
2159.000000	14.298794
2158.000000	14.345057
2157.000000	14.379853
2156.000000	14.386633
2155.000000	14.424720
2154.000000	14.465898
2153.000000	14.501393
2152.000000	14.529809
2151.000000	14.578564
2150.000000	14.600798
2149.000000	14.630111
2148.000000	14.650949
2147.000000	14.692327
2146.000000	14.721839
2145.000000	14.742877
2144.000000	14.771093
2143.000000	14.792928
2142.000000	14.810775
2141.000000	14.818851
2140.000000	14.851953
2139.000000	14.877577
2138.000000	14.890539
2137.000000	14.899811
2136.000000	14.912175
2135.000000	14.933113
2134.000000	14.964719
2133.000000	14.986255
2132.000000	15.005697
2131.000000	15.012078
2130.000000	15.008290
2129.000000	15.009785
2128.000000	15.003404
2127.000000	15.002706
2126.000000	15.010583
2125.000000	15.007293
2124.000000	15.002606
2123.000000	14.988648
2122.000000	14.989047
2121.000000	14.976883
2120.000000	14.941986
2119.000000	14.933511
2118.000000	14.907987
2117.000000	14.899413
2116.000000	14.891735
2115.000000	14.866111
2114.000000	14.843478
2113.000000	14.821942
2112.000000	14.795321
2111.000000	14.772090
2110.000000	14.741979
2109.000000	14.719047
2108.000000	14.694321
2107.000000	14.676274
2106.000000	14.641278
2105.000000	14.613959
2104.000000	14.586241
2103.000000	14.564207
2102.000000	14.546160
2101.000000	14.516947
2100.000000	14.499897
2099.000000	14.475968
2098.000000	14.447253
2097.000000	14.428110
2096.000000	14.407771
2095.000000	14.367989
2094.000000	14.339274
2093.000000	14.325415
2092.000000	14.313849
2091.000000	14.304278
2090.000000	14.285633
2089.000000	14.259411
2088.000000	14.248244
2087.000000	14.222719
2086.000000	14.190116
2085.000000	14.173964
2084.000000	14.159806
2083.000000	14.131889
2082.000000	14.102675
2081.000000	14.070770
2080.000000	14.047539
2079.000000	14.030190
2078.000000	14.003669
2077.000000	13.972462
2076.000000	13.946140
2075.000000	13.912440
2074.000000	13.880036
2073.000000	13.848729
2072.000000	13.816923
2071.000000	13.778437
2070.000000	13.735265
2069.000000	13.700668
2068.000000	13.663279
2067.000000	13.630675
2066.000000	13.598770
2065.000000	13.564771
2064.000000	13.540343
2063.000000	13.504549
2062.000000	13.471547
2061.000000	13.453401
2060.000000	13.443630
2059.000000	13.426880
2058.000000	13.393878
2057.000000	13.377027
2056.000000	13.376828
2055.000000	13.368951
2054.000000	13.379720
2053.000000	13.394675
2052.000000	13.403449
2051.000000	13.424487
2050.000000	13.460081
2049.000000	13.488995
2048.000000	13.537651
2047.000000	13.574641
2046.000000	13.612330
2045.000000	13.670158
2044.000000	13.721107
2043.000000	13.765575
2042.000000	13.824301
2041.000000	13.867074
2040.000000	13.921712
2039.000000	14.000279
2038.000000	14.055615
2037.000000	14.085127
2036.000000	14.123813
2035.000000	14.160005
2034.000000	14.193506
2033.000000	14.237276
2032.000000	14.261106
2031.000000	14.296800
2030.000000	14.316641
2029.000000	14.329004
2028.000000	14.339772
2027.000000	14.352534
2026.000000	14.380352
2025.000000	14.399395
2024.000000	14.406973
2023.000000	14.415647
2022.000000	14.416844
2021.000000	14.417841
2020.000000	14.429506
2019.000000	14.420632
2018.000000	14.415248
2017.000000	14.412656
2016.000000	14.400392
2015.000000	14.385038
2014.000000	14.368786
2013.000000	14.352036
2012.000000	14.342165
2011.000000	14.308764
2010.000000	14.300788
2009.000000	14.272871
2008.000000	14.249540
2007.000000	14.213048
2006.000000	14.154223
2005.000000	14.116435
2004.000000	14.091209
2003.000000	14.054718
2002.000000	14.013639
2001.000000	13.970069
2000.000000	13.922510
1999.000000	13.854511
1998.000000	13.810243
1997.000000	13.764379
1996.000000	13.697776
1995.000000	13.637555
1994.000000	13.570952
1993.000000	13.527382
1992.000000	13.468257
1991.000000	13.392482
1990.000000	13.331164
1989.000000	13.255986
1988.000000	13.187290
1987.000000	13.129063
1986.000000	13.068642
1985.000000	12.994961
1984.000000	12.903332
1983.000000	12.841615
1982.000000	12.776309
1981.000000	12.706018
1980.000000	12.643104
1979.000000	12.577200
1978.000000	12.494943
1977.000000	12.445889
1976.000000	12.357551
1975.000000	12.262433
1974.000000	12.214376
1973.000000	12.157046
1972.000000	12.094032
1971.000000	12.036005
1970.000000	11.951854
1969.000000	11.900407
1968.000000	11.842778
1967.000000	11.777870
1966.000000	11.719842
1965.000000	11.655932
1964.000000	11.589529
1963.000000	11.544562
1962.000000	11.469983
1961.000000	11.431198
1960.000000	11.341664
1959.000000	11.308761
1958.000000	11.256516
1957.000000	11.208559
1956.000000	11.138068
1955.000000	11.091007
1954.000000	11.039859
1953.000000	11.011942
1952.000000	10.961491
1951.000000	10.896683
1950.000000	10.841148
1949.000000	10.823501
1948.000000	10.764276
1947.000000	10.738154
1946.000000	10.707744
1945.000000	10.691991
1944.000000	10.645229
1943.000000	10.629875
1942.000000	10.596374
1941.000000	10.569255
1940.000000	10.553102
1939.000000	10.547818
1938.000000	10.561478
1937.000000	10.561677
1936.000000	10.544029
1935.000000	10.554598
1934.000000	10.527279
1933.000000	10.574938
1932.000000	10.575935
1931.000000	10.606345
1930.000000	10.645229
1929.000000	10.685809
1928.000000	10.760388
1927.000000	10.805853
1926.000000	10.849723
1925.000000	10.920613
1924.000000	10.975350
1923.000000	11.027196
1922.000000	11.119523
1921.000000	11.240265
1920.000000	11.316239
1919.000000	11.452236
1918.000000	11.532598
1917.000000	11.644067
1916.000000	11.731209
1915.000000	11.814462
1914.000000	11.940588
1913.000000	12.108988
1912.000000	12.303711
1911.000000	12.421461
1910.000000	12.550579
1909.000000	12.704223
1908.000000	12.819182
1907.000000	12.965448
1906.000000	13.158874
1905.000000	13.393977
1904.000000	13.627784
1903.000000	13.816923
1902.000000	14.013041
1901.000000	14.210855
1900.000000	14.466995
1899.000000	14.724132
1898.000000	15.010084
1897.000000	15.266025
1896.000000	15.497937
1895.000000	15.683088
1894.000000	15.922080
1893.000000	16.197463
1892.000000	16.494482
1891.000000	16.870866
1890.000000	17.230798
1889.000000	17.556532
1888.000000	17.923045
1887.000000	18.261442
1886.000000	18.623767
1885.000000	19.017300
1884.000000	19.491593
1883.000000	19.958309
1882.000000	20.438385
1881.000000	20.898222
1880.000000	21.388268
1879.000000	21.811314
1878.000000	22.258388
1877.000000	22.705263
1876.000000	23.134190
1875.000000	23.547365
1874.000000	23.974498
1873.000000	24.367134
1872.000000	24.777816
1871.000000	25.127778
1870.000000	25.482526
1869.000000	25.797093
1868.000000	26.092517
1867.000000	26.313661
1866.000000	26.509680
1865.000000	26.663623
1864.000000	26.812881
1863.000000	26.951469
1862.000000	27.070716
1861.000000	27.209205
1860.000000	27.351184
1859.000000	27.487679
1858.000000	27.600545
1857.000000	27.698454
1856.000000	27.769444
1855.000000	27.801150
1854.000000	27.863066
1853.000000	27.915311
1852.000000	27.912120
1851.000000	27.928971
1850.000000	27.954894
1849.000000	27.963668
1848.000000	27.995174
1847.000000	28.019103
1846.000000	28.003848
1845.000000	27.960178
1844.000000	27.930865
1843.000000	27.892279
1842.000000	27.912220
1841.000000	27.952600
1840.000000	27.944724
1839.000000	27.941334
1838.000000	27.927874
1837.000000	27.907235
1836.000000	27.896666
1835.000000	27.878221
1834.000000	27.816903
1833.000000	27.754388
1832.000000	27.683299
1831.000000	27.633447
1830.000000	27.623576
1829.000000	27.586985
1828.000000	27.535836
1827.000000	27.468636
1826.000000	27.426162
1825.000000	27.382491
1824.000000	27.326657
1823.000000	27.284681
1822.000000	27.259656
1821.000000	27.264342
1820.000000	27.265937
1819.000000	27.261251
1818.000000	27.221967
1817.000000	27.173511
1816.000000	27.149881
1815.000000	27.161048
1814.000000	27.155963
1813.000000	27.144198
1812.000000	27.134327
1811.000000	27.117876
1810.000000	27.098733
1809.000000	27.061045
1808.000000	27.028142
1807.000000	27.009597
1806.000000	26.984771
1805.000000	26.946185
1804.000000	26.901518
1803.000000	26.863929
1802.000000	26.833220
1801.000000	26.798025
1800.000000	26.754155
1799.000000	26.705100
1798.000000	26.662227
1797.000000	26.617460
1796.000000	26.579174
1795.000000	26.550160
1794.000000	26.502202
1793.000000	26.455540
1792.000000	26.422937
1791.000000	26.381061
1790.000000	26.340382
1789.000000	26.302594
1788.000000	26.250449
1787.000000	26.198802
1786.000000	26.151442
1785.000000	26.107074
1784.000000	26.063503
1783.000000	26.003780
1782.000000	25.950339
1781.000000	25.890715
1780.000000	25.823714
1779.000000	25.778448
1778.000000	25.723312
1777.000000	25.653120
1776.000000	25.581333
1775.000000	25.506056
1774.000000	25.433471
1773.000000	25.352412
1772.000000	25.258191
1771.000000	25.180223
1770.000000	25.092582
1769.000000	24.991183
1768.000000	24.895567
1767.000000	24.817299
1766.000000	24.746808
1765.000000	24.683595
1764.000000	24.638031
1763.000000	24.599445
1762.000000	24.584689
1761.000000	24.603932
1760.000000	24.638529
1759.000000	24.686188
1758.000000	24.744116
1757.000000	24.796162
1756.000000	24.849703
1755.000000	24.919296
1754.000000	24.977324
1753.000000	25.005341
1752.000000	25.037346
1751.000000	25.055393
1750.000000	25.039340
1749.000000	25.018702
1748.000000	24.991083
1747.000000	24.951800
1746.000000	24.908329
1745.000000	24.835445
1744.000000	24.743817
1743.000000	24.628259
1742.000000	24.511007
1741.000000	24.371621
1740.000000	24.208106
1739.000000	24.046485
1738.000000	23.841393
1737.000000	23.654946
1736.000000	23.516158
1735.000000	23.400800
1734.000000	23.301395
1733.000000	23.238880
1732.000000	23.239977
1731.000000	23.249947
1730.000000	23.290228
1729.000000	23.367897
1728.000000	23.442676
1727.000000	23.525330
1726.000000	23.592033
1725.000000	23.672793
1724.000000	23.730921
1723.000000	23.793535
1722.000000	23.838003
1721.000000	23.875691
1720.000000	23.917268
1719.000000	23.941696
1718.000000	23.970809
1717.000000	24.014779
1716.000000	24.082179
1715.000000	24.131234
1714.000000	24.193449
1713.000000	24.251078
1712.000000	24.321469
1711.000000	24.369726
1710.000000	24.417784
1709.000000	24.422370
1708.000000	24.419578
1707.000000	24.395450
1706.000000	24.364542
1705.000000	24.321469
1704.000000	24.290262
1703.000000	24.217179
1702.000000	24.162341
1701.000000	24.056854
1700.000000	23.922951
1699.000000	23.805001
1698.000000	23.659034
1697.000000	23.543078
1696.000000	23.428916
1695.000000	23.364607
1694.000000	23.343869
1693.000000	23.358824
1692.000000	23.434799
1691.000000	23.546268
1690.000000	23.672893
1689.000000	23.783664
1688.000000	23.882272
1687.000000	23.953560
1686.000000	24.004410
1685.000000	24.051271
1684.000000	24.107504
1683.000000	24.209302
1682.000000	24.349785
1681.000000	24.590172
1680.000000	24.916505
1679.000000	25.281721
1678.000000	25.730391
1677.000000	26.142469
1676.000000	26.565115
1675.000000	26.941399
1674.000000	27.271520
1673.000000	27.549695
1672.000000	27.784300
1671.000000	28.014816
1670.000000	28.198172
1669.000000	28.364977
1668.000000	28.490206
1667.000000	28.604966
1666.000000	28.707462
1665.000000	28.810556
1664.000000	28.890519
1663.000000	28.954030
1662.000000	29.037782
1661.000000	29.106777
1660.000000	29.133299
1659.000000	29.170389
1658.000000	29.208376
1657.000000	29.234598
1656.000000	29.261020
1655.000000	29.251349
1654.000000	29.275278
1653.000000	29.244868
1652.000000	29.246862
1651.000000	29.209074
1650.000000	29.206781
1649.000000	29.179462
1648.000000	29.151246
1647.000000	29.116150
1646.000000	29.073476
1645.000000	29.006973
1644.000000	28.986833
1643.000000	28.934389
1642.000000	28.890918
1641.000000	28.858314
1640.000000	28.788820
1639.000000	28.745349
1638.000000	28.693403
1637.000000	28.633880
1636.000000	28.568075
1635.000000	28.533278
1634.000000	28.472459
1633.000000	28.424202
1632.000000	28.355506
1631.000000	28.276839
1630.000000	28.219409
1629.000000	28.159985
1628.000000	28.065665
1627.000000	28.020998
1626.000000	27.963169
1625.000000	27.876626
1624.000000	27.815806
1623.000000	27.750201
1622.000000	27.673827
1621.000000	27.623078
1620.000000	27.553983
1619.000000	27.495057
1618.000000	27.429651
1617.000000	27.368632
1616.000000	27.309408
1615.000000	27.250283
1614.000000	27.188267
1613.000000	27.129442
1612.000000	27.078194
1611.000000	27.021163
1610.000000	26.963334
1609.000000	26.901119
1608.000000	26.838205
1607.000000	26.801714
1606.000000	26.738800
1605.000000	26.689646
