PE UV       SUBTECH     SPECTRUM    ASCII       PEDS        4.00        
   -1
CICIMAUCR0233-2.Sample.ASC
24/06/13
16:53:07.00
24/06/13
16:53:07.00
Vinicio Soto Monge
C. resplendens. Sex F. Dorsal.
250,000000
1
Lambda 1050
1050L1511233
PerkinElmer UV WinLab 6.3.2.0749 / 2.02.05 Lambda 900 UV/VIS/NIR, Aug  7 2015 09:38:08

0
0
3350/servo 860,8/2
0
0
UV/VIS
1
1
1
DoubleDePol,CommonBeamDepol,RBeamAtt,SBeamAtt,60mm sphere, WB InGaAs Detector
0
0
0
0
Program
Program
3350/servo 860,8/2
3350/0,2 860,8/0,2
3350/0,2 860,8/0,2
0
15.00
 
 
 
0
 
860,8
319,2
860,8
Front
100
on
S:100 R:100
0
0
0
0
 
0
 
 
 
0
 
 
0
0
0
0
0
 
 
 
 
0
0


0
0
#HDR
-1
-1
#GR
nm
%R
1.0
0.0
2500,000000
-1,000000
2251
8
91,540700
5,380200
#DATA
2482.000000	6.283694
2481.000000	6.303935
2480.000000	6.316190
2479.000000	6.313236
2478.000000	6.338619
2477.000000	6.336431
2476.000000	6.353828
2475.000000	6.394748
2474.000000	6.329210
2473.000000	6.317612
2472.000000	6.320566
2471.000000	6.356125
2470.000000	6.408315
2469.000000	6.343215
2468.000000	6.431292
2467.000000	6.393982
2466.000000	6.387965
2465.000000	6.413567
2464.000000	6.410613
2463.000000	6.421117
2462.000000	6.370677
2461.000000	6.433699
2460.000000	6.474510
2459.000000	6.454706
2458.000000	6.488296
2457.000000	6.508319
2456.000000	6.544863
2455.000000	6.564666
2454.000000	6.588409
2453.000000	6.610729
2452.000000	6.607338
2451.000000	6.630205
2450.000000	6.667515
2449.000000	6.684692
2448.000000	6.712812
2447.000000	6.728895
2446.000000	6.758874
2445.000000	6.798044
2444.000000	6.822662
2443.000000	6.847718
2442.000000	6.872554
2441.000000	6.882073
2440.000000	6.915226
2439.000000	6.948487
2438.000000	6.982733
2437.000000	7.002975
2436.000000	6.997613
2435.000000	7.046959
2434.000000	7.065012
2433.000000	7.097617
2432.000000	7.135255
2431.000000	7.150026
2430.000000	7.154512
2429.000000	7.184710
2428.000000	7.213048
2427.000000	7.237228
2426.000000	7.267754
2425.000000	7.269942
2424.000000	7.292153
2423.000000	7.321476
2422.000000	7.318412
2421.000000	7.346641
2420.000000	7.368086
2419.000000	7.378699
2418.000000	7.411741
2417.000000	7.436797
2416.000000	7.443252
2415.000000	7.454631
2414.000000	7.474982
2413.000000	7.490300
2412.000000	7.503648
2411.000000	7.525203
2410.000000	7.545882
2409.000000	7.549273
2408.000000	7.560871
2407.000000	7.589866
2406.000000	7.597415
2405.000000	7.606387
2404.000000	7.611092
2403.000000	7.630567
2402.000000	7.644791
2401.000000	7.649058
2400.000000	7.682429
2399.000000	7.700482
2398.000000	7.714706
2397.000000	7.732650
2396.000000	7.743481
2395.000000	7.753219
2394.000000	7.771601
2393.000000	7.796547
2392.000000	7.817445
2391.000000	7.818210
2390.000000	7.830574
2389.000000	7.830027
2388.000000	7.844141
2387.000000	7.852347
2386.000000	7.860444
2385.000000	7.877293
2384.000000	7.883311
2383.000000	7.880248
2382.000000	7.896769
2381.000000	7.890642
2380.000000	7.906616
2379.000000	7.908695
2378.000000	7.900598
2377.000000	7.913947
2376.000000	7.911759
2375.000000	7.907382
2374.000000	7.892830
2373.000000	7.886046
2372.000000	7.897754
2371.000000	7.907491
2370.000000	7.902677
2369.000000	7.892611
2368.000000	7.882655
2367.000000	7.875980
2366.000000	7.876199
2365.000000	7.866243
2364.000000	7.836264
2363.000000	7.830136
2362.000000	7.835279
2361.000000	7.813615
2360.000000	7.801470
2359.000000	7.792498
2358.000000	7.778712
2357.000000	7.762519
2356.000000	7.752891
2355.000000	7.745998
2354.000000	7.732868
2353.000000	7.728382
2352.000000	7.727288
2351.000000	7.727617
2350.000000	7.726632
2349.000000	7.717988
2348.000000	7.716894
2347.000000	7.743153
2346.000000	7.757377
2345.000000	7.760987
2344.000000	7.788450
2343.000000	7.808144
2342.000000	7.822806
2341.000000	7.832981
2340.000000	7.855739
2339.000000	7.876199
2338.000000	7.890751
2337.000000	7.904865
2336.000000	7.914713
2335.000000	7.912306
2334.000000	7.906397
2333.000000	7.920840
2332.000000	7.938346
2331.000000	7.939659
2330.000000	7.924013
2329.000000	7.893158
2328.000000	7.889219
2327.000000	7.877293
2326.000000	7.867118
2325.000000	7.855411
2324.000000	7.833091
2323.000000	7.804971
2322.000000	7.777181
2321.000000	7.741840
2320.000000	7.716456
2319.000000	7.685602
2318.000000	7.643369
2317.000000	7.604418
2316.000000	7.545444
2315.000000	7.504086
2314.000000	7.469074
2313.000000	7.412398
2312.000000	7.363162
2311.000000	7.341061
2310.000000	7.297186
2309.000000	7.269942
2308.000000	7.246747
2307.000000	7.211188
2306.000000	7.191931
2305.000000	7.174425
2304.000000	7.176504
2303.000000	7.178364
2302.000000	7.186241
2301.000000	7.205279
2300.000000	7.232414
2299.000000	7.269395
2298.000000	7.294341
2297.000000	7.316115
2296.000000	7.361083
2295.000000	7.402222
2294.000000	7.438329
2293.000000	7.464478
2292.000000	7.495333
2291.000000	7.529689
2290.000000	7.557370
2289.000000	7.597525
2288.000000	7.606715
2287.000000	7.615687
2286.000000	7.620501
2285.000000	7.618422
2284.000000	7.616344
2283.000000	7.618860
2282.000000	7.619735
2281.000000	7.578924
2280.000000	7.569734
2279.000000	7.557479
2278.000000	7.537785
2277.000000	7.496646
2276.000000	7.477717
2275.000000	7.455507
2274.000000	7.432968
2273.000000	7.432092
2272.000000	7.415024
2271.000000	7.396971
2270.000000	7.388327
2269.000000	7.400362
2268.000000	7.393579
2267.000000	7.393798
2266.000000	7.440517
2265.000000	7.466338
2264.000000	7.511745
2263.000000	7.546210
2262.000000	7.620282
2261.000000	7.686258
2260.000000	7.792389
2259.000000	7.875324
2258.000000	7.971607
2257.000000	8.069094
2256.000000	8.169207
2255.000000	8.295141
2254.000000	8.398974
2253.000000	8.519876
2252.000000	8.615065
2251.000000	8.726010
2250.000000	8.832140
2249.000000	8.912012
2248.000000	9.012234
2247.000000	9.098232
2246.000000	9.199002
2245.000000	9.267932
2244.000000	9.335768
2243.000000	9.408418
2242.000000	9.477458
2241.000000	9.540479
2240.000000	9.580525
2239.000000	9.654925
2238.000000	9.659630
2237.000000	9.708756
2236.000000	9.783923
2235.000000	9.800992
2234.000000	9.844538
2233.000000	9.879003
2232.000000	9.882067
2231.000000	9.905700
2230.000000	9.940712
2229.000000	9.965658
2228.000000	9.955701
2227.000000	9.982617
2226.000000	9.983164
2225.000000	9.979225
2224.000000	9.968175
2223.000000	9.985024
2222.000000	9.986009
2221.000000	9.956577
2220.000000	9.957780
2219.000000	9.949027
2218.000000	9.959640
2217.000000	9.942353
2216.000000	9.885240
2215.000000	9.899026
2214.000000	9.877143
2213.000000	9.872001
2212.000000	9.847054
2211.000000	9.845304
2210.000000	9.829220
2209.000000	9.837973
2208.000000	9.792020
2207.000000	9.773420
2206.000000	9.779984
2205.000000	9.771341
2204.000000	9.753069
2203.000000	9.761056
2202.000000	9.754053
2201.000000	9.751099
2200.000000	9.745519
2199.000000	9.721667
2198.000000	9.724403
2197.000000	9.705146
2196.000000	9.699347
2195.000000	9.698800
2194.000000	9.674182
2193.000000	9.646391
2192.000000	9.655035
2191.000000	9.662475
2190.000000	9.635997
2189.000000	9.630526
2188.000000	9.636982
2187.000000	9.622977
2186.000000	9.603939
2185.000000	9.604048
2184.000000	9.580525
2183.000000	9.586542
2182.000000	9.587199
2181.000000	9.570130
2180.000000	9.554156
2179.000000	9.566410
2178.000000	9.552187
2177.000000	9.558533
2176.000000	9.538619
2175.000000	9.532164
2174.000000	9.541026
2173.000000	9.534899
2172.000000	9.535009
2171.000000	9.528116
2170.000000	9.548576
2169.000000	9.554265
2168.000000	9.537744
2167.000000	9.559408
2166.000000	9.562800
2165.000000	9.571224
2164.000000	9.569036
2163.000000	9.593107
2162.000000	9.581072
2161.000000	9.596718
2160.000000	9.629760
2159.000000	9.651205
2158.000000	9.656019
2157.000000	9.663022
2156.000000	9.688296
2155.000000	9.689937
2154.000000	9.707881
2153.000000	9.735344
2152.000000	9.754491
2151.000000	9.758758
2150.000000	9.785893
2149.000000	9.818498
2148.000000	9.824297
2147.000000	9.848805
2146.000000	9.865873
2145.000000	9.875939
2144.000000	9.882614
2143.000000	9.912593
2142.000000	9.917298
2141.000000	9.927692
2140.000000	9.952857
2139.000000	9.977256
2138.000000	9.979553
2137.000000	9.971129
2136.000000	9.969816
2135.000000	9.988197
2134.000000	9.993558
2133.000000	9.989182
2132.000000	9.987103
2131.000000	10.013362
2130.000000	10.016535
2129.000000	10.001983
2128.000000	9.996513
2127.000000	9.999248
2126.000000	9.988416
2125.000000	9.986228
2124.000000	9.961610
2123.000000	9.965330
2122.000000	9.954607
2121.000000	9.937101
2120.000000	9.942791
2119.000000	9.909967
2118.000000	9.881629
2117.000000	9.878128
2116.000000	9.860184
2115.000000	9.828345
2114.000000	9.815872
2113.000000	9.801320
2112.000000	9.794208
2111.000000	9.763025
2110.000000	9.717291
2109.000000	9.705255
2108.000000	9.700769
2107.000000	9.678121
2106.000000	9.654159
2105.000000	9.636653
2104.000000	9.610285
2103.000000	9.585120
2102.000000	9.565863
2101.000000	9.556563
2100.000000	9.529319
2099.000000	9.506343
2098.000000	9.486101
2097.000000	9.463890
2096.000000	9.437303
2095.000000	9.420453
2094.000000	9.405354
2093.000000	9.399774
2092.000000	9.371108
2091.000000	9.341457
2090.000000	9.320559
2089.000000	9.303600
2088.000000	9.308196
2087.000000	9.300099
2086.000000	9.269135
2085.000000	9.243752
2084.000000	9.220228
2083.000000	9.203269
2082.000000	9.179636
2081.000000	9.147249
2080.000000	9.141013
2079.000000	9.120006
2078.000000	9.092981
2077.000000	9.074490
2076.000000	9.054686
2075.000000	9.034773
2074.000000	8.997025
2073.000000	8.966280
2072.000000	8.943851
2071.000000	8.912887
2070.000000	8.867043
2069.000000	8.854460
2068.000000	8.847677
2067.000000	8.814306
2066.000000	8.779622
2065.000000	8.747345
2064.000000	8.731152
2063.000000	8.706643
2062.000000	8.667364
2061.000000	8.642637
2060.000000	8.617910
2059.000000	8.596465
2058.000000	8.585086
2057.000000	8.563969
2056.000000	8.554778
2055.000000	8.547557
2054.000000	8.522173
2053.000000	8.513420
2052.000000	8.507403
2051.000000	8.508825
2050.000000	8.523486
2049.000000	8.538257
2048.000000	8.563641
2047.000000	8.568674
2046.000000	8.581147
2045.000000	8.590119
2044.000000	8.595918
2043.000000	8.630054
2042.000000	8.666927
2041.000000	8.657736
2040.000000	8.665176
2039.000000	8.703252
2038.000000	8.711129
2037.000000	8.704783
2036.000000	8.728854
2035.000000	8.758177
2034.000000	8.760584
2033.000000	8.762772
2032.000000	8.761569
2031.000000	8.770869
2030.000000	8.776668
2029.000000	8.778200
2028.000000	8.780278
2027.000000	8.772948
2026.000000	8.768352
2025.000000	8.759271
2024.000000	8.761131
2023.000000	8.772291
2022.000000	8.747564
2021.000000	8.750846
2020.000000	8.754457
2019.000000	8.738701
2018.000000	8.741984
2017.000000	8.713974
2016.000000	8.687277
2015.000000	8.675242
2014.000000	8.651718
2013.000000	8.647889
2012.000000	8.638151
2011.000000	8.610688
2010.000000	8.588259
2009.000000	8.579615
2008.000000	8.548761
2007.000000	8.535740
2006.000000	8.495586
2005.000000	8.472500
2004.000000	8.447663
2003.000000	8.414949
2002.000000	8.384422
2001.000000	8.362540
2000.000000	8.332232
1999.000000	8.300065
1998.000000	8.280808
1997.000000	8.244593
1996.000000	8.213629
1995.000000	8.191856
1994.000000	8.157609
1993.000000	8.127521
1992.000000	8.082771
1991.000000	8.028830
1990.000000	7.991521
1989.000000	7.974562
1988.000000	7.940425
1987.000000	7.893487
1986.000000	7.862632
1985.000000	7.821602
1984.000000	7.783089
1983.000000	7.752016
1982.000000	7.712408
1981.000000	7.657155
1980.000000	7.641618
1979.000000	7.597306
1978.000000	7.563388
1977.000000	7.522139
1976.000000	7.481656
1975.000000	7.455288
1974.000000	7.410210
1973.000000	7.371477
1972.000000	7.332526
1971.000000	7.333074
1970.000000	7.281978
1969.000000	7.249044
1968.000000	7.201559
1967.000000	7.179458
1966.000000	7.158998
1965.000000	7.114357
1964.000000	7.092256
1963.000000	7.083831
1962.000000	7.047615
1961.000000	7.010852
1960.000000	6.961398
1959.000000	6.972339
1958.000000	6.909974
1957.000000	6.894218
1956.000000	6.869600
1955.000000	6.832947
1954.000000	6.811174
1953.000000	6.783821
1952.000000	6.774083
1951.000000	6.719814
1950.000000	6.700776
1949.000000	6.715109
1948.000000	6.662810
1947.000000	6.644429
1946.000000	6.634363
1945.000000	6.619482
1944.000000	6.607119
1943.000000	6.564448
1942.000000	6.584580
1941.000000	6.580313
1940.000000	6.546504
1939.000000	6.572654
1938.000000	6.551975
1937.000000	6.560728
1936.000000	6.532827
1935.000000	6.540705
1934.000000	6.568277
1933.000000	6.569699
1932.000000	6.559196
1931.000000	6.585346
1930.000000	6.592457
1929.000000	6.603180
1928.000000	6.629767
1927.000000	6.636113
1926.000000	6.687209
1925.000000	6.710842
1924.000000	6.710405
1923.000000	6.735788
1922.000000	6.766643
1921.000000	6.830649
1920.000000	6.888857
1919.000000	6.935576
1918.000000	6.959538
1917.000000	7.011947
1916.000000	7.068732
1915.000000	7.088426
1914.000000	7.144227
1913.000000	7.220159
1912.000000	7.316552
1911.000000	7.383513
1910.000000	7.473669
1909.000000	7.525093
1908.000000	7.595227
1907.000000	7.666236
1906.000000	7.782870
1905.000000	7.885937
1904.000000	8.030690
1903.000000	8.122925
1902.000000	8.250829
1901.000000	8.392081
1900.000000	8.507731
1899.000000	8.673273
1898.000000	8.839033
1897.000000	9.034992
1896.000000	9.206770
1895.000000	9.336205
1894.000000	9.494307
1893.000000	9.681731
1892.000000	9.880207
1891.000000	10.184265
1890.000000	10.461189
1889.000000	10.719951
1888.000000	10.975539
1887.000000	11.276316
1886.000000	11.555209
1885.000000	11.871084
1884.000000	12.185209
1883.000000	12.562683
1882.000000	12.937532
1881.000000	13.297172
1880.000000	13.630225
1879.000000	13.961637
1878.000000	14.285718
1877.000000	14.660567
1876.000000	15.004124
1875.000000	15.328205
1874.000000	15.690799
1873.000000	16.029870
1872.000000	16.386337
1871.000000	16.729237
1870.000000	17.056382
1869.000000	17.386809
1868.000000	17.704216
1867.000000	17.922604
1866.000000	18.137163
1865.000000	18.292310
1864.000000	18.456102
1863.000000	18.591336
1862.000000	18.704359
1861.000000	18.858851
1860.000000	19.037631
1859.000000	19.198906
1858.000000	19.364557
1857.000000	19.496290
1856.000000	19.577365
1855.000000	19.661941
1854.000000	19.747174
1853.000000	19.858228
1852.000000	19.918624
1851.000000	19.937990
1850.000000	19.960967
1849.000000	19.983834
1848.000000	20.030335
1847.000000	20.115677
1846.000000	20.190734
1845.000000	20.193798
1844.000000	20.176510
1843.000000	20.126071
1842.000000	20.105283
1841.000000	20.146422
1840.000000	20.202223
1839.000000	20.231108
1838.000000	20.226293
1837.000000	20.209772
1836.000000	20.221807
1835.000000	20.237125
1834.000000	20.214149
1833.000000	20.167757
1832.000000	20.101234
1831.000000	20.057360
1830.000000	20.033508
1829.000000	20.034493
1828.000000	20.010531
1827.000000	19.969392
1826.000000	19.936021
1825.000000	19.913591
1824.000000	19.871686
1823.000000	19.823654
1822.000000	19.759975
1821.000000	19.752317
1820.000000	19.778576
1819.000000	19.793237
1818.000000	19.757678
1817.000000	19.705160
1816.000000	19.668397
1815.000000	19.646405
1814.000000	19.636886
1813.000000	19.616207
1812.000000	19.600889
1811.000000	19.583492
1810.000000	19.568722
1809.000000	19.535788
1808.000000	19.489507
1807.000000	19.455151
1806.000000	19.423859
1805.000000	19.387971
1804.000000	19.367840
1803.000000	19.350224
1802.000000	19.310835
1801.000000	19.270243
1800.000000	19.243765
1799.000000	19.203830
1798.000000	19.157657
1797.000000	19.125928
1796.000000	19.083366
1795.000000	19.049448
1794.000000	19.027128
1793.000000	18.999009
1792.000000	18.966622
1791.000000	18.920997
1790.000000	18.878764
1789.000000	18.844080
1788.000000	18.816398
1787.000000	18.773946
1786.000000	18.743092
1785.000000	18.726133
1784.000000	18.682149
1783.000000	18.636961
1782.000000	18.619236
1781.000000	18.581817
1780.000000	18.533785
1779.000000	18.502711
1778.000000	18.468246
1777.000000	18.431374
1776.000000	18.404349
1775.000000	18.369556
1774.000000	18.309707
1773.000000	18.257955
1772.000000	18.226663
1771.000000	18.198762
1770.000000	18.152590
1769.000000	18.097337
1768.000000	18.045256
1767.000000	18.001381
1766.000000	17.966588
1765.000000	17.930701
1764.000000	17.899299
1763.000000	17.873915
1762.000000	17.858379
1761.000000	17.873697
1760.000000	17.900722
1759.000000	17.939125
1758.000000	17.968120
1757.000000	18.015605
1756.000000	18.074032
1755.000000	18.119000
1754.000000	18.180162
1753.000000	18.238807
1752.000000	18.261675
1751.000000	18.278196
1750.000000	18.305221
1749.000000	18.346798
1748.000000	18.344719
1747.000000	18.337717
1746.000000	18.317257
1745.000000	18.290341
1744.000000	18.271522
1743.000000	18.233446
1742.000000	18.169549
1741.000000	18.102151
1740.000000	18.019435
1739.000000	17.937703
1738.000000	17.843499
1737.000000	17.736930
1736.000000	17.649619
1735.000000	17.552351
1734.000000	17.508914
1733.000000	17.462194
1732.000000	17.439655
1731.000000	17.430355
1730.000000	17.457380
1729.000000	17.482983
1728.000000	17.548084
1727.000000	17.589004
1726.000000	17.652792
1725.000000	17.709030
1724.000000	17.773255
1723.000000	17.832776
1722.000000	17.874134
1721.000000	17.902691
1720.000000	17.942298
1719.000000	17.992519
1718.000000	18.025452
1717.000000	18.075454
1716.000000	18.126550
1715.000000	18.164735
1714.000000	18.226991
1713.000000	18.288700
1712.000000	18.344282
1711.000000	18.386077
1710.000000	18.418135
1709.000000	18.444941
1708.000000	18.466168
1707.000000	18.468028
1706.000000	18.478312
1705.000000	18.474045
1704.000000	18.434875
1703.000000	18.388047
1702.000000	18.350080
1701.000000	18.298766
1700.000000	18.225131
1699.000000	18.153247
1698.000000	18.070640
1697.000000	17.974685
1696.000000	17.913960
1695.000000	17.843389
1694.000000	17.802250
1693.000000	17.804000
1692.000000	17.821616
1691.000000	17.860020
1690.000000	17.929935
1689.000000	18.013964
1688.000000	18.104558
1687.000000	18.170753
1686.000000	18.227429
1685.000000	18.270865
1684.000000	18.310035
1683.000000	18.391001
1682.000000	18.460369
1681.000000	18.569782
1680.000000	18.748891
1679.000000	18.993976
1678.000000	19.239170
1677.000000	19.487209
1676.000000	19.770589
1675.000000	20.017534
1674.000000	20.270496
1673.000000	20.467111
1672.000000	20.671385
1671.000000	20.855855
1670.000000	20.970630
1669.000000	21.085513
1668.000000	21.203351
1667.000000	21.269983
1666.000000	21.347010
1665.000000	21.424256
1664.000000	21.478415
1663.000000	21.519335
1662.000000	21.556536
1661.000000	21.606100
1660.000000	21.638267
1659.000000	21.669231
1658.000000	21.677437
1657.000000	21.694943
1656.000000	21.706650
1655.000000	21.715075
1654.000000	21.718576
1653.000000	21.709167
1652.000000	21.691442
1651.000000	21.666168
1650.000000	21.655773
1649.000000	21.637939
1648.000000	21.616932
1647.000000	21.576230
1646.000000	21.553800
1645.000000	21.503580
1644.000000	21.498985
1643.000000	21.451390
1642.000000	21.442528
1641.000000	21.378630
1640.000000	21.349745
1639.000000	21.288802
1638.000000	21.268342
1637.000000	21.221295
1636.000000	21.164181
1635.000000	21.113085
1634.000000	21.070524
1633.000000	21.025774
1632.000000	20.987807
1631.000000	20.911000
1630.000000	20.864061
1629.000000	20.810011
1628.000000	20.739221
1627.000000	20.701911
1626.000000	20.652129
1625.000000	20.586262
1624.000000	20.518098
1623.000000	20.459124
1622.000000	20.428488
1621.000000	20.380675
1620.000000	20.308025
1619.000000	20.266776
1618.000000	20.217650
1617.000000	20.182638
1616.000000	20.125852
1615.000000	20.072787
1614.000000	20.011844
1613.000000	19.966219
1612.000000	19.928143
1611.000000	19.862824
1610.000000	19.808992
1609.000000	19.769604
1608.000000	19.710083
1607.000000	19.663583
1606.000000	19.615441
1605.000000	19.575177
1604.000000	19.535898
1603.000000	19.469156
1602.000000	19.427251
1601.000000	19.376811
1600.000000	19.330749
1599.000000	19.273197
1598.000000	19.223414
1597.000000	19.168927
1596.000000	19.119363
1595.000000	19.071440
1594.000000	19.027675
1593.000000	18.986426
1592.000000	18.928765
1591.000000	18.870886
1590.000000	18.838172
1589.000000	18.785544
1588.000000	18.735323
1587.000000	18.684446
1586.000000	18.633569
1585.000000	18.588819
1584.000000	18.562670
1583.000000	18.530174
1582.000000	18.482470
1581.000000	18.427326
1580.000000	18.384545
