PE UV       SUBTECH     SPECTRUM    ASCII       PEDS        4.00        
   -1
CICIMAUCR0223-2.Sample.ASC
24/06/13
16:23:49.00
24/06/13
16:23:49.00
Vinicio Soto Monge
C. resplendens. Sex M. Dorsal.
250,000000
1
Lambda 1050
1050L1511233
PerkinElmer UV WinLab 6.3.2.0749 / 2.02.05 Lambda 900 UV/VIS/NIR, Aug  7 2015 09:38:08

0
0
3350/servo 860,8/2
0
0
UV/VIS
1
1
1
DoubleDePol,CommonBeamDepol,RBeamAtt,SBeamAtt,60mm sphere, WB InGaAs Detector
0
0
0
0
Program
Program
3350/servo 860,8/2
3350/0,2 860,8/0,2
3350/0,2 860,8/0,2
0
15.00
 
 
 
0
 
860,8
319,2
860,8
Front
100
on
S:100 R:100
0
0
0
0
 
0
 
 
 
0
 
 
0
0
0
0
0
 
 
 
 
0
0


0
0
#HDR
-1
-1
#GR
nm
%R
1.0
0.0
2500,000000
-1,000000
2251
8
88,368800
5,788100
#DATA
2482.000000	8.151448
2481.000000	8.249212
2480.000000	8.270848
2479.000000	8.247291
2478.000000	8.287024
2477.000000	8.309165
2476.000000	8.232834
2475.000000	8.255177
2474.000000	8.244056
2473.000000	8.284496
2472.000000	8.307143
2471.000000	8.308963
2470.000000	8.256188
2469.000000	8.269129
2468.000000	8.317253
2467.000000	8.334036
2466.000000	8.324431
2465.000000	8.343944
2464.000000	8.393989
2463.000000	8.410266
2462.000000	8.431497
2461.000000	8.442112
2460.000000	8.478307
2459.000000	8.502571
2458.000000	8.571926
2457.000000	8.598717
2456.000000	8.658165
2455.000000	8.705682
2454.000000	8.758558
2453.000000	8.814163
2452.000000	8.888472
2451.000000	8.928104
2450.000000	8.961366
2449.000000	9.027081
2448.000000	9.109377
2447.000000	9.196526
2446.000000	9.233529
2445.000000	9.312185
2444.000000	9.389022
2443.000000	9.446750
2442.000000	9.500536
2441.000000	9.567869
2440.000000	9.647233
2439.000000	9.683326
2438.000000	9.772497
2437.000000	9.829113
2436.000000	9.884011
2435.000000	9.938504
2434.000000	10.010589
2433.000000	10.073575
2432.000000	10.111791
2431.000000	10.168003
2430.000000	10.208645
2429.000000	10.259701
2428.000000	10.323192
2427.000000	10.346850
2426.000000	10.389110
2425.000000	10.437537
2424.000000	10.473529
2423.000000	10.519227
2422.000000	10.547029
2421.000000	10.587773
2420.000000	10.623462
2419.000000	10.644794
2418.000000	10.683010
2417.000000	10.723754
2416.000000	10.756207
2415.000000	10.795333
2414.000000	10.827281
2413.000000	10.864890
2412.000000	10.876517
2411.000000	10.909071
2410.000000	10.945164
2409.000000	10.978527
2408.000000	10.992378
2407.000000	11.010273
2406.000000	11.038783
2405.000000	11.065171
2404.000000	11.089738
2403.000000	11.118249
2402.000000	11.147062
2401.000000	11.189626
2400.000000	11.204892
2399.000000	11.200039
2398.000000	11.186997
2397.000000	11.198421
2396.000000	11.215305
2395.000000	11.238660
2394.000000	11.283447
2393.000000	11.289109
2392.000000	11.287592
2391.000000	11.313777
2390.000000	11.346028
2389.000000	11.335514
2388.000000	11.345422
2387.000000	11.366046
2386.000000	11.368574
2385.000000	11.377471
2384.000000	11.371809
2383.000000	11.362002
2382.000000	11.357958
2381.000000	11.360789
2380.000000	11.364227
2379.000000	11.352297
2378.000000	11.325404
2377.000000	11.303263
2376.000000	11.304880
2375.000000	11.287289
2374.000000	11.261812
2373.000000	11.247657
2372.000000	11.218338
2371.000000	11.191749
2370.000000	11.171630
2369.000000	11.137053
2368.000000	11.094692
2367.000000	11.060722
2366.000000	11.025539
2365.000000	10.976202
2364.000000	10.922720
2363.000000	10.863980
2362.000000	10.812318
2361.000000	10.762172
2360.000000	10.715261
2359.000000	10.658341
2358.000000	10.600613
2357.000000	10.550770
2356.000000	10.498501
2355.000000	10.458263
2354.000000	10.435819
2353.000000	10.406601
2352.000000	10.385976
2351.000000	10.372024
2350.000000	10.354332
2349.000000	10.356151
2348.000000	10.365857
2347.000000	10.394367
2346.000000	10.427427
2345.000000	10.446131
2344.000000	10.475956
2343.000000	10.498703
2342.000000	10.524282
2341.000000	10.565834
2340.000000	10.611734
2339.000000	10.629629
2338.000000	10.635897
2337.000000	10.656926
2336.000000	10.651972
2335.000000	10.649141
2334.000000	10.650961
2333.000000	10.631954
2332.000000	10.598389
2331.000000	10.583122
2330.000000	10.556230
2329.000000	10.513464
2328.000000	10.444311
2327.000000	10.401950
2326.000000	10.349580
2325.000000	10.278708
2324.000000	10.213903
2323.000000	10.124226
2322.000000	10.046884
2321.000000	9.961151
2320.000000	9.861263
2319.000000	9.737112
2318.000000	9.655321
2317.000000	9.561095
2316.000000	9.448873
2315.000000	9.323509
2314.000000	9.206333
2313.000000	9.106749
2312.000000	9.001503
2311.000000	8.920117
2310.000000	8.832260
2309.000000	8.768668
2308.000000	8.707401
2307.000000	8.671712
2306.000000	8.651492
2305.000000	8.622173
2304.000000	8.633193
2303.000000	8.645325
2302.000000	8.661703
2301.000000	8.723274
2300.000000	8.790101
2299.000000	8.862894
2298.000000	8.938315
2297.000000	9.012624
2296.000000	9.100885
2295.000000	9.189550
2294.000000	9.262039
2293.000000	9.332001
2292.000000	9.378710
2291.000000	9.422789
2290.000000	9.482843
2289.000000	9.523688
2288.000000	9.541987
2287.000000	9.551895
2286.000000	9.545728
2285.000000	9.536528
2284.000000	9.507815
2283.000000	9.487090
2282.000000	9.451805
2281.000000	9.389628
2280.000000	9.356872
2279.000000	9.301974
2278.000000	9.247986
2277.000000	9.219880
2276.000000	9.173778
2275.000000	9.122419
2274.000000	9.084506
2273.000000	9.072779
2272.000000	9.061961
2271.000000	9.043358
2270.000000	9.028497
2269.000000	9.062568
2268.000000	9.107355
2267.000000	9.149009
2266.000000	9.202188
2265.000000	9.328665
2264.000000	9.423396
2263.000000	9.544414
2262.000000	9.683124
2261.000000	9.859848
2260.000000	10.038998
2259.000000	10.230079
2258.000000	10.471507
2257.000000	10.691199
2256.000000	10.883897
2255.000000	11.109352
2254.000000	11.357554
2253.000000	11.596455
2252.000000	11.815844
2251.000000	12.034322
2250.000000	12.236726
2249.000000	12.457227
2248.000000	12.637287
2247.000000	12.838275
2246.000000	13.022784
2245.000000	13.162606
2244.000000	13.324367
2243.000000	13.445183
2242.000000	13.581770
2241.000000	13.691666
2240.000000	13.801361
2239.000000	13.912774
2238.000000	13.997193
2237.000000	14.085656
2236.000000	14.155921
2235.000000	14.200911
2234.000000	14.277949
2233.000000	14.330623
2232.000000	14.374602
2231.000000	14.429600
2230.000000	14.458212
2229.000000	14.490564
2228.000000	14.504921
2227.000000	14.522613
2226.000000	14.521501
2225.000000	14.535453
2224.000000	14.513211
2223.000000	14.511795
2222.000000	14.518974
2221.000000	14.502090
2220.000000	14.456089
2219.000000	14.441733
2218.000000	14.403415
2217.000000	14.376422
2216.000000	14.348417
2215.000000	14.295541
2214.000000	14.277343
2213.000000	14.243272
2212.000000	14.206471
2211.000000	14.178567
2210.000000	14.148439
2209.000000	14.134589
2208.000000	14.100922
2207.000000	14.082522
2206.000000	14.063313
2205.000000	14.053405
2204.000000	14.012560
2203.000000	13.980612
2202.000000	13.949776
2201.000000	13.970199
2200.000000	13.941790
2199.000000	13.917829
2198.000000	13.885578
2197.000000	13.868795
2196.000000	13.860201
2195.000000	13.835533
2194.000000	13.820974
2193.000000	13.783061
2192.000000	13.792767
2191.000000	13.766986
2190.000000	13.746059
2189.000000	13.716335
2188.000000	13.724423
2187.000000	13.698440
2186.000000	13.678321
2185.000000	13.662853
2184.000000	13.642228
2183.000000	13.627063
2182.000000	13.607854
2181.000000	13.599867
2180.000000	13.584601
2179.000000	13.548609
2178.000000	13.547598
2177.000000	13.560336
2176.000000	13.532736
2175.000000	13.524749
2174.000000	13.502001
2173.000000	13.500080
2172.000000	13.512010
2171.000000	13.516257
2170.000000	13.528692
2169.000000	13.545879
2168.000000	13.548103
2167.000000	13.581062
2166.000000	13.583286
2165.000000	13.583893
2164.000000	13.589150
2163.000000	13.640105
2162.000000	13.647991
2161.000000	13.674378
2160.000000	13.695710
2159.000000	13.730388
2158.000000	13.757988
2157.000000	13.797519
2156.000000	13.846755
2155.000000	13.877894
2154.000000	13.913987
2153.000000	13.959179
2152.000000	14.008213
2151.000000	14.035409
2150.000000	14.085555
2149.000000	14.122153
2148.000000	14.163604
2147.000000	14.198080
2146.000000	14.235386
2145.000000	14.283914
2144.000000	14.302618
2143.000000	14.356707
2142.000000	14.389261
2141.000000	14.426567
2140.000000	14.464177
2139.000000	14.496226
2138.000000	14.531611
2137.000000	14.545765
2136.000000	14.568513
2135.000000	14.601573
2134.000000	14.617648
2133.000000	14.625230
2132.000000	14.637261
2131.000000	14.656268
2130.000000	14.652123
2129.000000	14.655561
2128.000000	14.667794
2127.000000	14.661020
2126.000000	14.666277
2125.000000	14.663851
2124.000000	14.640395
2123.000000	14.628365
2122.000000	14.625736
2121.000000	14.610571
2120.000000	14.598338
2119.000000	14.557998
2118.000000	14.519782
2117.000000	14.516850
2116.000000	14.490969
2115.000000	14.477320
2114.000000	14.431521
2113.000000	14.387441
2112.000000	14.374703
2111.000000	14.335375
2110.000000	14.295945
2109.000000	14.284015
2108.000000	14.250450
2107.000000	14.198686
2106.000000	14.170378
2105.000000	14.142070
2104.000000	14.108909
2103.000000	14.063313
2102.000000	14.036723
2101.000000	14.017817
2100.000000	13.977579
2099.000000	13.941082
2098.000000	13.895991
2097.000000	13.863335
2096.000000	13.837454
2095.000000	13.809550
2094.000000	13.791554
2093.000000	13.762235
2092.000000	13.736656
2091.000000	13.713100
2090.000000	13.696721
2089.000000	13.688027
2088.000000	13.657292
2087.000000	13.638285
2086.000000	13.624030
2085.000000	13.592183
2084.000000	13.565998
2083.000000	13.539712
2082.000000	13.508674
2081.000000	13.476322
2080.000000	13.446194
2079.000000	13.412123
2078.000000	13.360157
2077.000000	13.320323
2076.000000	13.296362
2075.000000	13.246014
2074.000000	13.200418
2073.000000	13.179894
2072.000000	13.133489
2071.000000	13.084556
2070.000000	13.041488
2069.000000	12.988915
2068.000000	12.938668
2067.000000	12.894993
2066.000000	12.854148
2065.000000	12.813809
2064.000000	12.763865
2063.000000	12.721200
2062.000000	12.687433
2061.000000	12.646689
2060.000000	12.599981
2059.000000	12.566011
2058.000000	12.532547
2057.000000	12.517988
2056.000000	12.510810
2055.000000	12.500498
2054.000000	12.499689
2053.000000	12.519707
2052.000000	12.536287
2051.000000	12.569246
2050.000000	12.613225
2049.000000	12.651643
2048.000000	12.696128
2047.000000	12.755373
2046.000000	12.831805
2045.000000	12.898026
2044.000000	12.968392
2043.000000	13.068380
2042.000000	13.162202
2041.000000	13.218818
2040.000000	13.288679
2039.000000	13.356113
2038.000000	13.438106
2037.000000	13.512516
2036.000000	13.578231
2035.000000	13.654360
2034.000000	13.702990
2033.000000	13.764257
2032.000000	13.802271
2031.000000	13.857775
2030.000000	13.907213
2029.000000	13.940172
2028.000000	13.984050
2027.000000	14.010235
2026.000000	14.038543
2025.000000	14.064728
2024.000000	14.084544
2023.000000	14.106887
2022.000000	14.137116
2021.000000	14.129129
2020.000000	14.151877
2019.000000	14.178365
2018.000000	14.180185
2017.000000	14.171693
2016.000000	14.182611
2015.000000	14.178466
2014.000000	14.153596
2013.000000	14.136914
2012.000000	14.133881
2011.000000	14.119727
2010.000000	14.117098
2009.000000	14.082522
2008.000000	14.037835
2007.000000	14.011044
2006.000000	13.971412
2005.000000	13.929759
2004.000000	13.890329
2003.000000	13.852518
2002.000000	13.797215
2001.000000	13.733623
2000.000000	13.687521
1999.000000	13.641621
1998.000000	13.563774
1997.000000	13.489970
1996.000000	13.434163
1995.000000	13.366122
1994.000000	13.298385
1993.000000	13.219223
1992.000000	13.152395
1991.000000	13.068279
1990.000000	13.001957
1989.000000	12.910158
1988.000000	12.835242
1987.000000	12.742836
1986.000000	12.654474
1985.000000	12.573189
1984.000000	12.478862
1983.000000	12.401015
1982.000000	12.328727
1981.000000	12.237434
1980.000000	12.138961
1979.000000	12.064450
1978.000000	11.969314
1977.000000	11.892781
1976.000000	11.796331
1975.000000	11.689670
1974.000000	11.621225
1973.000000	11.535896
1972.000000	11.431357
1971.000000	11.352600
1970.000000	11.270001
1969.000000	11.195692
1968.000000	11.127651
1967.000000	11.055263
1966.000000	10.969327
1965.000000	10.881673
1964.000000	10.809689
1963.000000	10.735582
1962.000000	10.651669
1961.000000	10.578371
1960.000000	10.520743
1959.000000	10.440065
1958.000000	10.395075
1957.000000	10.334314
1956.000000	10.245143
1955.000000	10.169722
1954.000000	10.103804
1953.000000	10.030405
1952.000000	9.953568
1951.000000	9.890785
1950.000000	9.836190
1949.000000	9.802726
1948.000000	9.733876
1947.000000	9.684539
1946.000000	9.646323
1945.000000	9.592133
1944.000000	9.534202
1943.000000	9.526114
1942.000000	9.479406
1941.000000	9.468487
1940.000000	9.429867
1939.000000	9.424508
1938.000000	9.410455
1937.000000	9.381338
1936.000000	9.406714
1935.000000	9.390943
1934.000000	9.412477
1933.000000	9.433001
1932.000000	9.447559
1931.000000	9.471924
1930.000000	9.503468
1929.000000	9.553917
1928.000000	9.610533
1927.000000	9.683124
1926.000000	9.729428
1925.000000	9.816172
1924.000000	9.885224
1923.000000	9.975406
1922.000000	10.050625
1921.000000	10.178416
1920.000000	10.316823
1919.000000	10.432179
1918.000000	10.584032
1917.000000	10.703129
1916.000000	10.831123
1915.000000	10.959622
1914.000000	11.087413
1913.000000	11.296287
1912.000000	11.505060
1911.000000	11.700285
1910.000000	11.863563
1909.000000	12.031087
1908.000000	12.210743
1907.000000	12.409305
1906.000000	12.635871
1905.000000	12.903788
1904.000000	13.173424
1903.000000	13.450036
1902.000000	13.716840
1901.000000	13.961403
1900.000000	14.259751
1899.000000	14.567805
1898.000000	14.920242
1897.000000	15.238406
1896.000000	15.568803
1895.000000	15.858255
1894.000000	16.154682
1893.000000	16.467589
1892.000000	16.844189
1891.000000	17.289234
1890.000000	17.720833
1889.000000	18.170630
1888.000000	18.608194
1887.000000	19.040905
1886.000000	19.465731
1885.000000	19.967291
1884.000000	20.476637
1883.000000	21.084657
1882.000000	21.671344
1881.000000	22.231240
1880.000000	22.811760
1879.000000	23.307963
1878.000000	23.818723
1877.000000	24.341616
1876.000000	24.845806
1875.000000	25.331291
1874.000000	25.806768
1873.000000	26.247567
1872.000000	26.685333
1871.000000	27.107530
1870.000000	27.492218
1869.000000	27.845666
1868.000000	28.170200
1867.000000	28.470064
1866.000000	28.664885
1865.000000	28.838172
1864.000000	29.020356
1863.000000	29.160279
1862.000000	29.282914
1861.000000	29.433453
1860.000000	29.605324
1859.000000	29.744439
1858.000000	29.874252
1857.000000	29.983239
1856.000000	30.057649
1855.000000	30.110727
1854.000000	30.162996
1853.000000	30.218803
1852.000000	30.231138
1851.000000	30.235687
1850.000000	30.253380
1849.000000	30.245595
1848.000000	30.265411
1847.000000	30.317983
1846.000000	30.323645
1845.000000	30.286440
1844.000000	30.231340
1843.000000	30.171488
1842.000000	30.154605
1841.000000	30.173409
1840.000000	30.189383
1839.000000	30.170174
1838.000000	30.147932
1837.000000	30.118410
1836.000000	30.091518
1835.000000	30.067658
1834.000000	30.013670
1833.000000	29.941080
1832.000000	29.866973
1831.000000	29.809548
1830.000000	29.756065
1829.000000	29.706728
1828.000000	29.653549
1827.000000	29.575500
1826.000000	29.509885
1825.000000	29.455999
1824.000000	29.398776
1823.000000	29.342159
1822.000000	29.289081
1821.000000	29.279679
1820.000000	29.287059
1819.000000	29.280488
1818.000000	29.234184
1817.000000	29.184442
1816.000000	29.159066
1815.000000	29.135610
1814.000000	29.115289
1813.000000	29.093654
1812.000000	29.075759
1811.000000	29.035420
1810.000000	29.010549
1809.000000	28.976478
1808.000000	28.908841
1807.000000	28.871940
1806.000000	28.850506
1805.000000	28.794193
1804.000000	28.728882
1803.000000	28.682376
1802.000000	28.643149
1801.000000	28.580365
1800.000000	28.508887
1799.000000	28.456517
1798.000000	28.402226
1797.000000	28.339745
1796.000000	28.288791
1795.000000	28.243498
1794.000000	28.194565
1793.000000	28.140678
1792.000000	28.090229
1791.000000	28.039881
1790.000000	27.974165
1789.000000	27.905417
1788.000000	27.851227
1787.000000	27.802901
1786.000000	27.743150
1785.000000	27.679760
1784.000000	27.624963
1783.000000	27.556114
1782.000000	27.491612
1781.000000	27.427817
1780.000000	27.353407
1779.000000	27.276368
1778.000000	27.183558
1777.000000	27.110563
1776.000000	27.036456
1775.000000	26.947690
1774.000000	26.873785
1773.000000	26.771572
1772.000000	26.664608
1771.000000	26.558553
1770.000000	26.453712
1769.000000	26.339164
1768.000000	26.230582
1767.000000	26.131402
1766.000000	26.036368
1765.000000	25.960441
1764.000000	25.910295
1763.000000	25.862778
1762.000000	25.836289
1761.000000	25.840637
1760.000000	25.873697
1759.000000	25.922326
1758.000000	25.978538
1757.000000	26.058408
1756.000000	26.137974
1755.000000	26.200758
1754.000000	26.251712
1753.000000	26.301858
1752.000000	26.345230
1751.000000	26.358677
1750.000000	26.363732
1749.000000	26.347960
1748.000000	26.319248
1747.000000	26.291243
1746.000000	26.235031
1745.000000	26.147073
1744.000000	26.055476
1743.000000	25.921012
1742.000000	25.783919
1741.000000	25.630752
1740.000000	25.441390
1739.000000	25.241615
1738.000000	25.038807
1737.000000	24.844997
1736.000000	24.681011
1735.000000	24.535224
1734.000000	24.418150
1733.000000	24.344750
1732.000000	24.311185
1731.000000	24.310882
1730.000000	24.378013
1729.000000	24.443829
1728.000000	24.530877
1727.000000	24.635617
1726.000000	24.722867
1725.000000	24.802332
1724.000000	24.889987
1723.000000	24.946300
1722.000000	25.007263
1721.000000	25.094615
1720.000000	25.153152
1719.000000	25.187324
1718.000000	25.262037
1717.000000	25.330887
1716.000000	25.411767
1715.000000	25.520754
1714.000000	25.615587
1713.000000	25.723663
1712.000000	25.800601
1711.000000	25.879965
1710.000000	25.953768
1709.000000	25.997949
1708.000000	26.019787
1707.000000	26.022921
1706.000000	25.997444
1705.000000	25.966406
1704.000000	25.948713
1703.000000	25.880470
1702.000000	25.801309
1701.000000	25.691008
1700.000000	25.580302
1699.000000	25.426023
1698.000000	25.277000
1697.000000	25.137481
1696.000000	25.012521
1695.000000	24.910409
1694.000000	24.865621
1693.000000	24.882404
1692.000000	24.935684
1691.000000	25.036279
1690.000000	25.160431
1689.000000	25.309454
1688.000000	25.401961
1687.000000	25.506297
1686.000000	25.544209
1685.000000	25.584852
1684.000000	25.648950
1683.000000	25.735391
1682.000000	25.910497
1681.000000	26.182660
1680.000000	26.526403
1679.000000	26.955171
1678.000000	27.422560
1677.000000	27.904406
1676.000000	28.370379
1675.000000	28.777309
1674.000000	29.139149
1673.000000	29.467322
1672.000000	29.761525
1671.000000	29.993854
1670.000000	30.167950
1669.000000	30.366107
1668.000000	30.548796
1667.000000	30.673656
1666.000000	30.821162
1665.000000	30.928429
1664.000000	31.010928
1663.000000	31.115971
1662.000000	31.192201
1661.000000	31.270858
1660.000000	31.333439
1659.000000	31.353659
1658.000000	31.413005
1657.000000	31.444549
1656.000000	31.477609
1655.000000	31.499649
1654.000000	31.499952
1653.000000	31.493178
1652.000000	31.514207
1651.000000	31.472048
1650.000000	31.463859
1649.000000	31.422913
1648.000000	31.391976
1647.000000	31.349110
1646.000000	31.322015
1645.000000	31.255187
1644.000000	31.234562
1643.000000	31.181889
1642.000000	31.139326
1641.000000	31.057939
1640.000000	31.004558
1639.000000	30.967252
1638.000000	30.918926
1637.000000	30.861905
1636.000000	30.788506
1635.000000	30.716725
1634.000000	30.666983
1633.000000	30.585192
1632.000000	30.513512
1631.000000	30.437788
1630.000000	30.380160
1629.000000	30.304436
1628.000000	30.199089
1627.000000	30.132463
1626.000000	30.058761
1625.000000	29.975757
1624.000000	29.894776
1623.000000	29.819759
1622.000000	29.734127
1621.000000	29.664266
1620.000000	29.598854
1619.000000	29.532532
1618.000000	29.461559
1617.000000	29.389778
1616.000000	29.316884
1615.000000	29.261177
1614.000000	29.195664
1613.000000	29.130252
1612.000000	29.061504
1611.000000	28.984667
1610.000000	28.924411
1609.000000	28.878208
1608.000000	28.810066
1607.000000	28.750720
1606.000000	28.672367
1605.000000	28.608269
1604.000000	28.536589
1603.000000	28.476029
1602.000000	28.398687
1601.000000	28.331657
