PE UV       SUBTECH     SPECTRUM    ASCII       PEDS        4.00        
   -1
CICIMAUCR0209-3.ASC
24/06/06
17:01:56.00
24/06/06
17:01:56.00
Vinicio Soto Monge
C. cupreomarginata. Sex F. Dorsal
250,000000
1
Lambda 1050
1050L1511233
PerkinElmer UV WinLab 6.3.2.0749 / 2.02.05 Lambda 900 UV/VIS/NIR, Aug  7 2015 09:38:08

0
0
3350/servo 860,8/2
0
0
UV/VIS
1
1
1
DoubleDePol,CommonBeamDepol,RBeamAtt,SBeamAtt,60mm sphere, WB InGaAs Detector
0
0
0
0
Program
Program
3350/servo 860,8/2
3350/0,2 860,8/0,2
3350/0,2 860,8/0,2
0
15.00
 
 
 
0
 
860,8
319,2
860,8
Front
100
on
S:100 R:100
0
0
0
0
 
0
 
 
 
0
 
 
0
0
0
0
0
 
 
 
 
0
0


0
0
#HDR
-1
-1
#GR
nm
%R
1.0
0.0
2500,000000
-1,000000
2251
8
73,477300
5,040500
#DATA
2482.000000	8.160142
2481.000000	8.187137
2480.000000	8.189662
2479.000000	8.194032
2478.000000	8.265210
2477.000000	8.283563
2476.000000	8.284922
2475.000000	8.290748
2474.000000	8.272493
2473.000000	8.300847
2472.000000	8.260160
2471.000000	8.335902
2470.000000	8.347264
2469.000000	8.369307
2468.000000	8.359596
2467.000000	8.397564
2466.000000	8.414849
2465.000000	8.416694
2464.000000	8.450195
2463.000000	8.464664
2462.000000	8.469519
2461.000000	8.494669
2460.000000	8.537493
2459.000000	8.594591
2458.000000	8.701795
2457.000000	8.691016
2456.000000	8.750153
2455.000000	8.803270
2454.000000	8.844442
2453.000000	8.902900
2452.000000	8.953492
2451.000000	9.031176
2450.000000	9.069630
2449.000000	9.162171
2448.000000	9.231698
2447.000000	9.302876
2446.000000	9.384348
2445.000000	9.435037
2444.000000	9.535735
2443.000000	9.610700
2442.000000	9.634976
2441.000000	9.713049
2440.000000	9.807144
2439.000000	9.887547
2438.000000	9.940275
2437.000000	10.016600
2436.000000	10.096517
2435.000000	10.160898
2434.000000	10.214015
2433.000000	10.276745
2432.000000	10.343650
2431.000000	10.398806
2430.000000	10.453379
2429.000000	10.514458
2428.000000	10.560389
2427.000000	10.622245
2426.000000	10.684975
2425.000000	10.730323
2424.000000	10.772176
2423.000000	10.831895
2422.000000	10.871903
2421.000000	10.918610
2420.000000	10.960366
2419.000000	11.019406
2418.000000	11.068541
2417.000000	11.092720
2416.000000	11.129135
2415.000000	11.173026
2414.000000	11.213131
2413.000000	11.234397
2412.000000	11.263722
2411.000000	11.299651
2410.000000	11.338688
2409.000000	11.371315
2408.000000	11.405205
2407.000000	11.436861
2406.000000	11.468032
2405.000000	11.491726
2404.000000	11.511341
2403.000000	11.534355
2402.000000	11.562710
2401.000000	11.597764
2400.000000	11.630586
2399.000000	11.651464
2398.000000	11.656999
2397.000000	11.636704
2396.000000	11.643210
2395.000000	11.657776
2394.000000	11.676711
2393.000000	11.707785
2392.000000	11.726041
2391.000000	11.745559
2390.000000	11.767602
2389.000000	11.776535
2388.000000	11.788965
2387.000000	11.787799
2386.000000	11.807900
2385.000000	11.813047
2384.000000	11.802657
2383.000000	11.813629
2382.000000	11.796442
2381.000000	11.789353
2380.000000	11.803531
2379.000000	11.788868
2378.000000	11.774205
2377.000000	11.776244
2376.000000	11.753716
2375.000000	11.719632
2374.000000	11.725846
2373.000000	11.724196
2372.000000	11.694287
2371.000000	11.655639
2370.000000	11.636801
2369.000000	11.608834
2368.000000	11.577761
2367.000000	11.572032
2366.000000	11.526392
2365.000000	11.478713
2364.000000	11.466090
2363.000000	11.430938
2362.000000	11.368887
2361.000000	11.307711
2360.000000	11.273724
2359.000000	11.226143
2358.000000	11.169142
2357.000000	11.139428
2356.000000	11.087185
2355.000000	11.045333
2354.000000	11.021930
2353.000000	10.996780
2352.000000	10.963959
2351.000000	10.947548
2350.000000	10.950170
2349.000000	10.938420
2348.000000	10.926767
2347.000000	10.940362
2346.000000	10.944926
2345.000000	10.972115
2344.000000	11.008433
2343.000000	11.016395
2342.000000	11.038924
2341.000000	11.065822
2340.000000	11.086505
2339.000000	11.110102
2338.000000	11.134378
2337.000000	11.139039
2336.000000	11.152634
2335.000000	11.162247
2334.000000	11.137971
2333.000000	11.126513
2332.000000	11.116802
2331.000000	11.087671
2330.000000	11.071745
2329.000000	11.032806
2328.000000	10.994935
2327.000000	10.949781
2326.000000	10.904530
2325.000000	10.846170
2324.000000	10.783246
2323.000000	10.726925
2322.000000	10.660310
2321.000000	10.586219
2320.000000	10.527276
2319.000000	10.419198
2318.000000	10.314907
2317.000000	10.251303
2316.000000	10.138370
2315.000000	10.028058
2314.000000	9.935226
2313.000000	9.842879
2312.000000	9.755678
2311.000000	9.675955
2310.000000	9.589919
2309.000000	9.510876
2308.000000	9.452807
2307.000000	9.415033
2306.000000	9.368325
2305.000000	9.343661
2304.000000	9.307537
2303.000000	9.313461
2302.000000	9.332493
2301.000000	9.366480
2300.000000	9.390174
2299.000000	9.446301
2298.000000	9.522917
2297.000000	9.583802
2296.000000	9.634394
2295.000000	9.709456
2294.000000	9.761796
2293.000000	9.823069
2292.000000	9.894733
2291.000000	9.974747
2290.000000	10.014269
2289.000000	10.056899
2288.000000	10.077873
2287.000000	10.096226
2286.000000	10.121959
2285.000000	10.134097
2284.000000	10.136622
2283.000000	10.107587
2282.000000	10.103606
2281.000000	10.075931
2280.000000	10.057093
2279.000000	10.023009
2278.000000	10.004947
2277.000000	9.967465
2276.000000	9.928623
2275.000000	9.897743
2274.000000	9.883274
2273.000000	9.854240
2272.000000	9.838703
2271.000000	9.819476
2270.000000	9.822292
2269.000000	9.844529
2268.000000	9.878031
2267.000000	9.905997
2266.000000	9.959793
2265.000000	10.025436
2264.000000	10.135748
2263.000000	10.231008
2262.000000	10.352293
2261.000000	10.500864
2260.000000	10.653610
2259.000000	10.830342
2258.000000	11.016493
2257.000000	11.193807
2256.000000	11.408701
2255.000000	11.613398
2254.000000	11.830332
2253.000000	12.042215
2252.000000	12.246330
2251.000000	12.451125
2250.000000	12.658736
2249.000000	12.851296
2248.000000	13.025600
2247.000000	13.182425
2246.000000	13.354495
2245.000000	13.509864
2244.000000	13.648433
2243.000000	13.781176
2242.000000	13.894303
2241.000000	14.016462
2240.000000	14.092204
2239.000000	14.184065
2238.000000	14.275247
2237.000000	14.339822
2236.000000	14.421876
2235.000000	14.463437
2234.000000	14.521506
2233.000000	14.588023
2232.000000	14.612882
2231.000000	14.642499
2230.000000	14.683089
2229.000000	14.696490
2228.000000	14.720766
2227.000000	14.717173
2226.000000	14.703870
2225.000000	14.718533
2224.000000	14.706200
2223.000000	14.701248
2222.000000	14.669397
2221.000000	14.629584
2220.000000	14.605017
2219.000000	14.571807
2218.000000	14.539956
2217.000000	14.511504
2216.000000	14.484412
2215.000000	14.422265
2214.000000	14.415759
2213.000000	14.374586
2212.000000	14.337977
2211.000000	14.303117
2210.000000	14.257477
2209.000000	14.248835
2208.000000	14.216596
2207.000000	14.192902
2206.000000	14.169403
2205.000000	14.137941
2204.000000	14.082882
2203.000000	14.055984
2202.000000	14.045496
2201.000000	14.034815
2200.000000	14.016947
2199.000000	13.983446
2198.000000	13.962957
2197.000000	13.933243
2196.000000	13.925766
2195.000000	13.913239
2194.000000	13.902849
2193.000000	13.855947
2192.000000	13.836040
2191.000000	13.858180
2190.000000	13.839051
2189.000000	13.828563
2188.000000	13.807977
2187.000000	13.802151
2186.000000	13.757579
2185.000000	13.767678
2184.000000	13.767872
2183.000000	13.733497
2182.000000	13.733109
2181.000000	13.699122
2180.000000	13.713979
2179.000000	13.695141
2178.000000	13.681255
2177.000000	13.665524
2176.000000	13.669602
2175.000000	13.663096
2174.000000	13.677079
2173.000000	13.675525
2172.000000	13.673292
2171.000000	13.693878
2170.000000	13.707473
2169.000000	13.716407
2168.000000	13.723010
2167.000000	13.750879
2166.000000	13.776223
2165.000000	13.804384
2164.000000	13.854490
2163.000000	13.882068
2162.000000	13.899159
2161.000000	13.941982
2160.000000	13.963928
2159.000000	13.998109
2158.000000	14.048312
2157.000000	14.092689
2156.000000	14.134542
2155.000000	14.184454
2154.000000	14.231647
2153.000000	14.272431
2152.000000	14.317294
2151.000000	14.367303
2150.000000	14.435762
2149.000000	14.489461
2148.000000	14.537237
2147.000000	14.591908
2146.000000	14.618709
2145.000000	14.673379
2144.000000	14.733487
2143.000000	14.776505
2142.000000	14.807772
2141.000000	14.857296
2140.000000	14.909442
2139.000000	14.950711
2138.000000	14.964792
2137.000000	15.007324
2136.000000	15.037815
2135.000000	15.068597
2134.000000	15.092097
2133.000000	15.125307
2132.000000	15.144242
2131.000000	15.159002
2130.000000	15.174345
2129.000000	15.190464
2128.000000	15.197553
2127.000000	15.208914
2126.000000	15.223674
2125.000000	15.227267
2124.000000	15.201146
2123.000000	15.181142
2122.000000	15.171140
2121.000000	15.172985
2120.000000	15.162401
2119.000000	15.164052
2118.000000	15.144922
2117.000000	15.118898
2116.000000	15.088018
2115.000000	15.055197
2114.000000	15.038592
2113.000000	15.008780
2112.000000	14.969258
2111.000000	14.930125
2110.000000	14.898857
2109.000000	14.879242
2108.000000	14.850499
2107.000000	14.809132
2106.000000	14.780680
2105.000000	14.759900
2104.000000	14.726398
2103.000000	14.687750
2102.000000	14.659299
2101.000000	14.635993
2100.000000	14.603851
2099.000000	14.563067
2098.000000	14.532479
2097.000000	14.506066
2096.000000	14.487325
2095.000000	14.453921
2094.000000	14.415370
2093.000000	14.391579
2092.000000	14.374586
2091.000000	14.362739
2090.000000	14.339143
2089.000000	14.312147
2088.000000	14.296708
2087.000000	14.260196
2086.000000	14.217275
2085.000000	14.195038
2084.000000	14.171150
2083.000000	14.157362
2082.000000	14.124249
2081.000000	14.076084
2080.000000	14.043457
2079.000000	13.998886
2078.000000	13.956354
2077.000000	13.917900
2076.000000	13.861482
2075.000000	13.808268
2074.000000	13.757094
2073.000000	13.693101
2072.000000	13.639208
2071.000000	13.578129
2070.000000	13.503261
2069.000000	13.441696
2068.000000	13.379354
2067.000000	13.313323
2066.000000	13.243019
2065.000000	13.170772
2064.000000	13.100662
2063.000000	13.035310
2062.000000	12.963938
2061.000000	12.905675
2060.000000	12.853529
2059.000000	12.784391
2058.000000	12.724380
2057.000000	12.671651
2056.000000	12.626109
2055.000000	12.589306
2054.000000	12.553766
2053.000000	12.522401
2052.000000	12.517254
2051.000000	12.531237
2050.000000	12.546871
2049.000000	12.566389
2048.000000	12.598531
2047.000000	12.643976
2046.000000	12.693306
2045.000000	12.746811
2044.000000	12.815561
2043.000000	12.885283
2042.000000	12.957335
2041.000000	13.034242
2040.000000	13.111247
2039.000000	13.188251
2038.000000	13.254865
2037.000000	13.317595
2036.000000	13.392755
2035.000000	13.457427
2034.000000	13.507048
2033.000000	13.552590
2032.000000	13.606872
2031.000000	13.645520
2030.000000	13.696112
2029.000000	13.730681
2028.000000	13.762337
2027.000000	13.785546
2026.000000	13.804870
2025.000000	13.834487
2024.000000	13.848858
2023.000000	13.867502
2022.000000	13.874203
2021.000000	13.893915
2020.000000	13.884884
2019.000000	13.884107
2018.000000	13.900227
2017.000000	13.909355
2016.000000	13.903043
2015.000000	13.896731
2014.000000	13.880903
2013.000000	13.870124
2012.000000	13.857306
2011.000000	13.835166
2010.000000	13.807297
2009.000000	13.784963
2008.000000	13.753598
2007.000000	13.747869
2006.000000	13.714756
2005.000000	13.682614
2004.000000	13.644160
2003.000000	13.600463
2002.000000	13.575895
2001.000000	13.516467
2000.000000	13.449950
1999.000000	13.407418
1998.000000	13.370615
1997.000000	13.317013
1996.000000	13.267683
1995.000000	13.203788
1994.000000	13.149506
1993.000000	13.071822
1992.000000	12.997051
1991.000000	12.942769
1990.000000	12.879068
1989.000000	12.815756
1988.000000	12.738168
1987.000000	12.669903
1986.000000	12.583188
1985.000000	12.508515
1984.000000	12.441221
1983.000000	12.355574
1982.000000	12.283328
1981.000000	12.211178
1980.000000	12.127376
1979.000000	12.053868
1978.000000	11.996770
1977.000000	11.911220
1976.000000	11.833148
1975.000000	11.758085
1974.000000	11.681663
1973.000000	11.627770
1972.000000	11.552611
1971.000000	11.500756
1970.000000	11.408409
1969.000000	11.359080
1968.000000	11.287125
1967.000000	11.241097
1966.000000	11.142924
1965.000000	11.086505
1964.000000	11.002315
1963.000000	10.959200
1962.000000	10.908706
1961.000000	10.872583
1960.000000	10.786547
1959.000000	10.742462
1958.000000	10.670507
1957.000000	10.612632
1956.000000	10.569032
1955.000000	10.523198
1954.000000	10.482317
1953.000000	10.413275
1952.000000	10.348506
1951.000000	10.306945
1950.000000	10.274220
1949.000000	10.225085
1948.000000	10.173328
1947.000000	10.116036
1946.000000	10.081757
1945.000000	10.060686
1944.000000	10.023009
1943.000000	10.021649
1942.000000	9.986012
1941.000000	9.969018
1940.000000	9.961056
1939.000000	9.969212
1938.000000	9.964649
1937.000000	9.942897
1936.000000	9.949791
1935.000000	9.945228
1934.000000	9.972708
1933.000000	9.985429
1932.000000	10.011939
1931.000000	10.024951
1930.000000	10.069716
1929.000000	10.145750
1928.000000	10.192360
1927.000000	10.244117
1926.000000	10.310343
1925.000000	10.401137
1924.000000	10.455224
1923.000000	10.525043
1922.000000	10.630111
1921.000000	10.713039
1920.000000	10.823933
1919.000000	10.945509
1918.000000	11.039992
1917.000000	11.150304
1916.000000	11.258382
1915.000000	11.385007
1914.000000	11.515808
1913.000000	11.679236
1912.000000	11.849558
1911.000000	12.021240
1910.000000	12.164568
1909.000000	12.304399
1908.000000	12.492298
1907.000000	12.665145
1906.000000	12.869843
1905.000000	13.112509
1904.000000	13.343814
1903.000000	13.598424
1902.000000	13.834778
1901.000000	14.053071
1900.000000	14.307778
1899.000000	14.572584
1898.000000	14.844090
1897.000000	15.150457
1896.000000	15.422546
1895.000000	15.686769
1894.000000	15.981192
1893.000000	16.275518
1892.000000	16.608298
1891.000000	17.017402
1890.000000	17.414077
1889.000000	17.785699
1888.000000	18.163147
1887.000000	18.566619
1886.000000	18.955526
1885.000000	19.390654
1884.000000	19.848603
1883.000000	20.333838
1882.000000	20.846262
1881.000000	21.305764
1880.000000	21.794300
1879.000000	22.259629
1878.000000	22.696602
1877.000000	23.164650
1876.000000	23.640951
1875.000000	24.078701
1874.000000	24.516257
1873.000000	24.934004
1872.000000	25.340292
1871.000000	25.710749
1870.000000	26.054016
1869.000000	26.347856
1868.000000	26.635676
1867.000000	26.859989
1866.000000	27.047791
1865.000000	27.214132
1864.000000	27.372705
1863.000000	27.518460
1862.000000	27.684025
1861.000000	27.854056
1860.000000	28.016319
1859.000000	28.167220
1858.000000	28.290447
1857.000000	28.392990
1856.000000	28.473490
1855.000000	28.542144
1854.000000	28.601669
1853.000000	28.642648
1852.000000	28.637598
1851.000000	28.647794
1850.000000	28.686927
1849.000000	28.735383
1848.000000	28.791607
1847.000000	28.794132
1846.000000	28.750629
1845.000000	28.699745
1844.000000	28.663428
1843.000000	28.643910
1842.000000	28.653038
1841.000000	28.680616
1840.000000	28.683432
1839.000000	28.658864
1838.000000	28.629538
1837.000000	28.608466
1836.000000	28.561079
1835.000000	28.506020
1834.000000	28.442611
1833.000000	28.371433
1832.000000	28.307440
1831.000000	28.267627
1830.000000	28.220531
1829.000000	28.182660
1828.000000	28.127796
1827.000000	28.063318
1826.000000	27.993305
1825.000000	27.927953
1824.000000	27.853862
1823.000000	27.813951
1822.000000	27.807251
1821.000000	27.812689
1820.000000	27.793851
1819.000000	27.756174
1818.000000	27.697522
1817.000000	27.654699
1816.000000	27.646154
1815.000000	27.625276
1814.000000	27.588667
1813.000000	27.569537
1812.000000	27.570994
1811.000000	27.554583
1810.000000	27.514479
1809.000000	27.461362
1808.000000	27.427084
1807.000000	27.400089
1806.000000	27.365908
1805.000000	27.317744
1804.000000	27.252003
1803.000000	27.199469
1802.000000	27.169852
1801.000000	27.129651
1800.000000	27.080224
1799.000000	27.019825
1798.000000	26.956706
1797.000000	26.901648
1796.000000	26.856785
1795.000000	26.814350
1794.000000	26.769973
1793.000000	26.726081
1792.000000	26.675781
1791.000000	26.635871
1790.000000	26.586153
1789.000000	26.522355
1788.000000	26.486620
1787.000000	26.459139
1786.000000	26.408547
1785.000000	26.346011
1784.000000	26.299595
1783.000000	26.243954
1782.000000	26.183846
1781.000000	26.122864
1780.000000	26.066057
1779.000000	26.013038
1778.000000	25.943219
1777.000000	25.871847
1776.000000	25.797949
1775.000000	25.719780
1774.000000	25.640639
1773.000000	25.552759
1772.000000	25.451963
1771.000000	25.344759
1770.000000	25.237361
1769.000000	25.150258
1768.000000	25.048297
1767.000000	24.934295
1766.000000	24.842143
1765.000000	24.751252
1764.000000	24.685318
1763.000000	24.644922
1762.000000	24.617635
1761.000000	24.622491
1760.000000	24.650554
1759.000000	24.689105
1758.000000	24.731443
1757.000000	24.789220
1756.000000	24.856029
1755.000000	24.921963
1754.000000	24.993530
1753.000000	25.034411
1752.000000	25.068980
1751.000000	25.096850
1750.000000	25.104035
1749.000000	25.104327
1748.000000	25.083061
1747.000000	25.055386
1746.000000	25.008678
1745.000000	24.950706
1744.000000	24.875547
1743.000000	24.765624
1742.000000	24.647641
1741.000000	24.511014
1740.000000	24.350305
1739.000000	24.171048
1738.000000	23.990433
1737.000000	23.794668
1736.000000	23.607061
1735.000000	23.461112
1734.000000	23.330894
1733.000000	23.240003
1732.000000	23.171544
1731.000000	23.134838
1730.000000	23.155425
1729.000000	23.200093
1728.000000	23.264668
1727.000000	23.347402
1726.000000	23.413433
1725.000000	23.491506
1724.000000	23.562295
1723.000000	23.621141
1722.000000	23.689018
1721.000000	23.757865
1720.000000	23.824868
1719.000000	23.925372
1718.000000	24.003542
1717.000000	24.090645
1716.000000	24.185129
1715.000000	24.298936
1714.000000	24.418861
1713.000000	24.535581
1712.000000	24.653176
1711.000000	24.748339
1710.000000	24.826314
1709.000000	24.894871
1708.000000	24.952551
1707.000000	24.967117
1706.000000	24.983431
1705.000000	24.987121
1704.000000	24.970710
1703.000000	24.952648
1702.000000	24.919341
1701.000000	24.856514
1700.000000	24.789123
1699.000000	24.685221
1698.000000	24.596466
1697.000000	24.495962
1696.000000	24.415462
1695.000000	24.359918
1694.000000	24.318260
1693.000000	24.328553
1692.000000	24.357879
1691.000000	24.436631
1690.000000	24.530143
1689.000000	24.633852
1688.000000	24.750475
1687.000000	24.825635
1686.000000	24.900212
1685.000000	24.957601
1684.000000	25.029556
1683.000000	25.138022
1682.000000	25.293002
1681.000000	25.520908
1680.000000	25.803290
1679.000000	26.163356
1678.000000	26.552554
1677.000000	26.971078
1676.000000	27.392029
1675.000000	27.762291
1674.000000	28.113618
1673.000000	28.429793
1672.000000	28.684306
1671.000000	28.929108
1670.000000	29.143905
1669.000000	29.331803
1668.000000	29.517177
1667.000000	29.631276
1666.000000	29.770816
1665.000000	29.885206
1664.000000	29.978039
1663.000000	30.082039
1662.000000	30.174677
1661.000000	30.254497
1660.000000	30.331502
1659.000000	30.388600
1658.000000	30.427539
1657.000000	30.488230
1656.000000	30.503378
1655.000000	30.526489
1654.000000	30.567565
1653.000000	30.553096
1652.000000	30.546104
1651.000000	30.537656
1650.000000	30.521925
1649.000000	30.511341
1648.000000	30.475121
1647.000000	30.454728
1646.000000	30.398893
1645.000000	30.360828
1644.000000	30.330142
1643.000000	30.291980
1642.000000	30.264791
1641.000000	30.196623
1640.000000	30.151177
1639.000000	30.107674
1638.000000	30.050965
1637.000000	29.993576
1636.000000	29.925505
1635.000000	29.871611
1634.000000	29.813251
1633.000000	29.755474
1632.000000	29.686140
1631.000000	29.614671
1630.000000	29.547377
1629.000000	29.452505
1628.000000	29.404050
1627.000000	29.318694
1626.000000	29.238485
1625.000000	29.170512
1624.000000	29.109335
1623.000000	29.024757
1622.000000	28.938721
1621.000000	28.872593
1620.000000	28.787140
1619.000000	28.728877
1618.000000	28.660612
1617.000000	28.583413
1616.000000	28.514274
1615.000000	28.442514
1614.000000	28.366480
1613.000000	28.284815
1612.000000	28.223347
1611.000000	28.147896
1610.000000	28.067299
1609.000000	28.003598
1608.000000	27.917563
1607.000000	27.861533
1606.000000	27.784043
1605.000000	27.679752
1604.000000	27.613526
1603.000000	27.540891
