PE UV       SUBTECH     SPECTRUM    ASCII       PEDS        4.00        
   -1
CICIMAUCR0234-3.ASC
24/06/17
14:16:11.00
24/06/17
14:16:11.00
Vinicio Soto Monge
C. resplendens. Sex M. Dorsal. 
250,000000
1
Lambda 1050
1050L1511233
PerkinElmer UV WinLab 6.3.2.0749 / 2.02.05 Lambda 900 UV/VIS/NIR, Aug  7 2015 09:38:08

0
0
3350/servo 860,8/2
0
0
UV/VIS
1
1
1
DoubleDePol,CommonBeamDepol,RBeamAtt,SBeamAtt,60mm sphere, WB InGaAs Detector
0
0
0
0
Program
Program
3350/servo 860,8/2
3350/0,2 860,8/0,2
3350/0,2 860,8/0,2
0
15.00
 
 
 
0
 
860,8
319,2
860,8
Front
100
on
S:100 R:100
0
0
0
0
 
0
 
 
 
0
 
 
0
0
0
0
0
 
 
 
 
0
0


0
0
#HDR
-1
-1
#GR
nm
%R
1.0
0.0
2500,000000
-1,000000
2251
8
91,076400
5,684200
#DATA
2482.000000	8.113496
2481.000000	8.053034
2480.000000	8.074274
2479.000000	8.130690
2478.000000	8.082928
2477.000000	8.088322
2476.000000	8.094728
2475.000000	8.127993
2474.000000	8.075061
2473.000000	8.075848
2472.000000	8.131589
2471.000000	8.109225
2470.000000	8.089895
2469.000000	8.095065
2468.000000	8.111136
2467.000000	8.119452
2466.000000	8.099673
2465.000000	8.106753
2464.000000	8.139680
2463.000000	8.185532
2462.000000	8.215988
2461.000000	8.236553
2460.000000	8.251388
2459.000000	8.274089
2458.000000	8.304881
2457.000000	8.324211
2456.000000	8.397259
2455.000000	8.388268
2454.000000	8.456596
2453.000000	8.489749
2452.000000	8.531105
2451.000000	8.604153
2450.000000	8.636407
2449.000000	8.735302
2448.000000	8.765308
2447.000000	8.793628
2446.000000	8.846448
2445.000000	8.916911
2444.000000	8.960965
2443.000000	9.007041
2442.000000	9.060872
2441.000000	9.119872
2440.000000	9.178535
2439.000000	9.234501
2438.000000	9.300469
2437.000000	9.337555
2436.000000	9.389475
2435.000000	9.448026
2434.000000	9.476234
2433.000000	9.541865
2432.000000	9.594234
2431.000000	9.648065
2430.000000	9.681667
2429.000000	9.731902
2428.000000	9.775169
2427.000000	9.833944
2426.000000	9.884066
2425.000000	9.910588
2424.000000	9.931379
2423.000000	9.987120
2422.000000	10.023756
2421.000000	10.055785
2420.000000	10.097816
2419.000000	10.137487
2418.000000	10.149174
2417.000000	10.191093
2416.000000	10.216828
2415.000000	10.245485
2414.000000	10.277177
2413.000000	10.302013
2412.000000	10.339324
2411.000000	10.376522
2410.000000	10.409675
2409.000000	10.435972
2408.000000	10.464180
2407.000000	10.489016
2406.000000	10.524416
2405.000000	10.550264
2404.000000	10.616457
2403.000000	10.691415
2402.000000	10.751876
2401.000000	10.810764
2400.000000	10.844366
2399.000000	10.868753
2398.000000	10.886734
2397.000000	10.921010
2396.000000	10.968435
2395.000000	11.018220
2394.000000	11.062948
2393.000000	11.091493
2392.000000	11.109025
2391.000000	11.150044
2390.000000	11.189153
2389.000000	11.229048
2388.000000	11.253660
2387.000000	11.267033
2386.000000	11.303445
2385.000000	11.337609
2384.000000	11.373009
2383.000000	11.388742
2382.000000	11.402340
2381.000000	11.411219
2380.000000	11.417062
2379.000000	11.429424
2378.000000	11.447967
2377.000000	11.454373
2376.000000	11.468308
2375.000000	11.472354
2374.000000	11.456733
2373.000000	11.452125
2372.000000	11.476063
2371.000000	11.494830
2370.000000	11.496404
2369.000000	11.487863
2368.000000	11.469545
2367.000000	11.446956
2366.000000	11.433245
2365.000000	11.430548
2364.000000	11.401554
2363.000000	11.361996
2362.000000	11.332102
2361.000000	11.313334
2360.000000	11.289285
2359.000000	11.252761
2358.000000	11.219721
2357.000000	11.188928
2356.000000	11.152966
2355.000000	11.137457
2354.000000	11.129141
2353.000000	11.096888
2352.000000	11.090931
2351.000000	11.096213
2350.000000	11.100821
2349.000000	11.130602
2348.000000	11.150831
2347.000000	11.182859
2346.000000	11.225789
2345.000000	11.273664
2344.000000	11.337047
2343.000000	11.392900
2342.000000	11.432122
2341.000000	11.471343
2340.000000	11.543716
2339.000000	11.598446
2338.000000	11.608561
2337.000000	11.628677
2336.000000	11.686778
2335.000000	11.707456
2334.000000	11.711502
2333.000000	11.732630
2332.000000	11.744879
2331.000000	11.731506
2330.000000	11.716896
2329.000000	11.696443
2328.000000	11.674528
2327.000000	11.650366
2326.000000	11.597884
2325.000000	11.553494
2324.000000	11.513036
2323.000000	11.456508
2322.000000	11.389866
2321.000000	11.318279
2320.000000	11.232420
2319.000000	11.169598
2318.000000	11.080929
2317.000000	10.964390
2316.000000	10.881115
2315.000000	10.794806
2314.000000	10.697034
2313.000000	10.589485
2312.000000	10.508121
2311.000000	10.440804
2310.000000	10.361912
2309.000000	10.291224
2308.000000	10.246946
2307.000000	10.203792
2306.000000	10.172212
2305.000000	10.153894
2304.000000	10.149399
2303.000000	10.167268
2302.000000	10.185923
2301.000000	10.227055
2300.000000	10.277739
2299.000000	10.364272
2298.000000	10.436759
2297.000000	10.512728
2296.000000	10.606679
2295.000000	10.679390
2294.000000	10.765924
2293.000000	10.861785
2292.000000	10.946409
2291.000000	10.994283
2290.000000	11.056543
2289.000000	11.116105
2288.000000	11.158922
2287.000000	11.189602
2286.000000	11.202751
2285.000000	11.223092
2284.000000	11.216911
2283.000000	11.223317
2282.000000	11.194322
2281.000000	11.158360
2280.000000	11.153303
2279.000000	11.111048
2278.000000	11.079806
2277.000000	11.055868
2276.000000	11.012039
2275.000000	10.960794
2274.000000	10.927641
2273.000000	10.900669
2272.000000	10.898647
2271.000000	10.876507
2270.000000	10.893140
2269.000000	10.906850
2268.000000	10.935395
2267.000000	10.983944
2266.000000	11.041146
2265.000000	11.117453
2264.000000	11.212640
2263.000000	11.332327
2262.000000	11.470444
2261.000000	11.628115
2260.000000	11.834223
2259.000000	11.990770
2258.000000	12.190472
2257.000000	12.378374
2256.000000	12.644381
2255.000000	12.832058
2254.000000	13.027377
2253.000000	13.273155
2252.000000	13.503650
2251.000000	13.701104
2250.000000	13.883724
2249.000000	14.073874
2248.000000	14.278745
2247.000000	14.457432
2246.000000	14.602292
2245.000000	14.763447
2244.000000	14.900665
2243.000000	15.024172
2242.000000	15.144308
2241.000000	15.224773
2240.000000	15.349179
2239.000000	15.422002
2238.000000	15.528877
2237.000000	15.592148
2236.000000	15.654183
2235.000000	15.718128
2234.000000	15.777240
2233.000000	15.823654
2232.000000	15.876586
2231.000000	15.907603
2230.000000	15.933226
2229.000000	15.942554
2228.000000	15.968738
2227.000000	15.985146
2226.000000	16.004363
2225.000000	15.986832
2224.000000	15.979527
2223.000000	15.959186
2222.000000	15.941654
2221.000000	15.923224
2220.000000	15.920077
2219.000000	15.863886
2218.000000	15.848603
2217.000000	15.798031
2216.000000	15.804661
2215.000000	15.758135
2214.000000	15.747909
2213.000000	15.701158
2212.000000	15.689246
2211.000000	15.667106
2210.000000	15.617209
2209.000000	15.571582
2208.000000	15.583944
2207.000000	15.556973
2206.000000	15.540677
2205.000000	15.540115
2204.000000	15.486622
2203.000000	15.480778
2202.000000	15.474934
2201.000000	15.457964
2200.000000	15.438298
2199.000000	15.440770
2198.000000	15.412675
2197.000000	15.413799
2196.000000	15.376263
2195.000000	15.405595
2194.000000	15.384017
2193.000000	15.392109
2192.000000	15.355023
2191.000000	15.356933
2190.000000	15.338728
2189.000000	15.328164
2188.000000	15.333558
2187.000000	15.298945
2186.000000	15.307823
2185.000000	15.319510
2184.000000	15.276019
2183.000000	15.279390
2182.000000	15.257363
2181.000000	15.238259
2180.000000	15.239832
2179.000000	15.236685
2178.000000	15.228144
2177.000000	15.228706
2176.000000	15.228706
2175.000000	15.243990
2174.000000	15.234550
2173.000000	15.240281
2172.000000	15.240057
2171.000000	15.247474
2170.000000	15.257588
2169.000000	15.263095
2168.000000	15.289280
2167.000000	15.312430
2166.000000	15.312768
2165.000000	15.329850
2164.000000	15.367048
2163.000000	15.389974
2162.000000	15.430431
2161.000000	15.472911
2160.000000	15.474934
2159.000000	15.511908
2158.000000	15.559894
2157.000000	15.598778
2156.000000	15.616310
2155.000000	15.663285
2154.000000	15.701158
2153.000000	15.748695
2152.000000	15.756113
2151.000000	15.821069
2150.000000	15.872652
2149.000000	15.922100
2148.000000	15.960647
2147.000000	16.012455
2146.000000	16.051564
2145.000000	16.091909
2144.000000	16.119892
2143.000000	16.161136
2142.000000	16.212157
2141.000000	16.245422
2140.000000	16.271944
2139.000000	16.302624
2138.000000	16.364883
2137.000000	16.398148
2136.000000	16.399497
2135.000000	16.419501
2134.000000	16.445348
2133.000000	16.478726
2132.000000	16.516149
2131.000000	16.516149
2130.000000	16.512553
2129.000000	16.535254
2128.000000	16.548402
2127.000000	16.567957
2126.000000	16.572789
2125.000000	16.554021
2124.000000	16.550200
2123.000000	16.567395
2122.000000	16.568968
2121.000000	16.558292
2120.000000	16.550088
2119.000000	16.540985
2118.000000	16.521431
2117.000000	16.491762
2116.000000	16.482322
2115.000000	16.477040
2114.000000	16.455126
2113.000000	16.444786
2112.000000	16.423659
2111.000000	16.387360
2110.000000	16.365895
2109.000000	16.344767
2108.000000	16.325437
2107.000000	16.304197
2106.000000	16.284193
2105.000000	16.264302
2104.000000	16.225305
2103.000000	16.191366
2102.000000	16.173610
2101.000000	16.152370
2100.000000	16.119217
2099.000000	16.097078
2098.000000	16.082693
2097.000000	16.058868
2096.000000	16.034144
2095.000000	16.020322
2094.000000	15.996047
2093.000000	15.970874
2092.000000	15.946712
2091.000000	15.929068
2090.000000	15.904231
2089.000000	15.876586
2088.000000	15.853435
2087.000000	15.835454
2086.000000	15.807471
2085.000000	15.787467
2084.000000	15.760495
2083.000000	15.728467
2082.000000	15.716554
2081.000000	15.691943
2080.000000	15.648339
2079.000000	15.602262
2078.000000	15.557422
2077.000000	15.514605
2076.000000	15.467180
2075.000000	15.415597
2074.000000	15.373566
2073.000000	15.326815
2072.000000	15.278379
2071.000000	15.210613
2070.000000	15.148466
2069.000000	15.098906
2068.000000	15.039119
2067.000000	14.973151
2066.000000	14.904598
2065.000000	14.842451
2064.000000	14.786260
2063.000000	14.743555
2062.000000	14.684667
2061.000000	14.616452
2060.000000	14.565992
2059.000000	14.505531
2058.000000	14.460017
2057.000000	14.423717
2056.000000	14.403264
2055.000000	14.382361
2054.000000	14.358649
2053.000000	14.342690
2052.000000	14.353928
2051.000000	14.370898
2050.000000	14.382586
2049.000000	14.413378
2048.000000	14.472716
2047.000000	14.496428
2046.000000	14.543516
2045.000000	14.617351
2044.000000	14.677025
2043.000000	14.753332
2042.000000	14.831325
2041.000000	14.898979
2040.000000	14.972476
2039.000000	15.041141
2038.000000	15.099130
2037.000000	15.168357
2036.000000	15.225672
2035.000000	15.272423
2034.000000	15.308385
2033.000000	15.355360
2032.000000	15.406044
2031.000000	15.438073
2030.000000	15.482688
2029.000000	15.517976
2028.000000	15.527304
2027.000000	15.542138
2026.000000	15.561468
2025.000000	15.571582
2024.000000	15.588215
2023.000000	15.598554
2022.000000	15.604959
2021.000000	15.606083
2020.000000	15.606308
2019.000000	15.612826
2018.000000	15.598666
2017.000000	15.605521
2016.000000	15.595182
2015.000000	15.587540
2014.000000	15.579674
2013.000000	15.564502
2012.000000	15.545285
2011.000000	15.528990
2010.000000	15.499433
2009.000000	15.473136
2008.000000	15.438073
2007.000000	15.427172
2006.000000	15.378735
2005.000000	15.345583
2004.000000	15.290066
2003.000000	15.256577
2002.000000	15.217131
2001.000000	15.159254
2000.000000	15.103738
1999.000000	15.065416
1998.000000	14.991469
1997.000000	14.957642
1996.000000	14.905385
1995.000000	14.834584
1994.000000	14.780866
1993.000000	14.727372
1992.000000	14.643760
1991.000000	14.577231
1990.000000	14.519804
1989.000000	14.433495
1988.000000	14.381012
1987.000000	14.321787
1986.000000	14.233343
1985.000000	14.149844
1984.000000	14.087809
1983.000000	14.011727
1982.000000	13.933284
1981.000000	13.856416
1980.000000	13.776512
1979.000000	13.699419
1978.000000	13.610075
1977.000000	13.557256
1976.000000	13.465440
1975.000000	13.383627
1974.000000	13.312939
1973.000000	13.247870
1972.000000	13.197073
1971.000000	13.119305
1970.000000	13.053787
1969.000000	12.980964
1968.000000	12.916569
1967.000000	12.845769
1966.000000	12.785869
1965.000000	12.708776
1964.000000	12.645168
1963.000000	12.602463
1962.000000	12.547171
1961.000000	12.482102
1960.000000	12.417370
1959.000000	12.323195
1958.000000	12.277343
1957.000000	12.223287
1956.000000	12.156420
1955.000000	12.122481
1954.000000	12.053479
1953.000000	12.004143
1952.000000	11.946379
1951.000000	11.879962
1950.000000	11.837819
1949.000000	11.766344
1948.000000	11.750611
1947.000000	11.726336
1946.000000	11.679473
1945.000000	11.653513
1944.000000	11.625081
1943.000000	11.555741
1942.000000	11.533265
1941.000000	11.544615
1940.000000	11.496404
1939.000000	11.492920
1938.000000	11.478423
1937.000000	11.472129
1936.000000	11.474827
1935.000000	11.469994
1934.000000	11.494943
1933.000000	11.492358
1932.000000	11.522364
1931.000000	11.530680
1930.000000	11.577094
1929.000000	11.640140
1928.000000	11.690150
1927.000000	11.734428
1926.000000	11.795339
1925.000000	11.853440
1924.000000	11.932781
1923.000000	12.024709
1922.000000	12.104725
1921.000000	12.219691
1920.000000	12.323419
1919.000000	12.453445
1918.000000	12.561219
1917.000000	12.682591
1916.000000	12.806323
1915.000000	12.917693
1914.000000	13.077162
1913.000000	13.267761
1912.000000	13.433861
1911.000000	13.633788
1910.000000	13.774714
1909.000000	13.932273
1908.000000	14.108263
1907.000000	14.316281
1906.000000	14.537560
1905.000000	14.766256
1904.000000	15.016979
1903.000000	15.278716
1902.000000	15.525506
1901.000000	15.761956
1900.000000	16.043697
1899.000000	16.352072
1898.000000	16.657862
1897.000000	16.966349
1896.000000	17.264160
1895.000000	17.559499
1894.000000	17.873155
1893.000000	18.218054
1892.000000	18.589250
1891.000000	19.013603
1890.000000	19.432786
1889.000000	19.867141
1888.000000	20.305653
1887.000000	20.746863
1886.000000	21.188522
1885.000000	21.657603
1884.000000	22.176693
1883.000000	22.727138
1882.000000	23.249937
1881.000000	23.780939
1880.000000	24.313628
1879.000000	24.821255
1878.000000	25.309890
1877.000000	25.820102
1876.000000	26.310197
1875.000000	26.764781
1874.000000	27.196663
1873.000000	27.644278
1872.000000	28.067395
1871.000000	28.470282
1870.000000	28.847772
1869.000000	29.167834
1868.000000	29.494415
1867.000000	29.742104
1866.000000	29.971475
1865.000000	30.161737
1864.000000	30.354583
1863.000000	30.535630
1862.000000	30.707236
1861.000000	30.895925
1860.000000	31.065396
1859.000000	31.242172
1858.000000	31.348148
1857.000000	31.453000
1856.000000	31.571225
1855.000000	31.619999
1854.000000	31.716310
1853.000000	31.787110
1852.000000	31.796550
1851.000000	31.822511
1850.000000	31.877016
1849.000000	31.912978
1848.000000	31.942646
1847.000000	31.965797
1846.000000	31.920058
1845.000000	31.870273
1844.000000	31.883983
1843.000000	31.880162
1842.000000	31.918709
1841.000000	31.945793
1840.000000	31.927700
1839.000000	31.912865
1838.000000	31.890951
1837.000000	31.887467
1836.000000	31.854090
1835.000000	31.799135
1834.000000	31.751261
1833.000000	31.704847
1832.000000	31.663041
1831.000000	31.634609
1830.000000	31.600220
1829.000000	31.558077
1828.000000	31.520654
1827.000000	31.441425
1826.000000	31.378828
1825.000000	31.322862
1824.000000	31.272291
1823.000000	31.250264
1822.000000	31.255658
1821.000000	31.264761
1820.000000	31.226889
1819.000000	31.175530
1818.000000	31.129566
1817.000000	31.100909
1816.000000	31.099897
1815.000000	31.105517
1814.000000	31.087648
1813.000000	31.070453
1812.000000	31.054158
1811.000000	31.042358
1810.000000	31.000889
1809.000000	30.958409
1808.000000	30.937619
1807.000000	30.903567
1806.000000	30.878618
1805.000000	30.833441
1804.000000	30.767473
1803.000000	30.734433
1802.000000	30.702067
1801.000000	30.660598
1800.000000	30.606543
1799.000000	30.538777
1798.000000	30.480788
1797.000000	30.431003
1796.000000	30.390545
1795.000000	30.349638
1794.000000	30.305697
1793.000000	30.254788
1792.000000	30.209723
1791.000000	30.163535
1790.000000	30.102062
1789.000000	30.042050
1788.000000	29.994401
1787.000000	29.957877
1786.000000	29.914722
1785.000000	29.856621
1784.000000	29.799419
1783.000000	29.737946
1782.000000	29.669618
1781.000000	29.592075
1780.000000	29.510149
1779.000000	29.466769
1778.000000	29.406308
1777.000000	29.326742
1776.000000	29.253469
1775.000000	29.172779
1774.000000	29.081301
1773.000000	28.983416
1772.000000	28.872046
1771.000000	28.769667
1770.000000	28.675491
1769.000000	28.564233
1768.000000	28.461404
1767.000000	28.373410
1766.000000	28.263613
1765.000000	28.172134
1764.000000	28.126845
1763.000000	28.096277
1762.000000	28.081555
1761.000000	28.077959
1760.000000	28.105942
1759.000000	28.147186
1758.000000	28.200904
1757.000000	28.267321
1756.000000	28.342617
1755.000000	28.409035
1754.000000	28.451402
1753.000000	28.500738
1752.000000	28.528047
1751.000000	28.550748
1750.000000	28.565132
1749.000000	28.558614
1748.000000	28.543555
1747.000000	28.506132
1746.000000	28.459269
1745.000000	28.394425
1744.000000	28.300362
1743.000000	28.183597
1742.000000	28.076610
1741.000000	27.920849
1740.000000	27.754075
1739.000000	27.567409
1738.000000	27.393330
1737.000000	27.192280
1736.000000	27.004828
1735.000000	26.859518
1734.000000	26.738483
1733.000000	26.654759
1732.000000	26.616100
1731.000000	26.603626
1730.000000	26.638689
1729.000000	26.707241
1728.000000	26.769950
1727.000000	26.878623
1726.000000	26.959650
1725.000000	27.049218
1724.000000	27.134741
1723.000000	27.198461
1722.000000	27.245549
1721.000000	27.330172
1720.000000	27.384565
1719.000000	27.457051
1718.000000	27.527064
1717.000000	27.598764
1716.000000	27.681926
1715.000000	27.780372
1714.000000	27.886236
1713.000000	27.978389
1712.000000	28.091444
1711.000000	28.163593
1710.000000	28.225965
1709.000000	28.290584
1708.000000	28.312162
1707.000000	28.342392
1706.000000	28.334188
1705.000000	28.311375
1704.000000	28.296428
1703.000000	28.267434
1702.000000	28.219896
1701.000000	28.138645
1700.000000	28.052111
1699.000000	27.947371
1698.000000	27.836001
1697.000000	27.733285
1696.000000	27.650010
1695.000000	27.593931
1694.000000	27.603484
1693.000000	27.624387
1692.000000	27.716203
1691.000000	27.815660
1690.000000	27.957373
1689.000000	28.094254
1688.000000	28.220121
1687.000000	28.344977
1686.000000	28.424768
1685.000000	28.485791
1684.000000	28.579967
1683.000000	28.699316
1682.000000	28.883846
1681.000000	29.122882
1680.000000	29.480817
1679.000000	29.887413
1678.000000	30.300191
1677.000000	30.738141
1676.000000	31.168900
1675.000000	31.582239
1674.000000	31.916461
1673.000000	32.226410
1672.000000	32.515230
1671.000000	32.724597
1670.000000	32.945089
1669.000000	33.147489
1668.000000	33.288190
1667.000000	33.423048
1666.000000	33.529249
1665.000000	33.630055
1664.000000	33.717488
1663.000000	33.807280
1662.000000	33.884262
1661.000000	33.937755
1660.000000	34.001700
1659.000000	34.048226
1658.000000	34.077895
1657.000000	34.123297
1656.000000	34.123072
1655.000000	34.138019
1654.000000	34.134086
1653.000000	34.135097
1652.000000	34.111722
1651.000000	34.113970
1650.000000	34.067106
1649.000000	34.065983
1648.000000	34.029234
1647.000000	33.975516
1646.000000	33.928652
1645.000000	33.898422
1644.000000	33.857290
1643.000000	33.800538
1642.000000	33.747831
1641.000000	33.695798
1640.000000	33.644889
1639.000000	33.590496
1638.000000	33.503513
1637.000000	33.454515
1636.000000	33.388996
1635.000000	33.315948
1634.000000	33.275941
1633.000000	33.181315
1632.000000	33.122540
1631.000000	33.052526
1630.000000	32.953518
1629.000000	32.875862
1628.000000	32.803264
1627.000000	32.727856
1626.000000	32.636715
1625.000000	32.568611
1624.000000	32.446565
1623.000000	32.369471
1622.000000	32.306538
1621.000000	32.219892
1620.000000	32.143247
1619.000000	32.071098
1618.000000	31.982205
1617.000000	31.911966
1616.000000	31.821836
1615.000000	31.736763
1614.000000	31.670908
1613.000000	31.603591
1612.000000	31.545041
1611.000000	31.473903
1610.000000	31.396472
1609.000000	31.315108
1608.000000	31.249477
1607.000000	31.174744
1606.000000	31.096863
1605.000000	31.028198
1604.000000	30.958297
