PE UV       SUBTECH     SPECTRUM    ASCII       PEDS        4.00        
   -1
CICIMAUCR0240-3.Sample.ASC
24/06/20
12:39:27.00
24/06/20
12:39:27.00
Vinicio Soto Monge
C. resplendens. Sex M. Dorsal.
250,000000
1
Lambda 1050
1050L1511233
PerkinElmer UV WinLab 6.3.2.0749 / 2.02.05 Lambda 900 UV/VIS/NIR, Aug  7 2015 09:38:08

0
0
3350/servo 860,8/2
0
0
UV/VIS
1
1
1
DoubleDePol,CommonBeamDepol,RBeamAtt,SBeamAtt,60mm sphere, WB InGaAs Detector
0
0
0
0
Program
Program
3350/servo 860,8/2
3350/0,2 860,8/0,2
3350/0,2 860,8/0,2
0
15.00
 
 
 
0
 
860,8
319,2
860,8
Front
100
on
S:100 R:100
0
0
0
0
 
0
 
 
 
0
 
 
0
0
0
0
0
 
 
 
 
0
0


0
0
#HDR
-1
-1
#GR
nm
%R
1.0
0.0
2500,000000
-1,000000
2251
8
89,336400
5,668900
#DATA
2482.000000	10.825356
2481.000000	10.816655
2480.000000	10.814790
2479.000000	10.842965
2478.000000	10.859952
2477.000000	10.846694
2476.000000	10.819659
2475.000000	10.920548
2474.000000	10.925003
2473.000000	10.897864
2472.000000	10.884502
2471.000000	10.931528
2470.000000	10.937950
2469.000000	10.983734
2468.000000	11.014809
2467.000000	11.026617
2466.000000	11.054688
2465.000000	11.052099
2464.000000	11.088353
2463.000000	11.104305
2462.000000	11.140766
2461.000000	11.239998
2460.000000	11.228294
2459.000000	11.291479
2458.000000	11.354768
2457.000000	11.382321
2456.000000	11.445611
2455.000000	11.510039
2454.000000	11.567631
2453.000000	11.642418
2452.000000	11.705915
2451.000000	11.784949
2450.000000	11.849170
2449.000000	11.932658
2448.000000	12.026918
2447.000000	12.091865
2446.000000	12.184572
2445.000000	12.253454
2444.000000	12.318608
2443.000000	12.410693
2442.000000	12.497703
2441.000000	12.589788
2440.000000	12.658671
2439.000000	12.752207
2438.000000	12.820986
2437.000000	12.893287
2436.000000	12.986615
2435.000000	13.062334
2434.000000	13.132978
2433.000000	13.196371
2432.000000	13.261835
2431.000000	13.338383
2430.000000	13.405090
2429.000000	13.477909
2428.000000	13.538920
2427.000000	13.582942
2426.000000	13.642088
2425.000000	13.711800
2424.000000	13.777782
2423.000000	13.832784
2422.000000	13.877429
2421.000000	13.924352
2420.000000	13.977076
2419.000000	14.038811
2418.000000	14.082523
2417.000000	14.128721
2416.000000	14.184034
2415.000000	14.224535
2414.000000	14.265451
2413.000000	14.291036
2412.000000	14.335058
2411.000000	14.400109
2410.000000	14.420825
2409.000000	14.459462
2408.000000	14.490537
2407.000000	14.529380
2406.000000	14.574024
2405.000000	14.595155
2404.000000	14.627577
2403.000000	14.655855
2402.000000	14.689209
2401.000000	14.706714
2400.000000	14.734992
2399.000000	14.749805
2398.000000	14.768864
2397.000000	14.795485
2396.000000	14.832464
2395.000000	14.852766
2394.000000	14.879491
2393.000000	14.911084
2392.000000	14.927657
2391.000000	14.949513
2390.000000	14.986803
2389.000000	15.003790
2388.000000	14.996436
2387.000000	15.011041
2386.000000	15.019846
2385.000000	15.028754
2384.000000	15.041494
2383.000000	15.052371
2382.000000	15.051438
2381.000000	15.047192
2380.000000	15.040873
2379.000000	15.032379
2378.000000	15.031654
2377.000000	15.045327
2376.000000	15.040044
2375.000000	15.007416
2374.000000	14.995296
2373.000000	14.988564
2372.000000	14.962771
2371.000000	14.946095
2370.000000	14.940605
2369.000000	14.923203
2368.000000	14.904040
2367.000000	14.883427
2366.000000	14.857117
2365.000000	14.833811
2364.000000	14.794656
2363.000000	14.768760
2362.000000	14.739343
2361.000000	14.688794
2360.000000	14.655751
2359.000000	14.612039
2358.000000	14.577235
2357.000000	14.548854
2356.000000	14.518504
2355.000000	14.482043
2354.000000	14.451382
2353.000000	14.428283
2352.000000	14.409535
2351.000000	14.402284
2350.000000	14.402387
2349.000000	14.407877
2348.000000	14.403941
2347.000000	14.416268
2346.000000	14.428490
2345.000000	14.444649
2344.000000	14.480282
2343.000000	14.517779
2342.000000	14.534249
2341.000000	14.555897
2340.000000	14.592048
2339.000000	14.602510
2338.000000	14.614525
2337.000000	14.632549
2336.000000	14.654508
2335.000000	14.665592
2334.000000	14.672428
2333.000000	14.662691
2332.000000	14.664349
2331.000000	14.639489
2330.000000	14.612764
2329.000000	14.604892
2328.000000	14.579204
2327.000000	14.551133
2326.000000	14.514050
2325.000000	14.471167
2324.000000	14.421965
2323.000000	14.375041
2322.000000	14.329776
2321.000000	14.261411
2320.000000	14.196050
2319.000000	14.102204
2318.000000	14.014987
2317.000000	13.930878
2316.000000	13.821805
2315.000000	13.723815
2314.000000	13.618886
2313.000000	13.521932
2312.000000	13.427361
2311.000000	13.336933
2310.000000	13.268050
2309.000000	13.195645
2308.000000	13.100453
2307.000000	13.034470
2306.000000	13.011889
2305.000000	12.991794
2304.000000	12.981643
2303.000000	12.996559
2302.000000	13.011682
2301.000000	13.034574
2300.000000	13.071139
2299.000000	13.116819
2298.000000	13.200617
2297.000000	13.269189
2296.000000	13.345323
2295.000000	13.426014
2294.000000	13.487957
2293.000000	13.558807
2292.000000	13.616503
2291.000000	13.670263
2290.000000	13.723608
2289.000000	13.764213
2288.000000	13.787208
2287.000000	13.809582
2286.000000	13.831749
2285.000000	13.834235
2284.000000	13.836721
2283.000000	13.840346
2282.000000	13.816833
2281.000000	13.792180
2280.000000	13.771671
2279.000000	13.738524
2278.000000	13.728580
2277.000000	13.687665
2276.000000	13.640431
2275.000000	13.616192
2274.000000	13.595061
2273.000000	13.564712
2272.000000	13.559533
2271.000000	13.553110
2270.000000	13.546377
2269.000000	13.561915
2268.000000	13.624272
2267.000000	13.683003
2266.000000	13.728062
2265.000000	13.817454
2264.000000	13.925698
2263.000000	14.054452
2262.000000	14.213970
2261.000000	14.364994
2260.000000	14.526791
2259.000000	14.734267
2258.000000	14.929003
2257.000000	15.158854
2256.000000	15.356490
2255.000000	15.585512
2254.000000	15.811220
2253.000000	16.055676
2252.000000	16.290809
2251.000000	16.483370
2250.000000	16.679452
2249.000000	16.886618
2248.000000	17.072136
2247.000000	17.258999
2246.000000	17.422350
2245.000000	17.556593
2244.000000	17.712382
2243.000000	17.830156
2242.000000	17.964503
2241.000000	18.071401
2240.000000	18.160275
2239.000000	18.262201
2238.000000	18.327872
2237.000000	18.403384
2236.000000	18.476100
2235.000000	18.525509
2234.000000	18.570257
2233.000000	18.611068
2232.000000	18.649083
2231.000000	18.685234
2230.000000	18.690102
2229.000000	18.702014
2228.000000	18.676222
2227.000000	18.712890
2226.000000	18.680987
2225.000000	18.650533
2224.000000	18.638828
2223.000000	18.623602
2222.000000	18.583308
2221.000000	18.512872
2220.000000	18.482107
2219.000000	18.436945
2218.000000	18.377281
2217.000000	18.337713
2216.000000	18.286646
2215.000000	18.234233
2214.000000	18.186792
2213.000000	18.125264
2212.000000	18.064668
2211.000000	18.055863
2210.000000	17.999825
2209.000000	17.941922
2208.000000	17.918719
2207.000000	17.878426
2206.000000	17.843829
2205.000000	17.814204
2204.000000	17.779400
2203.000000	17.749568
2202.000000	17.727816
2201.000000	17.693219
2200.000000	17.679028
2199.000000	17.655515
2198.000000	17.640910
2197.000000	17.605899
2196.000000	17.609731
2195.000000	17.581039
2194.000000	17.564673
2193.000000	17.533701
2192.000000	17.528522
2191.000000	17.509359
2190.000000	17.492165
2189.000000	17.463369
2188.000000	17.453321
2187.000000	17.445552
2186.000000	17.417792
2185.000000	17.400183
2184.000000	17.394486
2183.000000	17.375737
2182.000000	17.355539
2181.000000	17.326639
2180.000000	17.315866
2179.000000	17.314313
2178.000000	17.291421
2177.000000	17.280855
2176.000000	17.275883
2175.000000	17.278266
2174.000000	17.278266
2173.000000	17.280130
2172.000000	17.275573
2171.000000	17.286345
2170.000000	17.308823
2169.000000	17.323324
2168.000000	17.325500
2167.000000	17.363204
2166.000000	17.393139
2165.000000	17.423800
2164.000000	17.439855
2163.000000	17.474245
2162.000000	17.506873
2161.000000	17.539088
2160.000000	17.586218
2159.000000	17.632520
2158.000000	17.689697
2157.000000	17.728023
2156.000000	17.804053
2155.000000	17.868792
2154.000000	17.924624
2153.000000	17.993506
2152.000000	18.049027
2151.000000	18.124332
2150.000000	18.192800
2149.000000	18.244074
2148.000000	18.318446
2147.000000	18.391265
2146.000000	18.455797
2145.000000	18.526441
2144.000000	18.592423
2143.000000	18.656956
2142.000000	18.711854
2141.000000	18.780530
2140.000000	18.852106
2139.000000	18.902136
2138.000000	18.941498
2137.000000	19.017010
2136.000000	19.081128
2135.000000	19.115725
2134.000000	19.143071
2133.000000	19.203977
2132.000000	19.244168
2131.000000	19.267681
2130.000000	19.301967
2129.000000	19.320301
2128.000000	19.346611
2127.000000	19.366085
2126.000000	19.380586
2125.000000	19.410625
2124.000000	19.424920
2123.000000	19.424816
2122.000000	19.447605
2121.000000	19.455063
2120.000000	19.427613
2119.000000	19.421087
2118.000000	19.419223
2117.000000	19.413526
2116.000000	19.404618
2115.000000	19.382244
2114.000000	19.371160
2113.000000	19.362459
2112.000000	19.348268
2111.000000	19.336874
2110.000000	19.316261
2109.000000	19.282182
2108.000000	19.258255
2107.000000	19.228734
2106.000000	19.213403
2105.000000	19.191547
2104.000000	19.155293
2103.000000	19.124943
2102.000000	19.113964
2101.000000	19.078849
2100.000000	19.048810
2099.000000	19.020739
2098.000000	18.997433
2097.000000	18.987489
2096.000000	18.955482
2095.000000	18.937251
2094.000000	18.903172
2093.000000	18.887531
2092.000000	18.894264
2091.000000	18.887013
2090.000000	18.859150
2089.000000	18.845580
2088.000000	18.834186
2087.000000	18.825796
2086.000000	18.810051
2085.000000	18.784052
2084.000000	18.757535
2083.000000	18.727185
2082.000000	18.701496
2081.000000	18.671768
2080.000000	18.626502
2079.000000	18.594495
2078.000000	18.553269
2077.000000	18.484179
2076.000000	18.428141
2075.000000	18.377385
2074.000000	18.322279
2073.000000	18.258575
2072.000000	18.184721
2071.000000	18.113248
2070.000000	18.036804
2069.000000	17.962431
2068.000000	17.895206
2067.000000	17.820316
2066.000000	17.733513
2065.000000	17.642464
2064.000000	17.568091
2063.000000	17.496204
2062.000000	17.428565
2061.000000	17.345180
2060.000000	17.265111
2059.000000	17.209383
2058.000000	17.149409
2057.000000	17.098964
2056.000000	17.060327
2055.000000	17.015890
2054.000000	16.994552
2053.000000	16.991444
2052.000000	16.997659
2051.000000	17.011229
2050.000000	17.029252
2049.000000	17.070685
2048.000000	17.131696
2047.000000	17.195192
2046.000000	17.265318
2045.000000	17.343316
2044.000000	17.436644
2043.000000	17.532148
2042.000000	17.634177
2041.000000	17.734756
2040.000000	17.823112
2039.000000	17.908258
2038.000000	18.011426
2037.000000	18.108794
2036.000000	18.200258
2035.000000	18.267587
2034.000000	18.351800
2033.000000	18.430109
2032.000000	18.490394
2031.000000	18.544775
2030.000000	18.599881
2029.000000	18.666278
2028.000000	18.701807
2027.000000	18.738786
2026.000000	18.774937
2025.000000	18.796585
2024.000000	18.828696
2023.000000	18.861532
2022.000000	18.885356
2021.000000	18.900376
2020.000000	18.912495
2019.000000	18.918192
2018.000000	18.917777
2017.000000	18.922024
2016.000000	18.929897
2015.000000	18.918295
2014.000000	18.932176
2013.000000	18.913013
2012.000000	18.902551
2011.000000	18.868472
2010.000000	18.837294
2009.000000	18.814609
2008.000000	18.791821
2007.000000	18.766546
2006.000000	18.736818
2005.000000	18.699735
2004.000000	18.646701
2003.000000	18.607754
2002.000000	18.544361
2001.000000	18.483247
2000.000000	18.425240
1999.000000	18.367130
1998.000000	18.304255
1997.000000	18.235166
1996.000000	18.151574
1995.000000	18.081759
1994.000000	18.015880
1993.000000	17.936846
1992.000000	17.850562
1991.000000	17.757130
1990.000000	17.693116
1989.000000	17.607245
1988.000000	17.520857
1987.000000	17.408677
1986.000000	17.324982
1985.000000	17.220156
1984.000000	17.146301
1983.000000	17.028838
1982.000000	16.944832
1981.000000	16.870977
1980.000000	16.766566
1979.000000	16.676138
1978.000000	16.577216
1977.000000	16.476948
1976.000000	16.396982
1975.000000	16.294745
1974.000000	16.218612
1973.000000	16.142375
1972.000000	16.025533
1971.000000	15.938316
1970.000000	15.846542
1969.000000	15.762639
1968.000000	15.689303
1967.000000	15.609337
1966.000000	15.506789
1965.000000	15.432727
1964.000000	15.376896
1963.000000	15.295480
1962.000000	15.207227
1961.000000	15.132337
1960.000000	15.036419
1959.000000	14.976134
1958.000000	14.885395
1957.000000	14.831946
1956.000000	14.743383
1955.000000	14.666731
1954.000000	14.588112
1953.000000	14.537045
1952.000000	14.446514
1951.000000	14.400212
1950.000000	14.304605
1949.000000	14.247220
1948.000000	14.207444
1947.000000	14.148816
1946.000000	14.090395
1945.000000	14.050309
1944.000000	14.022341
1943.000000	13.981012
1942.000000	13.937921
1941.000000	13.903221
1940.000000	13.904878
1939.000000	13.905914
1938.000000	13.887166
1937.000000	13.883022
1936.000000	13.861995
1935.000000	13.895349
1934.000000	13.898974
1933.000000	13.926424
1932.000000	13.961642
1931.000000	14.004422
1930.000000	14.062635
1929.000000	14.133797
1928.000000	14.202887
1927.000000	14.274048
1926.000000	14.375145
1925.000000	14.466091
1924.000000	14.546161
1923.000000	14.687344
1922.000000	14.782951
1921.000000	14.937394
1920.000000	15.086450
1919.000000	15.225872
1918.000000	15.381765
1917.000000	15.542836
1916.000000	15.708051
1915.000000	15.889943
1914.000000	16.079810
1913.000000	16.316083
1912.000000	16.550595
1911.000000	16.782103
1910.000000	17.019619
1909.000000	17.234554
1908.000000	17.474866
1907.000000	17.722223
1906.000000	18.031003
1905.000000	18.358947
1904.000000	18.716930
1903.000000	19.049224
1902.000000	19.370850
1901.000000	19.738362
1900.000000	20.080393
1899.000000	20.496693
1898.000000	20.920140
1897.000000	21.317692
1896.000000	21.733681
1895.000000	22.108652
1894.000000	22.501956
1893.000000	22.957514
1892.000000	23.397535
1891.000000	23.932645
1890.000000	24.455117
1889.000000	24.943926
1888.000000	25.449618
1887.000000	25.962457
1886.000000	26.471568
1885.000000	27.013203
1884.000000	27.551110
1883.000000	28.131071
1882.000000	28.679750
1881.000000	29.182853
1880.000000	29.720656
1879.000000	30.219511
1878.000000	30.679938
1877.000000	31.147615
1876.000000	31.611460
1875.000000	32.054484
1874.000000	32.471509
1873.000000	32.868647
1872.000000	33.276556
1871.000000	33.641790
1870.000000	33.974292
1869.000000	34.253448
1868.000000	34.548038
1867.000000	34.773331
1866.000000	34.973246
1865.000000	35.132039
1864.000000	35.311444
1863.000000	35.472930
1862.000000	35.614735
1861.000000	35.791759
1860.000000	35.959667
1859.000000	36.103544
1858.000000	36.212409
1857.000000	36.316614
1856.000000	36.404659
1855.000000	36.482140
1854.000000	36.550815
1853.000000	36.598152
1852.000000	36.599085
1851.000000	36.645076
1850.000000	36.698421
1849.000000	36.742236
1848.000000	36.787399
1847.000000	36.802729
1846.000000	36.753838
1845.000000	36.703600
1844.000000	36.709815
1843.000000	36.694278
1842.000000	36.717791
1841.000000	36.781184
1840.000000	36.771033
1839.000000	36.735193
1838.000000	36.717791
1837.000000	36.691895
1836.000000	36.664238
1835.000000	36.622598
1834.000000	36.559412
1833.000000	36.500163
1832.000000	36.455208
1831.000000	36.415328
1830.000000	36.387154
1829.000000	36.354525
1828.000000	36.317753
1827.000000	36.253635
1826.000000	36.200290
1825.000000	36.160618
1824.000000	36.116181
1823.000000	36.083863
1822.000000	36.091528
1821.000000	36.115870
1820.000000	36.109862
1819.000000	36.074333
1818.000000	36.024096
1817.000000	35.991674
1816.000000	35.985148
1815.000000	35.979348
1814.000000	35.961739
1813.000000	35.927453
1812.000000	35.912329
1811.000000	35.900210
1810.000000	35.865510
1809.000000	35.826977
1808.000000	35.789791
1807.000000	35.752604
1806.000000	35.724533
1805.000000	35.675849
1804.000000	35.626958
1803.000000	35.603652
1802.000000	35.574752
1801.000000	35.539949
1800.000000	35.488882
1799.000000	35.425800
1798.000000	35.382917
1797.000000	35.347388
1796.000000	35.308648
1795.000000	35.272290
1794.000000	35.223088
1793.000000	35.186213
1792.000000	35.152755
1791.000000	35.108111
1790.000000	35.060774
1789.000000	35.026798
1788.000000	35.006185
1787.000000	34.983811
1786.000000	34.950872
1785.000000	34.910578
1784.000000	34.868834
1783.000000	34.825847
1782.000000	34.781825
1781.000000	34.730447
1780.000000	34.688082
1779.000000	34.637637
1778.000000	34.587503
1777.000000	34.531050
1776.000000	34.467761
1775.000000	34.394631
1774.000000	34.322020
1773.000000	34.251169
1772.000000	34.173171
1771.000000	34.085333
1770.000000	34.016864
1769.000000	33.938141
1768.000000	33.848438
1767.000000	33.761532
1766.000000	33.679080
1765.000000	33.619831
1764.000000	33.560477
1763.000000	33.514797
1762.000000	33.503092
1761.000000	33.515730
1760.000000	33.542247
1759.000000	33.564828
1758.000000	33.596317
1757.000000	33.649041
1756.000000	33.708187
1755.000000	33.761428
1754.000000	33.807316
1753.000000	33.839116
1752.000000	33.868533
1751.000000	33.894843
1750.000000	33.900023
1749.000000	33.882724
1748.000000	33.871952
1747.000000	33.842948
1746.000000	33.784320
1745.000000	33.729836
1744.000000	33.640651
1743.000000	33.547737
1742.000000	33.423851
1741.000000	33.304627
1740.000000	33.154639
1739.000000	32.992014
1738.000000	32.839540
1737.000000	32.692245
1736.000000	32.530966
1735.000000	32.389161
1734.000000	32.279984
1733.000000	32.210480
1732.000000	32.149988
1731.000000	32.104308
1730.000000	32.102961
1729.000000	32.126682
1728.000000	32.161485
1727.000000	32.174123
1726.000000	32.231300
1725.000000	32.287442
1724.000000	32.309920
1723.000000	32.365130
1722.000000	32.417335
1721.000000	32.474513
1720.000000	32.574057
1719.000000	32.680229
1718.000000	32.792202
1717.000000	32.931521
1716.000000	33.067630
1715.000000	33.201355
1714.000000	33.338913
1713.000000	33.476886
1712.000000	33.609990
1711.000000	33.738122
1710.000000	33.824718
1709.000000	33.891943
1708.000000	33.950260
1707.000000	33.986825
1706.000000	34.010753
1705.000000	34.014067
1704.000000	34.015621
1703.000000	34.001534
1702.000000	33.975742
1701.000000	33.918564
1700.000000	33.847713
1699.000000	33.754488
1698.000000	33.656395
1697.000000	33.574875
1696.000000	33.487555
1695.000000	33.445915
1694.000000	33.398163
1693.000000	33.366881
1692.000000	33.391016
1691.000000	33.436592
1690.000000	33.486519
1689.000000	33.549601
1688.000000	33.627910
1687.000000	33.699486
1686.000000	33.767643
1685.000000	33.826479
1684.000000	33.936691
1683.000000	34.076114
1682.000000	34.274061
1681.000000	34.505569
1680.000000	34.784518
1679.000000	35.128724
1678.000000	35.487328
1677.000000	35.838475
1676.000000	36.192936
1675.000000	36.524298
1674.000000	36.805940
1673.000000	37.068005
1672.000000	37.307178
1671.000000	37.519730
1670.000000	37.720060
1669.000000	37.910238
1668.000000	38.085086
1667.000000	38.216637
1666.000000	38.331200
1665.000000	38.447005
1664.000000	38.541887
1663.000000	38.662251
1662.000000	38.738384
1661.000000	38.825394
1660.000000	38.906810
1659.000000	38.955494
1658.000000	39.028313
1657.000000	39.060010
1656.000000	39.106311
1655.000000	39.139561
1654.000000	39.151370
1653.000000	39.170533
1652.000000	39.175194
1651.000000	39.171879
1650.000000	39.153959
1649.000000	39.142255
1648.000000	39.118638
1647.000000	39.080519
1646.000000	39.062806
1645.000000	39.020441
1644.000000	38.986880
1643.000000	38.957566
1642.000000	38.911161
1641.000000	38.880915
1640.000000	38.820940
1639.000000	38.776814
1638.000000	38.734966
1637.000000	38.707206
1636.000000	38.664426
1635.000000	38.589743
1634.000000	38.529458
1633.000000	38.499211
1632.000000	38.421524
1631.000000	38.359685
1630.000000	38.294117
1629.000000	38.211561
1628.000000	38.143404
1627.000000	38.073174
1626.000000	37.993001
1625.000000	37.932509
1624.000000	37.853578
1623.000000	37.774130
1622.000000	37.717160
1621.000000	37.647034
1620.000000	37.583330
1619.000000	37.513101
1618.000000	37.434274
1617.000000	37.371503
1616.000000	37.297752
1615.000000	37.249897
1614.000000	37.188990
1613.000000	37.126840
1612.000000	37.039209
1611.000000	36.959036
1610.000000	36.904758
1609.000000	36.842298
1608.000000	36.759431
1607.000000	36.679362
