PE UV       SUBTECH     SPECTRUM    ASCII       PEDS        4.00        
   -1
CICIMAUCR0239-1.Sample.ASC
24/06/20
11:02:06.00
24/06/20
11:02:06.00
Vinicio Soto Monge
C. cupreomarginata. Sex M. Dorsal.
250,000000
1
Lambda 1050
1050L1511233
PerkinElmer UV WinLab 6.3.2.0749 / 2.02.05 Lambda 900 UV/VIS/NIR, Aug  7 2015 09:38:08

0
0
3350/servo 860,8/2
0
0
UV/VIS
1
1
1
DoubleDePol,CommonBeamDepol,RBeamAtt,SBeamAtt,60mm sphere, WB InGaAs Detector
0
0
0
0
Program
Program
3350/servo 860,8/2
3350/0,2 860,8/0,2
3350/0,2 860,8/0,2
0
15.00
 
 
 
0
 
860,8
319,2
860,8
Front
100
on
S:100 R:100
0
0
0
0
 
0
 
 
 
0
 
 
0
0
0
0
0
 
 
 
 
0
0


0
0
#HDR
-1
-1
#GR
nm
%R
1.0
0.0
2500,000000
-1,000000
2251
8
70,871600
4,829600
#DATA
2500.000000	8.684045
2499.000000	8.698004
2498.000000	8.616681
2497.000000	8.594428
2496.000000	8.435222
2495.000000	8.534852
2494.000000	8.500968
2493.000000	8.482862
2492.000000	8.507037
2491.000000	8.523220
2490.000000	8.505115
2489.000000	8.536976
2488.000000	8.529997
2487.000000	8.401539
2486.000000	8.459497
2485.000000	8.428647
2484.000000	8.476793
2483.000000	8.430468
2482.000000	8.363103
2481.000000	8.431681
2480.000000	8.449686
2479.000000	8.434716
2478.000000	8.455957
2477.000000	8.382018
2476.000000	8.406192
2475.000000	8.439065
2474.000000	8.500765
2473.000000	8.469915
2472.000000	8.439874
2471.000000	8.457980
2470.000000	8.450900
2469.000000	8.469308
2468.000000	8.486200
2467.000000	8.494292
2466.000000	8.493078
2465.000000	8.521703
2464.000000	8.539404
2463.000000	8.547900
2462.000000	8.581886
2461.000000	8.602520
2460.000000	8.613950
2459.000000	8.680404
2458.000000	8.704275
2457.000000	8.728651
2456.000000	8.801073
2455.000000	8.855794
2454.000000	8.924575
2453.000000	8.954818
2452.000000	9.011562
2451.000000	9.115542
2450.000000	9.159946
2449.000000	9.237020
2448.000000	9.285976
2447.000000	9.331796
2446.000000	9.426571
2445.000000	9.474414
2444.000000	9.553411
2443.000000	9.616628
2442.000000	9.689758
2441.000000	9.738208
2440.000000	9.800616
2439.000000	9.858776
2438.000000	9.925938
2437.000000	10.000889
2436.000000	10.058239
2435.000000	10.102239
2434.000000	10.136224
2433.000000	10.200049
2432.000000	10.275201
2431.000000	10.315964
2430.000000	10.349039
2429.000000	10.396073
2428.000000	10.464044
2427.000000	10.497727
2426.000000	10.544153
2425.000000	10.591996
2424.000000	10.627702
2423.000000	10.658046
2422.000000	10.676151
2421.000000	10.730973
2420.000000	10.778412
2419.000000	10.806025
2418.000000	10.826659
2417.000000	10.847900
2416.000000	10.898474
2415.000000	10.917895
2414.000000	10.948644
2413.000000	10.987484
2412.000000	11.022380
2411.000000	11.029056
2410.000000	11.077304
2409.000000	11.107344
2408.000000	11.129294
2407.000000	11.159132
2406.000000	11.174709
2405.000000	11.205964
2404.000000	11.245310
2403.000000	11.283949
2402.000000	11.325621
2401.000000	11.344738
2400.000000	11.378218
2399.000000	11.411192
2398.000000	11.448314
2397.000000	11.465610
2396.000000	11.487357
2395.000000	11.516993
2394.000000	11.554620
2393.000000	11.580210
2392.000000	11.605902
2391.000000	11.634931
2390.000000	11.641708
2389.000000	11.664365
2388.000000	11.684089
2387.000000	11.697137
2386.000000	11.716355
2385.000000	11.727178
2384.000000	11.743362
2383.000000	11.755095
2382.000000	11.764603
2381.000000	11.764198
2380.000000	11.762681
2379.000000	11.764603
2378.000000	11.765614
2377.000000	11.757826
2376.000000	11.747307
2375.000000	11.744272
2374.000000	11.735877
2373.000000	11.710388
2372.000000	11.704926
2371.000000	11.695418
2370.000000	11.667096
2369.000000	11.650812
2368.000000	11.641708
2367.000000	11.627143
2366.000000	11.581728
2365.000000	11.532671
2364.000000	11.494741
2363.000000	11.449224
2362.000000	11.399459
2361.000000	11.356876
2360.000000	11.316417
2359.000000	11.261595
2358.000000	11.217292
2357.000000	11.187656
2356.000000	11.142948
2355.000000	11.105928
2354.000000	11.081754
2353.000000	11.063952
2352.000000	11.040587
2351.000000	11.028753
2350.000000	11.040587
2349.000000	11.045847
2348.000000	11.054950
2347.000000	11.079428
2346.000000	11.112098
2345.000000	11.144263
2344.000000	11.192106
2343.000000	11.232262
2342.000000	11.243894
2341.000000	11.286781
2340.000000	11.325318
2339.000000	11.350099
2338.000000	11.364968
2337.000000	11.370835
2336.000000	11.393997
2335.000000	11.397436
2334.000000	11.385299
2333.000000	11.355460
2332.000000	11.342715
2331.000000	11.333713
2330.000000	11.291737
2329.000000	11.238837
2328.000000	11.182700
2327.000000	11.145578
2326.000000	11.086913
2325.000000	11.020357
2324.000000	10.958657
2323.000000	10.882695
2322.000000	10.792977
2321.000000	10.701742
2320.000000	10.619104
2319.000000	10.544861
2318.000000	10.441084
2317.000000	10.335789
2316.000000	10.250825
2315.000000	10.130358
2314.000000	10.040640
2313.000000	9.956889
2312.000000	9.858371
2311.000000	9.758741
2310.000000	9.699873
2309.000000	9.623000
2308.000000	9.565144
2307.000000	9.531664
2306.000000	9.494037
2305.000000	9.488474
2304.000000	9.481798
2303.000000	9.510524
2302.000000	9.518211
2301.000000	9.545622
2300.000000	9.616122
2299.000000	9.678733
2298.000000	9.744985
2297.000000	9.835411
2296.000000	9.884467
2295.000000	9.961036
2294.000000	10.039830
2293.000000	10.109926
2292.000000	10.167176
2291.000000	10.205409
2290.000000	10.249712
2289.000000	10.268930
2288.000000	10.293003
2287.000000	10.307366
2286.000000	10.285518
2285.000000	10.269031
2284.000000	10.245869
2283.000000	10.224324
2282.000000	10.181943
2281.000000	10.128841
2280.000000	10.089089
2279.000000	10.033155
2278.000000	9.973882
2277.000000	9.940200
2276.000000	9.904596
2275.000000	9.866261
2274.000000	9.817103
2273.000000	9.771384
2272.000000	9.771384
2271.000000	9.733353
2270.000000	9.728902
2269.000000	9.753582
2268.000000	9.773609
2267.000000	9.811540
2266.000000	9.877589
2265.000000	9.964981
2264.000000	10.058745
2263.000000	10.151194
2262.000000	10.292700
2261.000000	10.433194
2260.000000	10.577026
2259.000000	10.762734
2258.000000	10.935090
2257.000000	11.134756
2256.000000	11.335129
2255.000000	11.532772
2254.000000	11.737799
2253.000000	11.933823
2252.000000	12.116901
2251.000000	12.288447
2250.000000	12.476987
2249.000000	12.641453
2248.000000	12.822002
2247.000000	12.969476
2246.000000	13.105216
2245.000000	13.232258
2244.000000	13.374269
2243.000000	13.471169
2242.000000	13.570496
2241.000000	13.654449
2240.000000	13.767431
2239.000000	13.848349
2238.000000	13.914601
2237.000000	13.978627
2236.000000	14.048723
2235.000000	14.133788
2234.000000	14.174551
2233.000000	14.205401
2232.000000	14.243230
2231.000000	14.291073
2230.000000	14.328396
2229.000000	14.364810
2228.000000	14.382106
2227.000000	14.400919
2226.000000	14.400211
2225.000000	14.380993
2224.000000	14.387669
2223.000000	14.383623
2222.000000	14.375127
2221.000000	14.358437
2220.000000	14.352571
2219.000000	14.326980
2218.000000	14.310493
2217.000000	14.280756
2216.000000	14.271450
2215.000000	14.251929
2214.000000	14.211874
2213.000000	14.180923
2212.000000	14.165548
2211.000000	14.156850
2210.000000	14.145622
2209.000000	14.116492
2208.000000	14.094543
2207.000000	14.079977
2206.000000	14.071886
2205.000000	14.053982
2204.000000	14.031932
2203.000000	14.033449
2202.000000	14.006241
2201.000000	13.989652
2200.000000	13.968816
2199.000000	13.961635
2198.000000	13.944439
2197.000000	13.931492
2196.000000	13.922490
2195.000000	13.899327
2194.000000	13.936044
2193.000000	13.902058
2192.000000	13.883751
2191.000000	13.878592
2190.000000	13.865544
2189.000000	13.863521
2188.000000	13.864533
2187.000000	13.846528
2186.000000	13.839650
2185.000000	13.808092
2184.000000	13.809710
2183.000000	13.799697
2182.000000	13.788065
2181.000000	13.770769
2180.000000	13.766925
2179.000000	13.753270
2178.000000	13.755900
2177.000000	13.738401
2176.000000	13.739716
2175.000000	13.727680
2174.000000	13.721611
2173.000000	13.726972
2172.000000	13.729804
2171.000000	13.747707
2170.000000	13.744369
2169.000000	13.748415
2168.000000	13.761362
2167.000000	13.797775
2166.000000	13.796561
2165.000000	13.819117
2164.000000	13.847843
2163.000000	13.851383
2162.000000	13.875962
2161.000000	13.909847
2160.000000	13.943327
2159.000000	13.968513
2158.000000	13.978728
2157.000000	14.016962
2156.000000	14.058433
2155.000000	14.108805
2154.000000	14.131563
2153.000000	14.171213
2152.000000	14.181934
2151.000000	14.220168
2150.000000	14.269630
2149.000000	14.314843
2148.000000	14.321721
2147.000000	14.357628
2146.000000	14.383421
2145.000000	14.416699
2144.000000	14.459079
2143.000000	14.465957
2142.000000	14.506922
2141.000000	14.541616
2140.000000	14.573275
2139.000000	14.579951
2138.000000	14.606755
2137.000000	14.634470
2136.000000	14.649440
2135.000000	14.671085
2134.000000	14.677255
2133.000000	14.680290
2132.000000	14.703048
2131.000000	14.705779
2130.000000	14.715995
2129.000000	14.721760
2128.000000	14.711848
2127.000000	14.711443
2126.000000	14.713567
2125.000000	14.692225
2124.000000	14.693439
2123.000000	14.691618
2122.000000	14.692933
2121.000000	14.663095
2120.000000	14.646405
2119.000000	14.635077
2118.000000	14.594314
2117.000000	14.567105
2116.000000	14.558710
2115.000000	14.537368
2114.000000	14.509754
2113.000000	14.478399
2112.000000	14.447751
2111.000000	14.420138
2110.000000	14.405977
2109.000000	14.382308
2108.000000	14.352874
2107.000000	14.311505
2106.000000	14.294512
2105.000000	14.280655
2104.000000	14.255975
2103.000000	14.204996
2102.000000	14.169493
2101.000000	14.150376
2100.000000	14.132675
2099.000000	14.097375
2098.000000	14.077449
2097.000000	14.050240
2096.000000	14.008162
2095.000000	13.980853
2094.000000	13.971041
2093.000000	13.945653
2092.000000	13.922490
2091.000000	13.905194
2090.000000	13.880514
2089.000000	13.856036
2088.000000	13.837830
2087.000000	13.816184
2086.000000	13.801315
2085.000000	13.782704
2084.000000	13.746190
2083.000000	13.724645
2082.000000	13.696020
2081.000000	13.660416
2080.000000	13.643120
2079.000000	13.617732
2078.000000	13.579498
2077.000000	13.537825
2076.000000	13.511729
2075.000000	13.474406
2074.000000	13.424641
2073.000000	13.390149
2072.000000	13.357883
2071.000000	13.320357
2070.000000	13.276763
2069.000000	13.236405
2068.000000	13.188258
2067.000000	13.150733
2066.000000	13.124131
2065.000000	13.084784
2064.000000	13.035019
2063.000000	12.995976
2062.000000	12.981917
2061.000000	12.957034
2060.000000	12.910911
2059.000000	12.892907
2058.000000	12.890176
2057.000000	12.871666
2056.000000	12.850324
2055.000000	12.843243
2054.000000	12.855381
2053.000000	12.872475
2052.000000	12.890580
2051.000000	12.910709
2050.000000	12.934580
2049.000000	12.968565
2048.000000	13.020050
2047.000000	13.055755
2046.000000	13.098439
2045.000000	13.161960
2044.000000	13.219108
2043.000000	13.270289
2042.000000	13.317323
2041.000000	13.380338
2040.000000	13.439813
2039.000000	13.490994
2038.000000	13.528216
2037.000000	13.567461
2036.000000	13.615709
2035.000000	13.661124
2034.000000	13.705528
2033.000000	13.734659
2032.000000	13.746999
2031.000000	13.774814
2030.000000	13.804350
2029.000000	13.833986
2028.000000	13.858767
2027.000000	13.859779
2026.000000	13.871916
2025.000000	13.895888
2024.000000	13.899833
2023.000000	13.905599
2022.000000	13.921782
2021.000000	13.934830
2020.000000	13.919152
2019.000000	13.914904
2018.000000	13.906104
2017.000000	13.902058
2016.000000	13.900339
2015.000000	13.885470
2014.000000	13.875659
2013.000000	13.860082
2012.000000	13.825490
2011.000000	13.805563
2010.000000	13.765307
2009.000000	13.758125
2008.000000	13.720903
2007.000000	13.695110
2006.000000	13.653437
2005.000000	13.615304
2004.000000	13.577273
2003.000000	13.531857
2002.000000	13.481081
2001.000000	13.436677
2000.000000	13.384283
1999.000000	13.333304
1998.000000	13.280505
1997.000000	13.224267
1996.000000	13.162263
1995.000000	13.100260
1994.000000	13.031277
1993.000000	12.979793
1992.000000	12.923150
1991.000000	12.836669
1990.000000	12.782656
1989.000000	12.714280
1988.000000	12.637913
1987.000000	12.597960
1986.000000	12.509961
1985.000000	12.423783
1984.000000	12.352474
1983.000000	12.292898
1982.000000	12.230894
1981.000000	12.139052
1980.000000	12.067237
1979.000000	12.000884
1978.000000	11.930789
1977.000000	11.865144
1976.000000	11.792621
1975.000000	11.723942
1974.000000	11.646867
1973.000000	11.591134
1972.000000	11.513048
1971.000000	11.437086
1970.000000	11.372857
1969.000000	11.311562
1968.000000	11.241264
1967.000000	11.170258
1966.000000	11.123326
1965.000000	11.059502
1964.000000	10.996689
1963.000000	10.926694
1962.000000	10.864893
1961.000000	10.806531
1960.000000	10.751102
1959.000000	10.705687
1958.000000	10.629219
1957.000000	10.585017
1956.000000	10.529588
1955.000000	10.474260
1954.000000	10.421562
1953.000000	10.370078
1952.000000	10.318998
1951.000000	10.273280
1950.000000	10.238080
1949.000000	10.172840
1948.000000	10.144316
1947.000000	10.093945
1946.000000	10.048731
1945.000000	10.039527
1944.000000	10.014544
1943.000000	9.979243
1942.000000	9.951023
1941.000000	9.901966
1940.000000	9.897617
1939.000000	9.906012
1938.000000	9.907327
1937.000000	9.933625
1936.000000	9.900651
1935.000000	9.914812
1934.000000	9.951630
1933.000000	9.933120
1932.000000	9.952742
1931.000000	10.010700
1930.000000	10.043978
1929.000000	10.081301
1928.000000	10.145935
1927.000000	10.215929
1926.000000	10.305647
1925.000000	10.355209
1924.000000	10.381103
1923.000000	10.452008
1922.000000	10.547795
1921.000000	10.674128
1920.000000	10.827468
1919.000000	10.943283
1918.000000	11.024606
1917.000000	11.141937
1916.000000	11.230644
1915.000000	11.323700
1914.000000	11.489177
1913.000000	11.656881
1912.000000	11.840565
1911.000000	12.045187
1910.000000	12.168992
1909.000000	12.268926
1908.000000	12.406285
1907.000000	12.569436
1906.000000	12.760100
1905.000000	13.016712
1904.000000	13.286473
1903.000000	13.500502
1902.000000	13.707045
1901.000000	13.905396
1900.000000	14.143397
1899.000000	14.437130
1898.000000	14.701531
1897.000000	14.986363
1896.000000	15.220217
1895.000000	15.424333
1894.000000	15.654141
1893.000000	15.938771
1892.000000	16.249396
1891.000000	16.618079
1890.000000	17.001733
1889.000000	17.339466
1888.000000	17.687414
1887.000000	18.014728
1886.000000	18.397674
1885.000000	18.797208
1884.000000	19.264511
1883.000000	19.747593
1882.000000	20.235327
1881.000000	20.687863
1880.000000	21.138881
1879.000000	21.568456
1878.000000	21.989635
1877.000000	22.433269
1876.000000	22.864766
1875.000000	23.285338
1874.000000	23.679916
1873.000000	24.083192
1872.000000	24.464115
1871.000000	24.803061
1870.000000	25.127847
1869.000000	25.438877
1868.000000	25.715819
1867.000000	25.903347
1866.000000	26.084908
1865.000000	26.215793
1864.000000	26.364379
1863.000000	26.491724
1862.000000	26.624228
1861.000000	26.778478
1860.000000	26.914320
1859.000000	27.047936
1858.000000	27.164458
1857.000000	27.241229
1856.000000	27.297265
1855.000000	27.333678
1854.000000	27.396592
1853.000000	27.430881
1852.000000	27.433309
1851.000000	27.451212
1850.000000	27.463653
1849.000000	27.483883
1848.000000	27.512204
1847.000000	27.515643
1846.000000	27.493694
1845.000000	27.452021
1844.000000	27.417328
1843.000000	27.400031
1842.000000	27.428656
1841.000000	27.462440
1840.000000	27.449897
1839.000000	27.437051
1838.000000	27.419452
1837.000000	27.395176
1836.000000	27.359876
1835.000000	27.313247
1834.000000	27.263988
1833.000000	27.193791
1832.000000	27.138261
1831.000000	27.093452
1830.000000	27.054814
1829.000000	27.021840
1828.000000	26.968636
1827.000000	26.896821
1826.000000	26.829052
1825.000000	26.777669
1824.000000	26.726488
1823.000000	26.682084
1822.000000	26.687142
1821.000000	26.700190
1820.000000	26.663170
1819.000000	26.628577
1818.000000	26.592670
1817.000000	26.555346
1816.000000	26.540477
1815.000000	26.536128
1814.000000	26.524698
1813.000000	26.518427
1812.000000	26.491623
1811.000000	26.476350
1810.000000	26.454805
1809.000000	26.417583
1808.000000	26.394015
1807.000000	26.362356
1806.000000	26.330697
1805.000000	26.286596
1804.000000	26.235314
1803.000000	26.199103
1802.000000	26.167545
1801.000000	26.136088
1800.000000	26.096236
1799.000000	26.040807
1798.000000	25.992256
1797.000000	25.948358
1796.000000	25.916699
1795.000000	25.882511
1794.000000	25.838208
1793.000000	25.792793
1792.000000	25.755975
1791.000000	25.717943
1790.000000	25.666864
1789.000000	25.621651
1788.000000	25.573605
1787.000000	25.530921
1786.000000	25.501993
1785.000000	25.459207
1784.000000	25.386887
1783.000000	25.315982
1782.000000	25.265003
1781.000000	25.223836
1780.000000	25.157888
1779.000000	25.100942
1778.000000	25.051076
1777.000000	24.990994
1776.000000	24.924034
1775.000000	24.842408
1774.000000	24.769480
1773.000000	24.688562
1772.000000	24.597529
1771.000000	24.500528
1770.000000	24.409192
1769.000000	24.334949
1768.000000	24.251300
1767.000000	24.163301
1766.000000	24.091689
1765.000000	24.025032
1764.000000	23.975268
1763.000000	23.943608
1762.000000	23.938854
1761.000000	23.955240
1760.000000	23.979617
1759.000000	24.029989
1758.000000	24.087137
1757.000000	24.141150
1756.000000	24.200423
1755.000000	24.248670
1754.000000	24.299548
1753.000000	24.329083
1752.000000	24.342535
1751.000000	24.349110
1750.000000	24.339906
1749.000000	24.320890
1748.000000	24.296412
1747.000000	24.248974
1746.000000	24.200625
1745.000000	24.139026
1744.000000	24.049915
1743.000000	23.946137
1742.000000	23.823849
1741.000000	23.681636
1740.000000	23.516158
1739.000000	23.347949
1738.000000	23.164163
1737.000000	22.990796
1736.000000	22.844637
1735.000000	22.749356
1734.000000	22.667022
1733.000000	22.619179
1732.000000	22.591768
1731.000000	22.618168
1730.000000	22.656604
1729.000000	22.718000
1728.000000	22.800840
1727.000000	22.882770
1726.000000	22.952562
1725.000000	23.032570
1724.000000	23.103980
1723.000000	23.154656
1722.000000	23.202701
1721.000000	23.225358
1720.000000	23.252870
1719.000000	23.298892
1718.000000	23.330653
1717.000000	23.368077
1716.000000	23.419258
1715.000000	23.467708
1714.000000	23.528902
1713.000000	23.595660
1712.000000	23.657967
1711.000000	23.697718
1710.000000	23.739796
1709.000000	23.754563
1708.000000	23.751023
1707.000000	23.736660
1706.000000	23.715217
1705.000000	23.683355
1704.000000	23.635209
1703.000000	23.592524
1702.000000	23.511910
1701.000000	23.415819
1700.000000	23.320234
1699.000000	23.184292
1698.000000	23.034795
1697.000000	22.927680
1696.000000	22.848481
1695.000000	22.771002
1694.000000	22.752290
1693.000000	22.790321
1692.000000	22.874780
1691.000000	22.975826
1690.000000	23.090932
1689.000000	23.224751
1688.000000	23.312648
1687.000000	23.396196
1686.000000	23.437262
1685.000000	23.478430
1684.000000	23.514641
1683.000000	23.606280
1682.000000	23.777524
1681.000000	24.025134
1680.000000	24.357101
1679.000000	24.741968
1678.000000	25.165069
1677.000000	25.547509
1676.000000	25.963024
1675.000000	26.312591
1674.000000	26.626858
1673.000000	26.914724
1672.000000	27.156063
1671.000000	27.355324
1670.000000	27.538907
1669.000000	27.689618
1668.000000	27.830820
1667.000000	27.941880
1666.000000	28.032509
1665.000000	28.120507
1664.000000	28.203550
1663.000000	28.267070
1662.000000	28.340301
1661.000000	28.388751
1660.000000	28.420006
1659.000000	28.467748
1658.000000	28.488685
1657.000000	28.530459
1656.000000	28.531066
1655.000000	28.544215
1654.000000	28.561714
1653.000000	28.543002
1652.000000	28.527728
1651.000000	28.525908
1650.000000	28.517917
1649.000000	28.477761
1648.000000	28.442663
1647.000000	28.407362
1646.000000	28.360936
1645.000000	28.354361
1644.000000	28.295695
1643.000000	28.253213
1642.000000	28.198290
1641.000000	28.165417
1640.000000	28.121923
1639.000000	28.070945
1638.000000	28.011571
1637.000000	27.967673
1636.000000	27.921954
1635.000000	27.862075
1634.000000	27.801184
1633.000000	27.739686
1632.000000	27.668478
1631.000000	27.626400
1630.000000	27.553877
1629.000000	27.475892
1628.000000	27.414597
1627.000000	27.360685
1626.000000	27.283813
1625.000000	27.211795
1624.000000	27.162233
1623.000000	27.087889
1622.000000	27.019311
1621.000000	26.950935
1620.000000	26.901676
