PE UV       SUBTECH     SPECTRUM    ASCII       PEDS        4.00        
   -1
CICIMAUCR0214-3.Sample.ASC
24/06/12
17:27:56.00
24/06/12
17:27:56.00
Vinicio Soto Monge
C. cupreomarginata. Sex M. Dorsal.
250,000000
1
Lambda 1050
1050L1511233
PerkinElmer UV WinLab 6.3.2.0749 / 2.02.05 Lambda 900 UV/VIS/NIR, Aug  7 2015 09:38:08

0
0
3350/servo 860,8/2
0
0
UV/VIS
1
1
1
DoubleDePol,CommonBeamDepol,RBeamAtt,SBeamAtt,60mm sphere, WB InGaAs Detector
0
0
0
0
Program
Program
3350/servo 860,8/2
3350/0,2 860,8/0,2
3350/0,2 860,8/0,2
0
15.00
 
 
 
0
 
860,8
319,2
860,8
Front
100
on
S:100 R:100
0
0
0
0
 
0
 
 
 
0
 
 
0
0
0
0
0
 
 
 
 
0
0


0
0
#HDR
-1
-1
#GR
nm
%R
1.0
0.0
2500,000000
-1,000000
2251
8
71,672100
4,948700
#DATA
2500.000000	14.085123
2499.000000	13.990482
2498.000000	13.979508
2497.000000	14.129926
2496.000000	13.731228
2495.000000	13.795060
2494.000000	13.664778
2493.000000	13.737772
2492.000000	13.698104
2491.000000	13.685217
2490.000000	13.688338
2489.000000	13.600342
2488.000000	13.490599
2487.000000	13.668000
2486.000000	13.585039
2485.000000	13.584535
2484.000000	13.477612
2483.000000	13.600543
2482.000000	13.547988
2481.000000	13.488082
2480.000000	13.450428
2479.000000	13.581716
2478.000000	13.485767
2477.000000	13.527852
2476.000000	13.654911
2475.000000	13.518488
2474.000000	13.554431
2473.000000	13.596114
2472.000000	13.577890
2471.000000	13.696191
2470.000000	13.665483
2469.000000	13.659140
2468.000000	13.654609
2467.000000	13.722469
2466.000000	13.739584
2465.000000	13.708474
2464.000000	13.826170
2463.000000	13.849529
2462.000000	13.850535
2461.000000	13.880840
2460.000000	13.972863
2459.000000	14.003672
2458.000000	14.072437
2457.000000	14.120865
2456.000000	14.220741
2455.000000	14.291419
2454.000000	14.411029
2453.000000	14.534464
2452.000000	14.563158
2451.000000	14.701394
2450.000000	14.800263
2449.000000	14.886647
2448.000000	15.031931
2447.000000	15.175603
2446.000000	15.280010
2445.000000	15.354614
2444.000000	15.453484
2443.000000	15.595948
2442.000000	15.674680
2441.000000	15.789961
2440.000000	15.899502
2439.000000	15.972295
2438.000000	16.088582
2437.000000	16.166710
2436.000000	16.297697
2435.000000	16.376732
2434.000000	16.497952
2433.000000	16.610514
2432.000000	16.693375
2431.000000	16.756603
2430.000000	16.857586
2429.000000	16.935413
2428.000000	17.057036
2427.000000	17.095395
2426.000000	17.189834
2425.000000	17.263030
2424.000000	17.327466
2423.000000	17.386465
2422.000000	17.427745
2421.000000	17.492785
2420.000000	17.545642
2419.000000	17.593970
2418.000000	17.651056
2417.000000	17.723849
2416.000000	17.792413
2415.000000	17.806105
2414.000000	17.814663
2413.000000	17.895108
2412.000000	17.945650
2411.000000	17.959745
2410.000000	18.006965
2409.000000	18.037672
2408.000000	18.070897
2407.000000	18.123352
2406.000000	18.152852
2405.000000	18.175707
2404.000000	18.190507
2403.000000	18.205307
2402.000000	18.234001
2401.000000	18.267427
2400.000000	18.293604
2399.000000	18.306794
2398.000000	18.327635
2397.000000	18.365592
2396.000000	18.381600
2395.000000	18.398514
2394.000000	18.416738
2393.000000	18.450265
2392.000000	18.498491
2391.000000	18.515607
2390.000000	18.536146
2389.000000	18.573096
2388.000000	18.568867
2387.000000	18.568465
2386.000000	18.589406
2385.000000	18.591420
2384.000000	18.589910
2383.000000	18.566954
2382.000000	18.542589
2381.000000	18.542791
2380.000000	18.546214
2379.000000	18.534736
2378.000000	18.514701
2377.000000	18.495269
2376.000000	18.491242
2375.000000	18.465568
2374.000000	18.417745
2373.000000	18.388748
2372.000000	18.379385
2371.000000	18.359551
2370.000000	18.349181
2369.000000	18.328742
2368.000000	18.282127
2367.000000	18.254037
2366.000000	18.232894
2365.000000	18.201582
2364.000000	18.151543
2363.000000	18.100800
2362.000000	18.056399
2361.000000	18.024785
2360.000000	17.980485
2359.000000	17.909203
2358.000000	17.858560
2357.000000	17.817986
2356.000000	17.785566
2355.000000	17.742978
2354.000000	17.695758
2353.000000	17.652063
2352.000000	17.606756
2351.000000	17.591956
2350.000000	17.578465
2349.000000	17.578565
2348.000000	17.582593
2347.000000	17.588533
2346.000000	17.613502
2345.000000	17.631725
2344.000000	17.643807
2343.000000	17.659312
2342.000000	17.699584
2341.000000	17.721936
2340.000000	17.732708
2339.000000	17.756671
2338.000000	17.758584
2337.000000	17.759590
2336.000000	17.772075
2335.000000	17.771169
2334.000000	17.766739
2333.000000	17.757979
2332.000000	17.732205
2331.000000	17.711062
2330.000000	17.702806
2329.000000	17.676830
2328.000000	17.629007
2327.000000	17.595882
2326.000000	17.560241
2325.000000	17.544032
2324.000000	17.488053
2323.000000	17.414455
2322.000000	17.363711
2321.000000	17.304511
2320.000000	17.235544
2319.000000	17.148253
2318.000000	17.058546
2317.000000	16.947696
2316.000000	16.847115
2315.000000	16.748548
2314.000000	16.663573
2313.000000	16.548897
2312.000000	16.435429
2311.000000	16.343910
2310.000000	16.267794
2309.000000	16.189364
2308.000000	16.113148
2307.000000	16.055558
2306.000000	15.994747
2305.000000	15.952561
2304.000000	15.945211
2303.000000	15.937258
2302.000000	15.944708
2301.000000	15.985887
2300.000000	16.014984
2299.000000	16.039751
2298.000000	16.093414
2297.000000	16.163791
2296.000000	16.228730
2295.000000	16.280984
2294.000000	16.345118
2293.000000	16.420125
2292.000000	16.485166
2291.000000	16.550508
2290.000000	16.572658
2289.000000	16.609507
2288.000000	16.644343
2287.000000	16.668104
2286.000000	16.668607
2285.000000	16.662264
2284.000000	16.673742
2283.000000	16.672030
2282.000000	16.661056
2281.000000	16.622998
2280.000000	16.579403
2279.000000	16.559871
2278.000000	16.530674
2277.000000	16.497952
2276.000000	16.450430
2275.000000	16.422944
2274.000000	16.383276
2273.000000	16.368677
2272.000000	16.350051
2271.000000	16.336761
2270.000000	16.366462
2269.000000	16.386699
2268.000000	16.404520
2267.000000	16.464929
2266.000000	16.544769
2265.000000	16.631355
2264.000000	16.718444
2263.000000	16.853760
2262.000000	17.010320
2261.000000	17.182787
2260.000000	17.367336
2259.000000	17.552690
2258.000000	17.762510
2257.000000	17.988238
2256.000000	18.215878
2255.000000	18.441103
2254.000000	18.675489
2253.000000	18.918131
2252.000000	19.164599
2251.000000	19.396065
2250.000000	19.584742
2249.000000	19.819833
2248.000000	20.011732
2247.000000	20.207557
2246.000000	20.342672
2245.000000	20.533362
2244.000000	20.676934
2243.000000	20.814968
2242.000000	20.951089
2241.000000	21.040293
2240.000000	21.152150
2239.000000	21.226453
2238.000000	21.309112
2237.000000	21.376770
2236.000000	21.423889
2235.000000	21.504938
2234.000000	21.548935
2233.000000	21.589309
2232.000000	21.614882
2231.000000	21.613774
2230.000000	21.630185
2229.000000	21.630689
2228.000000	21.620520
2227.000000	21.592631
2226.000000	21.583167
2225.000000	21.557695
2224.000000	21.520040
2223.000000	21.498796
2222.000000	21.445133
2221.000000	21.394389
2220.000000	21.334383
2219.000000	21.281425
2218.000000	21.227057
2217.000000	21.163930
2216.000000	21.119529
2215.000000	21.040897
2214.000000	20.967702
2213.000000	20.934074
2212.000000	20.872961
2211.000000	20.798255
2210.000000	20.762110
2209.000000	20.702708
2208.000000	20.683982
2207.000000	20.643508
2206.000000	20.615619
2205.000000	20.571118
2204.000000	20.542927
2203.000000	20.507084
2202.000000	20.476779
2201.000000	20.452616
2200.000000	20.416471
2199.000000	20.406604
2198.000000	20.383548
2197.000000	20.359284
2196.000000	20.315790
2195.000000	20.296056
2194.000000	20.305319
2193.000000	20.279847
2192.000000	20.253367
2191.000000	20.254173
2190.000000	20.248937
2189.000000	20.233432
2188.000000	20.208665
2187.000000	20.181884
2186.000000	20.188931
2185.000000	20.167486
2184.000000	20.157921
2183.000000	20.142014
2182.000000	20.115535
2181.000000	20.097815
2180.000000	20.087747
2179.000000	20.078685
2178.000000	20.068818
2177.000000	20.076672
2176.000000	20.072443
2175.000000	20.045259
2174.000000	20.050796
2173.000000	20.066100
2172.000000	20.077980
2171.000000	20.083921
2170.000000	20.089156
2169.000000	20.107782
2168.000000	20.147652
2167.000000	20.173628
2166.000000	20.190341
2165.000000	20.207457
2164.000000	20.260818
2163.000000	20.293439
2162.000000	20.332805
2161.000000	20.376400
2160.000000	20.427445
2159.000000	20.481411
2158.000000	20.537994
2157.000000	20.596792
2156.000000	20.663845
2155.000000	20.739860
2154.000000	20.811646
2153.000000	20.893298
2152.000000	20.973340
2151.000000	21.057912
2150.000000	21.146310
2149.000000	21.221721
2148.000000	21.307602
2147.000000	21.378079
2146.000000	21.455503
2145.000000	21.551352
2144.000000	21.623842
2143.000000	21.703884
2142.000000	21.766608
2141.000000	21.832857
2140.000000	21.897998
2139.000000	21.972905
2138.000000	22.033213
2137.000000	22.088789
2136.000000	22.153326
2135.000000	22.207190
2134.000000	22.274546
2133.000000	22.319047
2132.000000	22.369388
2131.000000	22.415198
2130.000000	22.460202
2129.000000	22.500274
2128.000000	22.518195
2127.000000	22.553735
2126.000000	22.574879
2125.000000	22.597431
2124.000000	22.621091
2123.000000	22.617970
2122.000000	22.635489
2121.000000	22.654820
2120.000000	22.656732
2119.000000	22.638610
2118.000000	22.647772
2117.000000	22.644852
2116.000000	22.633676
2115.000000	22.624615
2114.000000	22.611728
2113.000000	22.588370
2112.000000	22.574576
2111.000000	22.553937
2110.000000	22.518698
2109.000000	22.493830
2108.000000	22.476311
2107.000000	22.443389
2106.000000	22.423957
2105.000000	22.398283
2104.000000	22.373214
2103.000000	22.355292
2102.000000	22.327806
2101.000000	22.286326
2100.000000	22.268404
2099.000000	22.245852
2098.000000	22.225715
2097.000000	22.203062
2096.000000	22.174469
2095.000000	22.151010
2094.000000	22.142855
2093.000000	22.125135
2092.000000	22.095937
2091.000000	22.076103
2090.000000	22.065431
2089.000000	22.055363
2088.000000	22.043180
2087.000000	22.022440
2086.000000	21.994048
2085.000000	21.974314
2084.000000	21.954480
2083.000000	21.922765
2082.000000	21.881184
2081.000000	21.838998
2080.000000	21.800739
2079.000000	21.762279
2078.000000	21.702776
2077.000000	21.643475
2076.000000	21.587798
2075.000000	21.520140
2074.000000	21.461645
2073.000000	21.388751
2072.000000	21.305286
2071.000000	21.221318
2070.000000	21.130504
2069.000000	21.051167
2068.000000	20.961157
2067.000000	20.871551
2066.000000	20.794932
2065.000000	20.699285
2064.000000	20.609175
2063.000000	20.522891
2062.000000	20.443957
2061.000000	20.369453
2060.000000	20.291526
2059.000000	20.226888
2058.000000	20.179971
2057.000000	20.136174
2056.000000	20.100130
2055.000000	20.071940
2054.000000	20.051401
2053.000000	20.059757
2052.000000	20.080900
2051.000000	20.107983
2050.000000	20.156210
2049.000000	20.224875
2048.000000	20.305118
2047.000000	20.396335
2046.000000	20.496614
2045.000000	20.605651
2044.000000	20.715193
2043.000000	20.829567
2042.000000	20.968004
2041.000000	21.081270
2040.000000	21.191919
2039.000000	21.308911
2038.000000	21.419660
2037.000000	21.534739
2036.000000	21.620419
2035.000000	21.716872
2034.000000	21.817150
2033.000000	21.906656
2032.000000	21.987302
2031.000000	22.057376
2030.000000	22.142955
2029.000000	22.206787
2028.000000	22.266995
2027.000000	22.325994
2026.000000	22.380765
2025.000000	22.425165
2024.000000	22.467351
2023.000000	22.501381
2022.000000	22.542358
2021.000000	22.572764
2020.000000	22.607701
2019.000000	22.639113
2018.000000	22.668009
2017.000000	22.679889
2016.000000	22.686534
2015.000000	22.710295
2014.000000	22.715430
2013.000000	22.706066
2012.000000	22.703449
2011.000000	22.698213
2010.000000	22.683916
2009.000000	22.659753
2008.000000	22.638408
2007.000000	22.612634
2006.000000	22.587464
2005.000000	22.548399
2004.000000	22.500072
2003.000000	22.454464
2002.000000	22.408855
2001.000000	22.358716
2000.000000	22.302133
1999.000000	22.235381
1998.000000	22.165810
1997.000000	22.099260
1996.000000	22.041368
1995.000000	21.959111
1994.000000	21.893266
1993.000000	21.812217
1992.000000	21.715362
1991.000000	21.646999
1990.000000	21.544103
1989.000000	21.467081
1988.000000	21.378985
1987.000000	21.283136
1986.000000	21.182858
1985.000000	21.090936
1984.000000	20.990657
1983.000000	20.892996
1982.000000	20.794228
1981.000000	20.708548
1980.000000	20.594677
1979.000000	20.498224
1978.000000	20.392710
1977.000000	20.309850
1976.000000	20.219538
1975.000000	20.132449
1974.000000	20.029955
1973.000000	19.932597
1972.000000	19.868765
1971.000000	19.775634
1970.000000	19.674852
1969.000000	19.597025
1968.000000	19.510440
1967.000000	19.433318
1966.000000	19.325286
1965.000000	19.236687
1964.000000	19.164901
1963.000000	19.095330
1962.000000	19.015993
1961.000000	18.935750
1960.000000	18.866683
1959.000000	18.779694
1958.000000	18.677200
1957.000000	18.610147
1956.000000	18.538864
1955.000000	18.443620
1954.000000	18.371129
1953.000000	18.299847
1952.000000	18.223329
1951.000000	18.145804
1950.000000	18.084489
1949.000000	18.005958
1948.000000	17.977465
1947.000000	17.914237
1946.000000	17.857855
1945.000000	17.777008
1944.000000	17.752744
1943.000000	17.713881
1942.000000	17.689315
1941.000000	17.655687
1940.000000	17.631222
1939.000000	17.628201
1938.000000	17.613703
1937.000000	17.637363
1936.000000	17.612596
1935.000000	17.658003
1934.000000	17.654278
1933.000000	17.693543
1932.000000	17.721231
1931.000000	17.790399
1930.000000	17.845572
1929.000000	17.917862
1928.000000	18.021463
1927.000000	18.123151
1926.000000	18.230074
1925.000000	18.333374
1924.000000	18.434256
1923.000000	18.549335
1922.000000	18.680624
1921.000000	18.848963
1920.000000	19.037942
1919.000000	19.228230
1918.000000	19.384487
1917.000000	19.541147
1916.000000	19.736973
1915.000000	19.917192
1914.000000	20.116441
1913.000000	20.370359
1912.000000	20.652267
1911.000000	20.951794
1910.000000	21.178025
1909.000000	21.397208
1908.000000	21.615486
1907.000000	21.869706
1906.000000	22.200243
1905.000000	22.552729
1904.000000	22.953340
1903.000000	23.314786
1902.000000	23.645222
1901.000000	23.982706
1900.000000	24.332473
1899.000000	24.742951
1898.000000	25.187057
1897.000000	25.553940
1896.000000	25.946798
1895.000000	26.288108
1894.000000	26.631331
1893.000000	26.992576
1892.000000	27.418559
1891.000000	27.903642
1890.000000	28.358419
1889.000000	28.810680
1888.000000	29.190551
1887.000000	29.626602
1886.000000	30.019964
1885.000000	30.446853
1884.000000	30.900624
1883.000000	31.392553
1882.000000	31.843606
1881.000000	32.239384
1880.000000	32.687416
1879.000000	33.055709
1878.000000	33.419471
1877.000000	33.833170
1876.000000	34.193408
1875.000000	34.531094
1874.000000	34.853375
1873.000000	35.191664
1872.000000	35.528343
1871.000000	35.828474
1870.000000	36.107563
1869.000000	36.326746
1868.000000	36.544319
1867.000000	36.751420
1866.000000	36.897710
1865.000000	36.994868
1864.000000	37.101590
1863.000000	37.216065
1862.000000	37.318357
1861.000000	37.430315
1860.000000	37.545998
1859.000000	37.640034
1858.000000	37.723197
1857.000000	37.812300
1856.000000	37.868883
1855.000000	37.899993
1854.000000	37.932815
1853.000000	37.988694
1852.000000	37.981747
1851.000000	37.985774
1850.000000	38.014871
1849.000000	38.057056
1848.000000	38.065413
1847.000000	38.071353
1846.000000	38.083133
1845.000000	38.031584
1844.000000	37.994835
1843.000000	37.953757
1842.000000	37.945199
1841.000000	37.962516
1840.000000	37.971779
1839.000000	37.961006
1838.000000	37.924862
1837.000000	37.891435
1836.000000	37.864352
1835.000000	37.842504
1834.000000	37.796795
1833.000000	37.731251
1832.000000	37.675675
1831.000000	37.625435
1830.000000	37.598050
1829.000000	37.554153
1828.000000	37.506933
1827.000000	37.454277
1826.000000	37.416018
1825.000000	37.391653
1824.000000	37.335573
1823.000000	37.307282
1822.000000	37.302047
1821.000000	37.305268
1820.000000	37.323693
1819.000000	37.314229
1818.000000	37.274057
1817.000000	37.238718
1816.000000	37.237610
1815.000000	37.241034
1814.000000	37.220696
1813.000000	37.200459
1812.000000	37.191498
1811.000000	37.177302
1810.000000	37.160891
1809.000000	37.110651
1808.000000	37.065647
1807.000000	37.046215
1806.000000	37.017219
1805.000000	36.973825
1804.000000	36.928821
1803.000000	36.898415
1802.000000	36.873345
1801.000000	36.855424
1800.000000	36.823508
1799.000000	36.763401
1798.000000	36.714369
1797.000000	36.678325
1796.000000	36.645201
1795.000000	36.622045
1794.000000	36.583685
1793.000000	36.532337
1792.000000	36.495287
1791.000000	36.461156
1790.000000	36.431757
1789.000000	36.391182
1788.000000	36.346480
1787.000000	36.321410
1786.000000	36.287279
1785.000000	36.253752
1784.000000	36.222642
1783.000000	36.178442
1782.000000	36.124981
1781.000000	36.081587
1780.000000	36.046248
1779.000000	36.001545
1778.000000	35.946875
1777.000000	35.875089
1776.000000	35.812264
1775.000000	35.747023
1774.000000	35.660739
1773.000000	35.577777
1772.000000	35.506092
1771.000000	35.427661
1770.000000	35.356077
1769.000000	35.265967
1768.000000	35.190758
1767.000000	35.113636
1766.000000	35.049301
1765.000000	34.994530
1764.000000	34.952747
1763.000000	34.907038
1762.000000	34.903414
1761.000000	34.883277
1760.000000	34.895460
1759.000000	34.922140
1758.000000	34.963017
1757.000000	35.006813
1756.000000	35.053127
1755.000000	35.080411
1754.000000	35.107797
1753.000000	35.141324
1752.000000	35.147163
1751.000000	35.142934
1750.000000	35.136994
1749.000000	35.128336
1748.000000	35.097628
1747.000000	35.052321
1746.000000	34.979227
1745.000000	34.901702
1744.000000	34.825990
1743.000000	34.714233
1742.000000	34.581132
1741.000000	34.463235
1740.000000	34.316139
1739.000000	34.166124
1738.000000	34.014900
1737.000000	33.871228
1736.000000	33.751216
1735.000000	33.631707
1734.000000	33.565056
1733.000000	33.515621
1732.000000	33.469610
1731.000000	33.452394
1730.000000	33.473537
1729.000000	33.502734
1728.000000	33.516528
1727.000000	33.556901
1726.000000	33.610363
1725.000000	33.639862
1724.000000	33.680034
1723.000000	33.701077
1722.000000	33.769339
1721.000000	33.835285
1720.000000	33.901030
1719.000000	33.998389
1718.000000	34.111252
1717.000000	34.224821
1716.000000	34.366681
1715.000000	34.512971
1714.000000	34.643857
1713.000000	34.776656
1712.000000	34.912978
1711.000000	34.998255
1710.000000	35.075277
1709.000000	35.149277
1708.000000	35.228916
1707.000000	35.251570
1706.000000	35.269592
1705.000000	35.282177
1704.000000	35.263249
1703.000000	35.248650
1702.000000	35.213613
1701.000000	35.159648
1700.000000	35.078700
1699.000000	35.018895
1698.000000	34.912374
1697.000000	34.823271
1696.000000	34.760949
1695.000000	34.725409
1694.000000	34.684331
1693.000000	34.671746
1692.000000	34.692889
1691.000000	34.720475
1690.000000	34.782898
1689.000000	34.840588
1688.000000	34.888513
1687.000000	34.950130
1686.000000	35.025842
1685.000000	35.118268
1684.000000	35.209485
1683.000000	35.357487
1682.000000	35.556332
1681.000000	35.811761
1680.000000	36.133941
1679.000000	36.479983
1678.000000	36.868714
1677.000000	37.212541
1676.000000	37.559791
1675.000000	37.881468
1674.000000	38.166900
1673.000000	38.436222
1672.000000	38.695577
1671.000000	38.924527
1670.000000	39.122567
1669.000000	39.298458
1668.000000	39.493981
1667.000000	39.630404
1666.000000	39.765820
1665.000000	39.902546
1664.000000	40.023061
1663.000000	40.147403
1662.000000	40.243956
1661.000000	40.339503
1660.000000	40.437063
1659.000000	40.521031
1658.000000	40.583857
1657.000000	40.674067
1656.000000	40.708903
1655.000000	40.763674
1654.000000	40.779682
1653.000000	40.796496
1652.000000	40.808074
1651.000000	40.837272
1650.000000	40.832640
1649.000000	40.819250
1648.000000	40.809182
1647.000000	40.803946
1646.000000	40.790757
1645.000000	40.760754
1644.000000	40.723502
1643.000000	40.721689
1642.000000	40.691787
1641.000000	40.654032
1640.000000	40.631479
1639.000000	40.597348
1638.000000	40.578722
1637.000000	40.544692
1636.000000	40.513279
1635.000000	40.484484
1634.000000	40.438070
1633.000000	40.401623
1632.000000	40.354001
1631.000000	40.296713
1630.000000	40.252816
1629.000000	40.196535
1628.000000	40.151632
1627.000000	40.087900
1626.000000	40.011382
1625.000000	39.961948
