PE UV       SUBTECH     SPECTRUM    ASCII       PEDS        4.00        
   -1
CICIMAUCR0245-1.Sample.ASC
24/06/20
16:50:04.00
24/06/20
16:50:04.00
Vinicio Soto Monge
C. resplendens. Sex M
250,000000
1
Lambda 1050
1050L1511233
PerkinElmer UV WinLab 6.3.2.0749 / 2.02.05 Lambda 900 UV/VIS/NIR, Aug  7 2015 09:38:08

0
0
3350/servo 860,8/2
0
0
UV/VIS
1
1
1
DoubleDePol,CommonBeamDepol,RBeamAtt,SBeamAtt,60mm sphere, WB InGaAs Detector
0
0
0
0
Program
Program
3350/servo 860,8/2
3350/0,2 860,8/0,2
3350/0,2 860,8/0,2
0
15.00
 
 
 
0
 
860,8
319,2
860,8
Front
100
on
S:100 R:100
0
0
0
0
 
0
 
 
 
0
 
 
0
0
0
0
0
 
 
 
 
0
0


0
0
#HDR
-1
-1
#GR
nm
%R
1.0
0.0
2500,000000
-1,000000
2251
8
88,850800
5,631900
#DATA
2500.000000	7.446402
2499.000000	7.354457
2498.000000	7.448577
2497.000000	7.372370
2496.000000	7.452511
2495.000000	7.407781
2494.000000	7.430664
2493.000000	7.503972
2492.000000	7.396806
2491.000000	7.236006
2490.000000	7.321221
2489.000000	7.324016
2488.000000	7.324120
2487.000000	7.308071
2486.000000	7.318321
2485.000000	7.276491
2484.000000	7.322774
2483.000000	7.341411
2482.000000	7.304550
2481.000000	7.291401
2480.000000	7.338098
2479.000000	7.287052
2478.000000	7.300202
2477.000000	7.254540
2476.000000	7.334163
2475.000000	7.299995
2474.000000	7.281978
2473.000000	7.276283
2472.000000	7.255575
2471.000000	7.240665
2470.000000	7.286120
2469.000000	7.269967
2468.000000	7.249673
2467.000000	7.267172
2466.000000	7.317907
2465.000000	7.279700
2464.000000	7.318114
2463.000000	7.306932
2462.000000	7.324223
2461.000000	7.353526
2460.000000	7.349694
2459.000000	7.355803
2458.000000	7.362327
2457.000000	7.420517
2456.000000	7.446506
2455.000000	7.498277
2454.000000	7.506146
2453.000000	7.531306
2452.000000	7.587426
2451.000000	7.613622
2450.000000	7.637437
2449.000000	7.665289
2448.000000	7.706706
2447.000000	7.749986
2446.000000	7.781567
2445.000000	7.819463
2444.000000	7.875375
2443.000000	7.882934
2442.000000	7.915446
2441.000000	7.958726
2440.000000	7.994345
2439.000000	8.029963
2438.000000	8.063303
2437.000000	8.107516
2436.000000	8.163635
2435.000000	8.164360
2434.000000	8.197804
2433.000000	8.237978
2432.000000	8.250299
2431.000000	8.280637
2430.000000	8.290474
2429.000000	8.316566
2428.000000	8.369062
2427.000000	8.369890
2426.000000	8.392048
2425.000000	8.402091
2424.000000	8.428702
2423.000000	8.458832
2422.000000	8.467737
2421.000000	8.485546
2420.000000	8.501284
2419.000000	8.531726
2418.000000	8.536385
2417.000000	8.555022
2416.000000	8.573971
2415.000000	8.589605
2414.000000	8.591055
2413.000000	8.615905
2412.000000	8.634749
2411.000000	8.648728
2410.000000	8.669747
2409.000000	8.678237
2408.000000	8.687452
2407.000000	8.701948
2406.000000	8.723588
2405.000000	8.740569
2404.000000	8.747092
2403.000000	8.766454
2402.000000	8.782814
2401.000000	8.793996
2400.000000	8.830754
2399.000000	8.841419
2398.000000	8.840280
2397.000000	8.852394
2396.000000	8.860781
2395.000000	8.853947
2394.000000	8.869996
2393.000000	8.864922
2392.000000	8.875070
2391.000000	8.877244
2390.000000	8.887909
2389.000000	8.882628
2388.000000	8.893500
2387.000000	8.900230
2386.000000	8.888841
2385.000000	8.894121
2384.000000	8.913794
2383.000000	8.905200
2382.000000	8.886666
2381.000000	8.882421
2380.000000	8.882939
2379.000000	8.860884
2378.000000	8.844421
2377.000000	8.840073
2376.000000	8.830961
2375.000000	8.824955
2374.000000	8.815533
2373.000000	8.787163
2372.000000	8.759724
2371.000000	8.742329
2370.000000	8.719550
2369.000000	8.688902
2368.000000	8.669022
2367.000000	8.643861
2366.000000	8.608139
2365.000000	8.566205
2364.000000	8.534314
2363.000000	8.490205
2362.000000	8.438642
2361.000000	8.412963
2360.000000	8.388942
2359.000000	8.334272
2358.000000	8.285193
2357.000000	8.257547
2356.000000	8.218616
2355.000000	8.201428
2354.000000	8.183308
2353.000000	8.147172
2352.000000	8.140235
2351.000000	8.141063
2350.000000	8.141270
2349.000000	8.147276
2348.000000	8.147379
2347.000000	8.152970
2346.000000	8.169744
2345.000000	8.195008
2344.000000	8.211161
2343.000000	8.224414
2342.000000	8.232490
2341.000000	8.247193
2340.000000	8.264485
2339.000000	8.283950
2338.000000	8.279291
2337.000000	8.263967
2336.000000	8.273182
2335.000000	8.269040
2334.000000	8.263656
2333.000000	8.249161
2332.000000	8.199150
2331.000000	8.153902
2330.000000	8.137439
2329.000000	8.122218
2328.000000	8.072001
2327.000000	8.016502
2326.000000	7.972290
2325.000000	7.926525
2324.000000	7.875168
2323.000000	7.823294
2322.000000	7.752678
2321.000000	7.681649
2320.000000	7.625736
2319.000000	7.571274
2318.000000	7.508734
2317.000000	7.447541
2316.000000	7.370610
2315.000000	7.314283
2314.000000	7.239216
2313.000000	7.172224
2312.000000	7.120453
2311.000000	7.085974
2310.000000	7.012977
2309.000000	6.988956
2308.000000	6.961517
2307.000000	6.936149
2306.000000	6.925277
2305.000000	6.924863
2304.000000	6.908193
2303.000000	6.938531
2302.000000	6.957168
2301.000000	6.991855
2300.000000	7.021157
2299.000000	7.053255
2298.000000	7.082661
2297.000000	7.133707
2296.000000	7.166840
2295.000000	7.208464
2294.000000	7.258992
2293.000000	7.276491
2292.000000	7.305172
2291.000000	7.322774
2290.000000	7.340169
2289.000000	7.358910
2288.000000	7.360773
2287.000000	7.343378
2286.000000	7.336131
2285.000000	7.334577
2284.000000	7.315940
2283.000000	7.283324
2282.000000	7.267897
2281.000000	7.241804
2280.000000	7.218093
2279.000000	7.176469
2278.000000	7.147685
2277.000000	7.122628
2276.000000	7.094050
2275.000000	7.047560
2274.000000	7.046939
2273.000000	7.036585
2272.000000	7.018672
2271.000000	7.013391
2270.000000	7.015048
2269.000000	7.038138
2268.000000	7.055740
2267.000000	7.071168
2266.000000	7.127184
2265.000000	7.178126
2264.000000	7.229483
2263.000000	7.299477
2262.000000	7.381999
2261.000000	7.503972
2260.000000	7.609066
2259.000000	7.708156
2258.000000	7.840999
2257.000000	7.989582
2256.000000	8.122115
2255.000000	8.259308
2254.000000	8.401470
2253.000000	8.554505
2252.000000	8.693665
2251.000000	8.828165
2250.000000	8.976126
2249.000000	9.108349
2248.000000	9.210544
2247.000000	9.354881
2246.000000	9.434712
2245.000000	9.542809
2244.000000	9.673479
2243.000000	9.743680
2242.000000	9.843287
2241.000000	9.907379
2240.000000	10.003777
2239.000000	10.091684
2238.000000	10.158571
2237.000000	10.226288
2236.000000	10.300838
2235.000000	10.337181
2234.000000	10.383982
2233.000000	10.435545
2232.000000	10.471371
2231.000000	10.525212
2230.000000	10.555239
2229.000000	10.591997
2228.000000	10.615604
2227.000000	10.618503
2226.000000	10.663647
2225.000000	10.672966
2224.000000	10.689222
2223.000000	10.684563
2222.000000	10.690361
2221.000000	10.681457
2220.000000	10.686841
2219.000000	10.695642
2218.000000	10.651947
2217.000000	10.668514
2216.000000	10.656814
2215.000000	10.643043
2214.000000	10.631550
2213.000000	10.624923
2212.000000	10.592204
2211.000000	10.610220
2210.000000	10.593550
2209.000000	10.583610
2208.000000	10.541572
2207.000000	10.562177
2206.000000	10.557517
2205.000000	10.538983
2204.000000	10.536084
2203.000000	10.516929
2202.000000	10.507196
2201.000000	10.510406
2200.000000	10.484417
2199.000000	10.480689
2198.000000	10.440205
2197.000000	10.469507
2196.000000	10.454183
2195.000000	10.438652
2194.000000	10.431714
2193.000000	10.428297
2192.000000	10.415872
2191.000000	10.413387
2190.000000	10.383671
2189.000000	10.372281
2188.000000	10.386984
2187.000000	10.386156
2186.000000	10.373213
2185.000000	10.344325
2184.000000	10.336767
2183.000000	10.324238
2182.000000	10.327551
2181.000000	10.309742
2180.000000	10.314402
2179.000000	10.314402
2178.000000	10.288723
2177.000000	10.281165
2176.000000	10.269154
2175.000000	10.269465
2174.000000	10.265737
2173.000000	10.253001
2172.000000	10.263770
2171.000000	10.256522
2170.000000	10.266876
2169.000000	10.272364
2168.000000	10.266255
2167.000000	10.276920
2166.000000	10.281890
2165.000000	10.291726
2164.000000	10.300423
2163.000000	10.339459
2162.000000	10.345153
2161.000000	10.357682
2160.000000	10.362445
2159.000000	10.357475
2158.000000	10.367622
2157.000000	10.400652
2156.000000	10.402930
2155.000000	10.421567
2154.000000	10.454286
2153.000000	10.464951
2152.000000	10.483485
2151.000000	10.519207
2150.000000	10.539605
2149.000000	10.543746
2148.000000	10.569010
2147.000000	10.580814
2146.000000	10.588994
2145.000000	10.610324
2144.000000	10.624302
2143.000000	10.639315
2142.000000	10.657642
2141.000000	10.667375
2140.000000	10.674623
2139.000000	10.688290
2138.000000	10.687669
2137.000000	10.673070
2136.000000	10.693571
2135.000000	10.699162
2134.000000	10.698955
2133.000000	10.699783
2132.000000	10.702476
2131.000000	10.693364
2130.000000	10.692328
2129.000000	10.688394
2128.000000	10.674209
2127.000000	10.660541
2126.000000	10.653915
2125.000000	10.634966
2124.000000	10.615086
2123.000000	10.620471
2122.000000	10.602972
2121.000000	10.572324
2120.000000	10.560727
2119.000000	10.534531
2118.000000	10.501398
2117.000000	10.470128
2116.000000	10.447867
2115.000000	10.419807
2114.000000	10.403240
2113.000000	10.361202
2112.000000	10.321857
2111.000000	10.299388
2110.000000	10.286652
2109.000000	10.275781
2108.000000	10.233225
2107.000000	10.206925
2106.000000	10.177934
2105.000000	10.142419
2104.000000	10.118604
2103.000000	10.097482
2102.000000	10.059586
2101.000000	10.019515
2100.000000	9.995390
2099.000000	9.968987
2098.000000	9.941548
2097.000000	9.924774
2096.000000	9.902617
2095.000000	9.880252
2094.000000	9.853952
2093.000000	9.843184
2092.000000	9.821958
2091.000000	9.793794
2090.000000	9.782198
2089.000000	9.763974
2088.000000	9.749893
2087.000000	9.743680
2086.000000	9.725975
2085.000000	9.701125
2084.000000	9.685593
2083.000000	9.656705
2082.000000	9.635169
2081.000000	9.632684
2080.000000	9.629163
2079.000000	9.601621
2078.000000	9.567867
2077.000000	9.539807
2076.000000	9.515992
2075.000000	9.504188
2074.000000	9.487104
2073.000000	9.470434
2072.000000	9.450140
2071.000000	9.430467
2070.000000	9.410690
2069.000000	9.388843
2068.000000	9.369067
2067.000000	9.352707
2066.000000	9.335830
2065.000000	9.318124
2064.000000	9.304871
2063.000000	9.287476
2062.000000	9.278364
2061.000000	9.262729
2060.000000	9.246784
2059.000000	9.250511
2058.000000	9.250615
2057.000000	9.234980
2056.000000	9.232185
2055.000000	9.234980
2054.000000	9.248130
2053.000000	9.283334
2052.000000	9.306942
2051.000000	9.307977
2050.000000	9.342456
2049.000000	9.387393
2048.000000	9.429121
2047.000000	9.471987
2046.000000	9.517959
2045.000000	9.572940
2044.000000	9.615185
2043.000000	9.660226
2042.000000	9.722144
2041.000000	9.787064
2040.000000	9.847325
2039.000000	9.892159
2038.000000	9.939892
2037.000000	10.008747
2036.000000	10.067973
2035.000000	10.122746
2034.000000	10.166337
2033.000000	10.199781
2032.000000	10.230843
2031.000000	10.273399
2030.000000	10.311813
2029.000000	10.348156
2028.000000	10.358717
2027.000000	10.393404
2026.000000	10.421981
2025.000000	10.443000
2024.000000	10.474063
2023.000000	10.467229
2022.000000	10.493321
2021.000000	10.524488
2020.000000	10.524591
2019.000000	10.541158
2018.000000	10.556792
2017.000000	10.559381
2016.000000	10.578329
2015.000000	10.562694
2014.000000	10.562073
2013.000000	10.575223
2012.000000	10.563419
2011.000000	10.545817
2010.000000	10.548302
2009.000000	10.534220
2008.000000	10.511234
2007.000000	10.490008
2006.000000	10.486384
2005.000000	10.458428
2004.000000	10.434303
2003.000000	10.407693
2002.000000	10.388744
2001.000000	10.359132
2000.000000	10.301977
1999.000000	10.278887
1998.000000	10.254658
1997.000000	10.208375
1996.000000	10.171618
1995.000000	10.120986
1994.000000	10.065280
1993.000000	10.019826
1992.000000	9.984518
1991.000000	9.944758
1990.000000	9.883254
1989.000000	9.842252
1988.000000	9.784993
1987.000000	9.738192
1986.000000	9.697915
1985.000000	9.648733
1984.000000	9.580395
1983.000000	9.546019
1982.000000	9.478924
1981.000000	9.425083
1980.000000	9.371552
1979.000000	9.327443
1978.000000	9.265111
1977.000000	9.205057
1976.000000	9.155978
1975.000000	9.100169
1974.000000	9.050573
1973.000000	9.026862
1972.000000	8.965565
1971.000000	8.888634
1970.000000	8.863784
1969.000000	8.814498
1968.000000	8.752476
1967.000000	8.712716
1966.000000	8.666330
1965.000000	8.628019
1964.000000	8.575731
1963.000000	8.517955
1962.000000	8.495590
1961.000000	8.432740
1960.000000	8.414516
1959.000000	8.361193
1958.000000	8.334789
1957.000000	8.301449
1956.000000	8.272975
1955.000000	8.218926
1954.000000	8.169019
1953.000000	8.128845
1952.000000	8.102131
1951.000000	8.081941
1950.000000	8.037521
1949.000000	7.996519
1948.000000	7.965456
1947.000000	7.938536
1946.000000	7.900432
1945.000000	7.899293
1944.000000	7.869577
1943.000000	7.864296
1942.000000	7.829196
1941.000000	7.817081
1940.000000	7.807452
1939.000000	7.805071
1938.000000	7.804346
1937.000000	7.776907
1936.000000	7.789125
1935.000000	7.824226
1934.000000	7.819981
1933.000000	7.827539
1932.000000	7.825675
1931.000000	7.874340
1930.000000	7.881898
1929.000000	7.924143
1928.000000	7.954792
1927.000000	7.989582
1926.000000	8.040524
1925.000000	8.089396
1924.000000	8.161564
1923.000000	8.190245
1922.000000	8.230730
1921.000000	8.318637
1920.000000	8.405819
1919.000000	8.494761
1918.000000	8.582357
1917.000000	8.649970
1916.000000	8.758275
1915.000000	8.808285
1914.000000	8.909238
1913.000000	9.026033
1912.000000	9.141482
1911.000000	9.292964
1910.000000	9.394641
1909.000000	9.502325
1908.000000	9.598101
1907.000000	9.724836
1906.000000	9.855298
1905.000000	10.043847
1904.000000	10.218418
1903.000000	10.386259
1902.000000	10.554100
1901.000000	10.722977
1900.000000	10.886262
1899.000000	11.057209
1898.000000	11.285518
1897.000000	11.473861
1896.000000	11.667483
1895.000000	11.857793
1894.000000	12.017558
1893.000000	12.217082
1892.000000	12.446116
1891.000000	12.724850
1890.000000	12.982048
1889.000000	13.233965
1888.000000	13.522328
1887.000000	13.806135
1886.000000	14.109202
1885.000000	14.444884
1884.000000	14.826538
1883.000000	15.269800
1882.000000	15.714200
1881.000000	16.165435
1880.000000	16.611181
1879.000000	17.043157
1878.000000	17.489111
1877.000000	17.943658
1876.000000	18.376566
1875.000000	18.789179
1874.000000	19.204692
1873.000000	19.606744
1872.000000	19.975041
1871.000000	20.345410
1870.000000	20.669702
1869.000000	20.977531
1868.000000	21.291987
1867.000000	21.487991
1866.000000	21.682650
1865.000000	21.845624
1864.000000	21.977226
1863.000000	22.085116
1862.000000	22.190418
1861.000000	22.309180
1860.000000	22.412618
1859.000000	22.525168
1858.000000	22.620530
1857.000000	22.705744
1856.000000	22.752545
1855.000000	22.769526
1854.000000	22.792926
1853.000000	22.813945
1852.000000	22.808872
1851.000000	22.793548
1850.000000	22.781226
1849.000000	22.748300
1848.000000	22.756998
1847.000000	22.751717
1846.000000	22.725107
1845.000000	22.679755
1844.000000	22.622704
1843.000000	22.562961
1842.000000	22.527446
1841.000000	22.530552
1840.000000	22.542666
1839.000000	22.523097
1838.000000	22.486857
1837.000000	22.454449
1836.000000	22.428667
1835.000000	22.394084
1834.000000	22.333098
1833.000000	22.248298
1832.000000	22.180581
1831.000000	22.116075
1830.000000	22.053432
1829.000000	21.996899
1828.000000	21.923177
1827.000000	21.846038
1826.000000	21.779150
1825.000000	21.719614
1824.000000	21.658835
1823.000000	21.604372
1822.000000	21.571653
1821.000000	21.540591
1820.000000	21.523713
1819.000000	21.504247
1818.000000	21.453823
1817.000000	21.418515
1816.000000	21.393872
1815.000000	21.385589
1814.000000	21.382897
1813.000000	21.361257
1812.000000	21.345518
1811.000000	21.331954
1810.000000	21.302548
1809.000000	21.265998
1808.000000	21.224271
1807.000000	21.172604
1806.000000	21.128806
1805.000000	21.087182
1804.000000	21.039449
1803.000000	20.989439
1802.000000	20.945640
1801.000000	20.902153
1800.000000	20.852142
1799.000000	20.793848
1798.000000	20.745805
1797.000000	20.686372
1796.000000	20.626732
1795.000000	20.589354
1794.000000	20.540172
1793.000000	20.489643
1792.000000	20.433938
1791.000000	20.383617
1790.000000	20.335780
1789.000000	20.270549
1788.000000	20.223127
1787.000000	20.176948
1786.000000	20.102915
1785.000000	20.029504
1784.000000	19.959614
1783.000000	19.880611
1782.000000	19.807925
1781.000000	19.739588
1780.000000	19.669490
1779.000000	19.593076
1778.000000	19.521633
1777.000000	19.441284
1776.000000	19.358762
1775.000000	19.273547
1774.000000	19.153232
1773.000000	19.055592
1772.000000	18.959298
1771.000000	18.834116
1770.000000	18.725708
1769.000000	18.617404
1768.000000	18.511895
1767.000000	18.405040
1766.000000	18.306158
1765.000000	18.223014
1764.000000	18.176834
1763.000000	18.132932
1762.000000	18.104148
1761.000000	18.115848
1760.000000	18.147532
1759.000000	18.196714
1758.000000	18.273128
1757.000000	18.350059
1756.000000	18.398103
1755.000000	18.455982
1754.000000	18.536952
1753.000000	18.577954
1752.000000	18.597213
1751.000000	18.596695
1750.000000	18.588619
1749.000000	18.570810
1748.000000	18.526391
1747.000000	18.480522
1746.000000	18.433928
1745.000000	18.352648
1744.000000	18.243929
1743.000000	18.105805
1742.000000	17.962296
1741.000000	17.790313
1740.000000	17.596794
1739.000000	17.400065
1738.000000	17.177658
1737.000000	16.987659
1736.000000	16.811949
1735.000000	16.681279
1734.000000	16.565934
1733.000000	16.529487
1732.000000	16.510228
1731.000000	16.516337
1730.000000	16.574113
1729.000000	16.663056
1728.000000	16.770325
1727.000000	16.875627
1726.000000	16.970678
1725.000000	17.057756
1724.000000	17.139865
1723.000000	17.193499
1722.000000	17.251690
1721.000000	17.271466
1720.000000	17.282338
1719.000000	17.310501
1718.000000	17.332556
1717.000000	17.360409
1716.000000	17.385673
1715.000000	17.432991
1714.000000	17.486936
1713.000000	17.549683
1712.000000	17.600107
1711.000000	17.643698
1710.000000	17.680456
1709.000000	17.701475
1708.000000	17.720733
1707.000000	17.692881
1706.000000	17.651257
1705.000000	17.624336
1704.000000	17.574636
1703.000000	17.508369
1702.000000	17.431127
1701.000000	17.330692
1700.000000	17.228911
1699.000000	17.081364
1698.000000	16.934335
1697.000000	16.784717
1696.000000	16.687906
1695.000000	16.606004
1694.000000	16.577116
1693.000000	16.600620
1692.000000	16.692358
1691.000000	16.823235
1690.000000	16.973473
1689.000000	17.113048
1688.000000	17.231499
1687.000000	17.318888
1686.000000	17.362686
1685.000000	17.384430
1684.000000	17.410730
1683.000000	17.476996
1682.000000	17.612739
1681.000000	17.879566
1680.000000	18.244033
1679.000000	18.685638
1678.000000	19.153853
1677.000000	19.662449
1676.000000	20.140915
1675.000000	20.597223
1674.000000	21.011907
1673.000000	21.316112
1672.000000	21.621250
1671.000000	21.871510
1670.000000	22.070724
1669.000000	22.286090
1668.000000	22.440885
1667.000000	22.565756
1666.000000	22.663292
1665.000000	22.784332
1664.000000	22.868098
1663.000000	22.939748
1662.000000	23.015023
1661.000000	23.073110
1660.000000	23.120946
1659.000000	23.180069
1658.000000	23.223660
1657.000000	23.240019
1656.000000	23.250891
1655.000000	23.271392
1654.000000	23.264559
1653.000000	23.241986
1652.000000	23.267561
1651.000000	23.245817
1650.000000	23.217965
1649.000000	23.169818
1648.000000	23.160085
1647.000000	23.104380
1646.000000	23.080047
1645.000000	23.028173
1644.000000	22.982718
1643.000000	22.935917
1642.000000	22.871929
1641.000000	22.802245
1640.000000	22.751303
1639.000000	22.701292
1638.000000	22.651799
1637.000000	22.577249
1636.000000	22.528171
1635.000000	22.444923
1634.000000	22.393049
1633.000000	22.327300
1632.000000	22.235355
1631.000000	22.168467
1630.000000	22.082631
1629.000000	21.999694
1628.000000	21.940675
1627.000000	21.860741
1626.000000	21.772524
1625.000000	21.696835
1624.000000	21.619489
1623.000000	21.525991
1622.000000	21.455894
1621.000000	21.388902
1620.000000	21.296543
1619.000000	21.208222
1618.000000	21.150135
1617.000000	21.080452
1616.000000	21.005695
1615.000000	20.948436
1614.000000	20.880202
1613.000000	20.802339
1612.000000	20.749740
1611.000000	20.668770
1610.000000	20.578482
1609.000000	20.532406
1608.000000	20.469660
1607.000000	20.402772
1606.000000	20.339922
