PE UV       SUBTECH     SPECTRUM    ASCII       PEDS        4.00        
   -1
CICIMAUCR0235-1.ASC
24/06/14
15:38:48.00
24/06/14
15:38:48.00
Vinicio Soto Monge
C. resplendens. Sex M. Dorsal.
250,000000
1
Lambda 1050
1050L1511233
PerkinElmer UV WinLab 6.3.2.0749 / 2.02.05 Lambda 900 UV/VIS/NIR, Aug  7 2015 09:38:08

0
0
3350/servo 860,8/2
0
0
UV/VIS
1
1
1
DoubleDePol,CommonBeamDepol,RBeamAtt,SBeamAtt,60mm sphere, WB InGaAs Detector
0
0
0
0
Program
Program
3350/servo 860,8/2
3350/0,2 860,8/0,2
3350/0,2 860,8/0,2
0
15.00
 
 
 
0
 
860,8
319,2
860,8
Front
100
on
S:100 R:100
0
0
0
0
 
0
 
 
 
0
 
 
0
0
0
0
0
 
 
 
 
0
0


0
0
#HDR
-1
-1
#GR
nm
%R
1.0
0.0
2500,000000
-1,000000
2251
8
87,301700
5,510900
#DATA
2500.000000	9.256947
2499.000000	9.322790
2498.000000	9.268114
2497.000000	9.268956
2496.000000	9.310780
2495.000000	9.181306
2494.000000	9.178040
2493.000000	9.175722
2492.000000	9.121889
2491.000000	9.233664
2490.000000	9.216492
2489.000000	9.173615
2488.000000	9.101872
2487.000000	9.056888
2486.000000	9.118096
2485.000000	9.036240
2484.000000	9.104401
2483.000000	9.056677
2482.000000	9.137691
2481.000000	9.151703
2480.000000	9.088282
2479.000000	9.096183
2478.000000	9.092285
2477.000000	9.121467
2476.000000	9.138112
2475.000000	9.064263
2474.000000	9.141589
2473.000000	9.126103
2472.000000	9.123680
2471.000000	9.102715
2470.000000	9.152651
2469.000000	9.165187
2468.000000	9.199531
2467.000000	9.259370
2466.000000	9.185836
2465.000000	9.179831
2464.000000	9.215650
2463.000000	9.262952
2462.000000	9.269483
2461.000000	9.300034
2460.000000	9.346283
2459.000000	9.383471
2458.000000	9.433512
2457.000000	9.504623
2456.000000	9.553611
2455.000000	9.561196
2454.000000	9.593222
2453.000000	9.664859
2452.000000	9.742186
2451.000000	9.787592
2450.000000	9.867868
2449.000000	9.935397
2448.000000	9.992180
2447.000000	10.042748
2446.000000	10.109539
2445.000000	10.192344
2444.000000	10.260610
2443.000000	10.320449
2442.000000	10.421057
2441.000000	10.454875
2440.000000	10.512606
2439.000000	10.603207
2438.000000	10.668313
2437.000000	10.715404
2436.000000	10.783459
2435.000000	10.840243
2434.000000	10.901556
2433.000000	10.961079
2432.000000	11.042092
2431.000000	11.102668
2430.000000	11.139646
2429.000000	11.205805
2428.000000	11.250789
2427.000000	11.309996
2426.000000	11.369097
2425.000000	11.393116
2424.000000	11.443473
2423.000000	11.484033
2422.000000	11.520168
2421.000000	11.565573
2420.000000	11.610452
2419.000000	11.654172
2418.000000	11.698314
2417.000000	11.726231
2416.000000	11.763630
2415.000000	11.798080
2414.000000	11.834741
2413.000000	11.856022
2412.000000	11.900479
2411.000000	11.932400
2410.000000	11.956314
2409.000000	12.002879
2408.000000	12.030270
2407.000000	12.049127
2406.000000	12.096850
2405.000000	12.121608
2404.000000	12.157110
2403.000000	12.189453
2402.000000	12.204518
2401.000000	12.241179
2400.000000	12.282371
2399.000000	12.311552
2398.000000	12.352849
2397.000000	12.384138
2396.000000	12.399941
2395.000000	12.435233
2394.000000	12.468523
2393.000000	12.509399
2392.000000	12.542478
2391.000000	12.561652
2390.000000	12.589886
2389.000000	12.609586
2388.000000	12.619383
2387.000000	12.644035
2386.000000	12.659943
2385.000000	12.674587
2384.000000	12.692075
2383.000000	12.689652
2382.000000	12.703242
2381.000000	12.734425
2380.000000	12.733266
2379.000000	12.723785
2378.000000	12.722415
2377.000000	12.727999
2376.000000	12.721467
2375.000000	12.701556
2374.000000	12.703663
2373.000000	12.694287
2372.000000	12.677852
2371.000000	12.665948
2370.000000	12.643614
2369.000000	12.628022
2368.000000	12.609059
2367.000000	12.591887
2366.000000	12.568289
2365.000000	12.535631
2364.000000	12.496230
2363.000000	12.454196
2362.000000	12.425119
2361.000000	12.385192
2360.000000	12.338943
2359.000000	12.297120
2358.000000	12.250977
2357.000000	12.193983
2356.000000	12.152159
2355.000000	12.122345
2354.000000	12.087474
2353.000000	12.070618
2352.000000	12.059873
2351.000000	12.066404
2350.000000	12.056818
2349.000000	12.042806
2348.000000	12.058398
2347.000000	12.093901
2346.000000	12.132564
2345.000000	12.150579
2344.000000	12.188715
2343.000000	12.228010
2342.000000	12.259194
2341.000000	12.302808
2340.000000	12.344948
2339.000000	12.371918
2338.000000	12.387931
2337.000000	12.416164
2336.000000	12.438604
2335.000000	12.441238
2334.000000	12.438604
2333.000000	12.429333
2332.000000	12.419641
2331.000000	12.417850
2330.000000	12.391618
2329.000000	12.362542
2328.000000	12.337047
2327.000000	12.292168
2326.000000	12.243918
2325.000000	12.186397
2324.000000	12.122556
2323.000000	12.062507
2322.000000	11.999297
2321.000000	11.914807
2320.000000	11.815884
2319.000000	11.740453
2318.000000	11.655647
2317.000000	11.538709
2316.000000	11.435994
2315.000000	11.337597
2314.000000	11.237305
2313.000000	11.135432
2312.000000	11.044305
2311.000000	10.954758
2310.000000	10.871742
2309.000000	10.791677
2308.000000	10.737738
2307.000000	10.700760
2306.000000	10.637340
2305.000000	10.609212
2304.000000	10.606894
2303.000000	10.622907
2302.000000	10.652721
2301.000000	10.695493
2300.000000	10.749642
2299.000000	10.805372
2298.000000	10.882277
2297.000000	10.960973
2296.000000	11.038405
2295.000000	11.149865
2294.000000	11.209282
2293.000000	11.272386
2292.000000	11.351819
2291.000000	11.427882
2290.000000	11.490354
2289.000000	11.545452
2288.000000	11.569050
2287.000000	11.600549
2286.000000	11.614139
2285.000000	11.622673
2284.000000	11.599391
2283.000000	11.584642
2282.000000	11.564098
2281.000000	11.554196
2280.000000	11.525751
2279.000000	11.480346
2278.000000	11.445791
2277.000000	11.408603
2276.000000	11.384372
2275.000000	11.348238
2274.000000	11.316738
2273.000000	11.269436
2272.000000	11.258164
2271.000000	11.229614
2270.000000	11.240360
2269.000000	11.278180
2268.000000	11.294825
2267.000000	11.363092
2266.000000	11.411131
2265.000000	11.491091
2264.000000	11.585379
2263.000000	11.719594
2262.000000	11.862237
2261.000000	12.018470
2260.000000	12.196616
2259.000000	12.377607
2258.000000	12.585040
2257.000000	12.791419
2256.000000	13.025400
2255.000000	13.231463
2254.000000	13.475242
2253.000000	13.721760
2252.000000	13.925821
2251.000000	14.122403
2250.000000	14.340266
2249.000000	14.540430
2248.000000	14.754500
2247.000000	14.915052
2246.000000	15.096885
2245.000000	15.244691
2244.000000	15.384489
2243.000000	15.533453
2242.000000	15.652709
2241.000000	15.771438
2240.000000	15.877840
2239.000000	15.951374
2238.000000	16.065573
2237.000000	16.149431
2236.000000	16.204529
2235.000000	16.253306
2234.000000	16.335478
2233.000000	16.364239
2232.000000	16.416808
2231.000000	16.446200
2230.000000	16.468008
2229.000000	16.508567
2228.000000	16.525950
2227.000000	16.519524
2226.000000	16.516785
2225.000000	16.539435
2224.000000	16.525107
2223.000000	16.492449
2222.000000	16.499929
2221.000000	16.446938
2220.000000	16.417229
2219.000000	16.388258
2218.000000	16.354230
2217.000000	16.333582
2216.000000	16.294813
2215.000000	16.262155
2214.000000	16.214748
2213.000000	16.169553
2212.000000	16.142267
2211.000000	16.096757
2210.000000	16.063361
2209.000000	16.052088
2208.000000	16.009000
2207.000000	15.986561
2206.000000	15.952112
2205.000000	15.940839
2204.000000	15.909445
2203.000000	15.860142
2202.000000	15.855401
2201.000000	15.844129
2200.000000	15.811470
2199.000000	15.797775
2198.000000	15.787977
2197.000000	15.750789
2196.000000	15.727191
2195.000000	15.724978
2194.000000	15.686421
2193.000000	15.673673
2192.000000	15.668617
2191.000000	15.651339
2190.000000	15.638381
2189.000000	15.606460
2188.000000	15.592870
2187.000000	15.585496
2186.000000	15.555155
2185.000000	15.543883
2184.000000	15.516808
2183.000000	15.517229
2182.000000	15.503323
2181.000000	15.482886
2180.000000	15.462553
2179.000000	15.461816
2178.000000	15.425154
2177.000000	15.405243
2176.000000	15.423574
2175.000000	15.429157
2174.000000	15.405138
2173.000000	15.393549
2172.000000	15.414830
2171.000000	15.415989
2170.000000	15.423152
2169.000000	15.422099
2168.000000	15.430948
2167.000000	15.450333
2166.000000	15.478566
2165.000000	15.488364
2164.000000	15.511014
2163.000000	15.531768
2162.000000	15.551468
2161.000000	15.588762
2160.000000	15.625739
2159.000000	15.661769
2158.000000	15.677255
2157.000000	15.734776
2156.000000	15.788504
2155.000000	15.828642
2154.000000	15.877735
2153.000000	15.909656
2152.000000	15.940313
2151.000000	16.013952
2150.000000	16.065046
2149.000000	16.109925
2148.000000	16.160493
2147.000000	16.201158
2146.000000	16.246458
2145.000000	16.308720
2144.000000	16.356127
2143.000000	16.394474
2142.000000	16.441144
2141.000000	16.475066
2140.000000	16.517733
2139.000000	16.548811
2138.000000	16.590635
2137.000000	16.642361
2136.000000	16.676073
2135.000000	16.707888
2134.000000	16.727378
2133.000000	16.753294
2132.000000	16.766147
2131.000000	16.792589
2130.000000	16.806179
2129.000000	16.826406
2128.000000	16.844843
2127.000000	16.847792
2126.000000	16.864964
2125.000000	16.872128
2124.000000	16.865807
2123.000000	16.870759
2122.000000	16.850531
2121.000000	16.843157
2120.000000	16.844421
2119.000000	16.845369
2118.000000	16.820823
2117.000000	16.812922
2116.000000	16.798805
2115.000000	16.773100
2114.000000	16.754558
2113.000000	16.742232
2112.000000	16.713156
2111.000000	16.683131
2110.000000	16.659322
2109.000000	16.653633
2108.000000	16.618763
2107.000000	16.584103
2106.000000	16.566404
2105.000000	16.538171
2104.000000	16.514256
2103.000000	16.480755
2102.000000	16.443145
2101.000000	16.413437
2100.000000	16.397424
2099.000000	16.388469
2098.000000	16.343063
2097.000000	16.305348
2096.000000	16.295551
2095.000000	16.273954
2094.000000	16.247828
2093.000000	16.220542
2092.000000	16.207057
2091.000000	16.206109
2090.000000	16.183354
2089.000000	16.168710
2088.000000	16.161968
2087.000000	16.140898
2086.000000	16.120039
2085.000000	16.089066
2084.000000	16.063993
2083.000000	16.050613
2082.000000	16.019219
2081.000000	15.979608
2080.000000	15.948530
2079.000000	15.913132
2078.000000	15.871941
2077.000000	15.837070
2076.000000	15.788820
2075.000000	15.732458
2074.000000	15.678625
2073.000000	15.631217
2072.000000	15.578227
2071.000000	15.515439
2070.000000	15.470138
2069.000000	15.419465
2068.000000	15.338030
2067.000000	15.271976
2066.000000	15.200128
2065.000000	15.139552
2064.000000	15.079713
2063.000000	15.019454
2062.000000	14.953821
2061.000000	14.889452
2060.000000	14.835408
2059.000000	14.788317
2058.000000	14.746177
2057.000000	14.699191
2056.000000	14.661792
2055.000000	14.636192
2054.000000	14.613016
2053.000000	14.605641
2052.000000	14.606905
2051.000000	14.616492
2050.000000	14.650204
2049.000000	14.693397
2048.000000	14.726582
2047.000000	14.778098
2046.000000	14.844574
2045.000000	14.921163
2044.000000	15.012711
2043.000000	15.109949
2042.000000	15.192753
2041.000000	15.276190
2040.000000	15.360048
2039.000000	15.451913
2038.000000	15.518704
2037.000000	15.600455
2036.000000	15.695902
2035.000000	15.754055
2034.000000	15.825166
2033.000000	15.888375
2032.000000	15.939997
2031.000000	15.994778
2030.000000	16.027226
2029.000000	16.069366
2028.000000	16.121303
2027.000000	16.165655
2026.000000	16.189253
2025.000000	16.205688
2024.000000	16.212430
2023.000000	16.235080
2022.000000	16.246247
2021.000000	16.267001
2020.000000	16.281961
2019.000000	16.274376
2018.000000	16.281329
2017.000000	16.277220
2016.000000	16.278379
2015.000000	16.269003
2014.000000	16.241507
2013.000000	16.247406
2012.000000	16.216433
2011.000000	16.196206
2010.000000	16.176506
2009.000000	16.170712
2008.000000	16.133207
2007.000000	16.072842
2006.000000	16.061464
2005.000000	16.016480
2004.000000	15.963806
2003.000000	15.926617
2002.000000	15.893432
2001.000000	15.829696
2000.000000	15.763431
1999.000000	15.711810
1998.000000	15.638592
1997.000000	15.585601
1996.000000	15.502481
1995.000000	15.443801
1994.000000	15.359311
1993.000000	15.267867
1992.000000	15.213929
1991.000000	15.125224
1990.000000	15.049689
1989.000000	14.970571
1988.000000	14.881235
1987.000000	14.779152
1986.000000	14.682230
1985.000000	14.606273
1984.000000	14.512091
1983.000000	14.428022
1982.000000	14.323094
1981.000000	14.253669
1980.000000	14.162647
1979.000000	14.063829
1978.000000	13.980708
1977.000000	13.876518
1976.000000	13.776436
1975.000000	13.700479
1974.000000	13.610932
1973.000000	13.513800
1972.000000	13.432575
1971.000000	13.325857
1970.000000	13.256747
1969.000000	13.174048
1968.000000	13.100093
1967.000000	13.008333
1966.000000	12.928900
1965.000000	12.863794
1964.000000	12.783729
1963.000000	12.706402
1962.000000	12.636661
1961.000000	12.549958
1960.000000	12.469682
1959.000000	12.388563
1958.000000	12.323352
1957.000000	12.254453
1956.000000	12.174598
1955.000000	12.114338
1954.000000	12.049232
1953.000000	11.962635
1952.000000	11.899004
1951.000000	11.847594
1950.000000	11.794287
1949.000000	11.733184
1948.000000	11.668184
1947.000000	11.602446
1946.000000	11.568312
1945.000000	11.522696
1944.000000	11.493620
1943.000000	11.473077
1942.000000	11.422930
1941.000000	11.398068
1940.000000	11.405126
1939.000000	11.362986
1938.000000	11.350029
1937.000000	11.348027
1936.000000	11.355823
1935.000000	11.363197
1934.000000	11.349923
1933.000000	11.373943
1932.000000	11.421350
1931.000000	11.470232
1930.000000	11.505630
1929.000000	11.574107
1928.000000	11.644164
1927.000000	11.699683
1926.000000	11.779117
1925.000000	11.858971
1924.000000	11.931979
1923.000000	12.012255
1922.000000	12.146997
1921.000000	12.272152
1920.000000	12.389827
1919.000000	12.529626
1918.000000	12.669108
1917.000000	12.809539
1916.000000	12.971988
1915.000000	13.121689
1914.000000	13.293514
1913.000000	13.485672
1912.000000	13.695738
1911.000000	13.907596
1910.000000	14.086690
1909.000000	14.313507
1908.000000	14.510300
1907.000000	14.729532
1906.000000	14.996487
1905.000000	15.271871
1904.000000	15.588656
1903.000000	15.885320
1902.000000	16.155331
1901.000000	16.445042
1900.000000	16.785215
1899.000000	17.117276
1898.000000	17.489476
1897.000000	17.848085
1896.000000	18.182253
1895.000000	18.536438
1894.000000	18.884723
1893.000000	19.252814
1892.000000	19.680427
1891.000000	20.148284
1890.000000	20.626254
1889.000000	21.091056
1888.000000	21.565760
1887.000000	22.029297
1886.000000	22.496417
1885.000000	22.993350
1884.000000	23.524837
1883.000000	24.086560
1882.000000	24.623316
1881.000000	25.181246
1880.000000	25.725692
1879.000000	26.218727
1878.000000	26.710498
1877.000000	27.188258
1876.000000	27.675499
1875.000000	28.144514
1874.000000	28.593408
1873.000000	29.015543
1872.000000	29.452848
1871.000000	29.816936
1870.000000	30.168171
1869.000000	30.484430
1868.000000	30.793419
1867.000000	31.024661
1866.000000	31.228512
1865.000000	31.403814
1864.000000	31.565631
1863.000000	31.720600
1862.000000	31.874726
1861.000000	32.034751
1860.000000	32.187087
1859.000000	32.344479
1858.000000	32.460152
1857.000000	32.551069
1856.000000	32.632293
1855.000000	32.706354
1854.000000	32.769669
1853.000000	32.831614
1852.000000	32.838251
1851.000000	32.878495
1850.000000	32.892296
1849.000000	32.917369
1848.000000	32.938123
1847.000000	32.963828
1846.000000	32.959298
1845.000000	32.909152
1844.000000	32.877020
1843.000000	32.863325
1842.000000	32.884078
1841.000000	32.900407
1840.000000	32.882814
1839.000000	32.863430
1838.000000	32.833511
1837.000000	32.803170
1836.000000	32.780625
1835.000000	32.739750
1834.000000	32.673063
1833.000000	32.620178
1832.000000	32.566766
1831.000000	32.533054
1830.000000	32.494075
1829.000000	32.453094
1828.000000	32.394836
1827.000000	32.320880
1826.000000	32.258935
1825.000000	32.220061
1824.000000	32.166754
1823.000000	32.118083
1822.000000	32.094485
1821.000000	32.106178
1820.000000	32.096908
1819.000000	32.058034
1818.000000	32.001566
1817.000000	31.961639
1816.000000	31.942255
1815.000000	31.931088
1814.000000	31.916971
1813.000000	31.890950
1812.000000	31.881889
1811.000000	31.861662
1810.000000	31.829320
1809.000000	31.772326
1808.000000	31.721021
1807.000000	31.700583
1806.000000	31.659602
1805.000000	31.601765
1804.000000	31.540873
1803.000000	31.501051
1802.000000	31.470500
1801.000000	31.436472
1800.000000	31.380426
1799.000000	31.310685
1798.000000	31.253796
1797.000000	31.206811
1796.000000	31.161300
1795.000000	31.110732
1794.000000	31.073649
1793.000000	31.044362
1792.000000	30.980204
1791.000000	30.927845
1790.000000	30.886232
1789.000000	30.827869
1788.000000	30.788047
1787.000000	30.751912
1786.000000	30.706190
1785.000000	30.653937
1784.000000	30.590622
1783.000000	30.538263
1782.000000	30.473895
1781.000000	30.408894
1780.000000	30.349582
1779.000000	30.300174
1778.000000	30.245708
1777.000000	30.165958
1776.000000	30.082943
1775.000000	30.002140
1774.000000	29.921969
1773.000000	29.838849
1772.000000	29.750882
1771.000000	29.658912
1770.000000	29.556934
1769.000000	29.454218
1768.000000	29.360352
1767.000000	29.262377
1766.000000	29.159240
1765.000000	29.087391
1764.000000	29.033136
1763.000000	28.995948
1762.000000	28.978671
1761.000000	28.981199
1760.000000	29.005851
1759.000000	29.050308
1758.000000	29.099085
1757.000000	29.161979
1756.000000	29.222976
1755.000000	29.295456
1754.000000	29.364882
1753.000000	29.412816
1752.000000	29.426827
1751.000000	29.457800
1750.000000	29.480345
1749.000000	29.483084
1748.000000	29.470758
1747.000000	29.425668
1746.000000	29.386689
1745.000000	29.325902
1744.000000	29.239305
1743.000000	29.141541
1742.000000	29.013963
1741.000000	28.865104
1740.000000	28.704657
1739.000000	28.525352
1738.000000	28.347417
1737.000000	28.162002
1736.000000	27.989018
1735.000000	27.831310
1734.000000	27.703522
1733.000000	27.606284
1732.000000	27.554347
1731.000000	27.547288
1730.000000	27.564250
1729.000000	27.599542
1728.000000	27.663173
1727.000000	27.720167
1726.000000	27.818247
1725.000000	27.890833
1724.000000	27.953516
1723.000000	28.016831
1722.000000	28.091839
1721.000000	28.161686
1720.000000	28.239013
1719.000000	28.309702
1718.000000	28.386186
1717.000000	28.459509
1716.000000	28.565069
1715.000000	28.679689
1714.000000	28.810112
1713.000000	28.927576
1712.000000	29.033768
1711.000000	29.101824
1710.000000	29.189475
1709.000000	29.249313
1708.000000	29.288609
1707.000000	29.331907
1706.000000	29.348763
1705.000000	29.321478
1704.000000	29.301988
1703.000000	29.296721
1702.000000	29.242676
1701.000000	29.167878
1700.000000	29.080860
1699.000000	28.974562
1698.000000	28.869634
1697.000000	28.763336
1696.000000	28.653773
1695.000000	28.583189
1694.000000	28.552638
1693.000000	28.554745
1692.000000	28.595620
1691.000000	28.660199
1690.000000	28.766497
1689.000000	28.855307
1688.000000	28.939375
1687.000000	29.000689
1686.000000	29.054206
1685.000000	29.116994
1684.000000	29.169353
1683.000000	29.278916
1682.000000	29.440733
1681.000000	29.639527
1680.000000	29.927553
1679.000000	30.300490
1678.000000	30.677430
1677.000000	31.087450
1676.000000	31.453223
1675.000000	31.808250
1674.000000	32.126089
1673.000000	32.429285
1672.000000	32.671167
1671.000000	32.901566
1670.000000	33.083083
1669.000000	33.241107
1668.000000	33.404294
1667.000000	33.522180
1666.000000	33.651970
1665.000000	33.753316
1664.000000	33.846340
1663.000000	33.936730
1662.000000	33.997411
1661.000000	34.070734
1660.000000	34.123935
1659.000000	34.196100
1658.000000	34.227389
1657.000000	34.258045
1656.000000	34.280695
1655.000000	34.284488
1654.000000	34.313459
1653.000000	34.326628
1652.000000	34.318937
1651.000000	34.305769
1650.000000	34.283856
1649.000000	34.257097
1648.000000	34.238029
1647.000000	34.214852
1646.000000	34.188304
1645.000000	34.139527
1644.000000	34.074105
1643.000000	34.051139
1642.000000	33.990036
1641.000000	33.952848
1640.000000	33.904703
1639.000000	33.848552
1638.000000	33.806202
1637.000000	33.746258
1636.000000	33.674726
1635.000000	33.625527
1634.000000	33.569692
1633.000000	33.519546
1632.000000	33.455493
1631.000000	33.392389
1630.000000	33.324123
1629.000000	33.236367
1628.000000	33.160831
1627.000000	33.083610
1626.000000	33.011024
1625.000000	32.932012
1624.000000	32.877125
1623.000000	32.794321
1622.000000	32.733429
