PE UV       SUBTECH     SPECTRUM    ASCII       PEDS        4.00        
   -1
CICIMAUCR0204-2.Sample.ASC
24/05/31
15:45:50.00
24/05/31
15:45:50.00
Vinicio Soto Monge
C. cupreomarginata. Sex M. Dorsal
250,000000
1
Lambda 1050
1050L1511233
PerkinElmer UV WinLab 6.3.2.0749 / 2.02.05 Lambda 900 UV/VIS/NIR, Aug  7 2015 09:38:08

0
0
3350/servo 860,8/2
0
0
UV/VIS
1
1
1
DoubleDePol,CommonBeamDepol,RBeamAtt,SBeamAtt,60mm sphere, WB InGaAs Detector
0
0
0
0
Program
Program
3350/servo 860,8/2
3350/0,2 860,8/0,2
3350/0,2 860,8/0,2
0
15.00
 
 
 
0
 
860,8
319,2
860,8
Front
100
on
S:100 R:100
0
0
0
0
 
0
 
 
 
0
 
 
0
0
0
0
0
 
 
 
 
0
0


0
0
#HDR
-1
-1
#GR
nm
%R
1.0
0.0
2500,000000
-1,000000
2251
8
68,788900
5,307800
#DATA
2482.000000	11.159462
2481.000000	11.134722
2480.000000	11.185969
2479.000000	11.200107
2478.000000	11.185034
2477.000000	11.215283
2476.000000	11.194285
2475.000000	11.215179
2474.000000	11.229628
2473.000000	11.215179
2472.000000	11.240127
2471.000000	11.198963
2470.000000	11.256552
2469.000000	11.294909
2468.000000	11.282851
2467.000000	11.332643
2466.000000	11.316739
2465.000000	11.322456
2464.000000	11.369857
2463.000000	11.436073
2462.000000	11.438984
2461.000000	11.479940
2460.000000	11.512685
2459.000000	11.594701
2458.000000	11.677550
2457.000000	11.740647
2456.000000	11.783371
2455.000000	11.879629
2454.000000	11.945741
2453.000000	12.055720
2452.000000	12.126614
2451.000000	12.196780
2450.000000	12.269234
2449.000000	12.385450
2448.000000	12.471313
2447.000000	12.563413
2446.000000	12.648860
2445.000000	12.752290
2444.000000	12.843246
2443.000000	12.921105
2442.000000	13.017051
2441.000000	13.112997
2440.000000	13.181084
2439.000000	13.274327
2438.000000	13.385970
2437.000000	13.471729
2436.000000	13.538049
2435.000000	13.610086
2434.000000	13.673600
2433.000000	13.732851
2432.000000	13.825055
2431.000000	13.891271
2430.000000	13.959463
2429.000000	14.025575
2428.000000	14.072768
2427.000000	14.130149
2426.000000	14.188777
2425.000000	14.239608
2424.000000	14.286490
2423.000000	14.333579
2422.000000	14.393870
2421.000000	14.428278
2420.000000	14.481396
2419.000000	14.527446
2418.000000	14.546469
2417.000000	14.584203
2416.000000	14.628902
2415.000000	14.655201
2414.000000	14.695534
2413.000000	14.754681
2412.000000	14.780461
2411.000000	14.823704
2410.000000	14.854473
2409.000000	14.878798
2408.000000	14.911646
2407.000000	14.949068
2406.000000	14.986594
2405.000000	15.008527
2404.000000	15.046885
2403.000000	15.087841
2402.000000	15.116012
2401.000000	15.137010
2400.000000	15.182332
2399.000000	15.227966
2398.000000	15.266844
2397.000000	15.292311
2396.000000	15.316947
2395.000000	15.357176
2394.000000	15.382540
2393.000000	15.406968
2392.000000	15.436074
2391.000000	15.467363
2390.000000	15.485970
2389.000000	15.512478
2388.000000	15.533372
2387.000000	15.549380
2386.000000	15.561542
2385.000000	15.571313
2384.000000	15.571729
2383.000000	15.572353
2382.000000	15.582332
2381.000000	15.579214
2380.000000	15.576095
2379.000000	15.564141
2378.000000	15.548237
2377.000000	15.537322
2376.000000	15.520066
2375.000000	15.501979
2374.000000	15.485762
2373.000000	15.468091
2372.000000	15.448236
2371.000000	15.421625
2370.000000	15.385451
2369.000000	15.353018
2368.000000	15.334515
2367.000000	15.290752
2366.000000	15.233787
2365.000000	15.187841
2364.000000	15.132124
2363.000000	15.064661
2362.000000	14.999796
2361.000000	14.938569
2360.000000	14.875263
2359.000000	14.814349
2358.000000	14.759879
2357.000000	14.713517
2356.000000	14.666739
2355.000000	14.621833
2354.000000	14.594390
2353.000000	14.572457
2352.000000	14.565908
2351.000000	14.568195
2350.000000	14.571001
2349.000000	14.577758
2348.000000	14.607176
2347.000000	14.640544
2346.000000	14.681292
2345.000000	14.733475
2344.000000	14.771001
2343.000000	14.809983
2342.000000	14.855825
2341.000000	14.893351
2340.000000	14.924016
2339.000000	14.957904
2338.000000	14.978902
2337.000000	14.996989
2336.000000	15.012062
2335.000000	14.991999
2334.000000	14.972977
2333.000000	14.969962
2332.000000	14.943870
2331.000000	14.903746
2330.000000	14.846469
2329.000000	14.787322
2328.000000	14.733787
2327.000000	14.665284
2326.000000	14.584827
2325.000000	14.502394
2324.000000	14.412581
2323.000000	14.315076
2322.000000	14.200211
2321.000000	14.092207
2320.000000	13.979317
2319.000000	13.842623
2318.000000	13.705720
2317.000000	13.590232
2316.000000	13.427030
2315.000000	13.281812
2314.000000	13.165907
2313.000000	13.039088
2312.000000	12.902706
2311.000000	12.793662
2310.000000	12.677238
2309.000000	12.576718
2308.000000	12.513309
2307.000000	12.463932
2306.000000	12.447820
2305.000000	12.443766
2304.000000	12.446884
2303.000000	12.458631
2302.000000	12.501978
2301.000000	12.576718
2300.000000	12.660086
2299.000000	12.736386
2298.000000	12.838672
2297.000000	12.953433
2296.000000	13.062165
2295.000000	13.160710
2294.000000	13.259567
2293.000000	13.325263
2292.000000	13.416635
2291.000000	13.466219
2290.000000	13.486282
2289.000000	13.518194
2288.000000	13.563205
2287.000000	13.560086
2286.000000	13.537529
2285.000000	13.515804
2284.000000	13.495014
2283.000000	13.454889
2282.000000	13.404161
2281.000000	13.342727
2280.000000	13.279733
2279.000000	13.213413
2278.000000	13.130460
2277.000000	13.081084
2276.000000	13.040648
2275.000000	12.972872
2274.000000	12.941687
2273.000000	12.906240
2272.000000	12.873392
2271.000000	12.868818
2270.000000	12.886282
2269.000000	12.911645
2268.000000	12.945741
2267.000000	13.030980
2266.000000	13.111853
2265.000000	13.236594
2264.000000	13.398652
2263.000000	13.558319
2262.000000	13.734930
2261.000000	13.959151
2260.000000	14.176199
2259.000000	14.415180
2258.000000	14.674640
2257.000000	14.952290
2256.000000	15.228486
2255.000000	15.508424
2254.000000	15.775887
2253.000000	16.018715
2252.000000	16.284515
2251.000000	16.534100
2250.000000	16.764973
2249.000000	16.978590
2248.000000	17.199900
2247.000000	17.414349
2246.000000	17.586283
2245.000000	17.740233
2244.000000	17.878175
2243.000000	18.031709
2242.000000	18.176719
2241.000000	18.312894
2240.000000	18.393871
2239.000000	18.513310
2238.000000	18.603747
2237.000000	18.687842
2236.000000	18.772769
2235.000000	18.835867
2234.000000	18.879422
2233.000000	18.941688
2232.000000	18.982957
2231.000000	19.021314
2230.000000	19.063518
2229.000000	19.091896
2228.000000	19.089817
2227.000000	19.097926
2226.000000	19.107489
2225.000000	19.115181
2224.000000	19.077759
2223.000000	19.049381
2222.000000	19.029214
2221.000000	19.018819
2220.000000	19.008944
2219.000000	18.951148
2218.000000	18.930670
2217.000000	18.903955
2216.000000	18.847510
2215.000000	18.811855
2214.000000	18.764453
2213.000000	18.753539
2212.000000	18.712374
2211.000000	18.667988
2210.000000	18.629942
2209.000000	18.609984
2208.000000	18.570483
2207.000000	18.556969
2206.000000	18.509464
2205.000000	18.498341
2204.000000	18.479942
2203.000000	18.471730
2202.000000	18.449173
2201.000000	18.430774
2200.000000	18.409984
2199.000000	18.412894
2198.000000	18.374537
2197.000000	18.369131
2196.000000	18.340233
2195.000000	18.316117
2194.000000	18.321730
2193.000000	18.311647
2192.000000	18.278591
2191.000000	18.276719
2190.000000	18.260399
2189.000000	18.251252
2188.000000	18.238154
2187.000000	18.228591
2186.000000	18.215805
2185.000000	18.187530
2184.000000	18.158008
2183.000000	18.166636
2182.000000	18.148757
2181.000000	18.144703
2180.000000	18.115493
2179.000000	18.113934
2178.000000	18.090857
2177.000000	18.083892
2176.000000	18.083892
2175.000000	18.073809
2174.000000	18.073601
2173.000000	18.066844
2172.000000	18.065077
2171.000000	18.078591
2170.000000	18.077655
2169.000000	18.096366
2168.000000	18.122561
2167.000000	18.126512
2166.000000	18.155722
2165.000000	18.171522
2164.000000	18.196886
2163.000000	18.215285
2162.000000	18.250108
2161.000000	18.291273
2160.000000	18.318092
2159.000000	18.338778
2158.000000	18.377239
2157.000000	18.444183
2156.000000	18.471314
2155.000000	18.534308
2154.000000	18.583684
2153.000000	18.632645
2152.000000	18.664350
2151.000000	18.716013
2150.000000	18.766948
2149.000000	18.813830
2148.000000	18.860296
2147.000000	18.913622
2146.000000	18.971002
2145.000000	19.022458
2144.000000	19.055930
2143.000000	19.095639
2142.000000	19.150420
2141.000000	19.206969
2140.000000	19.245223
2139.000000	19.266741
2138.000000	19.309672
2137.000000	19.339090
2136.000000	19.367364
2135.000000	19.397510
2134.000000	19.422146
2133.000000	19.444287
2132.000000	19.464558
2131.000000	19.492936
2130.000000	19.522458
2129.000000	19.527551
2128.000000	19.534620
2127.000000	19.537323
2126.000000	19.546366
2125.000000	19.543560
2124.000000	19.516221
2123.000000	19.522666
2122.000000	19.523497
2121.000000	19.502188
2120.000000	19.475264
2119.000000	19.462790
2118.000000	19.438362
2117.000000	19.418300
2116.000000	19.395951
2115.000000	19.372562
2114.000000	19.345119
2113.000000	19.310607
2112.000000	19.293352
2111.000000	19.273081
2110.000000	19.232437
2109.000000	19.197406
2108.000000	19.169339
2107.000000	19.131501
2106.000000	19.101980
2105.000000	19.063934
2104.000000	19.026200
2103.000000	18.994079
2102.000000	18.960503
2101.000000	18.930046
2100.000000	18.884204
2099.000000	18.835555
2098.000000	18.804578
2097.000000	18.776616
2096.000000	18.751772
2095.000000	18.718300
2094.000000	18.696158
2093.000000	18.662271
2092.000000	18.625264
2091.000000	18.603123
2090.000000	18.572042
2089.000000	18.533372
2088.000000	18.518715
2087.000000	18.503435
2086.000000	18.459568
2085.000000	18.421730
2084.000000	18.391065
2083.000000	18.359256
2082.000000	18.319443
2081.000000	18.261335
2080.000000	18.222561
2079.000000	18.194079
2078.000000	18.150108
2077.000000	18.104266
2076.000000	18.053850
2075.000000	17.983892
2074.000000	17.934204
2073.000000	17.883996
2072.000000	17.819235
2071.000000	17.759568
2070.000000	17.708216
2069.000000	17.655721
2068.000000	17.592000
2067.000000	17.530877
2066.000000	17.469339
2065.000000	17.410919
2064.000000	17.343247
2063.000000	17.279006
2062.000000	17.241688
2061.000000	17.196470
2060.000000	17.146678
2059.000000	17.105202
2058.000000	17.085555
2057.000000	17.055305
2056.000000	17.026719
2055.000000	17.022977
2054.000000	17.037530
2053.000000	17.039401
2052.000000	17.050004
2051.000000	17.087010
2050.000000	17.127759
2049.000000	17.175784
2048.000000	17.246886
2047.000000	17.322665
2046.000000	17.387010
2045.000000	17.465701
2044.000000	17.555721
2043.000000	17.643559
2042.000000	17.744183
2041.000000	17.822977
2040.000000	17.896262
2039.000000	17.973913
2038.000000	18.067676
2037.000000	18.132853
2036.000000	18.192728
2035.000000	18.266117
2034.000000	18.348029
2033.000000	18.406969
2032.000000	18.451772
2031.000000	18.502603
2030.000000	18.540337
2029.000000	18.599900
2028.000000	18.640649
2027.000000	18.664765
2026.000000	18.694287
2025.000000	18.721522
2024.000000	18.749485
2023.000000	18.762998
2022.000000	18.779214
2021.000000	18.800524
2020.000000	18.808528
2019.000000	18.830150
2018.000000	18.835140
2017.000000	18.844183
2016.000000	18.827239
2015.000000	18.830046
2014.000000	18.816429
2013.000000	18.811127
2012.000000	18.798653
2011.000000	18.779422
2010.000000	18.746574
2009.000000	18.725576
2008.000000	18.683996
2007.000000	18.638986
2006.000000	18.615493
2005.000000	18.573913
2004.000000	18.521938
2003.000000	18.460191
2002.000000	18.405929
2001.000000	18.358112
2000.000000	18.283268
1999.000000	18.212478
1998.000000	18.147925
1997.000000	18.071106
1996.000000	17.989713
1995.000000	17.938778
1994.000000	17.844183
1993.000000	17.755929
1992.000000	17.682852
1991.000000	17.593351
1990.000000	17.521210
1989.000000	17.437322
1988.000000	17.350004
1987.000000	17.245014
1986.000000	17.126096
1985.000000	17.054994
1984.000000	16.959775
1983.000000	16.851147
1982.000000	16.757696
1981.000000	16.675784
1980.000000	16.579422
1979.000000	16.467779
1978.000000	16.371106
1977.000000	16.280565
1976.000000	16.175991
1975.000000	16.092311
1974.000000	15.993247
1973.000000	15.902499
1972.000000	15.826719
1971.000000	15.727550
1970.000000	15.638569
1969.000000	15.546885
1968.000000	15.454266
1967.000000	15.384099
1966.000000	15.280669
1965.000000	15.221105
1964.000000	15.126823
1963.000000	15.024744
1962.000000	14.955825
1961.000000	14.901667
1960.000000	14.806760
1959.000000	14.713933
1958.000000	14.624640
1957.000000	14.578382
1956.000000	14.507800
1955.000000	14.433683
1954.000000	14.341895
1953.000000	14.284203
1952.000000	14.207280
1951.000000	14.133475
1950.000000	14.089712
1949.000000	14.017883
1948.000000	13.953226
1947.000000	13.911958
1946.000000	13.844494
1945.000000	13.802082
1944.000000	13.761126
1943.000000	13.731188
1942.000000	13.718195
1941.000000	13.683059
1940.000000	13.648652
1939.000000	13.641583
1938.000000	13.647716
1937.000000	13.663933
1936.000000	13.671209
1935.000000	13.685450
1934.000000	13.717155
1933.000000	13.702186
1932.000000	13.750731
1931.000000	13.797508
1930.000000	13.871313
1929.000000	13.951978
1928.000000	14.020378
1927.000000	14.104785
1926.000000	14.216531
1925.000000	14.327654
1924.000000	14.412062
1923.000000	14.502186
1922.000000	14.646365
1921.000000	14.801147
1920.000000	14.945430
1919.000000	15.138257
1918.000000	15.282956
1917.000000	15.443767
1916.000000	15.598444
1915.000000	15.750731
1914.000000	15.929422
1913.000000	16.168507
1912.000000	16.400004
1911.000000	16.646989
1910.000000	16.826823
1909.000000	17.029734
1908.000000	17.206657
1907.000000	17.443351
1906.000000	17.687218
1905.000000	17.993247
1904.000000	18.332021
1903.000000	18.621106
1902.000000	18.891584
1901.000000	19.162479
1900.000000	19.474537
1899.000000	19.804786
1898.000000	20.175992
1897.000000	20.482333
1896.000000	20.785036
1895.000000	21.055099
1894.000000	21.344911
1893.000000	21.655618
1892.000000	22.004891
1891.000000	22.422978
1890.000000	22.836284
1889.000000	23.200317
1888.000000	23.580255
1887.000000	23.978904
1886.000000	24.376201
1885.000000	24.803540
1884.000000	25.260921
1883.000000	25.780463
1882.000000	26.291274
1881.000000	26.745017
1880.000000	27.230880
1879.000000	27.635246
1878.000000	28.080048
1877.000000	28.541067
1876.000000	28.962585
1875.000000	29.383375
1874.000000	29.776202
1873.000000	30.164664
1872.000000	30.556140
1871.000000	30.896993
1870.000000	31.222253
1869.000000	31.479321
1868.000000	31.759051
1867.000000	31.942731
1866.000000	32.095018
1865.000000	32.217575
1864.000000	32.332648
1863.000000	32.433895
1862.000000	32.531505
1861.000000	32.657596
1860.000000	32.782856
1859.000000	32.916432
1858.000000	33.011546
1857.000000	33.084519
1856.000000	33.136806
1855.000000	33.154166
1854.000000	33.198033
1853.000000	33.227139
1852.000000	33.227659
1851.000000	33.215808
1850.000000	33.218407
1849.000000	33.250424
1848.000000	33.271110
1847.000000	33.269654
1846.000000	33.265289
1845.000000	33.195434
1844.000000	33.150735
1843.000000	33.103958
1842.000000	33.124332
1841.000000	33.162898
1840.000000	33.144498
1839.000000	33.127866
1838.000000	33.106765
1837.000000	33.082440
1836.000000	33.047409
1835.000000	33.002503
1834.000000	32.947513
1833.000000	32.882440
1832.000000	32.816120
1831.000000	32.766744
1830.000000	32.717679
1829.000000	32.675995
1828.000000	32.627243
1827.000000	32.567263
1826.000000	32.508324
1825.000000	32.431401
1824.000000	32.377658
1823.000000	32.335974
1822.000000	32.318823
1821.000000	32.332648
1820.000000	32.323396
1819.000000	32.295746
1818.000000	32.262378
1817.000000	32.226827
1816.000000	32.201879
1815.000000	32.196681
1814.000000	32.169758
1813.000000	32.156141
1812.000000	32.153438
1811.000000	32.138157
1810.000000	32.110403
1809.000000	32.065080
1808.000000	32.018303
1807.000000	31.981816
1806.000000	31.960403
1805.000000	31.912585
1804.000000	31.855517
1803.000000	31.823708
1802.000000	31.790028
1801.000000	31.747305
1800.000000	31.692523
1799.000000	31.639405
1798.000000	31.587949
1797.000000	31.539924
1796.000000	31.505205
1795.000000	31.463001
1794.000000	31.412897
1793.000000	31.362274
1792.000000	31.323708
1791.000000	31.284831
1790.000000	31.227034
1789.000000	31.173292
1788.000000	31.126203
1787.000000	31.077658
1786.000000	31.020070
1785.000000	30.955517
1784.000000	30.904165
1783.000000	30.848864
1782.000000	30.778074
1781.000000	30.704581
1780.000000	30.650943
1779.000000	30.586702
1778.000000	30.516327
1777.000000	30.452294
1776.000000	30.375579
1775.000000	30.288053
1774.000000	30.199903
1773.000000	30.093978
1772.000000	29.995537
1771.000000	29.906140
1770.000000	29.802294
1769.000000	29.684311
1768.000000	29.586597
1767.000000	29.490755
1766.000000	29.399071
1765.000000	29.330360
1764.000000	29.277346
1763.000000	29.250007
1762.000000	29.227138
1761.000000	29.228593
1760.000000	29.254789
1759.000000	29.285662
1758.000000	29.334518
1757.000000	29.392419
1756.000000	29.451670
1755.000000	29.502086
1754.000000	29.534518
1753.000000	29.565392
1752.000000	29.576826
1751.000000	29.578593
1750.000000	29.571109
1749.000000	29.548032
1748.000000	29.513105
1747.000000	29.451254
1746.000000	29.392626
1745.000000	29.311234
1744.000000	29.217782
1743.000000	29.093146
1742.000000	28.945537
1741.000000	28.779321
1740.000000	28.600942
1739.000000	28.423395
1738.000000	28.238468
1737.000000	28.038364
1736.000000	27.889300
1735.000000	27.776410
1734.000000	27.692626
1733.000000	27.628697
1732.000000	27.623499
1731.000000	27.632127
1730.000000	27.668718
1729.000000	27.746056
1728.000000	27.818094
1727.000000	27.891171
1726.000000	27.977553
1725.000000	28.071005
1724.000000	28.151150
1723.000000	28.202917
1722.000000	28.240339
1721.000000	28.295017
1720.000000	28.349591
1719.000000	28.402190
1718.000000	28.460818
1717.000000	28.550630
1716.000000	28.610610
1715.000000	28.685246
1714.000000	28.772668
1713.000000	28.864872
1712.000000	28.947720
1711.000000	29.012897
1710.000000	29.079217
1709.000000	29.098552
1708.000000	29.138780
1707.000000	29.141483
1706.000000	29.133895
1705.000000	29.119653
1704.000000	29.076930
1703.000000	29.055724
1702.000000	28.978905
1701.000000	28.905308
1700.000000	28.792418
1699.000000	28.664040
1698.000000	28.562377
1697.000000	28.429736
1696.000000	28.341483
1695.000000	28.286805
1694.000000	28.308219
1693.000000	28.320277
1692.000000	28.402502
1691.000000	28.540443
1690.000000	28.676098
1689.000000	28.823915
1688.000000	28.918822
1687.000000	28.991275
1686.000000	29.063728
1685.000000	29.107179
1684.000000	29.197720
1683.000000	29.310610
1682.000000	29.523084
1681.000000	29.808323
1680.000000	30.186702
1679.000000	30.618198
1678.000000	31.068303
1677.000000	31.529010
1676.000000	31.955101
1675.000000	32.328802
1674.000000	32.684623
1673.000000	32.989301
1672.000000	33.257908
1671.000000	33.502399
1670.000000	33.703230
1669.000000	33.893251
1668.000000	34.069239
1667.000000	34.203023
1666.000000	34.328075
1665.000000	34.441796
1664.000000	34.551775
1663.000000	34.648761
1662.000000	34.734728
1661.000000	34.806349
1660.000000	34.855206
1659.000000	34.937742
1658.000000	34.987638
1657.000000	35.041692
1656.000000	35.085351
1655.000000	35.095538
1654.000000	35.120694
1653.000000	35.126412
1652.000000	35.150216
1651.000000	35.147202
1650.000000	35.131817
1649.000000	35.122358
1648.000000	35.128387
1647.000000	35.097825
1646.000000	35.057285
1645.000000	35.022046
1644.000000	34.992212
1643.000000	34.976100
1642.000000	34.948761
1641.000000	34.908948
1640.000000	34.868199
1639.000000	34.828906
1638.000000	34.788470
1637.000000	34.757285
1636.000000	34.704270
1635.000000	34.666224
1634.000000	34.606037
1633.000000	34.570798
1632.000000	34.511443
1631.000000	34.468719
1630.000000	34.401775
1629.000000	34.352399
1628.000000	34.280362
1627.000000	34.209468
1626.000000	34.155829
1625.000000	34.082233
1624.000000	34.026931
1623.000000	33.982648
1622.000000	33.918927
1621.000000	33.857077
1620.000000	33.785455
1619.000000	33.734831
1618.000000	33.676515
1617.000000	33.626723
1616.000000	33.576411
1615.000000	33.510403
1614.000000	33.454166
1613.000000	33.400943
1612.000000	33.333064
1611.000000	33.303854
1610.000000	33.219966
1609.000000	33.185559
1608.000000	33.126515
1607.000000	33.070174
