PE UV       SUBTECH     SPECTRUM    ASCII       PEDS        4.00        
   -1
CICIMAUCR0233-1.Sample.ASC
24/06/13
16:07:02.00
24/06/13
16:07:02.00
Vinicio Soto Monge
C. resplendens. Sex F. Dorsal.
250,000000
1
Lambda 1050
1050L1511233
PerkinElmer UV WinLab 6.3.2.0749 / 2.02.05 Lambda 900 UV/VIS/NIR, Aug  7 2015 09:38:08

0
0
3350/servo 860,8/2
0
0
UV/VIS
1
1
1
DoubleDePol,CommonBeamDepol,RBeamAtt,SBeamAtt,60mm sphere, WB InGaAs Detector
0
0
0
0
Program
Program
3350/servo 860,8/2
3350/0,2 860,8/0,2
3350/0,2 860,8/0,2
0
15.00
 
 
 
0
 
860,8
319,2
860,8
Front
100
on
S:100 R:100
0
0
0
0
 
0
 
 
 
0
 
 
0
0
0
0
0
 
 
 
 
0
0


0
0
#HDR
-1
-1
#GR
nm
%R
1.0
0.0
2500,000000
-1,000000
2251
8
93,098000
5,375400
#DATA
2482.000000	6.466960
2481.000000	6.524201
2480.000000	6.503703
2479.000000	6.517114
2478.000000	6.460964
2477.000000	6.462381
2476.000000	6.513407
2475.000000	6.461400
2474.000000	6.500214
2473.000000	6.469032
2472.000000	6.455948
2471.000000	6.488112
2470.000000	6.534013
2469.000000	6.534340
2468.000000	6.509046
2467.000000	6.546006
2466.000000	6.567594
2465.000000	6.558436
2464.000000	6.578824
2463.000000	6.553966
2462.000000	6.574899
2461.000000	6.575117
2460.000000	6.571955
2459.000000	6.635847
2458.000000	6.650784
2457.000000	6.663976
2456.000000	6.659615
2455.000000	6.684474
2454.000000	6.716201
2453.000000	6.745094
2452.000000	6.754797
2451.000000	6.805823
2450.000000	6.810402
2449.000000	6.815854
2448.000000	6.873312
2447.000000	6.878109
2446.000000	6.926300
2445.000000	6.956611
2444.000000	6.982996
2443.000000	6.984958
2442.000000	7.029987
2441.000000	7.039800
2440.000000	7.070982
2439.000000	7.115030
2438.000000	7.149374
2437.000000	7.149592
2436.000000	7.178921
2435.000000	7.214029
2434.000000	7.240632
2433.000000	7.280863
2432.000000	7.283807
2431.000000	7.319024
2430.000000	7.379753
2429.000000	7.391746
2428.000000	7.400905
2427.000000	7.426199
2426.000000	7.449096
2425.000000	7.477116
2424.000000	7.493143
2423.000000	7.498377
2422.000000	7.518983
2421.000000	7.551365
2420.000000	7.576660
2419.000000	7.601518
2418.000000	7.607842
2417.000000	7.631611
2416.000000	7.646548
2415.000000	7.644367
2414.000000	7.674459
2413.000000	7.683072
2412.000000	7.713819
2411.000000	7.734752
2410.000000	7.743802
2409.000000	7.768442
2408.000000	7.787958
2407.000000	7.793083
2406.000000	7.802459
2405.000000	7.826882
2404.000000	7.838112
2403.000000	7.851959
2402.000000	7.861335
2401.000000	7.884340
2400.000000	7.903857
2399.000000	7.915414
2398.000000	7.936565
2397.000000	7.957935
2396.000000	7.968402
2395.000000	7.968511
2394.000000	7.982358
2393.000000	7.995332
2392.000000	8.011577
2391.000000	8.039380
2390.000000	8.043632
2389.000000	8.051918
2388.000000	8.073288
2387.000000	8.085172
2386.000000	8.081356
2385.000000	8.078412
2384.000000	8.098256
2383.000000	8.102181
2382.000000	8.103489
2381.000000	8.115155
2380.000000	8.121806
2379.000000	8.129547
2378.000000	8.130092
2377.000000	8.145574
2376.000000	8.147428
2375.000000	8.130637
2374.000000	8.127912
2373.000000	8.127257
2372.000000	8.128021
2371.000000	8.121806
2370.000000	8.129656
2369.000000	8.129983
2368.000000	8.127476
2367.000000	8.116900
2366.000000	8.107087
2365.000000	8.084845
2364.000000	8.057806
2363.000000	8.048974
2362.000000	8.060859
2361.000000	8.047884
2360.000000	8.022916
2359.000000	8.025424
2358.000000	8.001220
2357.000000	7.979523
2356.000000	7.965022
2355.000000	7.951938
2354.000000	7.955427
2353.000000	7.944634
2352.000000	7.928497
2351.000000	7.937110
2350.000000	7.943979
2349.000000	7.948559
2348.000000	7.966875
2347.000000	7.983012
2346.000000	7.987482
2345.000000	8.004927
2344.000000	8.036000
2343.000000	8.055952
2342.000000	8.063802
2341.000000	8.090842
2340.000000	8.098910
2339.000000	8.121915
2338.000000	8.138160
2337.000000	8.156695
2336.000000	8.159312
2335.000000	8.164000
2334.000000	8.162692
2333.000000	8.178610
2332.000000	8.178610
2331.000000	8.188096
2330.000000	8.181881
2329.000000	8.166181
2328.000000	8.158549
2327.000000	8.124641
2326.000000	8.101963
2325.000000	8.090188
2324.000000	8.070889
2323.000000	8.034692
2322.000000	7.999148
2321.000000	7.973090
2320.000000	7.934167
2319.000000	7.913560
2318.000000	7.856211
2317.000000	7.799625
2316.000000	7.777274
2315.000000	7.743038
2314.000000	7.691795
2313.000000	7.646766
2312.000000	7.611440
2311.000000	7.570663
2310.000000	7.527270
2309.000000	7.503937
2308.000000	7.465232
2307.000000	7.441027
2306.000000	7.433504
2305.000000	7.426199
2304.000000	7.398288
2303.000000	7.401559
2302.000000	7.417368
2301.000000	7.437211
2300.000000	7.467522
2299.000000	7.491290
2298.000000	7.520292
2297.000000	7.569355
2296.000000	7.606316
2295.000000	7.649164
2294.000000	7.682963
2293.000000	7.722759
2292.000000	7.761573
2291.000000	7.790357
2290.000000	7.820013
2289.000000	7.842691
2288.000000	7.856211
2287.000000	7.865914
2286.000000	7.889901
2285.000000	7.888265
2284.000000	7.882378
2283.000000	7.861444
2282.000000	7.866351
2281.000000	7.836586
2280.000000	7.820122
2279.000000	7.810419
2278.000000	7.774984
2277.000000	7.733553
2276.000000	7.709130
2275.000000	7.691359
2274.000000	7.682418
2273.000000	7.647093
2272.000000	7.632810
2271.000000	7.616892
2270.000000	7.624633
2269.000000	7.613948
2268.000000	7.624633
2267.000000	7.633791
2266.000000	7.648074
2265.000000	7.688633
2264.000000	7.756449
2263.000000	7.819032
2262.000000	7.877362
2261.000000	7.948777
2260.000000	8.035455
2259.000000	8.149063
2258.000000	8.240866
2257.000000	8.347388
2256.000000	8.454018
2255.000000	8.567190
2254.000000	8.688867
2253.000000	8.808581
2252.000000	8.941270
2251.000000	9.056514
2250.000000	9.149516
2249.000000	9.253748
2248.000000	9.376187
2247.000000	9.490232
2246.000000	9.554232
2245.000000	9.641456
2244.000000	9.736093
2243.000000	9.786901
2242.000000	9.864856
2241.000000	9.948264
2240.000000	9.996237
2239.000000	10.057620
2238.000000	10.111481
2237.000000	10.155965
2236.000000	10.212333
2235.000000	10.215385
2234.000000	10.271426
2233.000000	10.303481
2232.000000	10.290507
2231.000000	10.331065
2230.000000	10.355270
2229.000000	10.380129
2228.000000	10.369444
2227.000000	10.389723
2226.000000	10.415999
2225.000000	10.426139
2224.000000	10.421669
2223.000000	10.426793
2222.000000	10.392231
2221.000000	10.368462
2220.000000	10.405423
2219.000000	10.397028
2218.000000	10.359958
2217.000000	10.327468
2216.000000	10.334009
2215.000000	10.293014
2214.000000	10.307406
2213.000000	10.270881
2212.000000	10.275352
2211.000000	10.254091
2210.000000	10.254309
2209.000000	10.222799
2208.000000	10.203828
2207.000000	10.190309
2206.000000	10.185402
2205.000000	10.196305
2204.000000	10.174063
2203.000000	10.157818
2202.000000	10.146479
2201.000000	10.140046
2200.000000	10.127726
2199.000000	10.112026
2198.000000	10.097307
2197.000000	10.105920
2196.000000	10.094145
2195.000000	10.075501
2194.000000	10.048135
2193.000000	10.055658
2192.000000	10.034615
2191.000000	10.017388
2190.000000	10.042247
2189.000000	9.998635
2188.000000	10.022949
2187.000000	10.002669
2186.000000	9.978356
2185.000000	9.984352
2184.000000	9.977702
2183.000000	9.959276
2182.000000	9.949899
2181.000000	9.941613
2180.000000	9.935289
2179.000000	9.936489
2178.000000	9.919698
2177.000000	9.905851
2176.000000	9.899855
2175.000000	9.895276
2174.000000	9.909995
2173.000000	9.888189
2172.000000	9.890369
2171.000000	9.896148
2170.000000	9.901599
2169.000000	9.895494
2168.000000	9.881320
2167.000000	9.885354
2166.000000	9.915228
2165.000000	9.908686
2164.000000	9.917190
2163.000000	9.914247
2162.000000	9.925913
2161.000000	9.962220
2160.000000	9.971596
2159.000000	9.979882
2158.000000	9.975521
2157.000000	10.019787
2156.000000	10.042247
2155.000000	10.038867
2154.000000	10.064925
2153.000000	10.078990
2152.000000	10.096435
2151.000000	10.111699
2150.000000	10.137211
2149.000000	10.163378
2148.000000	10.172537
2147.000000	10.189873
2146.000000	10.211897
2145.000000	10.224544
2144.000000	10.253001
2143.000000	10.258779
2142.000000	10.267065
2141.000000	10.291706
2140.000000	10.299556
2139.000000	10.313185
2138.000000	10.319181
2137.000000	10.346002
2136.000000	10.346657
2135.000000	10.352326
2134.000000	10.348074
2133.000000	10.366718
2132.000000	10.366173
2131.000000	10.378711
2130.000000	10.391577
2129.000000	10.396156
2128.000000	10.372388
2127.000000	10.370643
2126.000000	10.379038
2125.000000	10.352217
2124.000000	10.349491
2123.000000	10.348401
2122.000000	10.340006
2121.000000	10.319181
2120.000000	10.306098
2119.000000	10.294323
2118.000000	10.292469
2117.000000	10.263794
2116.000000	10.249294
2115.000000	10.243406
2114.000000	10.213532
2113.000000	10.194343
2112.000000	10.175808
2111.000000	10.161416
2110.000000	10.139828
2109.000000	10.114970
2108.000000	10.096107
2107.000000	10.081934
2106.000000	10.044428
2105.000000	10.031126
2104.000000	10.003433
2103.000000	9.966254
2102.000000	9.946628
2101.000000	9.928639
2100.000000	9.905197
2099.000000	9.876959
2098.000000	9.862349
2097.000000	9.858969
2096.000000	9.845558
2095.000000	9.810669
2094.000000	9.785919
2093.000000	9.773272
2092.000000	9.760188
2091.000000	9.739255
2090.000000	9.719520
2089.000000	9.704256
2088.000000	9.683323
2087.000000	9.675473
2086.000000	9.663916
2085.000000	9.641565
2084.000000	9.630771
2083.000000	9.613435
2082.000000	9.592065
2081.000000	9.560774
2080.000000	9.534825
2079.000000	9.511929
2078.000000	9.482491
2077.000000	9.461339
2076.000000	9.432992
2075.000000	9.401591
2074.000000	9.372044
2073.000000	9.345114
2072.000000	9.326797
2071.000000	9.302593
2070.000000	9.266395
2069.000000	9.236412
2068.000000	9.217550
2067.000000	9.188548
2066.000000	9.159437
2065.000000	9.125311
2064.000000	9.091076
2063.000000	9.058912
2062.000000	9.031873
2061.000000	8.997093
2060.000000	8.975614
2059.000000	8.961985
2058.000000	8.949447
2057.000000	8.924370
2056.000000	8.909869
2055.000000	8.900057
2054.000000	8.896132
2053.000000	8.896786
2052.000000	8.891225
2051.000000	8.885011
2050.000000	8.906817
2049.000000	8.901365
2048.000000	8.907471
2047.000000	8.938435
2046.000000	8.955989
2045.000000	8.956970
2044.000000	8.972997
2043.000000	8.995675
2042.000000	9.020534
2041.000000	9.027512
2040.000000	9.056623
2039.000000	9.060548
2038.000000	9.073849
2037.000000	9.096309
2036.000000	9.093475
2035.000000	9.118442
2034.000000	9.119642
2033.000000	9.128037
2032.000000	9.141666
2031.000000	9.151042
2030.000000	9.147444
2029.000000	9.141120
2028.000000	9.138504
2027.000000	9.139921
2026.000000	9.130108
2025.000000	9.137413
2024.000000	9.138068
2023.000000	9.117243
2022.000000	9.111246
2021.000000	9.118878
2020.000000	9.094347
2019.000000	9.085952
2018.000000	9.077229
2017.000000	9.058694
2016.000000	9.039287
2015.000000	9.028493
2014.000000	9.011267
2013.000000	8.998401
2012.000000	8.980847
2011.000000	8.962749
2010.000000	8.922299
2009.000000	8.898094
2008.000000	8.879668
2007.000000	8.843252
2006.000000	8.813269
2005.000000	8.797569
2004.000000	8.748070
2003.000000	8.744254
2002.000000	8.723974
2001.000000	8.674039
2000.000000	8.631082
1999.000000	8.603388
1998.000000	8.564901
1997.000000	8.533064
1996.000000	8.508097
1995.000000	8.476478
1994.000000	8.398958
1993.000000	8.382168
1992.000000	8.345207
1991.000000	8.327980
1990.000000	8.262890
1989.000000	8.215898
1988.000000	8.192457
1987.000000	8.144375
1986.000000	8.111448
1985.000000	8.066310
1984.000000	8.029458
1983.000000	7.989117
1982.000000	7.931986
1981.000000	7.912143
1980.000000	7.888156
1979.000000	7.829499
1978.000000	7.794064
1977.000000	7.747182
1976.000000	7.714473
1975.000000	7.667590
1974.000000	7.621907
1973.000000	7.580040
1972.000000	7.535992
1971.000000	7.519638
1970.000000	7.492489
1969.000000	7.431215
1968.000000	7.413552
1967.000000	7.367978
1966.000000	7.335705
1965.000000	7.311501
1964.000000	7.272577
1963.000000	7.250335
1962.000000	7.209994
1961.000000	7.163984
1960.000000	7.150574
1959.000000	7.110996
1958.000000	7.067384
1957.000000	7.041871
1956.000000	7.037292
1955.000000	6.993244
1954.000000	6.962934
1953.000000	6.944617
1952.000000	6.929135
1951.000000	6.902205
1950.000000	6.856195
1949.000000	6.825339
1948.000000	6.824576
1947.000000	6.806259
1946.000000	6.773441
1945.000000	6.746729
1944.000000	6.726232
1943.000000	6.721544
1942.000000	6.718927
1941.000000	6.697993
1940.000000	6.695049
1939.000000	6.677605
1938.000000	6.693959
1937.000000	6.687308
1936.000000	6.670191
1935.000000	6.692433
1934.000000	6.684474
1933.000000	6.676405
1932.000000	6.685128
1931.000000	6.685455
1930.000000	6.720126
1929.000000	6.751963
1928.000000	6.758286
1927.000000	6.778457
1926.000000	6.806259
1925.000000	6.826757
1924.000000	6.863282
1923.000000	6.900460
1922.000000	6.900897
1921.000000	6.978089
1920.000000	7.037510
1919.000000	7.091916
1918.000000	7.150901
1917.000000	7.180557
1916.000000	7.208468
1915.000000	7.299726
1914.000000	7.353259
1913.000000	7.422165
1912.000000	7.504701
1911.000000	7.634118
1910.000000	7.701389
1909.000000	7.772040
1908.000000	7.840838
1907.000000	7.917376
1906.000000	8.018337
1905.000000	8.170651
1904.000000	8.305193
1903.000000	8.440826
1902.000000	8.556506
1901.000000	8.704894
1900.000000	8.839545
1899.000000	9.020643
1898.000000	9.215369
1897.000000	9.405080
1896.000000	9.577346
1895.000000	9.742526
1894.000000	9.920134
1893.000000	10.119876
1892.000000	10.375222
1891.000000	10.637002
1890.000000	10.949152
1889.000000	11.250400
1888.000000	11.549467
1887.000000	11.850715
1886.000000	12.155670
1885.000000	12.512304
1884.000000	12.868394
1883.000000	13.262862
1882.000000	13.645881
1881.000000	14.026830
1880.000000	14.400473
1879.000000	14.762123
1878.000000	15.104584
1877.000000	15.507447
1876.000000	15.876838
1875.000000	16.237397
1874.000000	16.604281
1873.000000	16.984139
1872.000000	17.370211
1871.000000	17.722921
1870.000000	18.072796
1869.000000	18.412204
1868.000000	18.761860
1867.000000	19.008594
1866.000000	19.233630
1865.000000	19.419743
1864.000000	19.582632
1863.000000	19.727641
1862.000000	19.849318
1861.000000	20.011008
1860.000000	20.205516
1859.000000	20.357612
1858.000000	20.536202
1857.000000	20.693749
1856.000000	20.791440
1855.000000	20.871794
1854.000000	20.967522
1853.000000	21.077968
1852.000000	21.130957
1851.000000	21.159086
1850.000000	21.210984
1849.000000	21.239223
1848.000000	21.261029
1847.000000	21.347925
1846.000000	21.450303
1845.000000	21.447360
1844.000000	21.411489
1843.000000	21.372129
1842.000000	21.350760
1841.000000	21.384014
1840.000000	21.447905
1839.000000	21.473854
1838.000000	21.468838
1837.000000	21.460443
1836.000000	21.464259
1835.000000	21.472000
1834.000000	21.454119
1833.000000	21.417158
1832.000000	21.354249
1831.000000	21.287305
1830.000000	21.263427
1829.000000	21.258739
1828.000000	21.244565
1827.000000	21.181328
1826.000000	21.141751
1825.000000	21.142296
1824.000000	21.087345
1823.000000	21.022145
1822.000000	20.978643
1821.000000	20.959890
1820.000000	20.980060
1819.000000	20.983440
1818.000000	20.953021
1817.000000	20.898179
1816.000000	20.855440
1815.000000	20.842465
1814.000000	20.835924
1813.000000	20.822186
1812.000000	20.803433
1811.000000	20.768980
1810.000000	20.738342
1809.000000	20.715555
1808.000000	20.671398
1807.000000	20.644577
1806.000000	20.620046
1805.000000	20.576652
1804.000000	20.538819
1803.000000	20.492372
1802.000000	20.453122
1801.000000	20.429899
1800.000000	20.393483
1799.000000	20.355759
1798.000000	20.319016
1797.000000	20.260249
1796.000000	20.222961
1795.000000	20.197012
1794.000000	20.152964
1793.000000	20.116222
1792.000000	20.092780
1791.000000	20.051240
1790.000000	20.003376
1789.000000	19.971104
1788.000000	19.936323
1787.000000	19.903069
1786.000000	19.866763
1785.000000	19.825332
1784.000000	19.792078
1783.000000	19.760568
1782.000000	19.721754
1781.000000	19.678251
1780.000000	19.640418
1779.000000	19.599423
1778.000000	19.556574
1777.000000	19.524520
1776.000000	19.500861
1775.000000	19.453760
1774.000000	19.407422
1773.000000	19.356724
1772.000000	19.304608
1771.000000	19.256962
1770.000000	19.202993
1769.000000	19.168648
1768.000000	19.119803
1767.000000	19.070086
1766.000000	19.026147
1765.000000	18.988096
1764.000000	18.951680
1763.000000	18.939360
1762.000000	18.931619
1761.000000	18.944484
1760.000000	18.961057
1759.000000	18.991585
1758.000000	19.036069
1757.000000	19.090583
1756.000000	19.151531
1755.000000	19.201575
1754.000000	19.263177
1753.000000	19.306788
1752.000000	19.348656
1751.000000	19.365446
1750.000000	19.396956
1749.000000	19.422578
1748.000000	19.419961
1747.000000	19.394339
1746.000000	19.391068
1745.000000	19.384090
1744.000000	19.349637
1743.000000	19.300247
1742.000000	19.243224
1741.000000	19.163742
1740.000000	19.081316
1739.000000	18.999217
1738.000000	18.906651
1737.000000	18.789663
1736.000000	18.688048
1735.000000	18.604313
1734.000000	18.535407
1733.000000	18.481873
1732.000000	18.460940
1731.000000	18.456251
1730.000000	18.479257
1729.000000	18.510657
1728.000000	18.582398
1727.000000	18.643673
1726.000000	18.699932
1725.000000	18.763278
1724.000000	18.831857
1723.000000	18.900873
1722.000000	18.946338
1721.000000	19.002815
1720.000000	19.042284
1719.000000	19.081970
1718.000000	19.113698
1717.000000	19.166795
1716.000000	19.217821
1715.000000	19.272117
1714.000000	19.341896
1713.000000	19.395647
1712.000000	19.429337
1711.000000	19.473712
1710.000000	19.537821
1709.000000	19.582414
1708.000000	19.609781
1707.000000	19.619266
1706.000000	19.597678
1705.000000	19.569222
1704.000000	19.552758
1703.000000	19.525610
1702.000000	19.452997
1701.000000	19.397610
1700.000000	19.335572
1699.000000	19.249112
1698.000000	19.167013
1697.000000	19.072812
1696.000000	18.969016
1695.000000	18.916464
1694.000000	18.870017
1693.000000	18.872743
1692.000000	18.879503
1691.000000	18.928348
1690.000000	19.000634
1689.000000	19.100396
1688.000000	19.186747
1687.000000	19.272444
1686.000000	19.311804
1685.000000	19.373405
1684.000000	19.432390
1683.000000	19.465862
1682.000000	19.556683
1681.000000	19.682503
1680.000000	19.897727
1679.000000	20.135411
1678.000000	20.410819
1677.000000	20.698656
1676.000000	20.974718
1675.000000	21.259175
1674.000000	21.505690
1673.000000	21.745773
1672.000000	21.944533
1671.000000	22.116581
1670.000000	22.261699
1669.000000	22.404527
1668.000000	22.516609
1667.000000	22.587805
1666.000000	22.671431
1665.000000	22.730416
1664.000000	22.805537
1663.000000	22.845987
1662.000000	22.892760
1661.000000	22.931902
1660.000000	22.947602
1659.000000	22.998518
1658.000000	22.998628
1657.000000	23.032863
1656.000000	23.024685
1655.000000	23.039186
1654.000000	23.035261
1653.000000	23.042784
1652.000000	23.034716
1651.000000	23.012583
1650.000000	23.009203
1649.000000	22.953271
1648.000000	22.938879
1647.000000	22.897121
1646.000000	22.876515
1645.000000	22.822654
1644.000000	22.817530
1643.000000	22.768467
1642.000000	22.733468
1641.000000	22.676991
1640.000000	22.630436
1639.000000	22.592385
1638.000000	22.546047
1637.000000	22.476050
1636.000000	22.453045
1635.000000	22.416629
1634.000000	22.337801
1633.000000	22.295934
1632.000000	22.228881
1631.000000	22.172622
1630.000000	22.125412
1629.000000	22.065882
1628.000000	22.023906
1627.000000	21.942897
1626.000000	21.878134
1625.000000	21.831797
1624.000000	21.735851
1623.000000	21.700743
1622.000000	21.637397
1621.000000	21.594004
1620.000000	21.539925
1619.000000	21.469820
1618.000000	21.433295
1617.000000	21.375618
1616.000000	21.332225
1615.000000	21.267788
1614.000000	21.217417
1613.000000	21.171734
1612.000000	21.114929
1611.000000	21.066411
1610.000000	21.030214
1609.000000	20.965341
1608.000000	20.892510
1607.000000	20.861000
1606.000000	20.800053
1605.000000	20.737906
1604.000000	20.695494
1603.000000	20.641961
1602.000000	20.585701
1601.000000	20.531732
1600.000000	20.489538
1599.000000	20.426737
1598.000000	20.360992
1597.000000	20.315200
1596.000000	20.266246
1595.000000	20.213149
1594.000000	20.157435
1593.000000	20.110007
1592.000000	20.066613
1591.000000	20.012971
1590.000000	19.961836
1589.000000	19.910592
1588.000000	19.867526
1587.000000	19.808432
1586.000000	19.769618
1585.000000	19.712486
