PE UV       SUBTECH     SPECTRUM    ASCII       PEDS        4.00        
   -1
CICIMAUCR0254-3.Sample.ASC
24/06/26
14:46:43.00
24/06/26
14:46:43.00
Vinicio Soto Monge
C. resplendens. Sex F. Dorsal.
250,000000
1
Lambda 1050
1050L1511233
PerkinElmer UV WinLab 6.3.2.0749 / 2.02.05 Lambda 900 UV/VIS/NIR, Aug  7 2015 09:38:08

0
0
3350/servo 860,8/2
0
0
UV/VIS
1
1
1
DoubleDePol,CommonBeamDepol,RBeamAtt,SBeamAtt,60mm sphere, WB InGaAs Detector
0
0
0
0
Program
Program
3350/servo 860,8/2
3350/0,2 860,8/0,2
3350/0,2 860,8/0,2
0
15.00
 
 
 
0
 
860,8
319,2
860,8
Front
100
on
S:100 R:100
0
0
0
0
 
0
 
 
 
0
 
 
0
0
0
0
0
 
 
 
 
0
0


0
0
#HDR
-1
-1
#GR
nm
%R
1.0
0.0
2500,000000
-1,000000
2251
8
89,696700
5,956700
#DATA
2482.000000	8.424454
2481.000000	8.432338
2480.000000	8.376333
2479.000000	8.394762
2478.000000	8.393431
2477.000000	8.428242
2476.000000	8.370906
2475.000000	8.413703
2474.000000	8.449538
2473.000000	8.422713
2472.000000	8.446160
2471.000000	8.448514
2470.000000	8.448002
2469.000000	8.509126
2468.000000	8.523460
2467.000000	8.571479
2466.000000	8.556326
2465.000000	8.574448
2464.000000	8.579875
2463.000000	8.580182
2462.000000	8.640077
2461.000000	8.698948
2460.000000	8.706627
2459.000000	8.779218
2458.000000	8.812391
2457.000000	8.868089
2456.000000	8.893992
2455.000000	8.954809
2454.000000	8.986548
2453.000000	9.056273
2452.000000	9.113813
2451.000000	9.190397
2450.000000	9.245583
2449.000000	9.318071
2448.000000	9.394041
2447.000000	9.438988
2446.000000	9.505641
2445.000000	9.562055
2444.000000	9.651233
2443.000000	9.698330
2442.000000	9.785971
2441.000000	9.813513
2440.000000	9.877299
2439.000000	9.974667
2438.000000	10.027191
2437.000000	10.088417
2436.000000	10.150155
2435.000000	10.219982
2434.000000	10.291856
2433.000000	10.336599
2432.000000	10.401920
2431.000000	10.461713
2430.000000	10.514749
2429.000000	10.577613
2428.000000	10.644778
2427.000000	10.690749
2426.000000	10.750439
2425.000000	10.785353
2424.000000	10.849344
2423.000000	10.911901
2422.000000	10.945688
2421.000000	10.996369
2420.000000	11.056161
2419.000000	11.093942
2418.000000	11.142677
2417.000000	11.173700
2416.000000	11.219466
2415.000000	11.258372
2414.000000	11.294105
2413.000000	11.321339
2412.000000	11.373658
2411.000000	11.410005
2410.000000	11.445020
2409.000000	11.475429
2408.000000	11.505939
2407.000000	11.548941
2406.000000	11.575766
2405.000000	11.593581
2404.000000	11.636788
2403.000000	11.668117
2402.000000	11.678663
2401.000000	11.701905
2400.000000	11.742756
2399.000000	11.767021
2398.000000	11.803880
2397.000000	11.830807
2396.000000	11.851796
2395.000000	11.889167
2394.000000	11.900941
2393.000000	11.907289
2392.000000	11.927664
2391.000000	11.958891
2390.000000	11.989504
2389.000000	11.998924
2388.000000	12.012848
2387.000000	12.024520
2386.000000	12.026363
2385.000000	12.036294
2384.000000	12.052471
2383.000000	12.065577
2382.000000	12.066191
2381.000000	12.068648
2380.000000	12.071617
2379.000000	12.075610
2378.000000	12.080832
2377.000000	12.085030
2376.000000	12.077965
2375.000000	12.060457
2374.000000	12.059331
2373.000000	12.062095
2372.000000	12.053802
2371.000000	12.038547
2370.000000	12.022677
2369.000000	12.014486
2368.000000	12.002814
2367.000000	11.983464
2366.000000	11.968004
2365.000000	11.951212
2364.000000	11.934216
2363.000000	11.917937
2362.000000	11.891215
2361.000000	11.852615
2360.000000	11.824562
2359.000000	11.815347
2358.000000	11.775929
2357.000000	11.732722
2356.000000	11.714088
2355.000000	11.682247
2354.000000	11.647333
2353.000000	11.630337
2352.000000	11.620304
2351.000000	11.613034
2350.000000	11.602898
2349.000000	11.603308
2348.000000	11.613649
2347.000000	11.606994
2346.000000	11.629006
2345.000000	11.660131
2344.000000	11.680097
2343.000000	11.716546
2342.000000	11.729139
2341.000000	11.750435
2340.000000	11.779103
2339.000000	11.798454
2338.000000	11.833469
2337.000000	11.847291
2336.000000	11.859782
2335.000000	11.868588
2334.000000	11.879133
2333.000000	11.898074
2332.000000	11.906061
2331.000000	11.891727
2330.000000	11.886300
2329.000000	11.884969
2328.000000	11.861113
2327.000000	11.842787
2326.000000	11.831729
2325.000000	11.803778
2324.000000	11.756783
2323.000000	11.716238
2322.000000	11.664124
2321.000000	11.612318
2320.000000	11.551194
2319.000000	11.496315
2318.000000	11.434372
2317.000000	11.360655
2316.000000	11.268713
2315.000000	11.193358
2314.000000	11.118821
2313.000000	11.015003
2312.000000	10.927054
2311.000000	10.848524
2310.000000	10.784534
2309.000000	10.723922
2308.000000	10.677132
2307.000000	10.616827
2306.000000	10.570754
2305.000000	10.551608
2304.000000	10.538400
2303.000000	10.546488
2302.000000	10.564201
2301.000000	10.605155
2300.000000	10.622560
2299.000000	10.671091
2298.000000	10.711431
2297.000000	10.802246
2296.000000	10.866544
2295.000000	10.925416
2294.000000	10.986437
2293.000000	11.077150
2292.000000	11.141960
2291.000000	11.184962
2290.000000	11.229192
2289.000000	11.279771
2288.000000	11.313762
2287.000000	11.356969
2286.000000	11.376934
2285.000000	11.396285
2284.000000	11.397923
2283.000000	11.399561
2282.000000	11.401097
2281.000000	11.380006
2280.000000	11.360553
2279.000000	11.351952
2278.000000	11.318165
2277.000000	11.279156
2276.000000	11.260215
2275.000000	11.245676
2274.000000	11.212504
2273.000000	11.200013
2272.000000	11.189876
2271.000000	11.171857
2270.000000	11.169502
2269.000000	11.202777
2268.000000	11.236871
2267.000000	11.278440
2266.000000	11.335059
2265.000000	11.404885
2264.000000	11.492834
2263.000000	11.603308
2262.000000	11.734975
2261.000000	11.864185
2260.000000	12.013667
2259.000000	12.181067
2258.000000	12.358705
2257.000000	12.541872
2256.000000	12.735687
2255.000000	12.918342
2254.000000	13.141644
2253.000000	13.323890
2252.000000	13.506955
2251.000000	13.706196
2250.000000	13.911581
2249.000000	14.098229
2248.000000	14.247199
2247.000000	14.428933
2246.000000	14.577494
2245.000000	14.719502
2244.000000	14.832944
2243.000000	14.955090
2242.000000	15.056144
2241.000000	15.175116
2240.000000	15.271665
2239.000000	15.364938
2238.000000	15.444081
2237.000000	15.496195
2236.000000	15.555579
2235.000000	15.610457
2234.000000	15.655814
2233.000000	15.701785
2232.000000	15.750213
2231.000000	15.776014
2230.000000	15.815330
2229.000000	15.812463
2228.000000	15.837445
2227.000000	15.828333
2226.000000	15.831711
2225.000000	15.797924
2224.000000	15.818913
2223.000000	15.789734
2222.000000	15.766697
2221.000000	15.732910
2220.000000	15.695437
2219.000000	15.650183
2218.000000	15.631139
2217.000000	15.603393
2216.000000	15.554964
2215.000000	15.518311
2214.000000	15.499472
2213.000000	15.447562
2212.000000	15.409782
2211.000000	15.393401
2210.000000	15.341696
2209.000000	15.326441
2208.000000	15.294292
2207.000000	15.247707
2206.000000	15.227844
2205.000000	15.200712
2204.000000	15.174092
2203.000000	15.153410
2202.000000	15.124435
2201.000000	15.109896
2200.000000	15.092184
2199.000000	15.071195
2198.000000	15.061570
2197.000000	15.042424
2196.000000	15.014371
2195.000000	14.996965
2194.000000	15.000856
2193.000000	14.960516
2192.000000	14.940858
2191.000000	14.922327
2190.000000	14.918436
2189.000000	14.886185
2188.000000	14.871851
2187.000000	14.852807
2186.000000	14.848097
2185.000000	14.828849
2184.000000	14.795574
2183.000000	14.773254
2182.000000	14.749910
2181.000000	14.739262
2180.000000	14.722369
2179.000000	14.713154
2178.000000	14.686431
2177.000000	14.685919
2176.000000	14.684179
2175.000000	14.665442
2174.000000	14.661245
2173.000000	14.659709
2172.000000	14.653361
2171.000000	14.644965
2170.000000	14.648139
2169.000000	14.665033
2168.000000	14.681517
2167.000000	14.680800
2166.000000	14.698103
2165.000000	14.731276
2164.000000	14.745508
2163.000000	14.766906
2162.000000	14.797110
2161.000000	14.822092
2160.000000	14.854548
2159.000000	14.874718
2158.000000	14.919972
2157.000000	14.956319
2156.000000	14.984372
2155.000000	15.021231
2154.000000	15.061878
2153.000000	15.112968
2152.000000	15.164877
2151.000000	15.227844
2150.000000	15.255488
2149.000000	15.298694
2148.000000	15.357156
2147.000000	15.423400
2146.000000	15.461487
2145.000000	15.511963
2144.000000	15.559674
2143.000000	15.590594
2142.000000	15.635234
2141.000000	15.679158
2140.000000	15.716119
2139.000000	15.762192
2138.000000	15.799460
2137.000000	15.803453
2136.000000	15.839390
2135.000000	15.880856
2134.000000	15.909524
2133.000000	15.936656
2132.000000	15.955290
2131.000000	15.991023
2130.000000	16.012319
2129.000000	16.006585
2128.000000	16.019486
2127.000000	16.043956
2126.000000	16.054502
2125.000000	16.041191
2124.000000	16.053068
2123.000000	16.052863
2122.000000	16.033717
2121.000000	16.034332
2120.000000	16.026346
2119.000000	16.023991
2118.000000	16.009350
2117.000000	15.991330
2116.000000	15.991535
2115.000000	15.986108
2114.000000	15.946690
2113.000000	15.910753
2112.000000	15.896316
2111.000000	15.876761
2110.000000	15.849834
2109.000000	15.824545
2108.000000	15.811951
2107.000000	15.773864
2106.000000	15.751442
2105.000000	15.720009
2104.000000	15.698816
2103.000000	15.684891
2102.000000	15.662571
2101.000000	15.634006
2100.000000	15.601959
2099.000000	15.568991
2098.000000	15.546466
2097.000000	15.527730
2096.000000	15.499881
2095.000000	15.489540
2094.000000	15.462306
2093.000000	15.448484
2092.000000	15.443467
2091.000000	15.422785
2090.000000	15.408656
2089.000000	15.385312
2088.000000	15.367395
2087.000000	15.347430
2086.000000	15.321526
2085.000000	15.306373
2084.000000	15.289173
2083.000000	15.267262
2082.000000	15.244635
2081.000000	15.216172
2080.000000	15.177163
2079.000000	15.139281
2078.000000	15.101194
2077.000000	15.060239
2076.000000	15.027886
2075.000000	14.995123
2074.000000	14.945773
2073.000000	14.882704
2072.000000	14.813901
2071.000000	14.763118
2070.000000	14.713359
2069.000000	14.643839
2068.000000	14.574832
2067.000000	14.519339
2066.000000	14.441833
2065.000000	14.370368
2064.000000	14.301975
2063.000000	14.248837
2062.000000	14.176144
2061.000000	14.107341
2060.000000	14.057787
2059.000000	14.006492
2058.000000	13.939532
2057.000000	13.882196
2056.000000	13.846566
2055.000000	13.801312
2054.000000	13.776944
2053.000000	13.767218
2052.000000	13.754010
2051.000000	13.732099
2050.000000	13.740802
2049.000000	13.769368
2048.000000	13.791892
2047.000000	13.836225
2046.000000	13.881275
2045.000000	13.931034
2044.000000	13.981919
2043.000000	14.039767
2042.000000	14.114508
2041.000000	14.176041
2040.000000	14.249247
2039.000000	14.338936
2038.000000	14.404770
2037.000000	14.449205
2036.000000	14.487907
2035.000000	14.553331
2034.000000	14.617936
2033.000000	14.658583
2032.000000	14.694929
2031.000000	14.718478
2030.000000	14.755848
2029.000000	14.800386
2028.000000	14.828644
2027.000000	14.836835
2026.000000	14.840214
2025.000000	14.879223
2024.000000	14.893454
2023.000000	14.882499
2022.000000	14.890383
2021.000000	14.905843
2020.000000	14.914443
2019.000000	14.907378
2018.000000	14.893249
2017.000000	14.878506
2016.000000	14.856903
2015.000000	14.841750
2014.000000	14.838371
2013.000000	14.809396
2012.000000	14.793219
2011.000000	14.758101
2010.000000	14.735269
2009.000000	14.703632
2008.000000	14.667695
2007.000000	14.651928
2006.000000	14.610052
2005.000000	14.574627
2004.000000	14.537973
2003.000000	14.497224
2002.000000	14.443983
2001.000000	14.400879
2000.000000	14.340779
1999.000000	14.289279
1998.000000	14.234606
1997.000000	14.183618
1996.000000	14.126385
1995.000000	14.047548
1994.000000	13.977005
1993.000000	13.909738
1992.000000	13.853528
1991.000000	13.783394
1990.000000	13.697289
1989.000000	13.621216
1988.000000	13.540844
1987.000000	13.483918
1986.000000	13.411327
1985.000000	13.326757
1984.000000	13.245053
1983.000000	13.171234
1982.000000	13.088814
1981.000000	13.016530
1980.000000	12.930014
1979.000000	12.837560
1978.000000	12.762410
1977.000000	12.690331
1976.000000	12.613644
1975.000000	12.537163
1974.000000	12.441740
1973.000000	12.380616
1972.000000	12.313553
1971.000000	12.227345
1970.000000	12.142058
1969.000000	12.065269
1968.000000	12.008343
1967.000000	11.932373
1966.000000	11.868997
1965.000000	11.789956
1964.000000	11.726067
1963.000000	11.652145
1962.000000	11.590817
1961.000000	11.517816
1960.000000	11.444304
1959.000000	11.373351
1958.000000	11.319906
1957.000000	11.238509
1956.000000	11.203391
1955.000000	11.146260
1954.000000	11.067629
1953.000000	11.015207
1952.000000	10.965448
1951.000000	10.899307
1950.000000	10.851596
1949.000000	10.828252
1948.000000	10.766616
1947.000000	10.727710
1946.000000	10.670170
1945.000000	10.646723
1944.000000	10.601367
1943.000000	10.579456
1942.000000	10.548229
1941.000000	10.524475
1940.000000	10.506456
1939.000000	10.497139
1938.000000	10.488845
1937.000000	10.457516
1936.000000	10.446356
1935.000000	10.460690
1934.000000	10.493760
1933.000000	10.513315
1932.000000	10.537069
1931.000000	10.559798
1930.000000	10.578330
1929.000000	10.615803
1928.000000	10.685118
1927.000000	10.727403
1926.000000	10.798458
1925.000000	10.870947
1924.000000	10.953162
1923.000000	11.008040
1922.000000	11.103156
1921.000000	11.227145
1920.000000	11.337925
1919.000000	11.458433
1918.000000	11.547405
1917.000000	11.693304
1916.000000	11.836541
1915.000000	11.949267
1914.000000	12.078784
1913.000000	12.260723
1912.000000	12.443275
1911.000000	12.635247
1910.000000	12.809917
1909.000000	12.996360
1908.000000	13.177889
1907.000000	13.362284
1906.000000	13.598487
1905.000000	13.849228
1904.000000	14.125873
1903.000000	14.392791
1902.000000	14.651416
1901.000000	14.947513
1900.000000	15.229994
1899.000000	15.573803
1898.000000	15.964505
1897.000000	16.294390
1896.000000	16.672805
1895.000000	17.007912
1894.000000	17.321006
1893.000000	17.685702
1892.000000	18.086949
1891.000000	18.565907
1890.000000	19.033499
1889.000000	19.490137
1888.000000	19.951997
1887.000000	20.440681
1886.000000	20.897830
1885.000000	21.378631
1884.000000	21.885847
1883.000000	22.420502
1882.000000	22.962222
1881.000000	23.437391
1880.000000	23.934983
1879.000000	24.374011
1878.000000	24.784677
1877.000000	25.246639
1876.000000	25.694062
1875.000000	26.100941
1874.000000	26.510686
1873.000000	26.914698
1872.000000	27.310621
1871.000000	27.684839
1870.000000	28.041753
1869.000000	28.347168
1868.000000	28.646133
1867.000000	28.924723
1866.000000	29.141267
1865.000000	29.331089
1864.000000	29.505656
1863.000000	29.689540
1862.000000	29.845268
1861.000000	30.011746
1860.000000	30.202080
1859.000000	30.349924
1858.000000	30.485584
1857.000000	30.609368
1856.000000	30.718613
1855.000000	30.797449
1854.000000	30.894306
1853.000000	30.968535
1852.000000	31.002629
1851.000000	31.055460
1850.000000	31.126208
1849.000000	31.175353
1848.000000	31.213850
1847.000000	31.240675
1846.000000	31.254087
1845.000000	31.245589
1844.000000	31.230539
1843.000000	31.218969
1842.000000	31.236682
1841.000000	31.254497
1840.000000	31.276305
1839.000000	31.272721
1838.000000	31.248968
1837.000000	31.238115
1836.000000	31.223781
1835.000000	31.203714
1834.000000	31.158664
1833.000000	31.118836
1832.000000	31.082387
1831.000000	31.059863
1830.000000	31.040819
1829.000000	31.020240
1828.000000	30.979490
1827.000000	30.930550
1826.000000	30.874238
1825.000000	30.836356
1824.000000	30.808814
1823.000000	30.784754
1822.000000	30.776153
1821.000000	30.791716
1820.000000	30.774003
1819.000000	30.738066
1818.000000	30.691276
1817.000000	30.656158
1816.000000	30.634555
1815.000000	30.622473
1814.000000	30.628309
1813.000000	30.614999
1812.000000	30.588789
1811.000000	30.570052
1810.000000	30.544865
1809.000000	30.518552
1808.000000	30.485789
1807.000000	30.453640
1806.000000	30.431115
1805.000000	30.401014
1804.000000	30.355862
1803.000000	30.317980
1802.000000	30.290848
1801.000000	30.263306
1800.000000	30.218052
1799.000000	30.167781
1798.000000	30.124062
1797.000000	30.090071
1796.000000	30.059969
1795.000000	30.028947
1794.000000	29.995262
1793.000000	29.953079
1792.000000	29.918678
1791.000000	29.892570
1790.000000	29.863083
1789.000000	29.817009
1788.000000	29.782506
1787.000000	29.758240
1786.000000	29.725375
1785.000000	29.681554
1784.000000	29.643774
1783.000000	29.621044
1782.000000	29.578862
1781.000000	29.529921
1780.000000	29.489479
1779.000000	29.440027
1778.000000	29.386070
1777.000000	29.335594
1776.000000	29.293514
1775.000000	29.230343
1774.000000	29.161233
1773.000000	29.105945
1772.000000	29.037449
1771.000000	28.961786
1770.000000	28.884178
1769.000000	28.804932
1768.000000	28.710021
1767.000000	28.626987
1766.000000	28.566580
1765.000000	28.504534
1764.000000	28.442796
1763.000000	28.422012
1762.000000	28.418428
1761.000000	28.414333
1760.000000	28.433274
1759.000000	28.470850
1758.000000	28.518766
1757.000000	28.564122
1756.000000	28.620537
1755.000000	28.679715
1754.000000	28.744832
1753.000000	28.803089
1752.000000	28.841791
1751.000000	28.868513
1750.000000	28.900662
1749.000000	28.922573
1748.000000	28.910491
1747.000000	28.899229
1746.000000	28.876499
1745.000000	28.840050
1744.000000	28.774626
1743.000000	28.702035
1742.000000	28.622789
1741.000000	28.532281
1740.000000	28.420476
1739.000000	28.282359
1738.000000	28.129190
1737.000000	27.990561
1736.000000	27.858279
1735.000000	27.724052
1734.000000	27.591771
1733.000000	27.501467
1732.000000	27.427238
1731.000000	27.382905
1730.000000	27.370107
1729.000000	27.392017
1728.000000	27.427443
1727.000000	27.484266
1726.000000	27.540066
1725.000000	27.601497
1724.000000	27.662007
1723.000000	27.727022
1722.000000	27.781490
1721.000000	27.848860
1720.000000	27.933430
1719.000000	28.021584
1718.000000	28.112911
1717.000000	28.222873
1716.000000	28.343073
1715.000000	28.447301
1714.000000	28.576511
1713.000000	28.686370
1712.000000	28.777493
1711.000000	28.885714
1710.000000	28.976018
1709.000000	29.058233
1708.000000	29.094068
1707.000000	29.140448
1706.000000	29.181198
1705.000000	29.200958
1704.000000	29.183553
1703.000000	29.176693
1702.000000	29.160618
1701.000000	29.149868
1700.000000	29.106764
1699.000000	29.049633
1698.000000	28.983697
1697.000000	28.898308
1696.000000	28.842610
1695.000000	28.793875
1694.000000	28.783329
1693.000000	28.775650
1692.000000	28.801042
1691.000000	28.853975
1690.000000	28.932095
1689.000000	29.011750
1688.000000	29.093249
1687.000000	29.160209
1686.000000	29.220309
1685.000000	29.298121
1684.000000	29.404192
1683.000000	29.504428
1682.000000	29.618280
1681.000000	29.803597
1680.000000	30.052700
1679.000000	30.320335
1678.000000	30.618685
1677.000000	30.931267
1676.000000	31.239753
1675.000000	31.508207
1674.000000	31.791814
1673.000000	32.031088
1672.000000	32.240670
1671.000000	32.426090
1670.000000	32.590828
1669.000000	32.743689
1668.000000	32.898085
1667.000000	32.989925
1666.000000	33.083198
1665.000000	33.175549
1664.000000	33.275375
1663.000000	33.342846
1662.000000	33.426700
1661.000000	33.485981
1660.000000	33.550586
1659.000000	33.579970
1658.000000	33.629730
1657.000000	33.647647
1656.000000	33.691673
1655.000000	33.710819
1654.000000	33.708361
1653.000000	33.713890
1652.000000	33.712969
1651.000000	33.712661
1650.000000	33.703447
1649.000000	33.683686
1648.000000	33.665871
1647.000000	33.624405
1646.000000	33.596966
1645.000000	33.570039
1644.000000	33.542190
1643.000000	33.509325
1642.000000	33.463763
1641.000000	33.431717
1640.000000	33.393527
1639.000000	33.342232
1638.000000	33.291859
1637.000000	33.214148
1636.000000	33.192545
1635.000000	33.144629
1634.000000	33.090365
1633.000000	33.041527
1632.000000	32.994327
1631.000000	32.896140
1630.000000	32.853036
1629.000000	32.794369
1628.000000	32.717580
1627.000000	32.647754
1626.000000	32.593490
1625.000000	32.511889
1624.000000	32.431209
1623.000000	32.364966
1622.000000	32.294013
1621.000000	32.228487
1620.000000	32.167875
1619.000000	32.114122
1618.000000	32.044808
1617.000000	31.980714
1616.000000	31.918362
1615.000000	31.847921
1614.000000	31.772668
1613.000000	31.710930
1612.000000	31.641205
1611.000000	31.589501
1610.000000	31.527660
1609.000000	31.450052
1608.000000	31.381045
1607.000000	31.314187
1606.000000	31.245589
1605.000000	31.167265
