PE UV       SUBTECH     SPECTRUM    ASCII       PEDS        4.00        
   -1
CICIMAUCR0201-3.Sample.ASC
24/05/31
16:20:21.00
24/05/31
16:20:21.00
Vinicio Soto Monge
C. cupreomarginata. Sex F. Dorsal
250,000000
1
Lambda 1050
1050L1511233
PerkinElmer UV WinLab 6.3.2.0749 / 2.02.05 Lambda 900 UV/VIS/NIR, Aug  7 2015 09:38:08

0
0
3350/servo 860,8/2
0
0
UV/VIS
1
1
1
DoubleDePol,CommonBeamDepol,RBeamAtt,SBeamAtt,60mm sphere, WB InGaAs Detector
0
0
0
0
Program
Program
3350/servo 860,8/2
3350/0,2 860,8/0,2
3350/0,2 860,8/0,2
0
15.00
 
 
 
0
 
860,8
319,2
860,8
Front
100
on
S:100 R:100
0
0
0
0
 
0
 
 
 
0
 
 
0
0
0
0
0
 
 
 
 
0
0


0
0
#HDR
-1
-1
#GR
nm
%R
1.0
0.0
2500,000000
-1,000000
2251
8
69,649100
5,880400
#DATA
2482.000000	10.061225
2481.000000	9.979150
2480.000000	9.962381
2479.000000	9.948945
2478.000000	10.005918
2477.000000	10.052580
2476.000000	9.964464
2475.000000	9.976442
2474.000000	10.030187
2473.000000	10.037477
2472.000000	10.055600
2471.000000	10.053309
2470.000000	10.048518
2469.000000	10.066641
2468.000000	10.098721
2467.000000	10.122052
2466.000000	10.146216
2465.000000	10.179858
2464.000000	10.234332
2463.000000	10.262454
2462.000000	10.268703
2461.000000	10.321926
2460.000000	10.367963
2459.000000	10.457849
2458.000000	10.505344
2457.000000	10.580337
2456.000000	10.648142
2455.000000	10.737195
2454.000000	10.801355
2453.000000	10.872285
2452.000000	10.951131
2451.000000	11.063931
2450.000000	11.165587
2449.000000	11.259744
2448.000000	11.355046
2447.000000	11.452744
2446.000000	11.558774
2445.000000	11.641891
2444.000000	11.761565
2443.000000	11.851764
2442.000000	11.947692
2441.000000	12.029141
2440.000000	12.133505
2439.000000	12.234640
2438.000000	12.327235
2437.000000	12.391290
2436.000000	12.448576
2435.000000	12.573146
2434.000000	12.652825
2433.000000	12.734171
2432.000000	12.795727
2431.000000	12.868219
2430.000000	12.951752
2429.000000	13.031639
2428.000000	13.093299
2427.000000	13.166625
2426.000000	13.246200
2425.000000	13.296507
2424.000000	13.342544
2423.000000	13.395455
2422.000000	13.445033
2421.000000	13.493049
2420.000000	13.545960
2419.000000	13.584185
2418.000000	13.637721
2417.000000	13.695735
2416.000000	13.738752
2415.000000	13.761458
2414.000000	13.797808
2413.000000	13.842074
2412.000000	13.896339
2411.000000	13.920295
2410.000000	13.967894
2409.000000	14.016743
2408.000000	14.042678
2407.000000	14.069446
2406.000000	14.114128
2405.000000	14.149021
2404.000000	14.170477
2403.000000	14.212139
2402.000000	14.251406
2401.000000	14.291610
2400.000000	14.336709
2399.000000	14.373893
2398.000000	14.421492
2397.000000	14.474924
2396.000000	14.510024
2395.000000	14.538771
2394.000000	14.563143
2393.000000	14.584495
2392.000000	14.615742
2391.000000	14.646572
2390.000000	14.679381
2389.000000	14.699483
2388.000000	14.704587
2387.000000	14.735729
2386.000000	14.751769
2385.000000	14.752082
2384.000000	14.763330
2383.000000	14.767184
2382.000000	14.763122
2381.000000	14.757602
2380.000000	14.750415
2379.000000	14.746666
2378.000000	14.737812
2377.000000	14.723022
2376.000000	14.701670
2375.000000	14.680006
2374.000000	14.664695
2373.000000	14.639281
2372.000000	14.615846
2371.000000	14.585849
2370.000000	14.550228
2369.000000	14.496588
2368.000000	14.447947
2367.000000	14.410035
2366.000000	14.359832
2365.000000	14.297442
2364.000000	14.234012
2363.000000	14.174851
2362.000000	14.111733
2361.000000	14.040595
2360.000000	13.965811
2359.000000	13.891652
2358.000000	13.828430
2357.000000	13.769686
2356.000000	13.711463
2355.000000	13.654281
2354.000000	13.608765
2353.000000	13.580539
2352.000000	13.556271
2351.000000	13.537419
2350.000000	13.548459
2349.000000	13.566270
2348.000000	13.568770
2347.000000	13.594288
2346.000000	13.640741
2345.000000	13.673967
2344.000000	13.727190
2343.000000	13.778018
2342.000000	13.816556
2341.000000	13.852698
2340.000000	13.888319
2339.000000	13.925815
2338.000000	13.950083
2337.000000	13.974456
2336.000000	13.988621
2335.000000	13.989246
2334.000000	13.970706
2333.000000	13.949875
2332.000000	13.944771
2331.000000	13.907171
2330.000000	13.845824
2329.000000	13.785622
2328.000000	13.737189
2327.000000	13.673550
2326.000000	13.588768
2325.000000	13.506276
2324.000000	13.420765
2323.000000	13.325566
2322.000000	13.210266
2321.000000	13.097465
2320.000000	12.967583
2319.000000	12.826869
2318.000000	12.675531
2317.000000	12.535025
2316.000000	12.385770
2315.000000	12.228287
2314.000000	12.087052
2313.000000	11.945817
2312.000000	11.797499
2311.000000	11.652306
2310.000000	11.535964
2309.000000	11.444099
2308.000000	11.374211
2307.000000	11.306405
2306.000000	11.267451
2305.000000	11.252661
2304.000000	11.244641
2303.000000	11.279846
2302.000000	11.340360
2301.000000	11.410457
2300.000000	11.493365
2299.000000	11.579501
2298.000000	11.677408
2297.000000	11.790104
2296.000000	11.912174
2295.000000	12.033203
2294.000000	12.130276
2293.000000	12.218496
2292.000000	12.316507
2291.000000	12.390874
2290.000000	12.437848
2289.000000	12.466907
2288.000000	12.509403
2287.000000	12.520964
2286.000000	12.514819
2285.000000	12.502320
2284.000000	12.488572
2283.000000	12.457742
2282.000000	12.413684
2281.000000	12.348482
2280.000000	12.274011
2279.000000	12.236828
2278.000000	12.175272
2277.000000	12.118611
2276.000000	12.074449
2275.000000	12.025704
2274.000000	12.003311
2273.000000	11.984771
2272.000000	11.950191
2271.000000	11.957795
2270.000000	11.982167
2269.000000	12.022163
2268.000000	12.070803
2267.000000	12.152461
2266.000000	12.276407
2265.000000	12.409622
2264.000000	12.567522
2263.000000	12.747607
2262.000000	12.971541
2261.000000	13.218494
2260.000000	13.444720
2259.000000	13.728232
2258.000000	14.022367
2257.000000	14.314732
2256.000000	14.622616
2255.000000	14.956539
2254.000000	15.242655
2253.000000	15.558871
2252.000000	15.867484
2251.000000	16.159537
2250.000000	16.430445
2249.000000	16.686252
2248.000000	16.931330
2247.000000	17.191927
2246.000000	17.390448
2245.000000	17.611778
2244.000000	17.781031
2243.000000	17.966741
2242.000000	18.107247
2241.000000	18.260772
2240.000000	18.373885
2239.000000	18.510329
2238.000000	18.625942
2237.000000	18.718744
2236.000000	18.815088
2235.000000	18.886123
2234.000000	18.965802
2233.000000	19.018504
2232.000000	19.081206
2231.000000	19.114952
2230.000000	19.146407
2229.000000	19.172967
2228.000000	19.187445
2227.000000	19.172863
2226.000000	19.171717
2225.000000	19.177550
2224.000000	19.150157
2223.000000	19.118806
2222.000000	19.100579
2221.000000	19.064124
2220.000000	19.036315
2219.000000	18.979238
2218.000000	18.942679
2217.000000	18.882477
2216.000000	18.847897
2215.000000	18.814672
2214.000000	18.749783
2213.000000	18.691143
2212.000000	18.655834
2211.000000	18.612297
2210.000000	18.568760
2209.000000	18.516370
2208.000000	18.462522
2207.000000	18.417735
2206.000000	18.398466
2205.000000	18.368573
2204.000000	18.343263
2203.000000	18.313162
2202.000000	18.274208
2201.000000	18.251711
2200.000000	18.238170
2199.000000	18.183280
2198.000000	18.179427
2197.000000	18.153700
2196.000000	18.154638
2195.000000	18.120370
2194.000000	18.089020
2193.000000	18.090478
2192.000000	18.061835
2191.000000	18.051628
2190.000000	18.041420
2189.000000	18.032046
2188.000000	17.981010
2187.000000	17.973928
2186.000000	17.951847
2185.000000	17.930911
2184.000000	17.893415
2183.000000	17.881229
2182.000000	17.857898
2181.000000	17.838838
2180.000000	17.829985
2179.000000	17.808737
2178.000000	17.780615
2177.000000	17.763950
2176.000000	17.777698
2175.000000	17.788426
2174.000000	17.764471
2173.000000	17.777178
2172.000000	17.780302
2171.000000	17.775928
2170.000000	17.816028
2169.000000	17.829151
2168.000000	17.838317
2167.000000	17.863210
2166.000000	17.902060
2165.000000	17.936848
2164.000000	17.953826
2163.000000	17.981739
2162.000000	18.025693
2161.000000	18.083603
2160.000000	18.122558
2159.000000	18.181406
2158.000000	18.227338
2157.000000	18.271917
2156.000000	18.347221
2155.000000	18.395445
2154.000000	18.462001
2153.000000	18.532827
2152.000000	18.594174
2151.000000	18.658334
2150.000000	18.723119
2149.000000	18.801340
2148.000000	18.867479
2147.000000	18.927785
2146.000000	18.989757
2145.000000	19.052042
2144.000000	19.109640
2143.000000	19.169322
2142.000000	19.220775
2141.000000	19.288996
2140.000000	19.342637
2139.000000	19.385028
2138.000000	19.428044
2137.000000	19.474185
2136.000000	19.517514
2135.000000	19.546157
2134.000000	19.585528
2133.000000	19.618753
2132.000000	19.635626
2131.000000	19.655833
2130.000000	19.687496
2129.000000	19.709369
2128.000000	19.728533
2127.000000	19.730616
2126.000000	19.742073
2125.000000	19.748739
2124.000000	19.746656
2123.000000	19.723430
2122.000000	19.711452
2121.000000	19.698120
2120.000000	19.680830
2119.000000	19.649062
2118.000000	19.628544
2117.000000	19.622086
2116.000000	19.579070
2115.000000	19.542615
2114.000000	19.506994
2113.000000	19.473560
2112.000000	19.453979
2111.000000	19.417629
2110.000000	19.377320
2109.000000	19.338575
2108.000000	19.303474
2107.000000	19.262749
2106.000000	19.219941
2105.000000	19.185987
2104.000000	19.152657
2103.000000	19.113494
2102.000000	19.060062
2101.000000	19.027878
2100.000000	18.992778
2099.000000	18.944658
2098.000000	18.905495
2097.000000	18.876853
2096.000000	18.834253
2095.000000	18.802486
2094.000000	18.777905
2093.000000	18.742804
2092.000000	18.708433
2091.000000	18.698642
2090.000000	18.683644
2089.000000	18.646669
2088.000000	18.605319
2087.000000	18.575947
2086.000000	18.542409
2085.000000	18.515224
2084.000000	18.486061
2083.000000	18.441066
2082.000000	18.403882
2081.000000	18.354825
2080.000000	18.305767
2079.000000	18.269521
2078.000000	18.210257
2077.000000	18.149534
2076.000000	18.082562
2075.000000	18.013715
2074.000000	17.961950
2073.000000	17.894353
2072.000000	17.813007
2071.000000	17.743223
2070.000000	17.669793
2069.000000	17.599801
2068.000000	17.528975
2067.000000	17.437422
2066.000000	17.343474
2065.000000	17.269315
2064.000000	17.220362
2063.000000	17.142141
2062.000000	17.048401
2061.000000	16.976013
2060.000000	16.910603
2059.000000	16.851859
2058.000000	16.796761
2057.000000	16.734788
2056.000000	16.710103
2055.000000	16.691459
2054.000000	16.677503
2053.000000	16.674065
2052.000000	16.686043
2051.000000	16.727289
2050.000000	16.767493
2049.000000	16.799365
2048.000000	16.873940
2047.000000	16.954765
2046.000000	17.042360
2045.000000	17.138079
2044.000000	17.246192
2043.000000	17.356181
2042.000000	17.468564
2041.000000	17.580428
2040.000000	17.711768
2039.000000	17.824152
2038.000000	17.933307
2037.000000	18.051732
2036.000000	18.156617
2035.000000	18.258377
2034.000000	18.348992
2033.000000	18.424505
2032.000000	18.496268
2031.000000	18.582926
2030.000000	18.658542
2029.000000	18.698226
2028.000000	18.763531
2027.000000	18.806235
2026.000000	18.862792
2025.000000	18.905287
2024.000000	18.947054
2023.000000	18.986008
2022.000000	19.025379
2021.000000	19.049439
2020.000000	19.057042
2019.000000	19.081831
2018.000000	19.108911
2017.000000	19.109640
2016.000000	19.112973
2015.000000	19.109640
2014.000000	19.113494
2013.000000	19.117452
2012.000000	19.107974
2011.000000	19.095475
2010.000000	19.057667
2009.000000	19.033190
2008.000000	19.008297
2007.000000	18.974342
2006.000000	18.922994
2005.000000	18.887581
2004.000000	18.847585
2003.000000	18.805298
2002.000000	18.747283
2001.000000	18.682290
2000.000000	18.610735
1999.000000	18.532931
1998.000000	18.467625
1997.000000	18.393466
1996.000000	18.318683
1995.000000	18.226401
1994.000000	18.146409
1993.000000	18.056315
1992.000000	17.967991
1991.000000	17.874251
1990.000000	17.759992
1989.000000	17.661669
1988.000000	17.575845
1987.000000	17.460232
1986.000000	17.358368
1985.000000	17.263482
1984.000000	17.153702
1983.000000	17.041214
1982.000000	16.927372
1981.000000	16.806656
1980.000000	16.699688
1979.000000	16.603135
1978.000000	16.502000
1977.000000	16.391491
1976.000000	16.279732
1975.000000	16.185888
1974.000000	16.049132
1973.000000	15.963412
1972.000000	15.849465
1971.000000	15.760621
1970.000000	15.650216
1969.000000	15.547310
1968.000000	15.461902
1967.000000	15.358997
1966.000000	15.265569
1965.000000	15.184744
1964.000000	15.086213
1963.000000	15.005076
1962.000000	14.905607
1961.000000	14.804993
1960.000000	14.721981
1959.000000	14.648759
1958.000000	14.571372
1957.000000	14.481485
1956.000000	14.388370
1955.000000	14.296505
1954.000000	14.215889
1953.000000	14.137668
1952.000000	14.040282
1951.000000	14.010181
1950.000000	13.898526
1949.000000	13.828117
1948.000000	13.799683
1947.000000	13.726045
1946.000000	13.685216
1945.000000	13.601579
1944.000000	13.553980
1943.000000	13.509609
1942.000000	13.485237
1941.000000	13.490653
1940.000000	13.455448
1939.000000	13.462427
1938.000000	13.449616
1937.000000	13.424618
1936.000000	13.434617
1935.000000	13.431805
1934.000000	13.458677
1933.000000	13.500444
1932.000000	13.538877
1931.000000	13.606995
1930.000000	13.669384
1929.000000	13.759583
1928.000000	13.850302
1927.000000	13.928627
1926.000000	14.027992
1925.000000	14.141730
1924.000000	14.259426
1923.000000	14.397640
1922.000000	14.531793
1921.000000	14.685630
1920.000000	14.847280
1919.000000	15.030490
1918.000000	15.180161
1917.000000	15.359517
1916.000000	15.533145
1915.000000	15.758329
1914.000000	15.960599
1913.000000	16.222759
1912.000000	16.473982
1911.000000	16.691564
1910.000000	16.926539
1909.000000	17.165263
1908.000000	17.419716
1907.000000	17.701248
1906.000000	18.010486
1905.000000	18.370136
1904.000000	18.700517
1903.000000	19.052772
1902.000000	19.369925
1901.000000	19.722492
1900.000000	20.089224
1899.000000	20.465643
1898.000000	20.856955
1897.000000	21.213897
1896.000000	21.573754
1895.000000	21.942778
1894.000000	22.338256
1893.000000	22.744151
1892.000000	23.157128
1891.000000	23.670719
1890.000000	24.135774
1889.000000	24.593955
1888.000000	25.048282
1887.000000	25.529168
1886.000000	26.012971
1885.000000	26.556455
1884.000000	27.120979
1883.000000	27.709979
1882.000000	28.314498
1881.000000	28.866002
1880.000000	29.445420
1879.000000	29.946721
1878.000000	30.476873
1877.000000	31.023586
1876.000000	31.501347
1875.000000	31.971610
1874.000000	32.434582
1873.000000	32.897241
1872.000000	33.325841
1871.000000	33.688928
1870.000000	34.021601
1869.000000	34.311466
1868.000000	34.603519
1867.000000	34.779021
1866.000000	34.949524
1865.000000	35.095341
1864.000000	35.225536
1863.000000	35.350314
1862.000000	35.487175
1861.000000	35.622785
1860.000000	35.761937
1859.000000	35.887862
1858.000000	36.010140
1857.000000	36.095235
1856.000000	36.157104
1855.000000	36.176477
1854.000000	36.219493
1853.000000	36.255218
1852.000000	36.245219
1851.000000	36.246053
1850.000000	36.250636
1849.000000	36.270008
1848.000000	36.289590
1847.000000	36.315733
1846.000000	36.260114
1845.000000	36.180643
1844.000000	36.150438
1843.000000	36.120649
1842.000000	36.131065
1841.000000	36.138460
1840.000000	36.131065
1839.000000	36.115337
1838.000000	36.095235
1837.000000	36.065447
1836.000000	36.016910
1835.000000	35.952438
1834.000000	35.873384
1833.000000	35.795475
1832.000000	35.728503
1831.000000	35.682050
1830.000000	35.629868
1829.000000	35.583935
1828.000000	35.525608
1827.000000	35.447387
1826.000000	35.369583
1825.000000	35.316360
1824.000000	35.274072
1823.000000	35.232514
1822.000000	35.220328
1821.000000	35.244596
1820.000000	35.237930
1819.000000	35.188248
1818.000000	35.137212
1817.000000	35.108986
1816.000000	35.097216
1815.000000	35.087738
1814.000000	35.067011
1813.000000	35.045555
1812.000000	35.045138
1811.000000	35.023162
1810.000000	34.984936
1809.000000	34.934629
1808.000000	34.905882
1807.000000	34.863074
1806.000000	34.826203
1805.000000	34.767459
1804.000000	34.709236
1803.000000	34.671636
1802.000000	34.636536
1801.000000	34.599352
1800.000000	34.551545
1799.000000	34.492593
1798.000000	34.429995
1797.000000	34.377709
1796.000000	34.335005
1795.000000	34.298238
1794.000000	34.249806
1793.000000	34.200020
1792.000000	34.156483
1791.000000	34.101488
1790.000000	34.054098
1789.000000	34.001707
1788.000000	33.943484
1787.000000	33.899218
1786.000000	33.850786
1785.000000	33.802458
1784.000000	33.744339
1783.000000	33.662056
1782.000000	33.597896
1781.000000	33.538423
1780.000000	33.468222
1779.000000	33.407187
1778.000000	33.321467
1777.000000	33.223457
1776.000000	33.140028
1775.000000	33.043371
1774.000000	32.935779
1773.000000	32.834227
1772.000000	32.736946
1771.000000	32.616438
1770.000000	32.496242
1769.000000	32.374692
1768.000000	32.250747
1767.000000	32.136488
1766.000000	32.020251
1765.000000	31.931302
1764.000000	31.865371
1763.000000	31.832146
1762.000000	31.802774
1761.000000	31.806732
1760.000000	31.861101
1759.000000	31.915991
1758.000000	31.987650
1757.000000	32.050873
1756.000000	32.127114
1755.000000	32.195441
1754.000000	32.250747
1753.000000	32.291576
1752.000000	32.303658
1751.000000	32.324593
1750.000000	32.325427
1749.000000	32.311574
1748.000000	32.275745
1747.000000	32.208043
1746.000000	32.132531
1745.000000	32.031604
1744.000000	31.914845
1743.000000	31.791108
1742.000000	31.623834
1741.000000	31.441458
1740.000000	31.213565
1739.000000	30.992964
1738.000000	30.761634
1737.000000	30.549365
1736.000000	30.341575
1735.000000	30.194194
1734.000000	30.067958
1733.000000	29.975884
1732.000000	29.933389
1731.000000	29.928806
1730.000000	29.964740
1729.000000	30.030149
1728.000000	30.129097
1727.000000	30.223879
1726.000000	30.316786
1725.000000	30.398444
1724.000000	30.485518
1723.000000	30.554885
1722.000000	30.615712
1721.000000	30.704244
1720.000000	30.767779
1719.000000	30.879226
1718.000000	30.979111
1717.000000	31.080350
1716.000000	31.207733
1715.000000	31.345947
1714.000000	31.464268
1713.000000	31.590817
1712.000000	31.715491
1711.000000	31.813606
1710.000000	31.899639
1709.000000	31.982859
1708.000000	31.998586
1707.000000	32.028479
1706.000000	32.046394
1705.000000	32.035145
1704.000000	32.010773
1703.000000	31.967340
1702.000000	31.910992
1701.000000	31.837874
1700.000000	31.719970
1699.000000	31.593629
1698.000000	31.449374
1697.000000	31.326470
1696.000000	31.247312
1695.000000	31.176486
1694.000000	31.172320
1693.000000	31.219711
1692.000000	31.278767
1691.000000	31.419169
1690.000000	31.560404
1689.000000	31.692785
1688.000000	31.783713
1687.000000	31.877037
1686.000000	31.933697
1685.000000	32.035874
1684.000000	32.115657
1683.000000	32.278557
1682.000000	32.512178
1681.000000	32.852038
1680.000000	33.277930
1679.000000	33.743506
1678.000000	34.244182
1677.000000	34.772563
1676.000000	35.258137
1675.000000	35.712984
1674.000000	36.075862
1673.000000	36.375726
1672.000000	36.686735
1671.000000	36.952332
1670.000000	37.195119
1669.000000	37.393952
1668.000000	37.583307
1667.000000	37.706627
1666.000000	37.871401
1665.000000	38.020031
1664.000000	38.122833
1663.000000	38.231467
1662.000000	38.350934
1661.000000	38.424884
1660.000000	38.494981
1659.000000	38.574764
1658.000000	38.644236
1657.000000	38.699438
1656.000000	38.728706
1655.000000	38.750266
1654.000000	38.777659
1653.000000	38.804844
1652.000000	38.793074
1651.000000	38.794220
1650.000000	38.774639
1649.000000	38.767035
1648.000000	38.742767
1647.000000	38.710791
1646.000000	38.677462
1645.000000	38.644965
1644.000000	38.615489
1643.000000	38.562682
1642.000000	38.526644
1641.000000	38.497376
1640.000000	38.424363
1639.000000	38.386763
1638.000000	38.350309
1637.000000	38.309271
1636.000000	38.228759
1635.000000	38.188451
1634.000000	38.133769
1633.000000	38.065651
1632.000000	37.992951
1631.000000	37.915876
1630.000000	37.853486
1629.000000	37.762246
1628.000000	37.678297
1627.000000	37.627781
1626.000000	37.539770
1625.000000	37.456341
1624.000000	37.383120
1623.000000	37.300837
1622.000000	37.233031
1621.000000	37.162414
1620.000000	37.095963
1619.000000	37.006910
1618.000000	36.955040
1617.000000	36.880048
1616.000000	36.798911
1615.000000	36.738292
1614.000000	36.670383
1613.000000	36.590912
1612.000000	36.509983
1611.000000	36.435928
1610.000000	36.356041
1609.000000	36.290527
1608.000000	36.213035
1607.000000	36.146376
