PE UV       SUBTECH     SPECTRUM    ASCII       PEDS        4.00        
   -1
CICIMAUCR0236-3.ASC
24/06/17
17:27:19.00
24/06/17
17:27:19.00
Vinicio Soto Monge
C. resplendens. Sex M. Dorsal.
250,000000
1
Lambda 1050
1050L1511233
PerkinElmer UV WinLab 6.3.2.0749 / 2.02.05 Lambda 900 UV/VIS/NIR, Aug  7 2015 09:38:08

0
0
3350/servo 860,8/2
0
0
UV/VIS
1
1
1
DoubleDePol,CommonBeamDepol,RBeamAtt,SBeamAtt,60mm sphere, WB InGaAs Detector
0
0
0
0
Program
Program
3350/servo 860,8/2
3350/0,2 860,8/0,2
3350/0,2 860,8/0,2
0
15.00
 
 
 
0
 
860,8
319,2
860,8
Front
100
on
S:100 R:100
0
0
0
0
 
0
 
 
 
0
 
 
0
0
0
0
0
 
 
 
 
0
0


0
0
#HDR
-1
-1
#GR
nm
%R
1.0
0.0
2500,000000
-1,000000
2251
8
91,555400
5,465400
#DATA
2500.000000	9.618511
2499.000000	9.686315
2498.000000	9.654376
2497.000000	9.577234
2496.000000	9.574369
2495.000000	9.565562
2494.000000	9.458285
2493.000000	9.523118
2492.000000	9.471867
2491.000000	9.421571
2490.000000	9.387510
2489.000000	9.516433
2488.000000	9.406610
2487.000000	9.450327
2486.000000	9.521208
2485.000000	9.525559
2484.000000	9.488208
2483.000000	9.421465
2482.000000	9.428893
2481.000000	9.474414
2480.000000	9.495105
2479.000000	9.547311
2478.000000	9.587739
2477.000000	9.540202
2476.000000	9.570231
2475.000000	9.536276
2474.000000	9.569806
2473.000000	9.572035
2472.000000	9.590922
2471.000000	9.604610
2470.000000	9.641855
2469.000000	9.624665
2468.000000	9.667109
2467.000000	9.696819
2466.000000	9.717617
2465.000000	9.687057
2464.000000	9.754331
2463.000000	9.847707
2462.000000	9.820013
2461.000000	9.832533
2460.000000	9.883678
2459.000000	9.944585
2458.000000	9.998701
2457.000000	10.053241
2456.000000	10.090486
2455.000000	10.158077
2454.000000	10.236280
2453.000000	10.324988
2452.000000	10.371676
2451.000000	10.423776
2450.000000	10.498477
2449.000000	10.586123
2448.000000	10.685124
2447.000000	10.759506
2446.000000	10.838770
2445.000000	10.926629
2444.000000	10.991568
2443.000000	11.074439
2442.000000	11.155507
2441.000000	11.236575
2440.000000	11.312019
2439.000000	11.376215
2438.000000	11.441366
2437.000000	11.515643
2436.000000	11.627801
2435.000000	11.692103
2434.000000	11.745794
2433.000000	11.831000
2432.000000	11.912386
2431.000000	11.959923
2430.000000	12.023483
2429.000000	12.109856
2428.000000	12.187528
2427.000000	12.229229
2426.000000	12.280905
2425.000000	12.332474
2424.000000	12.402718
2423.000000	12.445693
2422.000000	12.489941
2421.000000	12.565809
2420.000000	12.625124
2419.000000	12.675102
2418.000000	12.699719
2417.000000	12.722002
2416.000000	12.784076
2415.000000	12.839147
2414.000000	12.890822
2413.000000	12.937829
2412.000000	12.966054
2411.000000	12.984199
2410.000000	13.035980
2409.000000	13.086382
2408.000000	13.125218
2407.000000	13.163099
2406.000000	13.188990
2405.000000	13.223157
2404.000000	13.258067
2403.000000	13.282154
2402.000000	13.320672
2401.000000	13.361206
2400.000000	13.395691
2399.000000	13.422856
2398.000000	13.455643
2397.000000	13.493418
2396.000000	13.534801
2395.000000	13.563981
2394.000000	13.591251
2393.000000	13.635075
2392.000000	13.668711
2391.000000	13.682718
2390.000000	13.700438
2389.000000	13.739062
2388.000000	13.772805
2387.000000	13.785750
2386.000000	13.795512
2385.000000	13.824798
2384.000000	13.847400
2383.000000	13.858860
2382.000000	13.875413
2381.000000	13.893239
2380.000000	13.886660
2379.000000	13.890586
2378.000000	13.884538
2377.000000	13.886872
2376.000000	13.902895
2375.000000	13.903001
2374.000000	13.878808
2373.000000	13.876580
2372.000000	13.874988
2371.000000	13.851220
2370.000000	13.838805
2369.000000	13.843049
2368.000000	13.827027
2367.000000	13.792435
2366.000000	13.780020
2365.000000	13.760920
2364.000000	13.728133
2363.000000	13.710837
2362.000000	13.678261
2361.000000	13.625631
2360.000000	13.586583
2359.000000	13.541062
2358.000000	13.501483
2357.000000	13.474849
2356.000000	13.438241
2355.000000	13.403544
2354.000000	13.381579
2353.000000	13.360675
2352.000000	13.334785
2351.000000	13.323643
2350.000000	13.327039
2349.000000	13.343273
2348.000000	13.349109
2347.000000	13.356431
2346.000000	13.379987
2345.000000	13.415958
2344.000000	13.452248
2343.000000	13.505197
2342.000000	13.543396
2341.000000	13.581171
2340.000000	13.628920
2339.000000	13.668393
2338.000000	13.696618
2337.000000	13.730149
2336.000000	13.756782
2335.000000	13.782142
2334.000000	13.792966
2333.000000	13.797740
2332.000000	13.794133
2331.000000	13.787448
2330.000000	13.769091
2329.000000	13.746383
2328.000000	13.725055
2327.000000	13.688235
2326.000000	13.658206
2325.000000	13.626055
2324.000000	13.581171
2323.000000	13.519521
2322.000000	13.458933
2321.000000	13.393145
2320.000000	13.317701
2319.000000	13.227932
2318.000000	13.136466
2317.000000	13.051578
2316.000000	12.955549
2315.000000	12.855276
2314.000000	12.751394
2313.000000	12.643587
2312.000000	12.531748
2311.000000	12.446966
2310.000000	12.350406
2309.000000	12.282390
2308.000000	12.204506
2307.000000	12.144978
2306.000000	12.089908
2305.000000	12.058711
2304.000000	12.038869
2303.000000	12.045129
2302.000000	12.071126
2301.000000	12.094789
2300.000000	12.145615
2299.000000	12.219573
2298.000000	12.290773
2297.000000	12.368870
2296.000000	12.437841
2295.000000	12.555622
2294.000000	12.651651
2293.000000	12.743012
2292.000000	12.823124
2291.000000	12.909498
2290.000000	12.975816
2289.000000	13.032266
2288.000000	13.089353
2287.000000	13.119382
2286.000000	13.150791
2285.000000	13.161402
2284.000000	13.165009
2283.000000	13.159067
2282.000000	13.115775
2281.000000	13.076090
2280.000000	13.054019
2279.000000	12.988974
2278.000000	12.930189
2277.000000	12.868221
2276.000000	12.832993
2275.000000	12.779513
2274.000000	12.723169
2273.000000	12.681999
2272.000000	12.661201
2271.000000	12.620986
2270.000000	12.605812
2269.000000	12.609208
2268.000000	12.651439
2267.000000	12.672343
2266.000000	12.713301
2265.000000	12.828005
2264.000000	12.916395
2263.000000	13.053276
2262.000000	13.183685
2261.000000	13.384126
2260.000000	13.557402
2259.000000	13.772380
2258.000000	13.992664
2257.000000	14.224831
2256.000000	14.470475
2255.000000	14.726199
2254.000000	14.995717
2253.000000	15.241467
2252.000000	15.489445
2251.000000	15.726387
2250.000000	15.984870
2249.000000	16.195710
2248.000000	16.413553
2247.000000	16.596273
2246.000000	16.764032
2245.000000	16.962882
2244.000000	17.106554
2243.000000	17.238448
2242.000000	17.375966
2241.000000	17.496613
2240.000000	17.615667
2239.000000	17.713288
2238.000000	17.786610
2237.000000	17.855581
2236.000000	17.975167
2235.000000	18.024083
2234.000000	18.078411
2233.000000	18.131466
2232.000000	18.168604
2231.000000	18.168286
2230.000000	18.239592
2229.000000	18.254129
2228.000000	18.289145
2227.000000	18.278003
2226.000000	18.261981
2225.000000	18.257418
2224.000000	18.259646
2223.000000	18.239485
2222.000000	18.225691
2221.000000	18.183566
2220.000000	18.148019
2219.000000	18.111411
2218.000000	18.084353
2217.000000	18.042334
2216.000000	17.989279
2215.000000	17.969331
2214.000000	17.916806
2213.000000	17.877652
2212.000000	17.828735
2211.000000	17.780349
2210.000000	17.765494
2209.000000	17.722944
2208.000000	17.674240
2207.000000	17.636783
2206.000000	17.627021
2205.000000	17.606224
2204.000000	17.576407
2203.000000	17.551471
2202.000000	17.518471
2201.000000	17.503828
2200.000000	17.482818
2199.000000	17.455760
2198.000000	17.454487
2197.000000	17.427960
2196.000000	17.416818
2195.000000	17.389442
2194.000000	17.374056
2193.000000	17.354850
2192.000000	17.328960
2191.000000	17.318242
2190.000000	17.331294
2189.000000	17.296384
2188.000000	17.280680
2187.000000	17.280255
2186.000000	17.244072
2185.000000	17.232082
2184.000000	17.216271
2183.000000	17.182847
2182.000000	17.175631
2181.000000	17.144117
2180.000000	17.112178
2179.000000	17.106766
2178.000000	17.098914
2177.000000	17.079178
2176.000000	17.072493
2175.000000	17.047663
2174.000000	17.057213
2173.000000	17.033763
2172.000000	17.024531
2171.000000	17.042994
2170.000000	17.027608
2169.000000	17.032489
2168.000000	17.044268
2167.000000	17.059335
2166.000000	17.070052
2165.000000	17.070158
2164.000000	17.097641
2163.000000	17.105493
2162.000000	17.114937
2161.000000	17.147194
2160.000000	17.184969
2159.000000	17.210647
2158.000000	17.260201
2157.000000	17.299355
2156.000000	17.323760
2155.000000	17.348908
2154.000000	17.399098
2153.000000	17.444194
2152.000000	17.494703
2151.000000	17.528552
2150.000000	17.555291
2149.000000	17.603889
2148.000000	17.655352
2147.000000	17.702571
2146.000000	17.740664
2145.000000	17.806771
2144.000000	17.848260
2143.000000	17.901420
2142.000000	17.937073
2141.000000	17.978562
2140.000000	18.012835
2139.000000	18.037983
2138.000000	18.075334
2137.000000	18.104514
2136.000000	18.135816
2135.000000	18.171469
2134.000000	18.190781
2133.000000	18.218370
2132.000000	18.237363
2131.000000	18.262936
2130.000000	18.271530
2129.000000	18.293283
2128.000000	18.307926
2127.000000	18.306334
2126.000000	18.307077
2125.000000	18.302090
2124.000000	18.302090
2123.000000	18.303151
2122.000000	18.302408
2121.000000	18.290206
2120.000000	18.269090
2119.000000	18.253174
2118.000000	18.234923
2117.000000	18.234392
2116.000000	18.208926
2115.000000	18.187173
2114.000000	18.168923
2113.000000	18.147276
2112.000000	18.124250
2111.000000	18.096556
2110.000000	18.056234
2109.000000	18.033739
2108.000000	18.007954
2107.000000	17.977713
2106.000000	17.934527
2105.000000	17.896858
2104.000000	17.857279
2103.000000	17.841044
2102.000000	17.819716
2101.000000	17.778546
2100.000000	17.737693
2099.000000	17.713288
2098.000000	17.687504
2097.000000	17.661188
2096.000000	17.635086
2095.000000	17.593278
2094.000000	17.571738
2093.000000	17.547227
2092.000000	17.522291
2091.000000	17.497249
2090.000000	17.468494
2089.000000	17.436130
2088.000000	17.411407
2087.000000	17.375223
2086.000000	17.347104
2085.000000	17.319197
2084.000000	17.292033
2083.000000	17.270493
2082.000000	17.234522
2081.000000	17.193670
2080.000000	17.140191
2079.000000	17.090425
2078.000000	17.049785
2077.000000	16.994290
2076.000000	16.933383
2075.000000	16.890091
2074.000000	16.849026
2073.000000	16.785360
2072.000000	16.722862
2071.000000	16.663865
2070.000000	16.595743
2069.000000	16.542263
2068.000000	16.482948
2067.000000	16.412598
2066.000000	16.359967
2065.000000	16.295559
2064.000000	16.219372
2063.000000	16.155706
2062.000000	16.088751
2061.000000	16.041002
2060.000000	16.001848
2059.000000	15.956751
2058.000000	15.911124
2057.000000	15.867513
2056.000000	15.852127
2055.000000	15.840031
2054.000000	15.833770
2053.000000	15.824008
2052.000000	15.836529
2051.000000	15.853931
2050.000000	15.880777
2049.000000	15.910063
2048.000000	15.957812
2047.000000	16.013838
2046.000000	16.069333
2045.000000	16.125784
2044.000000	16.190829
2043.000000	16.234440
2042.000000	16.287388
2041.000000	16.355935
2040.000000	16.433289
2039.000000	16.491013
2038.000000	16.545235
2037.000000	16.597547
2036.000000	16.663971
2035.000000	16.723074
2034.000000	16.755968
2033.000000	16.795122
2032.000000	16.827592
2031.000000	16.849132
2030.000000	16.867808
2029.000000	16.888393
2028.000000	16.915663
2027.000000	16.922454
2026.000000	16.944631
2025.000000	16.954287
2024.000000	16.944525
2023.000000	16.951528
2022.000000	16.942615
2021.000000	16.956833
2020.000000	16.961927
2019.000000	16.934338
2018.000000	16.919589
2017.000000	16.905264
2016.000000	16.885740
2015.000000	16.855393
2014.000000	16.841386
2013.000000	16.814010
2012.000000	16.762441
2011.000000	16.748010
2010.000000	16.708643
2009.000000	16.659833
2008.000000	16.611341
2007.000000	16.576112
2006.000000	16.528575
2005.000000	16.461939
2004.000000	16.408141
2003.000000	16.353813
2002.000000	16.278263
2001.000000	16.201227
2000.000000	16.140639
1999.000000	16.070819
1998.000000	15.981899
1997.000000	15.898603
1996.000000	15.856796
1995.000000	15.785278
1994.000000	15.697950
1993.000000	15.607439
1992.000000	15.522339
1991.000000	15.427795
1990.000000	15.354686
1989.000000	15.248258
1988.000000	15.168145
1987.000000	15.069994
1986.000000	14.975450
1985.000000	14.885788
1984.000000	14.777662
1983.000000	14.691183
1982.000000	14.588044
1981.000000	14.473022
1980.000000	14.375295
1979.000000	14.292529
1978.000000	14.210188
1977.000000	14.095059
1976.000000	13.996802
1975.000000	13.890905
1974.000000	13.785962
1973.000000	13.710094
1972.000000	13.600483
1971.000000	13.510290
1970.000000	13.418293
1969.000000	13.336695
1968.000000	13.233132
1967.000000	13.138906
1966.000000	13.071527
1965.000000	12.968919
1964.000000	12.879362
1963.000000	12.794581
1962.000000	12.722214
1961.000000	12.615680
1960.000000	12.531323
1959.000000	12.445587
1958.000000	12.355075
1957.000000	12.293744
1956.000000	12.215435
1955.000000	12.145933
1954.000000	12.060621
1953.000000	11.963956
1952.000000	11.892544
1951.000000	11.816357
1950.000000	11.751843
1949.000000	11.709717
1948.000000	11.645627
1947.000000	11.570926
1946.000000	11.509807
1945.000000	11.464604
1944.000000	11.400408
1943.000000	11.374093
1942.000000	11.324115
1941.000000	11.315945
1940.000000	11.279231
1939.000000	11.234453
1938.000000	11.225539
1937.000000	11.213761
1936.000000	11.189993
1935.000000	11.167816
1934.000000	11.190099
1933.000000	11.209835
1932.000000	11.221189
1931.000000	11.284961
1930.000000	11.302363
1929.000000	11.372819
1928.000000	11.394996
1927.000000	11.467469
1926.000000	11.524344
1925.000000	11.614325
1924.000000	11.718736
1923.000000	11.844052
1922.000000	11.920026
1921.000000	12.029956
1920.000000	12.150178
1919.000000	12.271249
1918.000000	12.399429
1917.000000	12.572175
1916.000000	12.759671
1915.000000	12.910877
1914.000000	13.083623
1913.000000	13.287990
1912.000000	13.480791
1911.000000	13.667120
1910.000000	13.914567
1909.000000	14.136230
1908.000000	14.370944
1907.000000	14.611601
1906.000000	14.869128
1905.000000	15.151274
1904.000000	15.439998
1903.000000	15.734346
1902.000000	16.029967
1901.000000	16.394347
1900.000000	16.705884
1899.000000	17.052544
1898.000000	17.414165
1897.000000	17.828842
1896.000000	18.243093
1895.000000	18.631242
1894.000000	19.032760
1893.000000	19.467279
1892.000000	19.878135
1891.000000	20.348731
1890.000000	20.894664
1889.000000	21.393167
1888.000000	21.870023
1887.000000	22.409484
1886.000000	22.935469
1885.000000	23.493393
1884.000000	24.039432
1883.000000	24.612318
1882.000000	25.227965
1881.000000	25.770185
1880.000000	26.355379
1879.000000	26.868737
1878.000000	27.363101
1877.000000	27.864469
1876.000000	28.379524
1875.000000	28.829853
1874.000000	29.284532
1873.000000	29.733694
1872.000000	30.177762
1871.000000	30.554557
1870.000000	30.933475
1869.000000	31.259549
1868.000000	31.617669
1867.000000	31.917110
1866.000000	32.175274
1865.000000	32.381976
1864.000000	32.593664
1863.000000	32.784343
1862.000000	32.970353
1861.000000	33.160395
1860.000000	33.329852
1859.000000	33.514801
1858.000000	33.665158
1857.000000	33.784638
1856.000000	33.888519
1855.000000	33.969587
1854.000000	34.056172
1853.000000	34.159098
1852.000000	34.187748
1851.000000	34.245790
1850.000000	34.308925
1849.000000	34.383732
1848.000000	34.411427
1847.000000	34.420976
1846.000000	34.419279
1845.000000	34.407925
1844.000000	34.396890
1843.000000	34.402832
1842.000000	34.436256
1841.000000	34.471591
1840.000000	34.481141
1839.000000	34.473288
1838.000000	34.452385
1837.000000	34.427237
1836.000000	34.402407
1835.000000	34.376941
1834.000000	34.349883
1833.000000	34.313912
1832.000000	34.279002
1831.000000	34.261706
1830.000000	34.245153
1829.000000	34.199526
1828.000000	34.155066
1827.000000	34.083124
1826.000000	34.025825
1825.000000	34.000252
1824.000000	33.953670
1823.000000	33.922580
1822.000000	33.920033
1821.000000	33.918654
1820.000000	33.891490
1819.000000	33.858490
1818.000000	33.809467
1817.000000	33.774451
1816.000000	33.761294
1815.000000	33.765962
1814.000000	33.755882
1813.000000	33.715136
1812.000000	33.713863
1811.000000	33.683515
1810.000000	33.644679
1809.000000	33.608814
1808.000000	33.576557
1807.000000	33.558518
1806.000000	33.534644
1805.000000	33.485727
1804.000000	33.423547
1803.000000	33.392032
1802.000000	33.366248
1801.000000	33.326563
1800.000000	33.285286
1799.000000	33.231276
1798.000000	33.171006
1797.000000	33.137476
1796.000000	33.090893
1795.000000	33.050147
1794.000000	33.016086
1793.000000	32.966215
1792.000000	32.921861
1791.000000	32.886208
1790.000000	32.840687
1789.000000	32.789118
1788.000000	32.749115
1787.000000	32.717812
1786.000000	32.676324
1785.000000	32.629105
1784.000000	32.597909
1783.000000	32.557056
1782.000000	32.504851
1781.000000	32.468031
1780.000000	32.413278
1779.000000	32.361072
1778.000000	32.308548
1777.000000	32.257934
1776.000000	32.208805
1775.000000	32.139940
1774.000000	32.068316
1773.000000	32.013988
1772.000000	31.954673
1771.000000	31.879335
1770.000000	31.821505
1769.000000	31.752746
1768.000000	31.669238
1767.000000	31.601752
1766.000000	31.541270
1765.000000	31.478135
1764.000000	31.433993
1763.000000	31.414787
1762.000000	31.402797
1761.000000	31.408845
1760.000000	31.429961
1759.000000	31.471980
1758.000000	31.519730
1757.000000	31.584881
1756.000000	31.634434
1755.000000	31.706589
1754.000000	31.772270
1753.000000	31.817579
1752.000000	31.859599
1751.000000	31.888460
1750.000000	31.907560
1749.000000	31.911486
1748.000000	31.903210
1747.000000	31.886975
1746.000000	31.858325
1745.000000	31.812061
1744.000000	31.764737
1743.000000	31.689187
1742.000000	31.603132
1741.000000	31.498826
1740.000000	31.365765
1739.000000	31.239070
1738.000000	31.105796
1737.000000	30.957561
1736.000000	30.823333
1735.000000	30.711600
1734.000000	30.638808
1733.000000	30.572384
1732.000000	30.516358
1731.000000	30.520708
1730.000000	30.550525
1729.000000	30.582570
1728.000000	30.650480
1727.000000	30.723378
1726.000000	30.800732
1725.000000	30.879253
1724.000000	30.946738
1723.000000	31.017407
1722.000000	31.076935
1721.000000	31.151105
1720.000000	31.222305
1719.000000	31.292019
1718.000000	31.361202
1717.000000	31.443331
1716.000000	31.521852
1715.000000	31.626794
1714.000000	31.721974
1713.000000	31.813229
1712.000000	31.898541
1711.000000	31.983959
1710.000000	32.045821
1709.000000	32.085612
1708.000000	32.134104
1707.000000	32.159040
1706.000000	32.156281
1705.000000	32.158933
1704.000000	32.110760
1703.000000	32.067785
1702.000000	32.022477
1701.000000	31.946502
1700.000000	31.861933
1699.000000	31.775135
1698.000000	31.637087
1697.000000	31.523019
1696.000000	31.418395
1695.000000	31.351440
1694.000000	31.304964
1693.000000	31.310482
1692.000000	31.326398
1691.000000	31.399189
1690.000000	31.486624
1689.000000	31.585942
1688.000000	31.693643
1687.000000	31.791370
1686.000000	31.859705
1685.000000	31.939393
1684.000000	31.995206
1683.000000	32.090175
1682.000000	32.221008
1681.000000	32.424950
1680.000000	32.700517
1679.000000	33.003884
1678.000000	33.356486
1677.000000	33.753866
1676.000000	34.107423
1675.000000	34.432330
1674.000000	34.730604
1673.000000	35.053495
1672.000000	35.286830
1671.000000	35.489393
1670.000000	35.678799
1669.000000	35.861413
1668.000000	35.995324
1667.000000	36.120745
1666.000000	36.228977
1665.000000	36.339225
1664.000000	36.406816
1663.000000	36.492447
1662.000000	36.549428
1661.000000	36.627949
1660.000000	36.674212
1659.000000	36.718142
1658.000000	36.728753
1657.000000	36.778412
1656.000000	36.798467
1655.000000	36.819158
1654.000000	36.815338
1653.000000	36.830406
1652.000000	36.810139
1651.000000	36.777669
1650.000000	36.782656
1649.000000	36.776290
1648.000000	36.746048
1647.000000	36.696389
1646.000000	36.676441
1645.000000	36.636756
1644.000000	36.594630
1643.000000	36.540727
1642.000000	36.497646
1641.000000	36.455308
1640.000000	36.395038
1639.000000	36.364266
1638.000000	36.313864
1637.000000	36.275347
1636.000000	36.235768
1635.000000	36.168282
1634.000000	36.107906
1633.000000	36.040208
1632.000000	35.992883
1631.000000	35.917545
1630.000000	35.854835
1629.000000	35.792654
1628.000000	35.708934
1627.000000	35.627017
1626.000000	35.596988
1625.000000	35.513798
1624.000000	35.439522
1623.000000	35.392091
