PE UV       SUBTECH     SPECTRUM    ASCII       PEDS        4.00        
   -1
CICIMAUCR0214-1.ASC
24/06/12
15:11:13.00
24/06/12
15:11:13.00
Vinicio Soto Monge
C. cupreomarginata. Sex M. Dorsal.
250,000000
1
Lambda 1050
1050L1511233
PerkinElmer UV WinLab 6.3.2.0749 / 2.02.05 Lambda 900 UV/VIS/NIR, Aug  7 2015 09:38:08

0
0
3350/servo 860,8/2
0
0
UV/VIS
1
1
1
DoubleDePol,CommonBeamDepol,RBeamAtt,SBeamAtt,60mm sphere, WB InGaAs Detector
0
0
0
0
Program
Program
3350/servo 860,8/2
3350/0,2 860,8/0,2
3350/0,2 860,8/0,2
0
15.00
 
 
 
0
 
860,8
319,2
860,8
Front
100
on
S:100 R:100
0
0
0
0
 
0
 
 
 
0
 
 
0
0
0
0
0
 
 
 
 
0
0


0
0
#HDR
-1
-1
#GR
nm
%R
1.0
0.0
2500,000000
-1,000000
2251
8
72,818800
4,857700
#DATA
2482.000000	13.799063
2481.000000	13.881185
2480.000000	13.818534
2479.000000	13.769704
2478.000000	13.854147
2477.000000	13.813389
2476.000000	13.763954
2475.000000	13.778784
2474.000000	13.747307
2473.000000	13.924465
2472.000000	13.897327
2471.000000	13.859090
2470.000000	13.892383
2469.000000	13.875939
2468.000000	13.912460
2467.000000	13.961088
2466.000000	13.970167
2465.000000	14.071156
2464.000000	14.036652
2463.000000	14.047044
2462.000000	14.133403
2461.000000	14.200291
2460.000000	14.287357
2459.000000	14.324282
2458.000000	14.403277
2457.000000	14.414980
2456.000000	14.512437
2455.000000	14.559652
2454.000000	14.686366
2453.000000	14.721475
2452.000000	14.849703
2451.000000	15.010517
2450.000000	15.123007
2449.000000	15.184144
2448.000000	15.340923
2447.000000	15.433740
2446.000000	15.527464
2445.000000	15.625224
2444.000000	15.759706
2443.000000	15.890961
2442.000000	15.964911
2441.000000	16.049152
2440.000000	16.140556
2439.000000	16.239930
2438.000000	16.339506
2437.000000	16.490332
2436.000000	16.575784
2435.000000	16.653971
2434.000000	16.770900
2433.000000	16.872897
2432.000000	16.975903
2431.000000	17.059034
2430.000000	17.161233
2429.000000	17.235183
2428.000000	17.325578
2427.000000	17.409113
2426.000000	17.453302
2425.000000	17.522813
2424.000000	17.632376
2423.000000	17.706226
2422.000000	17.762420
2421.000000	17.807920
2420.000000	17.865830
2419.000000	17.950575
2418.000000	18.004045
2417.000000	18.041575
2416.000000	18.086067
2415.000000	18.155982
2414.000000	18.194722
2413.000000	18.248394
2412.000000	18.287640
2411.000000	18.352712
2410.000000	18.372587
2409.000000	18.401138
2408.000000	18.438062
2407.000000	18.491129
2406.000000	18.523413
2405.000000	18.550552
2404.000000	18.551762
2403.000000	18.625915
2402.000000	18.674441
2401.000000	18.690382
2400.000000	18.701479
2399.000000	18.715805
2398.000000	18.763525
2397.000000	18.789655
2396.000000	18.815179
2395.000000	18.847463
2394.000000	18.860074
2393.000000	18.890138
2392.000000	18.923028
2391.000000	18.954505
2390.000000	18.998895
2389.000000	19.032995
2388.000000	19.022805
2387.000000	19.017357
2386.000000	19.015441
2385.000000	19.037737
2384.000000	19.042781
2383.000000	19.021897
2382.000000	19.018669
2381.000000	19.015037
2380.000000	19.017660
2379.000000	19.000913
2378.000000	18.983964
2377.000000	18.968528
2376.000000	18.950469
2375.000000	18.936345
2374.000000	18.913544
2373.000000	18.892762
2372.000000	18.869356
2371.000000	18.859267
2370.000000	18.852608
2369.000000	18.823048
2368.000000	18.790361
2367.000000	18.764836
2366.000000	18.746374
2365.000000	18.710660
2364.000000	18.676560
2363.000000	18.638425
2362.000000	18.604022
2361.000000	18.562658
2360.000000	18.511004
2359.000000	18.477913
2358.000000	18.441190
2357.000000	18.387821
2356.000000	18.330920
2355.000000	18.303176
2354.000000	18.271498
2353.000000	18.241231
2352.000000	18.221861
2351.000000	18.201885
2350.000000	18.202894
2349.000000	18.204609
2348.000000	18.215202
2347.000000	18.228015
2346.000000	18.250311
2345.000000	18.279569
2344.000000	18.305799
2343.000000	18.309330
2342.000000	18.331021
2341.000000	18.369056
2340.000000	18.398918
2339.000000	18.408603
2338.000000	18.408402
2337.000000	18.408301
2336.000000	18.408704
2335.000000	18.413143
2334.000000	18.420105
2333.000000	18.397304
2332.000000	18.384794
2331.000000	18.365424
2330.000000	18.324867
2329.000000	18.319722
2328.000000	18.306203
2327.000000	18.259492
2326.000000	18.227107
2325.000000	18.193007
2324.000000	18.143976
2323.000000	18.094339
2322.000000	18.042282
2321.000000	17.967726
2320.000000	17.881165
2319.000000	17.808526
2318.000000	17.739721
2317.000000	17.649124
2316.000000	17.558224
2315.000000	17.471259
2314.000000	17.359678
2313.000000	17.263835
2312.000000	17.178585
2311.000000	17.093336
2310.000000	16.989018
2309.000000	16.911234
2308.000000	16.864927
2307.000000	16.801771
2306.000000	16.778971
2305.000000	16.756776
2304.000000	16.718136
2303.000000	16.732361
2302.000000	16.752437
2301.000000	16.780989
2300.000000	16.813272
2299.000000	16.844144
2298.000000	16.907804
2297.000000	16.976811
2296.000000	17.044002
2295.000000	17.091621
2294.000000	17.158408
2293.000000	17.235688
2292.000000	17.282096
2291.000000	17.335364
2290.000000	17.366438
2289.000000	17.412240
2288.000000	17.445331
2287.000000	17.463188
2286.000000	17.469141
2285.000000	17.488309
2284.000000	17.476506
2283.000000	17.458649
2282.000000	17.436453
2281.000000	17.404472
2280.000000	17.390852
2279.000000	17.355844
2278.000000	17.327092
2277.000000	17.302677
2276.000000	17.271200
2275.000000	17.252738
2274.000000	17.230643
2273.000000	17.220756
2272.000000	17.201890
2271.000000	17.197350
2270.000000	17.206632
2269.000000	17.249307
2268.000000	17.278060
2267.000000	17.327192
2266.000000	17.400638
2265.000000	17.496582
2264.000000	17.605339
2263.000000	17.726000
2262.000000	17.871580
2261.000000	18.042382
2260.000000	18.242139
2259.000000	18.426460
2258.000000	18.640846
2257.000000	18.845546
2256.000000	19.060134
2255.000000	19.310233
2254.000000	19.516951
2253.000000	19.742434
2252.000000	19.966909
2251.000000	20.189970
2250.000000	20.408089
2249.000000	20.599976
2248.000000	20.774915
2247.000000	20.953990
2246.000000	21.131148
2245.000000	21.292870
2244.000000	21.430380
2243.000000	21.560524
2242.000000	21.682699
2241.000000	21.798013
2240.000000	21.896479
2239.000000	21.984049
2238.000000	22.055478
2237.000000	22.131244
2236.000000	22.181789
2235.000000	22.258160
2234.000000	22.292159
2233.000000	22.332312
2232.000000	22.343006
2231.000000	22.393854
2230.000000	22.421497
2229.000000	22.397687
2228.000000	22.410399
2227.000000	22.382453
2226.000000	22.355920
2225.000000	22.317482
2224.000000	22.314758
2223.000000	22.260581
2222.000000	22.195509
2221.000000	22.160400
2220.000000	22.098859
2219.000000	22.056386
2218.000000	22.013206
2217.000000	21.951463
2216.000000	21.885583
2215.000000	21.836653
2214.000000	21.780661
2213.000000	21.720229
2212.000000	21.660201
2211.000000	21.612381
2210.000000	21.585343
2209.000000	21.517950
2208.000000	21.467809
2207.000000	21.447430
2206.000000	21.420089
2205.000000	21.379634
2204.000000	21.359254
2203.000000	21.315873
2202.000000	21.311333
2201.000000	21.283286
2200.000000	21.248985
2199.000000	21.241922
2198.000000	21.211959
2197.000000	21.191580
2196.000000	21.178565
2195.000000	21.171705
2194.000000	21.149510
2193.000000	21.139017
2192.000000	21.108448
2191.000000	21.104312
2190.000000	21.096140
2189.000000	21.076467
2188.000000	21.056693
2187.000000	21.059720
2186.000000	21.044688
2185.000000	21.033086
2184.000000	21.017045
2183.000000	21.027234
2182.000000	21.007158
2181.000000	20.996262
2180.000000	20.964482
2179.000000	20.972856
2178.000000	20.961254
2177.000000	20.935326
2176.000000	20.949955
2175.000000	20.952880
2174.000000	20.948542
2173.000000	20.955705
2172.000000	20.965390
2171.000000	20.967912
2170.000000	20.978607
2169.000000	20.995858
2168.000000	21.025822
2167.000000	21.054171
2166.000000	21.075156
2165.000000	21.111072
2164.000000	21.155361
2163.000000	21.179070
2162.000000	21.214279
2161.000000	21.287423
2160.000000	21.323238
2159.000000	21.392446
2158.000000	21.444706
2157.000000	21.504633
2156.000000	21.566275
2155.000000	21.637098
2154.000000	21.706307
2153.000000	21.780156
2152.000000	21.849567
2151.000000	21.933707
2150.000000	22.015425
2149.000000	22.101987
2148.000000	22.176643
2147.000000	22.263406
2146.000000	22.340989
2145.000000	22.406666
2144.000000	22.487073
2143.000000	22.563042
2142.000000	22.626399
2141.000000	22.712456
2140.000000	22.786406
2139.000000	22.854808
2138.000000	22.922604
2137.000000	22.972947
2136.000000	23.040945
2135.000000	23.108943
2134.000000	23.163725
2133.000000	23.212251
2132.000000	23.259668
2131.000000	23.311323
2130.000000	23.350568
2129.000000	23.391831
2128.000000	23.427242
2127.000000	23.461241
2126.000000	23.494332
2125.000000	23.506641
2124.000000	23.532367
2123.000000	23.546087
2122.000000	23.579481
2121.000000	23.592294
2120.000000	23.591890
2119.000000	23.593404
2118.000000	23.582710
2117.000000	23.573932
2116.000000	23.582205
2115.000000	23.578573
2114.000000	23.567476
2113.000000	23.553452
2112.000000	23.539126
2111.000000	23.524397
2110.000000	23.495039
2109.000000	23.467093
2108.000000	23.453069
2107.000000	23.435313
2106.000000	23.421088
2105.000000	23.383962
2104.000000	23.360253
2103.000000	23.333720
2102.000000	23.304563
2101.000000	23.286706
2100.000000	23.261283
2099.000000	23.238381
2098.000000	23.222945
2097.000000	23.195000
2096.000000	23.185920
2095.000000	23.176840
2094.000000	23.149500
2093.000000	23.133156
2092.000000	23.122462
2091.000000	23.100872
2090.000000	23.080997
2089.000000	23.072422
2088.000000	23.059508
2087.000000	23.045182
2086.000000	23.032874
2085.000000	23.011486
2084.000000	22.984549
2083.000000	22.949541
2082.000000	22.917358
2081.000000	22.889816
2080.000000	22.843912
2079.000000	22.795385
2078.000000	22.749481
2077.000000	22.680676
2076.000000	22.604708
2075.000000	22.553155
2074.000000	22.495649
2073.000000	22.410399
2072.000000	22.333119
2071.000000	22.265424
2070.000000	22.182898
2069.000000	22.105921
2068.000000	22.025111
2067.000000	21.942181
2066.000000	21.864901
2065.000000	21.778340
2064.000000	21.675334
2063.000000	21.587058
2062.000000	21.513713
2061.000000	21.439561
2060.000000	21.380945
2059.000000	21.317285
2058.000000	21.251204
2057.000000	21.201265
2056.000000	21.164945
2055.000000	21.139421
2054.000000	21.124490
2053.000000	21.133872
2052.000000	21.157480
2051.000000	21.188553
2050.000000	21.222754
2049.000000	21.269969
2048.000000	21.350174
2047.000000	21.427252
2046.000000	21.506146
2045.000000	21.598256
2044.000000	21.710544
2043.000000	21.818695
2042.000000	21.926745
2041.000000	22.024102
2040.000000	22.123375
2039.000000	22.226986
2038.000000	22.340888
2037.000000	22.422707
2036.000000	22.483845
2035.000000	22.570507
2034.000000	22.657775
2033.000000	22.730817
2032.000000	22.801640
2031.000000	22.852386
2030.000000	22.907572
2029.000000	22.974662
2028.000000	23.015521
2027.000000	23.053959
2026.000000	23.080795
2025.000000	23.122159
2024.000000	23.166650
2023.000000	23.191469
2022.000000	23.211848
2021.000000	23.228494
2020.000000	23.241509
2019.000000	23.273187
2018.000000	23.262695
2017.000000	23.274701
2016.000000	23.290136
2015.000000	23.279341
2014.000000	23.288825
2013.000000	23.272178
2012.000000	23.256137
2011.000000	23.234245
2010.000000	23.213563
2009.000000	23.196614
2008.000000	23.157772
2007.000000	23.119536
2006.000000	23.071816
2005.000000	23.017942
2004.000000	22.973048
2003.000000	22.935618
2002.000000	22.865401
2001.000000	22.800429
2000.000000	22.746959
1999.000000	22.686528
1998.000000	22.602791
1997.000000	22.542763
1996.000000	22.465282
1995.000000	22.394862
1994.000000	22.299221
1993.000000	22.208019
1992.000000	22.132051
1991.000000	22.034190
1990.000000	21.942988
1989.000000	21.843211
1988.000000	21.742929
1987.000000	21.653744
1986.000000	21.559818
1985.000000	21.467103
1984.000000	21.364500
1983.000000	21.255643
1982.000000	21.172411
1981.000000	21.071423
1980.000000	20.952880
1979.000000	20.878930
1978.000000	20.765129
1977.000000	20.679375
1976.000000	20.582422
1975.000000	20.469529
1974.000000	20.380647
1973.000000	20.286520
1972.000000	20.182303
1971.000000	20.097961
1970.000000	19.997276
1969.000000	19.923426
1968.000000	19.842414
1967.000000	19.724476
1966.000000	19.644170
1965.000000	19.563965
1964.000000	19.469635
1963.000000	19.380350
1962.000000	19.303373
1961.000000	19.244354
1960.000000	19.142559
1959.000000	19.068003
1958.000000	18.987697
1957.000000	18.902043
1956.000000	18.823755
1955.000000	18.724986
1954.000000	18.645588
1953.000000	18.569317
1952.000000	18.498797
1951.000000	18.412639
1950.000000	18.348777
1949.000000	18.285016
1948.000000	18.227511
1947.000000	18.175655
1946.000000	18.108464
1945.000000	18.051765
1944.000000	18.003339
1943.000000	17.975393
1942.000000	17.936552
1941.000000	17.889942
1940.000000	17.875212
1939.000000	17.858566
1938.000000	17.860281
1937.000000	17.846258
1936.000000	17.876322
1935.000000	17.873901
1934.000000	17.887520
1933.000000	17.930498
1932.000000	17.967423
1931.000000	18.009695
1930.000000	18.069118
1929.000000	18.133080
1928.000000	18.235683
1927.000000	18.315384
1926.000000	18.434935
1925.000000	18.539252
1924.000000	18.656584
1923.000000	18.770789
1922.000000	18.893670
1921.000000	19.047119
1920.000000	19.255149
1919.000000	19.454300
1918.000000	19.617132
1917.000000	19.806801
1916.000000	20.002724
1915.000000	20.179579
1914.000000	20.367229
1913.000000	20.643560
1912.000000	20.923219
1911.000000	21.210950
1910.000000	21.435525
1909.000000	21.683607
1908.000000	21.930983
1907.000000	22.201562
1906.000000	22.511690
1905.000000	22.870546
1904.000000	23.244939
1903.000000	23.594009
1902.000000	23.930569
1901.000000	24.290131
1900.000000	24.665836
1899.000000	25.081592
1898.000000	25.539116
1897.000000	25.942968
1896.000000	26.339758
1895.000000	26.704970
1894.000000	27.078051
1893.000000	27.458497
1892.000000	27.886663
1891.000000	28.383634
1890.000000	28.887767
1889.000000	29.365368
1888.000000	29.780418
1887.000000	30.241675
1886.000000	30.698795
1885.000000	31.145121
1884.000000	31.625748
1883.000000	32.170237
1882.000000	32.635327
1881.000000	33.084982
1880.000000	33.545633
1879.000000	33.958868
1878.000000	34.363325
1877.000000	34.779082
1876.000000	35.174257
1875.000000	35.551878
1874.000000	35.917191
1873.000000	36.299958
1872.000000	36.649633
1871.000000	36.955422
1870.000000	37.286938
1869.000000	37.539459
1868.000000	37.801262
1867.000000	38.019077
1866.000000	38.177773
1865.000000	38.299241
1864.000000	38.417986
1863.000000	38.531786
1862.000000	38.635700
1861.000000	38.786628
1860.000000	38.927971
1859.000000	39.041368
1858.000000	39.155068
1857.000000	39.250407
1856.000000	39.310838
1855.000000	39.351798
1854.000000	39.403150
1853.000000	39.459950
1852.000000	39.453392
1851.000000	39.474982
1850.000000	39.503634
1849.000000	39.522802
1848.000000	39.564872
1847.000000	39.607043
1846.000000	39.593625
1845.000000	39.549538
1844.000000	39.522702
1843.000000	39.482145
1842.000000	39.504239
1841.000000	39.557508
1840.000000	39.539651
1839.000000	39.536826
1838.000000	39.513723
1837.000000	39.492940
1836.000000	39.471047
1835.000000	39.443606
1834.000000	39.389530
1833.000000	39.308821
1832.000000	39.248288
1831.000000	39.213684
1830.000000	39.179685
1829.000000	39.141650
1828.000000	39.100589
1827.000000	39.047926
1826.000000	38.999399
1825.000000	38.974581
1824.000000	38.920505
1823.000000	38.885901
1822.000000	38.891652
1821.000000	38.901841
1820.000000	38.897503
1819.000000	38.882975
1818.000000	38.833843
1817.000000	38.795102
1816.000000	38.780877
1815.000000	38.772604
1814.000000	38.765038
1813.000000	38.759186
1812.000000	38.740522
1811.000000	38.718832
1810.000000	38.684429
1809.000000	38.642258
1808.000000	38.622383
1807.000000	38.594538
1806.000000	38.560237
1805.000000	38.522000
1804.000000	38.473978
1803.000000	38.430496
1802.000000	38.392764
1801.000000	38.371577
1800.000000	38.337679
1799.000000	38.277450
1798.000000	38.232757
1797.000000	38.199665
1796.000000	38.162943
1795.000000	38.110178
1794.000000	38.069319
1793.000000	38.041172
1792.000000	38.008081
1791.000000	37.979429
1790.000000	37.953500
1789.000000	37.914760
1788.000000	37.863509
1787.000000	37.824264
1786.000000	37.789861
1785.000000	37.755055
1784.000000	37.704511
1783.000000	37.656993
1782.000000	37.616133
1781.000000	37.572046
1780.000000	37.530076
1779.000000	37.469443
1778.000000	37.410626
1777.000000	37.356248
1776.000000	37.287644
1775.000000	37.229937
1774.000000	37.163654
1773.000000	37.079009
1772.000000	37.006673
1771.000000	36.933631
1770.000000	36.840108
1769.000000	36.760004
1768.000000	36.696546
1767.000000	36.608875
1766.000000	36.529779
1765.000000	36.484178
1764.000000	36.430808
1763.000000	36.401753
1762.000000	36.395397
1761.000000	36.391866
1760.000000	36.393480
1759.000000	36.423343
1758.000000	36.454820
1757.000000	36.484380
1756.000000	36.526248
1755.000000	36.563273
1754.000000	36.582341
1753.000000	36.612103
1752.000000	36.628346
1751.000000	36.622696
1750.000000	36.612406
1749.000000	36.591017
1748.000000	36.559742
1747.000000	36.507584
1746.000000	36.447959
1745.000000	36.378448
1744.000000	36.306818
1743.000000	36.217331
1742.000000	36.113518
1741.000000	35.974899
1740.000000	35.821449
1739.000000	35.685655
1738.000000	35.548145
1737.000000	35.415882
1736.000000	35.288361
1735.000000	35.200790
1734.000000	35.108579
1733.000000	35.044314
1732.000000	35.014351
1731.000000	35.019294
1730.000000	35.020606
1729.000000	35.047946
1728.000000	35.095767
1727.000000	35.141771
1726.000000	35.183539
1725.000000	35.216226
1724.000000	35.243970
1723.000000	35.277969
1722.000000	35.333457
1721.000000	35.387634
1720.000000	35.462189
1719.000000	35.539671
1718.000000	35.618464
1717.000000	35.729541
1716.000000	35.842938
1715.000000	35.949374
1714.000000	36.071952
1713.000000	36.191302
1712.000000	36.294611
1711.000000	36.389243
1710.000000	36.444832
1709.000000	36.507785
1708.000000	36.560348
1707.000000	36.577095
1706.000000	36.591724
1705.000000	36.601913
1704.000000	36.563374
1703.000000	36.531090
1702.000000	36.505263
1701.000000	36.455324
1700.000000	36.385712
1699.000000	36.291584
1698.000000	36.198667
1697.000000	36.118764
1696.000000	36.075382
1695.000000	36.035734
1694.000000	36.005266
1693.000000	35.989124
1692.000000	36.035128
1691.000000	36.086985
1690.000000	36.152460
1689.000000	36.215818
1688.000000	36.274736
1687.000000	36.332544
1686.000000	36.397213
1685.000000	36.461983
1684.000000	36.552579
1683.000000	36.709762
1682.000000	36.885306
1681.000000	37.124610
1680.000000	37.432518
1679.000000	37.766153
1678.000000	38.130659
1677.000000	38.472263
1676.000000	38.821535
1675.000000	39.154160
1674.000000	39.436746
1673.000000	39.696026
1672.000000	39.943301
1671.000000	40.140132
1670.000000	40.328892
1669.000000	40.520981
1668.000000	40.684621
1667.000000	40.801448
1666.000000	40.933510
1665.000000	41.068699
1664.000000	41.171402
1663.000000	41.263512
1662.000000	41.369343
1661.000000	41.470129
1660.000000	41.555682
1659.000000	41.626807
1658.000000	41.693292
1657.000000	41.751605
1656.000000	41.797508
1655.000000	41.830398
1654.000000	41.867726
1653.000000	41.870046
1652.000000	41.889417
1651.000000	41.899001
1650.000000	41.905256
1649.000000	41.888912
1648.000000	41.874687
1647.000000	41.886996
1646.000000	41.881447
1645.000000	41.855620
1644.000000	41.820006
1643.000000	41.797206
1642.000000	41.780055
1641.000000	41.762601
1640.000000	41.718715
1639.000000	41.691779
1638.000000	41.671198
1637.000000	41.643050
1636.000000	41.605923
1635.000000	41.569301
1634.000000	41.531368
1633.000000	41.497268
1632.000000	41.453483
1631.000000	41.398096
1630.000000	41.359658
1629.000000	41.304270
1628.000000	41.238996
1627.000000	41.201567
1626.000000	41.130946
1625.000000	41.085547
1624.000000	41.039845
1623.000000	40.970737
1622.000000	40.925035
1621.000000	40.863494
1620.000000	40.810326
1619.000000	40.778143
1618.000000	40.721142
1617.000000	40.674633
1616.000000	40.622272
1615.000000	40.571022
1614.000000	40.502620
1613.000000	40.481535
1612.000000	40.432402
1611.000000	40.369449
1610.000000	40.312952
1609.000000	40.272799
1608.000000	40.201976
1607.000000	40.154761
