PE UV       SUBTECH     SPECTRUM    ASCII       PEDS        4.00        
   -1
CICIMAUCR0250-2.Sample.ASC
24/05/27
15:54:30.00
24/05/27
15:54:30.00
Vinicio Soto Monge
C. resplendens, M
250,000000
1
Lambda 1050
1050L1511233
PerkinElmer UV WinLab 6.3.2.0749 / 2.02.05 Lambda 900 UV/VIS/NIR, Aug  7 2015 09:38:08

0
0
3350/servo 860,8/2
0
0
UV/VIS
1
1
1
DoubleDePol,CommonBeamDepol,RBeamAtt,SBeamAtt,60mm sphere, WB InGaAs Detector
0
0
0
0
Program
Program
3350/servo 860,8/2
3350/0,2 860,8/0,2
3350/0,2 860,8/0,2
0
15.00
 
 
 
0
 
860,8
319,2
860,8
Front
100
on
S:100 R:100
0
0
0
0
 
0
 
 
 
0
 
 
0
0
0
0
0
 
 
 
 
0
0


0
0
#HDR
-1
-1
#GR
nm
%R
1.0
0.0
2500,000000
-1,000000
2251
8
93,577500
5,517900
#DATA
2482.000000	7.569634
2481.000000	7.531452
2480.000000	7.557981
2479.000000	7.529475
2478.000000	7.577853
2477.000000	7.573795
2476.000000	7.567345
2475.000000	7.520320
2474.000000	7.529787
2473.000000	7.520528
2472.000000	7.587528
2471.000000	7.546225
2470.000000	7.512205
2469.000000	7.527082
2468.000000	7.574835
2467.000000	7.596371
2466.000000	7.597620
2465.000000	7.610000
2464.000000	7.584303
2463.000000	7.600741
2462.000000	7.620092
2461.000000	7.655880
2460.000000	7.677728
2459.000000	7.698536
2458.000000	7.742335
2457.000000	7.752531
2456.000000	7.801636
2455.000000	7.833368
2454.000000	7.858961
2453.000000	7.920343
2452.000000	7.967784
2451.000000	8.013352
2450.000000	8.060377
2449.000000	8.098142
2448.000000	8.180019
2447.000000	8.213207
2446.000000	8.255966
2445.000000	8.325359
2444.000000	8.361252
2443.000000	8.420657
2442.000000	8.486408
2441.000000	8.543213
2440.000000	8.583995
2439.000000	8.638823
2438.000000	8.685951
2437.000000	8.732664
2436.000000	8.771886
2435.000000	8.811940
2434.000000	8.870201
2433.000000	8.911608
2432.000000	8.960401
2431.000000	9.008362
2430.000000	9.034060
2429.000000	9.078171
2428.000000	9.142986
2427.000000	9.168267
2426.000000	9.203640
2425.000000	9.235163
2424.000000	9.254722
2423.000000	9.297689
2422.000000	9.325363
2421.000000	9.356262
2420.000000	9.371452
2419.000000	9.397981
2418.000000	9.424511
2417.000000	9.442301
2416.000000	9.477882
2415.000000	9.524906
2414.000000	9.529484
2413.000000	9.542801
2412.000000	9.570787
2411.000000	9.590034
2410.000000	9.609489
2409.000000	9.626447
2408.000000	9.653496
2407.000000	9.664732
2406.000000	9.674616
2405.000000	9.710717
2404.000000	9.738182
2403.000000	9.751291
2402.000000	9.769394
2401.000000	9.774699
2400.000000	9.773451
2399.000000	9.776156
2398.000000	9.791033
2397.000000	9.813505
2396.000000	9.830567
2395.000000	9.846693
2394.000000	9.842115
2393.000000	9.857617
2392.000000	9.888724
2391.000000	9.896735
2390.000000	9.910364
2389.000000	9.921496
2388.000000	9.926698
2387.000000	9.920559
2386.000000	9.926073
2385.000000	9.947297
2384.000000	9.953331
2383.000000	9.937726
2382.000000	9.938558
2381.000000	9.933876
2380.000000	9.907763
2379.000000	9.908075
2378.000000	9.897983
2377.000000	9.881233
2376.000000	9.870934
2375.000000	9.851895
2374.000000	9.828279
2373.000000	9.815690
2372.000000	9.802165
2371.000000	9.772827
2370.000000	9.743176
2369.000000	9.716439
2368.000000	9.670870
2367.000000	9.633521
2366.000000	9.604703
2365.000000	9.575989
2364.000000	9.532397
2363.000000	9.483500
2362.000000	9.438972
2361.000000	9.387577
2360.000000	9.354702
2359.000000	9.309238
2358.000000	9.242342
2357.000000	9.200623
2356.000000	9.172637
2355.000000	9.133311
2354.000000	9.090031
2353.000000	9.053723
2352.000000	9.050289
2351.000000	9.038117
2350.000000	9.026465
2349.000000	9.037285
2348.000000	9.039469
2347.000000	9.037493
2346.000000	9.055699
2345.000000	9.089199
2344.000000	9.101996
2343.000000	9.136224
2342.000000	9.162857
2341.000000	9.187306
2340.000000	9.212795
2339.000000	9.223303
2338.000000	9.241718
2337.000000	9.236100
2336.000000	9.237348
2335.000000	9.233499
2334.000000	9.227568
2333.000000	9.209674
2332.000000	9.180336
2331.000000	9.159216
2330.000000	9.130086
2329.000000	9.096170
2328.000000	9.034372
2327.000000	9.000143
2326.000000	8.973510
2325.000000	8.906822
2324.000000	8.833164
2323.000000	8.764083
2322.000000	8.700725
2321.000000	8.645897
2320.000000	8.560067
2319.000000	8.486200
2318.000000	8.397873
2317.000000	8.318909
2316.000000	8.254614
2315.000000	8.163477
2314.000000	8.063706
2313.000000	7.987134
2312.000000	7.929394
2311.000000	7.854903
2310.000000	7.793521
2309.000000	7.732972
2308.000000	7.683658
2307.000000	7.652343
2306.000000	7.616034
2305.000000	7.605734
2304.000000	7.607295
2303.000000	7.627270
2302.000000	7.631432
2301.000000	7.663371
2300.000000	7.703737
2299.000000	7.745352
2298.000000	7.804549
2297.000000	7.889236
2296.000000	7.948537
2295.000000	8.017097
2294.000000	8.073381
2293.000000	8.109586
2292.000000	8.165974
2291.000000	8.212583
2290.000000	8.254302
2289.000000	8.297061
2288.000000	8.288010
2287.000000	8.306008
2286.000000	8.307256
2285.000000	8.307152
2284.000000	8.282288
2283.000000	8.272612
2282.000000	8.227876
2281.000000	8.199682
2280.000000	8.148288
2279.000000	8.113019
2278.000000	8.073797
2277.000000	8.068387
2276.000000	8.022611
2275.000000	7.987342
2274.000000	7.944791
2273.000000	7.917846
2272.000000	7.892669
2271.000000	7.913892
2270.000000	7.908586
2269.000000	7.918366
2268.000000	7.928874
2267.000000	7.958940
2266.000000	8.015016
2265.000000	8.108546
2264.000000	8.185949
2263.000000	8.277918
2262.000000	8.400370
2261.000000	8.538115
2260.000000	8.664520
2259.000000	8.826506
2258.000000	9.006386
2257.000000	9.178879
2256.000000	9.370723
2255.000000	9.552892
2254.000000	9.759302
2253.000000	9.965816
2252.000000	10.164734
2251.000000	10.343782
2250.000000	10.537083
2249.000000	10.700942
2248.000000	10.878533
2247.000000	11.040102
2246.000000	11.179512
2245.000000	11.325580
2244.000000	11.455835
2243.000000	11.566114
2242.000000	11.678058
2241.000000	11.791250
2240.000000	11.894143
2239.000000	11.989441
2238.000000	12.068821
2237.000000	12.118967
2236.000000	12.190024
2235.000000	12.273982
2234.000000	12.326209
2233.000000	12.378539
2232.000000	12.417449
2231.000000	12.454174
2230.000000	12.491316
2229.000000	12.532930
2228.000000	12.558732
2227.000000	12.537612
2226.000000	12.555298
2225.000000	12.574129
2224.000000	12.579123
2223.000000	12.578603
2222.000000	12.538548
2221.000000	12.560084
2220.000000	12.548120
2219.000000	12.506609
2218.000000	12.506193
2217.000000	12.461665
2216.000000	12.425356
2215.000000	12.408398
2214.000000	12.398931
2213.000000	12.354611
2212.000000	12.341294
2211.000000	12.286154
2210.000000	12.262746
2209.000000	12.269404
2208.000000	12.218634
2207.000000	12.219675
2206.000000	12.186383
2205.000000	12.176707
2204.000000	12.177644
2203.000000	12.136341
2202.000000	12.126354
2201.000000	12.084947
2200.000000	12.082034
2199.000000	12.068197
2198.000000	12.047493
2197.000000	12.042604
2196.000000	12.028767
2195.000000	12.021276
2194.000000	11.987360
2193.000000	11.989857
2192.000000	11.979973
2191.000000	11.963535
2190.000000	11.961767
2189.000000	11.920984
2188.000000	11.933365
2187.000000	11.917551
2186.000000	11.907043
2185.000000	11.901946
2184.000000	11.878121
2183.000000	11.871983
2182.000000	11.862203
2181.000000	11.832137
2180.000000	11.795412
2179.000000	11.809040
2178.000000	11.795620
2177.000000	11.784904
2176.000000	11.775957
2175.000000	11.763056
2174.000000	11.773148
2173.000000	11.774084
2172.000000	11.785008
2171.000000	11.787609
2170.000000	11.792395
2169.000000	11.793643
2168.000000	11.815803
2167.000000	11.826207
2166.000000	11.823502
2165.000000	11.839835
2164.000000	11.859915
2163.000000	11.865012
2162.000000	11.891126
2161.000000	11.925354
2160.000000	11.941480
2159.000000	11.969049
2158.000000	11.975292
2157.000000	12.005462
2156.000000	12.047389
2155.000000	12.085363
2154.000000	12.124481
2153.000000	12.147265
2152.000000	12.170569
2151.000000	12.214889
2150.000000	12.244540
2149.000000	12.280745
2148.000000	12.299991
2147.000000	12.346184
2146.000000	12.393729
2145.000000	12.422755
2144.000000	12.446788
2143.000000	12.476646
2142.000000	12.504944
2141.000000	12.544270
2140.000000	12.572777
2139.000000	12.604612
2138.000000	12.634158
2137.000000	12.634991
2136.000000	12.654654
2135.000000	12.673901
2134.000000	12.696581
2133.000000	12.723422
2132.000000	12.737571
2131.000000	12.743293
2130.000000	12.738300
2129.000000	12.749640
2128.000000	12.771696
2127.000000	12.767638
2126.000000	12.753905
2125.000000	12.750160
2124.000000	12.742253
2123.000000	12.739340
2122.000000	12.723214
2121.000000	12.707088
2120.000000	12.702823
2119.000000	12.677542
2118.000000	12.648516
2117.000000	12.630205
2116.000000	12.607421
2115.000000	12.602011
2114.000000	12.572464
2113.000000	12.548536
2112.000000	12.531266
2111.000000	12.503800
2110.000000	12.485073
2109.000000	12.450845
2108.000000	12.415369
2107.000000	12.394561
2106.000000	12.388007
2105.000000	12.349721
2104.000000	12.313828
2103.000000	12.292085
2102.000000	12.266387
2101.000000	12.240378
2100.000000	12.212808
2099.000000	12.183886
2098.000000	12.169321
2097.000000	12.145600
2096.000000	12.111164
2095.000000	12.099720
2094.000000	12.085155
2093.000000	12.067989
2092.000000	12.045829
2091.000000	12.023357
2090.000000	12.025646
2089.000000	12.009104
2088.000000	11.976124
2087.000000	11.958750
2086.000000	11.950219
2085.000000	11.940959
2084.000000	11.931076
2083.000000	11.897680
2082.000000	11.874168
2081.000000	11.858354
2080.000000	11.821629
2079.000000	11.796764
2078.000000	11.784800
2077.000000	11.751092
2076.000000	11.719881
2075.000000	11.692311
2074.000000	11.660580
2073.000000	11.628744
2072.000000	11.595348
2071.000000	11.567882
2070.000000	11.526788
2069.000000	11.488502
2068.000000	11.457707
2067.000000	11.430137
2066.000000	11.394765
2065.000000	11.346388
2064.000000	11.315176
2063.000000	11.300611
2062.000000	11.269504
2061.000000	11.238917
2060.000000	11.214052
2059.000000	11.187419
2058.000000	11.172438
2057.000000	11.162242
2056.000000	11.156416
2055.000000	11.160265
2054.000000	11.162034
2053.000000	11.170981
2052.000000	11.199591
2051.000000	11.231427
2050.000000	11.278763
2049.000000	11.325164
2048.000000	11.349093
2047.000000	11.406729
2046.000000	11.488502
2045.000000	11.552069
2044.000000	11.635611
2043.000000	11.703547
2042.000000	11.783135
2041.000000	11.867509
2040.000000	11.925666
2039.000000	11.999428
2038.000000	12.082450
2037.000000	12.147681
2036.000000	12.197515
2035.000000	12.265347
2034.000000	12.334012
2033.000000	12.385094
2032.000000	12.412768
2031.000000	12.474566
2030.000000	12.529185
2029.000000	12.564037
2028.000000	12.600138
2027.000000	12.652053
2026.000000	12.675565
2025.000000	12.707297
2024.000000	12.733306
2023.000000	12.739756
2022.000000	12.768470
2021.000000	12.784180
2020.000000	12.798537
2019.000000	12.801138
2018.000000	12.812686
2017.000000	12.834846
2016.000000	12.836198
2015.000000	12.833285
2014.000000	12.822674
2013.000000	12.814247
2012.000000	12.810605
2011.000000	12.808317
2010.000000	12.786365
2009.000000	12.772112
2008.000000	12.725919
2007.000000	12.708753
2006.000000	12.677334
2005.000000	12.649972
2004.000000	12.612727
2003.000000	12.567159
2002.000000	12.533763
2001.000000	12.483409
2000.000000	12.447724
1999.000000	12.396642
1998.000000	12.346288
1997.000000	12.287091
1996.000000	12.230807
1995.000000	12.170257
1994.000000	12.127186
1993.000000	12.046973
1992.000000	11.992874
1991.000000	11.916615
1990.000000	11.838483
1989.000000	11.756086
1988.000000	11.693247
1987.000000	11.637171
1986.000000	11.557271
1985.000000	11.490791
1984.000000	11.393308
1983.000000	11.345347
1982.000000	11.244223
1981.000000	11.177119
1980.000000	11.121667
1979.000000	11.038542
1978.000000	10.958745
1977.000000	10.899548
1976.000000	10.817671
1975.000000	10.745053
1974.000000	10.682631
1973.000000	10.609597
1972.000000	10.563405
1971.000000	10.471956
1970.000000	10.392368
1969.000000	10.333483
1968.000000	10.270956
1967.000000	10.219562
1966.000000	10.148297
1965.000000	10.087435
1964.000000	10.028966
1963.000000	9.970185
1962.000000	9.909948
1961.000000	9.856369
1960.000000	9.791033
1959.000000	9.731940
1958.000000	9.672431
1957.000000	9.610321
1956.000000	9.571827
1955.000000	9.504307
1954.000000	9.463212
1953.000000	9.370203
1952.000000	9.328797
1951.000000	9.300602
1950.000000	9.249936
1949.000000	9.216749
1948.000000	9.161921
1947.000000	9.143402
1946.000000	9.108238
1945.000000	9.070160
1944.000000	9.036348
1943.000000	9.025737
1942.000000	8.976423
1941.000000	8.985994
1940.000000	8.958737
1939.000000	8.967476
1938.000000	8.961962
1937.000000	8.971429
1936.000000	8.939802
1935.000000	8.946772
1934.000000	8.978608
1933.000000	8.977775
1932.000000	9.030418
1931.000000	9.091384
1930.000000	9.113648
1929.000000	9.164938
1928.000000	9.208530
1927.000000	9.267519
1926.000000	9.332334
1925.000000	9.396109
1924.000000	9.448439
1923.000000	9.545818
1922.000000	9.629568
1921.000000	9.743176
1920.000000	9.852103
1919.000000	9.952083
1918.000000	10.058721
1917.000000	10.152146
1916.000000	10.301959
1915.000000	10.433462
1914.000000	10.572352
1913.000000	10.709473
1912.000000	10.858246
1911.000000	11.065487
1910.000000	11.200944
1909.000000	11.355751
1908.000000	11.548219
1907.000000	11.739440
1906.000000	11.946265
1905.000000	12.151218
1904.000000	12.414744
1903.000000	12.617721
1902.000000	12.835574
1901.000000	13.080582
1900.000000	13.329646
1899.000000	13.592756
1898.000000	13.874593
1897.000000	14.122825
1896.000000	14.383750
1895.000000	14.654871
1894.000000	14.935042
1893.000000	15.209388
1892.000000	15.531279
1891.000000	15.873873
1890.000000	16.245910
1889.000000	16.614513
1888.000000	16.930266
1887.000000	17.304487
1886.000000	17.689320
1885.000000	18.117120
1884.000000	18.562711
1883.000000	19.053142
1882.000000	19.548254
1881.000000	20.040350
1880.000000	20.549299
1879.000000	21.029326
1878.000000	21.493124
1877.000000	21.977208
1876.000000	22.457963
1875.000000	22.894711
1874.000000	23.312212
1873.000000	23.731585
1872.000000	24.109864
1871.000000	24.479300
1870.000000	24.804104
1869.000000	25.081154
1868.000000	25.360598
1867.000000	25.564927
1866.000000	25.740333
1865.000000	25.879015
1864.000000	26.015823
1863.000000	26.149095
1862.000000	26.269050
1861.000000	26.420320
1860.000000	26.555256
1859.000000	26.660021
1858.000000	26.755943
1857.000000	26.802136
1856.000000	26.838340
1855.000000	26.886198
1854.000000	26.898994
1853.000000	26.918449
1852.000000	26.895873
1851.000000	26.896081
1850.000000	26.916264
1849.000000	26.922611
1848.000000	26.925524
1847.000000	26.900451
1846.000000	26.834803
1845.000000	26.771757
1844.000000	26.724316
1843.000000	26.693937
1842.000000	26.686654
1841.000000	26.678956
1840.000000	26.660229
1839.000000	26.640046
1838.000000	26.598639
1837.000000	26.556816
1836.000000	26.525917
1835.000000	26.459854
1834.000000	26.370902
1833.000000	26.288609
1832.000000	26.231804
1831.000000	26.185924
1830.000000	26.122669
1829.000000	26.041625
1828.000000	25.966198
1827.000000	25.887754
1826.000000	25.823355
1825.000000	25.760620
1824.000000	25.701111
1823.000000	25.659288
1822.000000	25.649093
1821.000000	25.643267
1820.000000	25.622043
1819.000000	25.566487
1818.000000	25.513220
1817.000000	25.491581
1816.000000	25.476911
1815.000000	25.467236
1814.000000	25.448197
1813.000000	25.430823
1812.000000	25.414697
1811.000000	25.377452
1810.000000	25.343328
1809.000000	25.309308
1808.000000	25.272582
1807.000000	25.242724
1806.000000	25.207455
1805.000000	25.149507
1804.000000	25.077721
1803.000000	25.040684
1802.000000	25.006248
1801.000000	24.961095
1800.000000	24.902523
1799.000000	24.828240
1798.000000	24.768523
1797.000000	24.727116
1796.000000	24.687790
1795.000000	24.647840
1794.000000	24.609970
1793.000000	24.558576
1792.000000	24.504061
1791.000000	24.455995
1790.000000	24.399607
1789.000000	24.344780
1788.000000	24.298587
1787.000000	24.231796
1786.000000	24.172286
1785.000000	24.118291
1784.000000	24.062527
1783.000000	24.007804
1782.000000	23.939451
1781.000000	23.854557
1780.000000	23.787349
1779.000000	23.732834
1778.000000	23.657199
1777.000000	23.564710
1776.000000	23.472117
1775.000000	23.388991
1774.000000	23.302224
1773.000000	23.196002
1772.000000	23.091029
1771.000000	22.974612
1770.000000	22.866517
1769.000000	22.763520
1768.000000	22.656778
1767.000000	22.569699
1766.000000	22.477730
1765.000000	22.387946
1764.000000	22.338009
1763.000000	22.306589
1762.000000	22.298371
1761.000000	22.306069
1760.000000	22.327397
1759.000000	22.376919
1758.000000	22.448080
1757.000000	22.531101
1756.000000	22.607985
1755.000000	22.673112
1754.000000	22.709733
1753.000000	22.745418
1752.000000	22.763936
1751.000000	22.765601
1750.000000	22.770595
1749.000000	22.751764
1748.000000	22.701826
1747.000000	22.645334
1746.000000	22.582184
1745.000000	22.504572
1744.000000	22.389299
1743.000000	22.247080
1742.000000	22.093626
1741.000000	21.915618
1740.000000	21.710977
1739.000000	21.505920
1738.000000	21.304816
1737.000000	21.109643
1736.000000	20.934132
1735.000000	20.795659
1734.000000	20.680802
1733.000000	20.627535
1732.000000	20.605999
1731.000000	20.623270
1730.000000	20.684651
1729.000000	20.741664
1728.000000	20.818755
1727.000000	20.904378
1726.000000	21.003525
1725.000000	21.075623
1724.000000	21.142519
1723.000000	21.206397
1722.000000	21.239585
1721.000000	21.266219
1720.000000	21.310747
1719.000000	21.350801
1718.000000	21.405212
1717.000000	21.451197
1716.000000	21.514555
1715.000000	21.589774
1714.000000	21.679350
1713.000000	21.768926
1712.000000	21.826354
1711.000000	21.882430
1710.000000	21.924877
1709.000000	21.942772
1708.000000	21.942876
1707.000000	21.945581
1706.000000	21.922589
1705.000000	21.886592
1704.000000	21.842688
1703.000000	21.776521
1702.000000	21.708792
1701.000000	21.610581
1700.000000	21.451821
1699.000000	21.299615
1698.000000	21.167904
1697.000000	21.025893
1696.000000	20.909268
1695.000000	20.826870
1694.000000	20.782550
1693.000000	20.811057
1692.000000	20.868901
1691.000000	20.980637
1690.000000	21.121295
1689.000000	21.248116
1688.000000	21.328745
1687.000000	21.393872
1686.000000	21.445683
1685.000000	21.475957
1684.000000	21.529537
1683.000000	21.638255
1682.000000	21.816055
1681.000000	22.096435
1680.000000	22.484285
1679.000000	22.931436
1678.000000	23.406886
1677.000000	23.877029
1676.000000	24.350710
1675.000000	24.769147
1674.000000	25.139311
1673.000000	25.476287
1672.000000	25.767487
1671.000000	26.052340
1670.000000	26.240752
1669.000000	26.433844
1668.000000	26.603945
1667.000000	26.761145
1666.000000	26.883597
1665.000000	26.975878
1664.000000	27.069199
1663.000000	27.200806
1662.000000	27.295479
1661.000000	27.343128
1660.000000	27.425214
1659.000000	27.459234
1658.000000	27.515102
1657.000000	27.567848
1656.000000	27.605510
1655.000000	27.636929
1654.000000	27.634224
1653.000000	27.649205
1652.000000	27.651390
1651.000000	27.638178
1650.000000	27.618723
1649.000000	27.591985
1648.000000	27.576380
1647.000000	27.538822
1646.000000	27.503137
1645.000000	27.463915
1644.000000	27.427398
1643.000000	27.387448
1642.000000	27.333349
1641.000000	27.295167
1640.000000	27.226399
1639.000000	27.174796
1638.000000	27.138175
1637.000000	27.063997
1636.000000	27.024047
1635.000000	26.959544
1634.000000	26.884741
1633.000000	26.818677
1632.000000	26.744499
1631.000000	26.685614
1630.000000	26.599263
1629.000000	26.529142
1628.000000	26.444456
1627.000000	26.383386
1626.000000	26.299428
1625.000000	26.211413
1624.000000	26.138691
1623.000000	26.051924
1622.000000	25.992831
1621.000000	25.918445
1620.000000	25.838544
1619.000000	25.761765
1618.000000	25.700487
1617.000000	25.617986
1616.000000	25.544639
1615.000000	25.465259
1614.000000	25.385671
1613.000000	25.322416
1612.000000	25.251983
1611.000000	25.171042
1610.000000	25.115382
1609.000000	25.056393
1608.000000	24.965153
1607.000000	24.893783
1606.000000	24.842597
1605.000000	24.750108
1604.000000	24.681132
1603.000000	24.595925
1602.000000	24.531006
1601.000000	24.456828
1600.000000	24.395342
1599.000000	24.320539
1598.000000	24.248650
1597.000000	24.195383
1596.000000	24.120268
1595.000000	24.039223
1594.000000	23.983251
