PE UV       SUBTECH     SPECTRUM    ASCII       PEDS        4.00        
   -1
CICIMAUCR0204-1.Sample.ASC
24/05/31
11:40:38.00
24/05/31
11:40:38.00
Vinicio Soto Monge
C. cupreomarginata. Sex M. Dorsal
250,000000
1
Lambda 1050
1050L1511233
PerkinElmer UV WinLab 6.3.2.0749 / 2.02.05 Lambda 900 UV/VIS/NIR, Aug  7 2015 09:38:08

0
0
3350/servo 860,8/2
0
0
UV/VIS
1
1
1
DoubleDePol,CommonBeamDepol,RBeamAtt,SBeamAtt,60mm sphere, WB InGaAs Detector
0
0
0
0
Program
Program
3350/servo 860,8/2
3350/0,2 860,8/0,2
3350/0,2 860,8/0,2
0
15.00
 
 
 
0
 
860,8
319,2
860,8
Front
100
on
S:100 R:100
0
0
0
0
 
0
 
 
 
0
 
 
0
0
0
0
0
 
 
 
 
0
0


0
0
#HDR
-1
-1
#GR
nm
%R
1.0
0.0
2500,000000
-1,000000
2251
8
68,478300
5,084100
#DATA
2482.000000	10.882910
2481.000000	10.880147
2480.000000	10.868135
2479.000000	10.868986
2478.000000	10.887056
2477.000000	10.898854
2476.000000	10.935632
2475.000000	10.909590
2474.000000	10.922983
2473.000000	10.927766
2472.000000	10.942222
2471.000000	10.958804
2470.000000	10.928510
2469.000000	10.942010
2468.000000	10.969115
2467.000000	10.955828
2466.000000	11.018648
2465.000000	11.022793
2464.000000	11.039269
2463.000000	11.095498
2462.000000	11.146413
2461.000000	11.172030
2460.000000	11.228472
2459.000000	11.274179
2458.000000	11.356237
2457.000000	11.418738
2456.000000	11.424903
2455.000000	11.524926
2454.000000	11.597950
2453.000000	11.690957
2452.000000	11.779394
2451.000000	11.834773
2450.000000	11.938197
2449.000000	12.035137
2448.000000	12.099232
2447.000000	12.211266
2446.000000	12.304911
2445.000000	12.379317
2444.000000	12.468923
2443.000000	12.530892
2442.000000	12.617097
2441.000000	12.715844
2440.000000	12.766440
2439.000000	12.843290
2438.000000	12.952773
2437.000000	13.027817
2436.000000	13.092337
2435.000000	13.159621
2434.000000	13.237960
2433.000000	13.316192
2432.000000	13.372422
2431.000000	13.422593
2430.000000	13.478928
2429.000000	13.548020
2428.000000	13.609883
2427.000000	13.645385
2426.000000	13.695449
2425.000000	13.746152
2424.000000	13.784205
2423.000000	13.834163
2422.000000	13.875830
2421.000000	13.909951
2420.000000	13.936949
2419.000000	13.993391
2418.000000	14.037929
2417.000000	14.090757
2416.000000	14.121050
2415.000000	14.148687
2414.000000	14.170902
2413.000000	14.216396
2412.000000	14.251473
2411.000000	14.278259
2410.000000	14.310147
2409.000000	14.331619
2408.000000	14.367546
2407.000000	14.399860
2406.000000	14.439507
2405.000000	14.476816
2404.000000	14.516570
2403.000000	14.556218
2402.000000	14.610322
2401.000000	14.672610
2400.000000	14.725970
2399.000000	14.765511
2398.000000	14.790809
2397.000000	14.811005
2396.000000	14.835665
2395.000000	14.878820
2394.000000	14.909858
2393.000000	14.936963
2392.000000	14.973316
2391.000000	15.008605
2390.000000	15.027951
2389.000000	15.060370
2388.000000	15.097361
2387.000000	15.106821
2386.000000	15.109903
2385.000000	15.119257
2384.000000	15.115856
2383.000000	15.132544
2382.000000	15.156141
2381.000000	15.154228
2380.000000	15.139028
2379.000000	15.135201
2378.000000	15.127973
2377.000000	15.126911
2376.000000	15.119257
2375.000000	15.094597
2374.000000	15.084499
2373.000000	15.072594
2372.000000	15.043363
2371.000000	15.027526
2370.000000	14.999995
2369.000000	14.959604
2368.000000	14.919212
2367.000000	14.870423
2366.000000	14.825567
2365.000000	14.771782
2364.000000	14.717891
2363.000000	14.663469
2362.000000	14.597992
2361.000000	14.548778
2360.000000	14.502327
2359.000000	14.446416
2358.000000	14.381683
2357.000000	14.327473
2356.000000	14.298243
2355.000000	14.270181
2354.000000	14.239675
2353.000000	14.217459
2352.000000	14.204598
2351.000000	14.197263
2350.000000	14.208637
2349.000000	14.241800
2348.000000	14.287401
2347.000000	14.314824
2346.000000	14.341611
2345.000000	14.397415
2344.000000	14.441952
2343.000000	14.492335
2342.000000	14.525074
2341.000000	14.562915
2340.000000	14.606920
2339.000000	14.618825
2338.000000	14.629348
2337.000000	14.657197
2336.000000	14.642104
2335.000000	14.632856
2334.000000	14.638277
2333.000000	14.604901
2332.000000	14.571950
2331.000000	14.526775
2330.000000	14.482237
2329.000000	14.424307
2328.000000	14.360637
2327.000000	14.293140
2326.000000	14.227982
2325.000000	14.136676
2324.000000	14.037078
2323.000000	13.927383
2322.000000	13.831187
2321.000000	13.716389
2320.000000	13.593939
2319.000000	13.468086
2318.000000	13.328735
2317.000000	13.188321
2316.000000	13.059492
2315.000000	12.919609
2314.000000	12.801623
2313.000000	12.683318
2312.000000	12.558423
2311.000000	12.453510
2310.000000	12.350618
2309.000000	12.270685
2308.000000	12.212329
2307.000000	12.169918
2306.000000	12.141963
2305.000000	12.129739
2304.000000	12.148978
2303.000000	12.175233
2302.000000	12.231143
2301.000000	12.294813
2300.000000	12.366243
2299.000000	12.452660
2298.000000	12.572241
2297.000000	12.664398
2296.000000	12.767609
2295.000000	12.848605
2294.000000	12.928857
2293.000000	13.001243
2292.000000	13.063000
2291.000000	13.121674
2290.000000	13.151968
2289.000000	13.186726
2288.000000	13.194911
2287.000000	13.206391
2286.000000	13.185344
2285.000000	13.156858
2284.000000	13.106155
2283.000000	13.053753
2282.000000	13.011554
2281.000000	12.959576
2280.000000	12.882300
2279.000000	12.815016
2278.000000	12.757511
2277.000000	12.698943
2276.000000	12.641970
2275.000000	12.580957
2274.000000	12.551195
2273.000000	12.525152
2272.000000	12.490501
2271.000000	12.482741
2270.000000	12.514204
2269.000000	12.552045
2268.000000	12.570965
2267.000000	12.647178
2266.000000	12.756023
2265.000000	12.879749
2264.000000	13.021971
2263.000000	13.170357
2262.000000	13.354671
2261.000000	13.572042
2260.000000	13.787925
2259.000000	14.042074
2258.000000	14.302069
2257.000000	14.527944
2256.000000	14.810261
2255.000000	15.064197
2254.000000	15.309736
2253.000000	15.564098
2252.000000	15.804110
2251.000000	16.041889
2250.000000	16.258835
2249.000000	16.443362
2248.000000	16.648509
2247.000000	16.842389
2246.000000	17.009271
2245.000000	17.189120
2244.000000	17.303918
2243.000000	17.427538
2242.000000	17.548819
2241.000000	17.644271
2240.000000	17.740680
2239.000000	17.850375
2238.000000	17.921380
2237.000000	18.018320
2236.000000	18.065302
2235.000000	18.160328
2234.000000	18.197638
2233.000000	18.228357
2232.000000	18.279059
2231.000000	18.337733
2230.000000	18.335501
2229.000000	18.356866
2228.000000	18.353252
2227.000000	18.367070
2226.000000	18.380676
2225.000000	18.364200
2224.000000	18.356866
2223.000000	18.351445
2222.000000	18.303506
2221.000000	18.253017
2220.000000	18.269386
2219.000000	18.245789
2218.000000	18.194768
2217.000000	18.155226
2216.000000	18.123338
2215.000000	18.090387
2214.000000	18.068384
2213.000000	18.021721
2212.000000	17.982392
2211.000000	17.958582
2210.000000	17.939450
2209.000000	17.892786
2208.000000	17.878012
2207.000000	17.868445
2206.000000	17.816893
2205.000000	17.784685
2204.000000	17.781071
2203.000000	17.758750
2202.000000	17.739085
2201.000000	17.721334
2200.000000	17.685088
2199.000000	17.684131
2198.000000	17.655751
2197.000000	17.622268
2196.000000	17.628752
2195.000000	17.603242
2194.000000	17.582727
2193.000000	17.589317
2192.000000	17.559661
2191.000000	17.563594
2190.000000	17.550307
2189.000000	17.522139
2188.000000	17.520013
2187.000000	17.499711
2186.000000	17.468780
2185.000000	17.452517
2184.000000	17.448265
2183.000000	17.437104
2182.000000	17.415633
2181.000000	17.431683
2180.000000	17.408086
2179.000000	17.397882
2178.000000	17.385339
2177.000000	17.364293
2176.000000	17.360998
2175.000000	17.378642
2174.000000	17.388209
2173.000000	17.368332
2172.000000	17.360998
2171.000000	17.371521
2170.000000	17.409361
2169.000000	17.415739
2168.000000	17.411062
2167.000000	17.426475
2166.000000	17.437742
2165.000000	17.477177
2164.000000	17.491420
2163.000000	17.516931
2162.000000	17.546481
2161.000000	17.571353
2160.000000	17.602604
2159.000000	17.648417
2158.000000	17.694654
2157.000000	17.740148
2156.000000	17.779477
2155.000000	17.820507
2154.000000	17.843253
2153.000000	17.886621
2152.000000	17.947740
2151.000000	18.005883
2150.000000	18.038834
2149.000000	18.065514
2148.000000	18.121106
2147.000000	18.151719
2146.000000	18.175316
2145.000000	18.241112
2144.000000	18.285224
2143.000000	18.327210
2142.000000	18.348363
2141.000000	18.373767
2140.000000	18.400553
2139.000000	18.438712
2138.000000	18.466136
2137.000000	18.495367
2136.000000	18.530657
2135.000000	18.533208
2134.000000	18.554360
2133.000000	18.561907
2132.000000	18.571155
2131.000000	18.576363
2130.000000	18.589862
2129.000000	18.594858
2128.000000	18.590075
2127.000000	18.594221
2126.000000	18.560100
2125.000000	18.548514
2124.000000	18.552872
2123.000000	18.548089
2122.000000	18.525023
2121.000000	18.504296
2120.000000	18.481655
2119.000000	18.452743
2118.000000	18.422768
2117.000000	18.385884
2116.000000	18.349957
2115.000000	18.329761
2114.000000	18.292877
2113.000000	18.246533
2112.000000	18.211987
2111.000000	18.173934
2110.000000	18.146298
2109.000000	18.109520
2108.000000	18.066683
2107.000000	18.013218
2106.000000	17.967724
2105.000000	17.952205
2104.000000	17.920529
2103.000000	17.860048
2102.000000	17.815298
2101.000000	17.780646
2100.000000	17.757262
2099.000000	17.707729
2098.000000	17.670526
2097.000000	17.635024
2096.000000	17.588042
2095.000000	17.557854
2094.000000	17.525434
2093.000000	17.483873
2092.000000	17.458788
2091.000000	17.449647
2090.000000	17.406173
2089.000000	17.359191
2088.000000	17.333786
2087.000000	17.307107
2086.000000	17.269691
2085.000000	17.228555
2084.000000	17.196136
2083.000000	17.169881
2082.000000	17.134379
2081.000000	17.074854
2080.000000	17.016818
2079.000000	16.979508
2078.000000	16.921153
2077.000000	16.873533
2076.000000	16.836862
2075.000000	16.763200
2074.000000	16.698999
2073.000000	16.660839
2072.000000	16.597275
2071.000000	16.542853
2070.000000	16.498209
2069.000000	16.440279
2068.000000	16.393191
2067.000000	16.330796
2066.000000	16.268827
2065.000000	16.202712
2064.000000	16.139999
2063.000000	16.088021
2062.000000	16.036256
2061.000000	15.994801
2060.000000	15.932725
2059.000000	15.902006
2058.000000	15.885956
2057.000000	15.867036
2056.000000	15.859489
2055.000000	15.839293
2054.000000	15.848222
2053.000000	15.875964
2052.000000	15.887550
2051.000000	15.912848
2050.000000	15.948350
2049.000000	15.990868
2048.000000	16.042740
2047.000000	16.107685
2046.000000	16.165828
2045.000000	16.241297
2044.000000	16.323993
2043.000000	16.385431
2042.000000	16.467597
2041.000000	16.535093
2040.000000	16.609074
2039.000000	16.681673
2038.000000	16.743004
2037.000000	16.803060
2036.000000	16.864073
2035.000000	16.919771
2034.000000	16.985142
2033.000000	17.026278
2032.000000	17.059229
2031.000000	17.099727
2030.000000	17.135973
2029.000000	17.167543
2028.000000	17.196880
2027.000000	17.208147
2026.000000	17.227918
2025.000000	17.249070
2024.000000	17.283403
2023.000000	17.294989
2022.000000	17.277982
2021.000000	17.294776
2020.000000	17.314547
2019.000000	17.306044
2018.000000	17.329216
2017.000000	17.308382
2016.000000	17.291588
2015.000000	17.289674
2014.000000	17.266290
2013.000000	17.245775
2012.000000	17.214206
2011.000000	17.187526
2010.000000	17.164035
2009.000000	17.130552
2008.000000	17.092712
2007.000000	17.075705
2006.000000	17.048174
2005.000000	16.988756
2004.000000	16.950384
2003.000000	16.879698
2002.000000	16.826020
2001.000000	16.772873
2000.000000	16.710904
1999.000000	16.642663
1998.000000	16.591961
1997.000000	16.520531
1996.000000	16.458243
1995.000000	16.395529
1994.000000	16.296995
1993.000000	16.232687
1992.000000	16.157112
1991.000000	16.068994
1990.000000	15.997777
1989.000000	15.932300
1988.000000	15.855024
1987.000000	15.761167
1986.000000	15.661463
1985.000000	15.572814
1984.000000	15.481082
1983.000000	15.406464
1982.000000	15.321854
1981.000000	15.220874
1980.000000	15.131162
1979.000000	15.048147
1978.000000	14.978843
1977.000000	14.861282
1976.000000	14.791766
1975.000000	14.704392
1974.000000	14.623077
1973.000000	14.536873
1972.000000	14.456089
1971.000000	14.387530
1970.000000	14.312486
1969.000000	14.227238
1968.000000	14.140715
1967.000000	14.075344
1966.000000	14.006572
1965.000000	13.923344
1964.000000	13.856485
1963.000000	13.783992
1962.000000	13.709374
1961.000000	13.630397
1960.000000	13.567578
1959.000000	13.483180
1958.000000	13.421105
1957.000000	13.353395
1956.000000	13.292701
1955.000000	13.210855
1954.000000	13.176309
1953.000000	13.096589
1952.000000	13.033238
1951.000000	12.971800
1950.000000	12.918865
1949.000000	12.860829
1948.000000	12.805769
1947.000000	12.786848
1946.000000	12.722753
1945.000000	12.712974
1944.000000	12.675240
1943.000000	12.630596
1942.000000	12.624644
1941.000000	12.628364
1940.000000	12.591480
1939.000000	12.594562
1938.000000	12.594562
1937.000000	12.615502
1936.000000	12.591586
1935.000000	12.611995
1934.000000	12.636230
1933.000000	12.646859
1932.000000	12.738591
1931.000000	12.760487
1930.000000	12.841802
1929.000000	12.914401
1928.000000	12.989870
1927.000000	13.094782
1926.000000	13.171739
1925.000000	13.269423
1924.000000	13.375611
1923.000000	13.503589
1922.000000	13.604143
1921.000000	13.776764
1920.000000	13.910269
1919.000000	14.071943
1918.000000	14.190248
1917.000000	14.351390
1916.000000	14.499776
1915.000000	14.699821
1914.000000	14.878608
1913.000000	15.100124
1912.000000	15.317070
1911.000000	15.518816
1910.000000	15.704937
1909.000000	15.888507
1908.000000	16.140211
1907.000000	16.354181
1906.000000	16.618959
1905.000000	16.923598
1904.000000	17.190396
1903.000000	17.447521
1902.000000	17.728456
1901.000000	18.011411
1900.000000	18.303188
1899.000000	18.620794
1898.000000	18.933405
1897.000000	19.275034
1896.000000	19.559901
1895.000000	19.829144
1894.000000	20.150790
1893.000000	20.460424
1892.000000	20.833197
1891.000000	21.250295
1890.000000	21.637418
1889.000000	22.006151
1888.000000	22.418041
1887.000000	22.794534
1886.000000	23.205785
1885.000000	23.635000
1884.000000	24.130330
1883.000000	24.628956
1882.000000	25.116207
1881.000000	25.612388
1880.000000	26.074979
1879.000000	26.550964
1878.000000	27.009303
1877.000000	27.464667
1876.000000	27.893776
1875.000000	28.318420
1874.000000	28.705118
1873.000000	29.096705
1872.000000	29.482446
1871.000000	29.826944
1870.000000	30.141149
1869.000000	30.426974
1868.000000	30.651892
1867.000000	30.833974
1866.000000	30.987887
1865.000000	31.130321
1864.000000	31.266271
1863.000000	31.389998
1862.000000	31.512873
1861.000000	31.649780
1860.000000	31.780841
1859.000000	31.893831
1858.000000	31.973233
1857.000000	32.062413
1856.000000	32.099404
1855.000000	32.127040
1854.000000	32.188265
1853.000000	32.198470
1852.000000	32.190285
1851.000000	32.221110
1850.000000	32.230039
1849.000000	32.235991
1848.000000	32.262565
1847.000000	32.275745
1846.000000	32.229082
1845.000000	32.177955
1844.000000	32.158503
1843.000000	32.133099
1842.000000	32.162117
1841.000000	32.191773
1840.000000	32.170833
1839.000000	32.147130
1838.000000	32.123320
1837.000000	32.106844
1836.000000	32.070598
1835.000000	32.026061
1834.000000	31.969831
1833.000000	31.897870
1832.000000	31.836007
1831.000000	31.799867
1830.000000	31.766597
1829.000000	31.719084
1828.000000	31.646485
1827.000000	31.579201
1826.000000	31.530199
1825.000000	31.478647
1824.000000	31.424543
1823.000000	31.405729
1822.000000	31.401584
1821.000000	31.398501
1820.000000	31.380006
1819.000000	31.346630
1818.000000	31.302092
1817.000000	31.276901
1816.000000	31.264358
1815.000000	31.263508
1814.000000	31.242355
1813.000000	31.238422
1812.000000	31.223116
1811.000000	31.192397
1810.000000	31.169756
1809.000000	31.127877
1808.000000	31.094713
1807.000000	31.062187
1806.000000	31.037952
1805.000000	30.996922
1804.000000	30.943775
1803.000000	30.913375
1802.000000	30.883932
1801.000000	30.841627
1800.000000	30.790606
1799.000000	30.740966
1798.000000	30.692815
1797.000000	30.647640
1796.000000	30.614689
1795.000000	30.578549
1794.000000	30.528166
1793.000000	30.483841
1792.000000	30.438241
1791.000000	30.392428
1790.000000	30.346403
1789.000000	30.299953
1788.000000	30.247018
1787.000000	30.195891
1786.000000	30.150928
1785.000000	30.092998
1784.000000	30.041020
1783.000000	29.976075
1782.000000	29.907515
1781.000000	29.846077
1780.000000	29.792293
1779.000000	29.739358
1778.000000	29.672818
1777.000000	29.594479
1776.000000	29.529427
1775.000000	29.453534
1774.000000	29.377321
1773.000000	29.286121
1772.000000	29.186736
1771.000000	29.073214
1770.000000	28.967026
1769.000000	28.889006
1768.000000	28.808223
1767.000000	28.713940
1766.000000	28.634538
1765.000000	28.558432
1764.000000	28.520272
1763.000000	28.498695
1762.000000	28.486152
1761.000000	28.499758
1760.000000	28.547590
1759.000000	28.614449
1758.000000	28.665789
1757.000000	28.729034
1756.000000	28.793767
1755.000000	28.846382
1754.000000	28.874550
1753.000000	28.908777
1752.000000	28.940346
1751.000000	28.949487
1750.000000	28.927485
1749.000000	28.913773
1748.000000	28.883904
1747.000000	28.835009
1746.000000	28.770914
1745.000000	28.687260
1744.000000	28.587875
1743.000000	28.480625
1742.000000	28.339254
1741.000000	28.168014
1740.000000	27.993054
1739.000000	27.804489
1738.000000	27.647811
1737.000000	27.489221
1736.000000	27.334350
1735.000000	27.214238
1734.000000	27.138663
1733.000000	27.091894
1732.000000	27.111345
1731.000000	27.151312
1730.000000	27.219553
1729.000000	27.299805
1728.000000	27.389729
1727.000000	27.487733
1726.000000	27.576063
1725.000000	27.665562
1724.000000	27.744007
1723.000000	27.785887
1722.000000	27.834889
1721.000000	27.890480
1720.000000	27.938632
1719.000000	27.994755
1718.000000	28.053110
1717.000000	28.130811
1716.000000	28.201709
1715.000000	28.292272
1714.000000	28.373693
1713.000000	28.442253
1712.000000	28.512938
1711.000000	28.592127
1710.000000	28.645168
1709.000000	28.665683
1708.000000	28.686729
1707.000000	28.688855
1706.000000	28.654734
1705.000000	28.641129
1704.000000	28.591064
1703.000000	28.529201
1702.000000	28.477011
1701.000000	28.378795
1700.000000	28.279942
1699.000000	28.141228
1698.000000	28.005172
1697.000000	27.917373
1696.000000	27.820964
1695.000000	27.761652
1694.000000	27.774726
1693.000000	27.847963
1692.000000	27.950643
1691.000000	28.076920
1690.000000	28.186934
1689.000000	28.336596
1688.000000	28.424927
1687.000000	28.505072
1686.000000	28.573632
1685.000000	28.627842
1684.000000	28.712133
1683.000000	28.829588
1682.000000	29.037924
1681.000000	29.372431
1680.000000	29.767420
1679.000000	30.190576
1678.000000	30.654549
1677.000000	31.100878
1676.000000	31.520633
1675.000000	31.893618
1674.000000	32.220260
1673.000000	32.503640
1672.000000	32.775115
1671.000000	32.983876
1670.000000	33.184346
1669.000000	33.363133
1668.000000	33.518428
1667.000000	33.633226
1666.000000	33.739626
1665.000000	33.842625
1664.000000	33.951470
1663.000000	34.018010
1662.000000	34.086889
1661.000000	34.162783
1660.000000	34.238145
1659.000000	34.287147
1658.000000	34.294800
1657.000000	34.344545
1656.000000	34.375052
1655.000000	34.397055
1654.000000	34.392909
1653.000000	34.425116
1652.000000	34.413636
1651.000000	34.405664
1650.000000	34.372501
1649.000000	34.345077
1648.000000	34.303091
1647.000000	34.301921
1646.000000	34.282257
1645.000000	34.241440
1644.000000	34.209339
1643.000000	34.176176
1642.000000	34.118245
1641.000000	34.093585
1640.000000	34.042458
1639.000000	33.981551
1638.000000	33.948494
1637.000000	33.891945
1636.000000	33.866329
1635.000000	33.811162
1634.000000	33.753126
1633.000000	33.684566
1632.000000	33.624510
1631.000000	33.558501
1630.000000	33.494619
1629.000000	33.412134
1628.000000	33.359413
1627.000000	33.283094
1626.000000	33.214746
1625.000000	33.137683
1624.000000	33.072206
1623.000000	32.984301
1622.000000	32.939658
1621.000000	32.875137
1620.000000	32.796267
1619.000000	32.742270
1618.000000	32.666907
1617.000000	32.600792
1616.000000	32.554236
1615.000000	32.488546
1614.000000	32.401916
1613.000000	32.337608
1612.000000	32.288501
1611.000000	32.235141
1610.000000	32.169877
1609.000000	32.102380
1608.000000	32.024466
1607.000000	31.978441
