PE UV       SUBTECH     SPECTRUM    ASCII       PEDS        4.00        
   -1
CICIMAUCR0261-1.Sample.ASC
24/07/01
11:06:45.00
24/07/01
11:06:45.00
Vinicio Soto Monge
C. resplendens. Sex M. Dorsal.
250,000000
1
Lambda 1050
1050L1511233
PerkinElmer UV WinLab 6.3.2.0749 / 2.02.05 Lambda 900 UV/VIS/NIR, Aug  7 2015 09:38:08

0
0
3350/servo 860,8/2
0
0
UV/VIS
1
1
1
DoubleDePol,CommonBeamDepol,RBeamAtt,SBeamAtt,60mm sphere, WB InGaAs Detector
0
0
0
0
Program
Program
3350/servo 860,8/2
3350/0,2 860,8/0,2
3350/0,2 860,8/0,2
0
15.00
 
 
 
0
 
860,8
319,2
860,8
Front
100
on
S:100 R:100
0
0
0
0
 
0
 
 
 
0
 
 
0
0
0
0
0
 
 
 
 
0
0


0
0
#HDR
-1
-1
#GR
nm
%R
1.0
0.0
2500,000000
-1,000000
2251
8
87,505400
5,264300
#DATA
2500.000000	9.328746
2499.000000	9.318617
2498.000000	9.263858
2497.000000	9.152440
2496.000000	9.164362
2495.000000	9.183565
2494.000000	9.062018
2493.000000	8.937622
2492.000000	9.151807
2491.000000	9.062229
2490.000000	9.022030
2489.000000	9.088290
2488.000000	9.058641
2487.000000	9.016754
2486.000000	8.981408
2485.000000	9.047035
2484.000000	9.058430
2483.000000	9.071725
2482.000000	9.062440
2481.000000	8.980353
2480.000000	9.031420
2479.000000	8.954820
2478.000000	8.948595
2477.000000	8.957247
2476.000000	8.950916
2475.000000	9.003671
2474.000000	8.971385
2473.000000	8.995019
2472.000000	9.014327
2471.000000	9.034585
2470.000000	8.992909
2469.000000	9.026672
2468.000000	9.010951
2467.000000	9.047457
2466.000000	9.059697
2465.000000	9.051678
2464.000000	9.078266
2463.000000	9.103694
2462.000000	9.135558
2461.000000	9.177445
2460.000000	9.180822
2459.000000	9.220071
2458.000000	9.270716
2457.000000	9.341091
2456.000000	9.356073
2455.000000	9.374538
2454.000000	9.460317
2453.000000	9.493236
2452.000000	9.563189
2451.000000	9.620164
2450.000000	9.675240
2449.000000	9.711852
2448.000000	9.753634
2447.000000	9.841524
2446.000000	9.906834
2445.000000	9.947350
2444.000000	10.022895
2443.000000	10.100444
2442.000000	10.162168
2441.000000	10.198146
2440.000000	10.265989
2439.000000	10.333621
2438.000000	10.387853
2437.000000	10.442190
2436.000000	10.499377
2435.000000	10.583151
2434.000000	10.625566
2433.000000	10.685812
2432.000000	10.753549
2431.000000	10.781087
2430.000000	10.832893
2429.000000	10.887441
2428.000000	10.947476
2427.000000	11.002658
2426.000000	11.048027
2425.000000	11.087699
2424.000000	11.143513
2423.000000	11.184346
2422.000000	11.230031
2421.000000	11.286162
2420.000000	11.310746
2419.000000	11.347569
2418.000000	11.384181
2417.000000	11.427967
2416.000000	11.454767
2415.000000	11.501508
2414.000000	11.540652
2413.000000	11.579163
2412.000000	11.599315
2411.000000	11.627697
2410.000000	11.671800
2409.000000	11.700816
2408.000000	11.728248
2407.000000	11.763805
2406.000000	11.799256
2405.000000	11.835763
2404.000000	11.867415
2403.000000	11.904344
2402.000000	11.932409
2401.000000	11.955305
2400.000000	11.970604
2399.000000	12.018189
2398.000000	12.057333
2397.000000	12.082339
2396.000000	12.094894
2395.000000	12.122960
2394.000000	12.166008
2393.000000	12.185316
2392.000000	12.220451
2391.000000	12.254108
2390.000000	12.260123
2389.000000	12.277743
2388.000000	12.297578
2387.000000	12.324694
2386.000000	12.345691
2385.000000	12.352022
2384.000000	12.367320
2383.000000	12.377660
2382.000000	12.395069
2381.000000	12.400978
2380.000000	12.395069
2379.000000	12.406465
2378.000000	12.406676
2377.000000	12.413956
2376.000000	12.418915
2375.000000	12.417121
2374.000000	12.415644
2373.000000	12.412690
2372.000000	12.414589
2371.000000	12.396019
2370.000000	12.385574
2369.000000	12.389266
2368.000000	12.369536
2367.000000	12.353182
2366.000000	12.335456
2365.000000	12.312877
2364.000000	12.292620
2363.000000	12.274999
2362.000000	12.242397
2361.000000	12.218657
2360.000000	12.201776
2359.000000	12.174976
2358.000000	12.150920
2357.000000	12.116207
2356.000000	12.078751
2355.000000	12.069467
2354.000000	12.051846
2353.000000	12.016606
2352.000000	12.012386
2351.000000	12.004473
2350.000000	11.991073
2349.000000	12.000674
2348.000000	12.007954
2347.000000	12.014812
2346.000000	12.030744
2345.000000	12.047520
2344.000000	12.068622
2343.000000	12.096055
2342.000000	12.107556
2341.000000	12.131823
2340.000000	12.152503
2339.000000	12.172761
2338.000000	12.187848
2337.000000	12.182362
2336.000000	12.199560
2335.000000	12.208423
2334.000000	12.205046
2333.000000	12.200615
2332.000000	12.196817
2331.000000	12.175504
2330.000000	12.172761
2329.000000	12.152081
2328.000000	12.113042
2327.000000	12.076430
2326.000000	12.039396
2325.000000	12.011753
2324.000000	11.978939
2323.000000	11.933464
2322.000000	11.874063
2321.000000	11.801577
2320.000000	11.741015
2319.000000	11.676548
2318.000000	11.608811
2317.000000	11.546666
2316.000000	11.460570
2315.000000	11.386291
2314.000000	11.302833
2313.000000	11.230559
2312.000000	11.139926
2311.000000	11.069657
2310.000000	11.012787
2309.000000	10.951486
2308.000000	10.890290
2307.000000	10.823397
2306.000000	10.806093
2305.000000	10.775706
2304.000000	10.766422
2303.000000	10.767688
2302.000000	10.769376
2301.000000	10.777606
2300.000000	10.812107
2299.000000	10.859270
2298.000000	10.902846
2297.000000	10.973643
2296.000000	11.030196
2295.000000	11.075671
2294.000000	11.124311
2293.000000	11.169785
2292.000000	11.211884
2291.000000	11.269070
2290.000000	11.306842
2289.000000	11.341555
2288.000000	11.343876
2287.000000	11.368249
2286.000000	11.383864
2285.000000	11.378061
2284.000000	11.369937
2283.000000	11.353161
2282.000000	11.333220
2281.000000	11.294603
2280.000000	11.282786
2279.000000	11.239738
2278.000000	11.215893
2277.000000	11.168097
2276.000000	11.147839
2275.000000	11.100887
2274.000000	11.067652
2273.000000	11.030934
2272.000000	11.019223
2271.000000	11.011415
2270.000000	11.017746
2269.000000	11.004768
2268.000000	11.018484
2267.000000	11.068179
2266.000000	11.105635
2265.000000	11.177804
2264.000000	11.257253
2263.000000	11.341766
2262.000000	11.457194
2261.000000	11.595517
2260.000000	11.735317
2259.000000	11.871108
2258.000000	12.017134
2257.000000	12.195762
2256.000000	12.356769
2255.000000	12.531810
2254.000000	12.714025
2253.000000	12.898667
2252.000000	13.051023
2251.000000	13.218889
2250.000000	13.408596
2249.000000	13.564223
2248.000000	13.712253
2247.000000	13.861232
2246.000000	13.969169
2245.000000	14.103694
2244.000000	14.214373
2243.000000	14.317878
2242.000000	14.403130
2241.000000	14.504631
2240.000000	14.575744
2239.000000	14.662895
2238.000000	14.709530
2237.000000	14.780222
2236.000000	14.845321
2235.000000	14.880245
2234.000000	14.908416
2233.000000	14.964547
2232.000000	14.976787
2231.000000	15.008334
2230.000000	15.028803
2229.000000	15.041358
2228.000000	15.040936
2227.000000	15.047584
2226.000000	15.055919
2225.000000	15.029330
2224.000000	15.004852
2223.000000	14.998310
2222.000000	14.958322
2221.000000	14.943234
2220.000000	14.920866
2219.000000	14.891218
2218.000000	14.847854
2217.000000	14.809870
2216.000000	14.770621
2215.000000	14.721875
2214.000000	14.703622
2213.000000	14.677878
2212.000000	14.651078
2211.000000	14.595369
2210.000000	14.573001
2209.000000	14.547256
2208.000000	14.513810
2207.000000	14.516553
2206.000000	14.493974
2205.000000	14.481102
2204.000000	14.440059
2203.000000	14.406929
2202.000000	14.402603
2201.000000	14.351430
2200.000000	14.352802
2199.000000	14.330540
2198.000000	14.335182
2197.000000	14.312075
2196.000000	14.306483
2195.000000	14.301735
2194.000000	14.283271
2193.000000	14.253517
2192.000000	14.246765
2191.000000	14.240856
2190.000000	14.226190
2189.000000	14.218277
2188.000000	14.208781
2187.000000	14.197492
2186.000000	14.194538
2185.000000	14.184514
2184.000000	14.180505
2183.000000	14.174702
2182.000000	14.158453
2181.000000	14.138090
2180.000000	14.138723
2179.000000	14.128172
2178.000000	14.123530
2177.000000	14.116249
2176.000000	14.102744
2175.000000	14.104221
2174.000000	14.125745
2173.000000	14.099473
2172.000000	14.115616
2171.000000	14.134080
2170.000000	14.117093
2169.000000	14.141572
2168.000000	14.159930
2167.000000	14.164362
2166.000000	14.162885
2165.000000	14.183354
2164.000000	14.211630
2163.000000	14.244338
2162.000000	14.256261
2161.000000	14.298781
2160.000000	14.345416
2159.000000	14.367784
2158.000000	14.397222
2157.000000	14.439109
2156.000000	14.475721
2155.000000	14.529847
2154.000000	14.570891
2153.000000	14.612567
2152.000000	14.637995
2151.000000	14.719026
2150.000000	14.759964
2149.000000	14.804173
2148.000000	14.834032
2147.000000	14.878451
2146.000000	14.940175
2145.000000	14.971511
2144.000000	15.013082
2143.000000	15.067630
2142.000000	15.097912
2141.000000	15.133785
2140.000000	15.172085
2139.000000	15.203843
2138.000000	15.237184
2137.000000	15.271581
2136.000000	15.303128
2135.000000	15.331405
2134.000000	15.361053
2133.000000	15.393339
2132.000000	15.408638
2131.000000	15.436598
2130.000000	15.457594
2129.000000	15.463081
2128.000000	15.481967
2127.000000	15.504230
2126.000000	15.508239
2125.000000	15.502752
2124.000000	15.507289
2123.000000	15.501592
2122.000000	15.485660
2121.000000	15.487348
2120.000000	15.486398
2119.000000	15.485343
2118.000000	15.464558
2117.000000	15.453479
2116.000000	15.435965
2115.000000	15.426680
2114.000000	15.404206
2113.000000	15.373292
2112.000000	15.358099
2111.000000	15.345015
2110.000000	15.326868
2109.000000	15.296586
2108.000000	15.275801
2107.000000	15.262296
2106.000000	15.247313
2105.000000	15.216716
2104.000000	15.182425
2103.000000	15.152355
2102.000000	15.121335
2101.000000	15.104875
2100.000000	15.082507
2099.000000	15.048006
2098.000000	15.028170
2097.000000	15.018990
2096.000000	14.997255
2095.000000	14.975415
2094.000000	14.953574
2093.000000	14.945028
2092.000000	14.931628
2091.000000	14.905989
2090.000000	14.897760
2089.000000	14.881722
2088.000000	14.852074
2087.000000	14.828123
2086.000000	14.815884
2085.000000	14.803223
2084.000000	14.779061
2083.000000	14.737279
2082.000000	14.714173
2081.000000	14.684630
2080.000000	14.663423
2079.000000	14.637784
2078.000000	14.586506
2077.000000	14.542825
2076.000000	14.502309
2075.000000	14.465697
2074.000000	14.405873
2073.000000	14.354912
2072.000000	14.307960
2071.000000	14.255311
2070.000000	14.206038
2069.000000	14.145898
2068.000000	14.088606
2067.000000	14.021185
2066.000000	13.961150
2065.000000	13.914726
2064.000000	13.866297
2063.000000	13.817235
2062.000000	13.762581
2061.000000	13.707821
2060.000000	13.668150
2059.000000	13.617399
2058.000000	13.571186
2057.000000	13.536157
2056.000000	13.502921
2055.000000	13.487728
2054.000000	13.480026
2053.000000	13.463355
2052.000000	13.467048
2051.000000	13.480659
2050.000000	13.508724
2049.000000	13.546180
2048.000000	13.578572
2047.000000	13.621936
2046.000000	13.673847
2045.000000	13.704445
2044.000000	13.770600
2043.000000	13.842979
2042.000000	13.895418
2041.000000	13.953131
2040.000000	14.008524
2039.000000	14.048829
2038.000000	14.117199
2037.000000	14.174385
2036.000000	14.225346
2035.000000	14.264701
2034.000000	14.290868
2033.000000	14.322521
2032.000000	14.354385
2031.000000	14.385827
2030.000000	14.417163
2029.000000	14.443646
2028.000000	14.472028
2027.000000	14.474349
2026.000000	14.489437
2025.000000	14.516553
2024.000000	14.511911
2023.000000	14.532802
2022.000000	14.537444
2021.000000	14.538183
2020.000000	14.544619
2019.000000	14.545041
2018.000000	14.537972
2017.000000	14.532591
2016.000000	14.518769
2015.000000	14.507057
2014.000000	14.497772
2013.000000	14.479836
2012.000000	14.473611
2011.000000	14.435944
2010.000000	14.408722
2009.000000	14.374326
2008.000000	14.352802
2007.000000	14.319461
2006.000000	14.294561
2005.000000	14.251091
2004.000000	14.207726
2003.000000	14.152334
2002.000000	14.109286
2001.000000	14.058219
2000.000000	14.024983
1999.000000	13.966215
1998.000000	13.902592
1997.000000	13.866613
1996.000000	13.799615
1995.000000	13.741795
1994.000000	13.676590
1993.000000	13.607904
1992.000000	13.537212
1991.000000	13.504821
1990.000000	13.424106
1989.000000	13.360378
1988.000000	13.282934
1987.000000	13.213192
1986.000000	13.140707
1985.000000	13.062102
1984.000000	13.005232
1983.000000	12.925045
1982.000000	12.856041
1981.000000	12.790942
1980.000000	12.714869
1979.000000	12.658844
1978.000000	12.579289
1977.000000	12.509547
1976.000000	12.443815
1975.000000	12.370486
1974.000000	12.307180
1973.000000	12.252842
1972.000000	12.164425
1971.000000	12.119689
1970.000000	12.056383
1969.000000	11.983898
1968.000000	11.932409
1967.000000	11.876278
1966.000000	11.805481
1965.000000	11.758424
1964.000000	11.677498
1963.000000	11.622949
1962.000000	11.572410
1961.000000	11.525880
1960.000000	11.460042
1959.000000	11.398003
1958.000000	11.366877
1957.000000	11.306420
1956.000000	11.251555
1955.000000	11.188249
1954.000000	11.136550
1953.000000	11.106585
1952.000000	11.029457
1951.000000	10.987464
1950.000000	10.942939
1949.000000	10.929118
1948.000000	10.898836
1947.000000	10.857160
1946.000000	10.802189
1945.000000	10.741521
1944.000000	10.728122
1943.000000	10.702272
1942.000000	10.687711
1941.000000	10.672623
1940.000000	10.666715
1939.000000	10.639599
1938.000000	10.638438
1937.000000	10.654687
1936.000000	10.638122
1935.000000	10.620818
1934.000000	10.655320
1933.000000	10.677688
1932.000000	10.680853
1931.000000	10.717465
1930.000000	10.745425
1929.000000	10.797758
1928.000000	10.838168
1927.000000	10.898414
1926.000000	10.960665
1925.000000	11.012998
1924.000000	11.110700
1923.000000	11.174744
1922.000000	11.244486
1921.000000	11.315600
1920.000000	11.458882
1919.000000	11.558272
1918.000000	11.654602
1917.000000	11.792081
1916.000000	11.928611
1915.000000	12.044777
1914.000000	12.195234
1913.000000	12.358141
1912.000000	12.523158
1911.000000	12.671927
1910.000000	12.848972
1909.000000	13.046697
1908.000000	13.224059
1907.000000	13.401316
1906.000000	13.639767
1905.000000	13.886660
1904.000000	14.135980
1903.000000	14.385932
1902.000000	14.671969
1901.000000	14.917385
1900.000000	15.209013
1899.000000	15.532506
1898.000000	15.845870
1897.000000	16.213044
1896.000000	16.536326
1895.000000	16.886618
1894.000000	17.233006
1893.000000	17.621915
1892.000000	18.005865
1891.000000	18.444574
1890.000000	18.877691
1889.000000	19.301313
1888.000000	19.717232
1887.000000	20.182108
1886.000000	20.645401
1885.000000	21.120617
1884.000000	21.586864
1883.000000	22.084976
1882.000000	22.585830
1881.000000	23.022640
1880.000000	23.522229
1879.000000	23.935088
1878.000000	24.382871
1877.000000	24.818310
1876.000000	25.223362
1875.000000	25.595389
1874.000000	25.962352
1873.000000	26.321823
1872.000000	26.663780
1871.000000	26.998141
1870.000000	27.274471
1869.000000	27.522207
1868.000000	27.803602
1867.000000	28.037200
1866.000000	28.214457
1865.000000	28.389181
1864.000000	28.581103
1863.000000	28.754244
1862.000000	28.912087
1861.000000	29.071301
1860.000000	29.206775
1859.000000	29.331910
1858.000000	29.411148
1857.000000	29.512015
1856.000000	29.622167
1855.000000	29.696973
1854.000000	29.739177
1853.000000	29.807442
1852.000000	29.824851
1851.000000	29.878978
1850.000000	29.946926
1849.000000	29.993878
1848.000000	30.001369
1847.000000	29.992928
1846.000000	29.956738
1845.000000	29.933526
1844.000000	29.958849
1843.000000	29.985015
1842.000000	30.031861
1841.000000	30.028590
1840.000000	30.013503
1839.000000	29.986809
1838.000000	29.953995
1837.000000	29.925929
1836.000000	29.911369
1835.000000	29.873069
1834.000000	29.836985
1833.000000	29.813245
1832.000000	29.800689
1831.000000	29.770092
1830.000000	29.737700
1829.000000	29.711323
1828.000000	29.673550
1827.000000	29.609928
1826.000000	29.556962
1825.000000	29.533855
1824.000000	29.506106
1823.000000	29.501569
1822.000000	29.521300
1821.000000	29.530796
1820.000000	29.486165
1819.000000	29.429823
1818.000000	29.393422
1817.000000	29.395005
1816.000000	29.387302
1815.000000	29.384559
1814.000000	29.381288
1813.000000	29.365251
1812.000000	29.345415
1811.000000	29.312918
1810.000000	29.278205
1809.000000	29.235896
1808.000000	29.212156
1807.000000	29.202449
1806.000000	29.181453
1805.000000	29.142731
1804.000000	29.095779
1803.000000	29.065709
1802.000000	29.045873
1801.000000	29.016858
1800.000000	28.974126
1799.000000	28.916413
1798.000000	28.882333
1797.000000	28.859121
1796.000000	28.806049
1795.000000	28.761102
1794.000000	28.732931
1793.000000	28.696741
1792.000000	28.665088
1791.000000	28.629110
1790.000000	28.578148
1789.000000	28.545757
1788.000000	28.511572
1787.000000	28.472850
1786.000000	28.442991
1785.000000	28.409544
1784.000000	28.377047
1783.000000	28.338008
1782.000000	28.287997
1781.000000	28.253495
1780.000000	28.214351
1779.000000	28.166872
1778.000000	28.105782
1777.000000	28.057564
1776.000000	28.001116
1775.000000	27.940764
1774.000000	27.873871
1773.000000	27.800542
1772.000000	27.740823
1771.000000	27.669182
1770.000000	27.596064
1769.000000	27.530121
1768.000000	27.460906
1767.000000	27.383462
1766.000000	27.330707
1765.000000	27.276581
1764.000000	27.230473
1763.000000	27.202407
1762.000000	27.194811
1761.000000	27.211270
1760.000000	27.220766
1759.000000	27.238808
1758.000000	27.278796
1757.000000	27.328914
1756.000000	27.375549
1755.000000	27.433263
1754.000000	27.457424
1753.000000	27.475150
1752.000000	27.519675
1751.000000	27.540355
1750.000000	27.540144
1749.000000	27.525584
1748.000000	27.520097
1747.000000	27.495619
1746.000000	27.448456
1745.000000	27.385678
1744.000000	27.314353
1743.000000	27.236170
1742.000000	27.140262
1741.000000	27.019348
1740.000000	26.897484
1739.000000	26.774460
1738.000000	26.618833
1737.000000	26.503933
1736.000000	26.391038
1735.000000	26.273816
1734.000000	26.188565
1733.000000	26.138975
1732.000000	26.085271
1731.000000	26.063641
1730.000000	26.063641
1729.000000	26.087170
1728.000000	26.120511
1727.000000	26.151425
1726.000000	26.189409
1725.000000	26.244063
1724.000000	26.269069
1723.000000	26.321190
1722.000000	26.381225
1721.000000	26.440522
1720.000000	26.496336
1719.000000	26.571248
1718.000000	26.644156
1717.000000	26.721283
1716.000000	26.842092
1715.000000	26.954143
1714.000000	27.064612
1713.000000	27.174869
1712.000000	27.259277
1711.000000	27.343263
1710.000000	27.404775
1709.000000	27.452360
1708.000000	27.496252
1707.000000	27.533708
1706.000000	27.549851
1705.000000	27.536662
1704.000000	27.514189
1703.000000	27.491821
1702.000000	27.453309
1701.000000	27.391481
1700.000000	27.309078
1699.000000	27.236804
1698.000000	27.153662
1697.000000	27.061446
1696.000000	26.999723
1695.000000	26.925444
1694.000000	26.888305
1693.000000	26.900122
1692.000000	26.924917
1691.000000	26.965327
1690.000000	27.038551
1689.000000	27.100696
1688.000000	27.157671
1687.000000	27.226569
1686.000000	27.304330
1685.000000	27.360883
1684.000000	27.471246
1683.000000	27.563989
1682.000000	27.746415
1681.000000	27.963238
1680.000000	28.212874
1679.000000	28.516003
1678.000000	28.827362
1677.000000	29.152649
1676.000000	29.448920
1675.000000	29.765766
1674.000000	29.995988
1673.000000	30.230114
1672.000000	30.428050
1671.000000	30.604462
1670.000000	30.768636
1669.000000	30.918881
1668.000000	31.078095
1667.000000	31.179912
1666.000000	31.292597
1665.000000	31.393464
1664.000000	31.490955
1663.000000	31.589712
1662.000000	31.660087
1661.000000	31.713897
1660.000000	31.794084
1659.000000	31.844624
1658.000000	31.920485
1657.000000	31.943170
1656.000000	31.955620
1655.000000	31.990332
1654.000000	32.014811
1653.000000	32.032747
1652.000000	32.029371
1651.000000	32.017765
1650.000000	31.993392
1649.000000	31.998984
1648.000000	31.953087
1647.000000	31.942853
1646.000000	31.917214
1645.000000	31.886827
1644.000000	31.863088
1643.000000	31.834811
1642.000000	31.785644
1641.000000	31.754202
1640.000000	31.723709
1639.000000	31.677496
1638.000000	31.637402
1637.000000	31.612080
1636.000000	31.562491
1635.000000	31.495281
1634.000000	31.448962
1633.000000	31.392514
1632.000000	31.363288
1631.000000	31.290276
1630.000000	31.248599
1629.000000	31.194895
1628.000000	31.125153
1627.000000	31.049080
1626.000000	31.004133
1625.000000	30.920781
1624.000000	30.871930
1623.000000	30.814954
