PE UV       SUBTECH     SPECTRUM    ASCII       PEDS        4.00        
   -1
CICIMAUCR0223-3.Sample.ASC
24/06/13
17:08:03.00
24/06/13
17:08:03.00
Vinicio Soto Monge
C. resplendens. Sex M. Dorsal.
250,000000
1
Lambda 1050
1050L1511233
PerkinElmer UV WinLab 6.3.2.0749 / 2.02.05 Lambda 900 UV/VIS/NIR, Aug  7 2015 09:38:08

0
0
3350/servo 860,8/2
0
0
UV/VIS
1
1
1
DoubleDePol,CommonBeamDepol,RBeamAtt,SBeamAtt,60mm sphere, WB InGaAs Detector
0
0
0
0
Program
Program
3350/servo 860,8/2
3350/0,2 860,8/0,2
3350/0,2 860,8/0,2
0
15.00
 
 
 
0
 
860,8
319,2
860,8
Front
100
on
S:100 R:100
0
0
0
0
 
0
 
 
 
0
 
 
0
0
0
0
0
 
 
 
 
0
0


0
0
#HDR
-1
-1
#GR
nm
%R
1.0
0.0
2500,000000
-1,000000
2251
8
86,421400
5,728600
#DATA
2500.000000	8.885395
2499.000000	8.868616
2498.000000	8.824148
2497.000000	8.767533
2496.000000	8.655640
2495.000000	8.765989
2494.000000	8.732534
2493.000000	8.642053
2492.000000	8.688683
2491.000000	8.635156
2490.000000	8.671287
2489.000000	8.620539
2488.000000	8.549924
2487.000000	8.553012
2486.000000	8.665419
2485.000000	8.627642
2484.000000	8.534381
2483.000000	8.616524
2482.000000	8.572570
2481.000000	8.586055
2480.000000	8.547454
2479.000000	8.577614
2478.000000	8.553218
2477.000000	8.597275
2476.000000	8.600981
2475.000000	8.542204
2474.000000	8.566291
2473.000000	8.627847
2472.000000	8.624862
2471.000000	8.643288
2470.000000	8.595114
2469.000000	8.595319
2468.000000	8.607672
2467.000000	8.652552
2466.000000	8.606334
2465.000000	8.701138
2464.000000	8.711432
2463.000000	8.699594
2462.000000	8.775253
2461.000000	8.807266
2460.000000	8.873454
2459.000000	8.865425
2458.000000	8.892395
2457.000000	8.965171
2456.000000	9.035477
2455.000000	9.077166
2454.000000	9.093018
2453.000000	9.155501
2452.000000	9.227557
2451.000000	9.308259
2450.000000	9.340993
2449.000000	9.426739
2448.000000	9.499413
2447.000000	9.556440
2446.000000	9.619952
2445.000000	9.700963
2444.000000	9.771680
2443.000000	9.830766
2442.000000	9.908380
2441.000000	9.987024
2440.000000	10.035404
2439.000000	10.114460
2438.000000	10.187339
2437.000000	10.233249
2436.000000	10.309731
2435.000000	10.375816
2434.000000	10.441078
2433.000000	10.502531
2432.000000	10.562440
2431.000000	10.611438
2430.000000	10.661054
2429.000000	10.716742
2428.000000	10.767696
2427.000000	10.808562
2426.000000	10.869089
2425.000000	10.919219
2424.000000	10.977687
2423.000000	11.004965
2422.000000	11.047066
2421.000000	11.094108
2420.000000	11.120151
2419.000000	11.164208
2418.000000	11.210736
2417.000000	11.237396
2416.000000	11.272189
2415.000000	11.306158
2414.000000	11.336730
2413.000000	11.364832
2412.000000	11.405492
2411.000000	11.444093
2410.000000	11.461284
2409.000000	11.486812
2408.000000	11.514399
2407.000000	11.553412
2406.000000	11.587278
2405.000000	11.617645
2404.000000	11.657996
2403.000000	11.679098
2402.000000	11.709567
2401.000000	11.731390
2400.000000	11.751668
2399.000000	11.768962
2398.000000	11.792019
2397.000000	11.805401
2396.000000	11.814460
2395.000000	11.842664
2394.000000	11.872928
2393.000000	11.898456
2392.000000	11.922749
2391.000000	11.941484
2390.000000	11.951880
2389.000000	11.965056
2388.000000	11.978438
2387.000000	11.994290
2386.000000	12.010554
2385.000000	12.010142
2384.000000	12.007569
2383.000000	11.998099
2382.000000	11.997790
2381.000000	11.998099
2380.000000	11.995216
2379.000000	12.011995
2378.000000	12.009525
2377.000000	11.995114
2376.000000	11.983585
2375.000000	11.968865
2374.000000	11.952395
2373.000000	11.930984
2372.000000	11.901338
2371.000000	11.881471
2370.000000	11.863972
2369.000000	11.830209
2368.000000	11.782549
2367.000000	11.745080
2366.000000	11.711214
2365.000000	11.665510
2364.000000	11.644614
2363.000000	11.616821
2362.000000	11.557838
2361.000000	11.499782
2360.000000	11.449755
2359.000000	11.384596
2358.000000	11.341774
2357.000000	11.305746
2356.000000	11.261998
2355.000000	11.244190
2354.000000	11.215059
2353.000000	11.162150
2352.000000	11.133842
2351.000000	11.126019
2350.000000	11.130342
2349.000000	11.137239
2348.000000	11.142077
2347.000000	11.163591
2346.000000	11.197354
2345.000000	11.212692
2344.000000	11.235955
2343.000000	11.265704
2342.000000	11.298850
2341.000000	11.332510
2340.000000	11.369052
2339.000000	11.394169
2338.000000	11.408374
2337.000000	11.426697
2336.000000	11.423609
2335.000000	11.410639
2334.000000	11.410124
2333.000000	11.397051
2332.000000	11.361023
2331.000000	11.331275
2330.000000	11.301938
2329.000000	11.260557
2328.000000	11.207133
2327.000000	11.178825
2326.000000	11.138268
2325.000000	11.069712
2324.000000	10.999098
2323.000000	10.932807
2322.000000	10.851487
2321.000000	10.766358
2320.000000	10.684214
2319.000000	10.611747
2318.000000	10.495531
2317.000000	10.393727
2316.000000	10.293775
2315.000000	10.177354
2314.000000	10.060521
2313.000000	9.977554
2312.000000	9.889543
2311.000000	9.784547
2310.000000	9.713109
2309.000000	9.631378
2308.000000	9.560557
2307.000000	9.514647
2306.000000	9.471620
2305.000000	9.459164
2304.000000	9.469252
2303.000000	9.474708
2302.000000	9.511971
2301.000000	9.546558
2300.000000	9.599158
2299.000000	9.657523
2298.000000	9.715374
2297.000000	9.802047
2296.000000	9.889337
2295.000000	9.953055
2294.000000	10.037875
2293.000000	10.106328
2292.000000	10.160472
2291.000000	10.217808
2290.000000	10.259292
2289.000000	10.303760
2288.000000	10.315701
2287.000000	10.328053
2286.000000	10.327642
2285.000000	10.326303
2284.000000	10.287599
2283.000000	10.263924
2282.000000	10.217293
2281.000000	10.182707
2280.000000	10.141944
2279.000000	10.091916
2278.000000	10.033963
2277.000000	9.983627
2276.000000	9.936791
2275.000000	9.901689
2274.000000	9.853824
2273.000000	9.813267
2272.000000	9.790209
2271.000000	9.782900
2270.000000	9.780533
2269.000000	9.796694
2268.000000	9.821502
2267.000000	9.864941
2266.000000	9.918468
2265.000000	9.988465
2264.000000	10.092740
2263.000000	10.229234
2262.000000	10.371698
2261.000000	10.531456
2260.000000	10.712831
2259.000000	10.908411
2258.000000	11.110578
2257.000000	11.334260
2256.000000	11.545692
2255.000000	11.775652
2254.000000	12.016524
2253.000000	12.242882
2252.000000	12.452667
2251.000000	12.662864
2250.000000	12.891281
2249.000000	13.086963
2248.000000	13.298704
2247.000000	13.458256
2246.000000	13.628616
2245.000000	13.779728
2244.000000	13.933824
2243.000000	14.049113
2242.000000	14.181490
2241.000000	14.312837
2240.000000	14.405892
2239.000000	14.497917
2238.000000	14.573884
2237.000000	14.652837
2236.000000	14.732407
2235.000000	14.797463
2234.000000	14.841314
2233.000000	14.886194
2232.000000	14.953515
2231.000000	14.971220
2230.000000	15.002513
2229.000000	15.033188
2228.000000	15.047496
2227.000000	15.060260
2226.000000	15.050996
2225.000000	15.037820
2224.000000	15.028453
2223.000000	15.017130
2222.000000	14.999528
2221.000000	14.959588
2220.000000	14.954236
2219.000000	14.944765
2218.000000	14.877342
2217.000000	14.827623
2216.000000	14.792007
2215.000000	14.758450
2214.000000	14.739612
2213.000000	14.711099
2212.000000	14.655822
2211.000000	14.649234
2210.000000	14.630088
2209.000000	14.583457
2208.000000	14.547327
2207.000000	14.542283
2206.000000	14.498535
2205.000000	14.484638
2204.000000	14.457051
2203.000000	14.412583
2202.000000	14.400951
2201.000000	14.387157
2200.000000	14.351335
2199.000000	14.352262
2198.000000	14.328071
2197.000000	14.290191
2196.000000	14.298220
2195.000000	14.277941
2194.000000	14.259824
2193.000000	14.283397
2192.000000	14.248810
2191.000000	14.214532
2190.000000	14.209488
2189.000000	14.191680
2188.000000	14.181695
2187.000000	14.164299
2186.000000	14.151123
2185.000000	14.138771
2184.000000	14.121169
2183.000000	14.114272
2182.000000	14.088538
2181.000000	14.054363
2180.000000	14.060024
2179.000000	14.055598
2178.000000	14.028834
2177.000000	14.029761
2176.000000	14.013085
2175.000000	14.019261
2174.000000	14.006497
2173.000000	14.013703
2172.000000	14.013085
2171.000000	14.034290
2170.000000	14.030378
2169.000000	14.023791
2168.000000	14.026982
2167.000000	14.056524
2166.000000	14.074024
2165.000000	14.097287
2164.000000	14.130948
2163.000000	14.126007
2162.000000	14.151020
2161.000000	14.172019
2160.000000	14.202386
2159.000000	14.239443
2158.000000	14.289882
2157.000000	14.328792
2156.000000	14.354629
2155.000000	14.414641
2154.000000	14.450257
2153.000000	14.498123
2152.000000	14.547018
2151.000000	14.580369
2150.000000	14.633794
2149.000000	14.688350
2148.000000	14.697100
2147.000000	14.770905
2146.000000	14.828138
2145.000000	14.868283
2144.000000	14.915737
2143.000000	14.954750
2142.000000	15.001072
2141.000000	15.041320
2140.000000	15.072201
2139.000000	15.114817
2138.000000	15.157844
2137.000000	15.185329
2136.000000	15.214254
2135.000000	15.232679
2134.000000	15.270045
2133.000000	15.282604
2132.000000	15.295574
2131.000000	15.314205
2130.000000	15.328308
2129.000000	15.347454
2128.000000	15.353630
2127.000000	15.349924
2126.000000	15.349410
2125.000000	15.355483
2124.000000	15.350439
2123.000000	15.334793
2122.000000	15.338498
2121.000000	15.338190
2120.000000	15.316985
2119.000000	15.292383
2118.000000	15.287236
2117.000000	15.274472
2116.000000	15.232474
2115.000000	15.183784
2114.000000	15.173491
2113.000000	15.162579
2112.000000	15.133243
2111.000000	15.104420
2110.000000	15.074569
2109.000000	15.032982
2108.000000	15.013424
2107.000000	14.984808
2106.000000	14.939927
2105.000000	14.904826
2104.000000	14.876004
2103.000000	14.842343
2102.000000	14.814447
2101.000000	14.796845
2100.000000	14.762053
2099.000000	14.716452
2098.000000	14.690615
2097.000000	14.673939
2096.000000	14.635646
2095.000000	14.603736
2094.000000	14.596119
2093.000000	14.567502
2092.000000	14.539709
2091.000000	14.523137
2090.000000	14.498741
2089.000000	14.481756
2088.000000	14.456331
2087.000000	14.425964
2086.000000	14.410421
2085.000000	14.391480
2084.000000	14.357511
2083.000000	14.321278
2082.000000	14.287411
2081.000000	14.256016
2080.000000	14.225546
2079.000000	14.184578
2078.000000	14.142888
2077.000000	14.104287
2076.000000	14.067744
2075.000000	14.032334
2074.000000	13.978395
2073.000000	13.930015
2072.000000	13.878444
2071.000000	13.830167
2070.000000	13.784051
2069.000000	13.716216
2068.000000	13.657850
2067.000000	13.615852
2066.000000	13.560472
2065.000000	13.496857
2064.000000	13.445698
2063.000000	13.394641
2062.000000	13.340702
2061.000000	13.299631
2060.000000	13.266691
2059.000000	13.243324
2058.000000	13.203899
2057.000000	13.174460
2056.000000	13.151196
2055.000000	13.128138
2054.000000	13.144299
2053.000000	13.152225
2052.000000	13.167151
2051.000000	13.181048
2050.000000	13.219031
2049.000000	13.268750
2048.000000	13.315483
2047.000000	13.378480
2046.000000	13.447860
2045.000000	13.517239
2044.000000	13.589089
2043.000000	13.680702
2042.000000	13.763566
2041.000000	13.835005
2040.000000	13.906031
2039.000000	13.986630
2038.000000	14.071656
2037.000000	14.150506
2036.000000	14.219576
2035.000000	14.275162
2034.000000	14.327351
2033.000000	14.387878
2032.000000	14.443155
2031.000000	14.494005
2030.000000	14.527254
2029.000000	14.558135
2028.000000	14.602398
2027.000000	14.644396
2026.000000	14.682174
2025.000000	14.704820
2024.000000	14.728392
2023.000000	14.750318
2022.000000	14.772038
2021.000000	14.788096
2020.000000	14.805183
2019.000000	14.806418
2018.000000	14.805286
2017.000000	14.822065
2016.000000	14.836270
2015.000000	14.839255
2014.000000	14.805698
2013.000000	14.799007
2012.000000	14.803433
2011.000000	14.791184
2010.000000	14.770391
2009.000000	14.748877
2008.000000	14.711511
2007.000000	14.662204
2006.000000	14.632867
2005.000000	14.598898
2004.000000	14.565958
2003.000000	14.516034
2002.000000	14.470742
2001.000000	14.419170
2000.000000	14.385201
1999.000000	14.315101
1998.000000	14.270736
1997.000000	14.209385
1996.000000	14.144947
1995.000000	14.078553
1994.000000	13.979528
1993.000000	13.932897
1992.000000	13.858680
1991.000000	13.801653
1990.000000	13.731553
1989.000000	13.665056
1988.000000	13.561193
1987.000000	13.488622
1986.000000	13.421096
1985.000000	13.324541
1984.000000	13.246721
1983.000000	13.171269
1982.000000	13.082125
1981.000000	13.011820
1980.000000	12.910736
1979.000000	12.833945
1978.000000	12.732758
1977.000000	12.670584
1976.000000	12.592867
1975.000000	12.506400
1974.000000	12.425080
1973.000000	12.322555
1972.000000	12.254617
1971.000000	12.186061
1970.000000	12.085492
1969.000000	12.023318
1968.000000	11.933660
1967.000000	11.891868
1966.000000	11.806328
1965.000000	11.750639
1964.000000	11.668187
1963.000000	11.601895
1962.000000	11.511929
1961.000000	11.467151
1960.000000	11.388713
1959.000000	11.317378
1958.000000	11.225456
1957.000000	11.190766
1956.000000	11.122519
1955.000000	11.044184
1954.000000	10.987878
1953.000000	10.903984
1952.000000	10.872794
1951.000000	10.806503
1950.000000	10.719522
1949.000000	10.702949
1948.000000	10.634805
1947.000000	10.595895
1946.000000	10.555441
1945.000000	10.528162
1944.000000	10.453121
1943.000000	10.412873
1942.000000	10.395065
1941.000000	10.360890
1940.000000	10.361508
1939.000000	10.334435
1938.000000	10.314672
1937.000000	10.328568
1936.000000	10.316319
1935.000000	10.304893
1934.000000	10.330524
1933.000000	10.328362
1932.000000	10.342567
1931.000000	10.373757
1930.000000	10.446122
1929.000000	10.472885
1928.000000	10.514678
1927.000000	10.592086
1926.000000	10.644584
1925.000000	10.741035
1924.000000	10.805577
1923.000000	10.895029
1922.000000	10.993436
1921.000000	11.086697
1920.000000	11.217530
1919.000000	11.364523
1918.000000	11.474563
1917.000000	11.621556
1916.000000	11.761035
1915.000000	11.888162
1914.000000	12.035156
1913.000000	12.211589
1912.000000	12.411081
1911.000000	12.619219
1910.000000	12.790711
1909.000000	12.974145
1908.000000	13.134726
1907.000000	13.357687
1906.000000	13.599177
1905.000000	13.865474
1904.000000	14.134139
1903.000000	14.410215
1902.000000	14.661792
1901.000000	14.931384
1900.000000	15.223621
1899.000000	15.559606
1898.000000	15.886019
1897.000000	16.244753
1896.000000	16.553872
1895.000000	16.872461
1894.000000	17.168096
1893.000000	17.504905
1892.000000	17.865595
1891.000000	18.297003
1890.000000	18.741278
1889.000000	19.148907
1888.000000	19.583094
1887.000000	20.038074
1886.000000	20.474938
1885.000000	20.948756
1884.000000	21.431529
1883.000000	21.994902
1882.000000	22.576803
1881.000000	23.082737
1880.000000	23.614714
1879.000000	24.108810
1878.000000	24.575731
1877.000000	25.072607
1876.000000	25.536234
1875.000000	25.972788
1874.000000	26.419946
1873.000000	26.857015
1872.000000	27.266394
1871.000000	27.665480
1870.000000	28.021744
1869.000000	28.354950
1868.000000	28.684348
1867.000000	28.929852
1866.000000	29.135931
1865.000000	29.306703
1864.000000	29.455755
1863.000000	29.585147
1862.000000	29.706921
1861.000000	29.842077
1860.000000	29.991850
1859.000000	30.131741
1858.000000	30.244971
1857.000000	30.347187
1856.000000	30.421714
1855.000000	30.471226
1854.000000	30.529488
1853.000000	30.589192
1852.000000	30.603912
1851.000000	30.614617
1850.000000	30.628822
1849.000000	30.618837
1848.000000	30.636748
1847.000000	30.687084
1846.000000	30.721157
1845.000000	30.685335
1844.000000	30.610088
1843.000000	30.555737
1842.000000	30.531959
1841.000000	30.555634
1840.000000	30.576530
1839.000000	30.583530
1838.000000	30.557796
1837.000000	30.523312
1836.000000	30.494181
1835.000000	30.475755
1834.000000	30.440448
1833.000000	30.382083
1832.000000	30.300248
1831.000000	30.238177
1830.000000	30.188459
1829.000000	30.171063
1828.000000	30.121962
1827.000000	30.048877
1826.000000	30.000497
1825.000000	29.964263
1824.000000	29.892722
1823.000000	29.840945
1822.000000	29.803990
1821.000000	29.800696
1820.000000	29.809858
1819.000000	29.794623
1818.000000	29.763433
1817.000000	29.725964
1816.000000	29.708362
1815.000000	29.708980
1814.000000	29.694877
1813.000000	29.669040
1812.000000	29.656791
1811.000000	29.637645
1810.000000	29.609543
1809.000000	29.573721
1808.000000	29.541708
1807.000000	29.502900
1806.000000	29.468108
1805.000000	29.430639
1804.000000	29.377215
1803.000000	29.340569
1802.000000	29.298056
1801.000000	29.248132
1800.000000	29.207163
1799.000000	29.156004
1798.000000	29.100418
1797.000000	29.041744
1796.000000	28.989658
1795.000000	28.956924
1794.000000	28.921926
1793.000000	28.865516
1792.000000	28.800975
1791.000000	28.754653
1790.000000	28.713685
1789.000000	28.666745
1788.000000	28.635556
1787.000000	28.603439
1786.000000	28.546104
1785.000000	28.480533
1784.000000	28.427315
1783.000000	28.367302
1782.000000	28.302761
1781.000000	28.250469
1780.000000	28.190972
1779.000000	28.125504
1778.000000	28.057154
1777.000000	28.004039
1776.000000	27.919425
1775.000000	27.834708
1774.000000	27.740418
1773.000000	27.653333
1772.000000	27.559867
1771.000000	27.469488
1770.000000	27.392080
1769.000000	27.288629
1768.000000	27.183324
1767.000000	27.109725
1766.000000	27.025728
1765.000000	26.936585
1764.000000	26.870191
1763.000000	26.847030
1762.000000	26.833648
1761.000000	26.838692
1760.000000	26.861029
1759.000000	26.900145
1758.000000	26.957687
1757.000000	27.030154
1756.000000	27.101387
1755.000000	27.154708
1754.000000	27.209367
1753.000000	27.249410
1752.000000	27.293158
1751.000000	27.314569
1750.000000	27.303863
1749.000000	27.285438
1748.000000	27.262174
1747.000000	27.219661
1746.000000	27.172104
1745.000000	27.092122
1744.000000	27.007714
1743.000000	26.894381
1742.000000	26.757578
1741.000000	26.604305
1740.000000	26.426122
1739.000000	26.238571
1738.000000	26.044226
1737.000000	25.870778
1736.000000	25.703918
1735.000000	25.556821
1734.000000	25.454811
1733.000000	25.387593
1732.000000	25.359697
1731.000000	25.339007
1730.000000	25.369579
1729.000000	25.432782
1728.000000	25.505970
1727.000000	25.593672
1726.000000	25.676331
1725.000000	25.740151
1724.000000	25.797384
1723.000000	25.853588
1722.000000	25.905159
1721.000000	25.955495
1720.000000	26.006552
1719.000000	26.075416
1718.000000	26.147884
1717.000000	26.227454
1716.000000	26.302392
1715.000000	26.417887
1714.000000	26.527000
1713.000000	26.626745
1712.000000	26.712903
1711.000000	26.784856
1710.000000	26.855883
1709.000000	26.906219
1708.000000	26.934114
1707.000000	26.931541
1706.000000	26.921042
1705.000000	26.902513
1704.000000	26.864220
1703.000000	26.815325
1702.000000	26.749343
1701.000000	26.668641
1700.000000	26.554999
1699.000000	26.436827
1698.000000	26.290348
1697.000000	26.163530
1696.000000	26.046594
1695.000000	25.968362
1694.000000	25.908762
1693.000000	25.911438
1692.000000	25.954877
1691.000000	26.044844
1690.000000	26.163839
1689.000000	26.276143
1688.000000	26.360963
1687.000000	26.446812
1686.000000	26.480884
1685.000000	26.556028
1684.000000	26.609040
1683.000000	26.706315
1682.000000	26.881411
1681.000000	27.144311
1680.000000	27.463724
1679.000000	27.878456
1678.000000	28.317790
1677.000000	28.749815
1676.000000	29.181223
1675.000000	29.574750
1674.000000	29.911456
1673.000000	30.232207
1672.000000	30.518268
1671.000000	30.734744
1670.000000	30.950397
1669.000000	31.140212
1668.000000	31.310778
1667.000000	31.436773
1666.000000	31.565855
1665.000000	31.688762
1664.000000	31.789846
1663.000000	31.872092
1662.000000	31.967823
1661.000000	32.065716
1660.000000	32.129949
1659.000000	32.180593
1658.000000	32.235562
1657.000000	32.276016
1656.000000	32.320176
1655.000000	32.345498
1654.000000	32.347763
1653.000000	32.366291
1652.000000	32.347351
1651.000000	32.320176
1650.000000	32.348792
1649.000000	32.328411
1648.000000	32.285692
1647.000000	32.255017
1646.000000	32.223518
1645.000000	32.188622
1644.000000	32.146213
1643.000000	32.118831
1642.000000	32.063554
1641.000000	32.007351
1640.000000	31.976676
1639.000000	31.923766
1638.000000	31.871783
1637.000000	31.822168
1636.000000	31.755465
1635.000000	31.693703
1634.000000	31.632147
1633.000000	31.573061
1632.000000	31.506358
1631.000000	31.449434
1630.000000	31.377481
1629.000000	31.282676
1628.000000	31.220400
1627.000000	31.144844
1626.000000	31.060024
1625.000000	30.984263
1624.000000	30.910045
1623.000000	30.831814
1622.000000	30.775507
1621.000000	30.692643
