PE UV       SUBTECH     SPECTRUM    ASCII       PEDS        4.00        
   -1
CICIMAUCR0245-2.Sample.ASC
24/06/21
11:18:08.00
24/06/21
11:18:08.00
Vinicio Soto Monge
C. resplendens. Sex M. Dorsal
250,000000
1
Lambda 1050
1050L1511233
PerkinElmer UV WinLab 6.3.2.0749 / 2.02.05 Lambda 900 UV/VIS/NIR, Aug  7 2015 09:38:08

0
0
3350/servo 860,8/2
0
0
UV/VIS
1
1
1
DoubleDePol,CommonBeamDepol,RBeamAtt,SBeamAtt,60mm sphere, WB InGaAs Detector
0
0
0
0
Program
Program
3350/servo 860,8/2
3350/0,2 860,8/0,2
3350/0,2 860,8/0,2
0
15.00
 
 
 
0
 
860,8
319,2
860,8
Front
100
on
S:100 R:100
0
0
0
0
 
0
 
 
 
0
 
 
0
0
0
0
0
 
 
 
 
0
0


0
0
#HDR
-1
-1
#GR
nm
%R
1.0
0.0
2500,000000
-1,000000
2251
8
92,026400
5,872100
#DATA
2500.000000	7.458435
2499.000000	7.350612
2498.000000	7.415886
2497.000000	7.376141
2496.000000	7.390958
2495.000000	7.308263
2494.000000	7.216759
2493.000000	7.254902
2492.000000	7.317073
2491.000000	7.295349
2490.000000	7.283335
2489.000000	7.244290
2488.000000	7.222966
2487.000000	7.224367
2486.000000	7.256003
2485.000000	7.223566
2484.000000	7.168003
2483.000000	7.234479
2482.000000	7.222665
2481.000000	7.187625
2480.000000	7.148781
2479.000000	7.125955
2478.000000	7.241287
2477.000000	7.221965
2476.000000	7.170406
2475.000000	7.194333
2474.000000	7.179616
2473.000000	7.214055
2472.000000	7.204745
2471.000000	7.169304
2470.000000	7.182619
2469.000000	7.140371
2468.000000	7.186124
2467.000000	7.183521
2466.000000	7.161295
2465.000000	7.200240
2464.000000	7.208449
2463.000000	7.221965
2462.000000	7.237382
2461.000000	7.267917
2460.000000	7.309465
2459.000000	7.304559
2458.000000	7.325883
2457.000000	7.326384
2456.000000	7.342102
2455.000000	7.382048
2454.000000	7.387254
2453.000000	7.443118
2452.000000	7.469448
2451.000000	7.492074
2450.000000	7.514499
2449.000000	7.564056
2448.000000	7.603401
2447.000000	7.619219
2446.000000	7.647752
2445.000000	7.700512
2444.000000	7.708521
2443.000000	7.741259
2442.000000	7.780504
2441.000000	7.813642
2440.000000	7.840873
2439.000000	7.871608
2438.000000	7.910452
2437.000000	7.943791
2436.000000	7.956906
2435.000000	7.998053
2434.000000	8.044906
2433.000000	8.053216
2432.000000	8.066531
2431.000000	8.087054
2430.000000	8.117790
2429.000000	8.133307
2428.000000	8.165444
2427.000000	8.171451
2426.000000	8.195278
2425.000000	8.223310
2424.000000	8.235825
2423.000000	8.272066
2422.000000	8.289186
2421.000000	8.277973
2420.000000	8.304303
2419.000000	8.319721
2418.000000	8.333537
2417.000000	8.366174
2416.000000	8.378188
2415.000000	8.387398
2414.000000	8.400313
2413.000000	8.415130
2412.000000	8.437956
2411.000000	8.451171
2410.000000	8.469292
2409.000000	8.477201
2408.000000	8.482307
2407.000000	8.489815
2406.000000	8.515645
2405.000000	8.540073
2404.000000	8.549884
2403.000000	8.567204
2402.000000	8.575013
2401.000000	8.573912
2400.000000	8.572510
2399.000000	8.580119
2398.000000	8.579518
2397.000000	8.592333
2396.000000	8.603045
2395.000000	8.621566
2394.000000	8.626372
2393.000000	8.634881
2392.000000	8.655004
2391.000000	8.656606
2390.000000	8.658508
2389.000000	8.666918
2388.000000	8.665817
2387.000000	8.674927
2386.000000	8.677530
2385.000000	8.688042
2384.000000	8.700957
2383.000000	8.685139
2382.000000	8.677430
2381.000000	8.686440
2380.000000	8.671724
2379.000000	8.666017
2378.000000	8.669020
2377.000000	8.652602
2376.000000	8.638986
2375.000000	8.637184
2374.000000	8.612556
2373.000000	8.593234
2372.000000	8.592933
2371.000000	8.582021
2370.000000	8.559896
2369.000000	8.548883
2368.000000	8.510539
2367.000000	8.471194
2366.000000	8.452673
2365.000000	8.423239
2364.000000	8.390402
2363.000000	8.346051
2362.000000	8.309509
2361.000000	8.283279
2360.000000	8.239028
2359.000000	8.208393
2358.000000	8.180361
2357.000000	8.153631
2356.000000	8.125398
2355.000000	8.084752
2354.000000	8.066030
2353.000000	8.051714
2352.000000	8.041903
2351.000000	8.039500
2350.000000	8.031391
2349.000000	8.047109
2348.000000	8.060724
2347.000000	8.061025
2346.000000	8.076442
2345.000000	8.096565
2344.000000	8.127401
2343.000000	8.148525
2342.000000	8.169349
2341.000000	8.189271
2340.000000	8.208694
2339.000000	8.224111
2338.000000	8.241631
2337.000000	8.239629
2336.000000	8.255347
2335.000000	8.260153
2334.000000	8.248639
2333.000000	8.226414
2332.000000	8.217103
2331.000000	8.204789
2330.000000	8.176857
2329.000000	8.136611
2328.000000	8.102672
2327.000000	8.055418
2326.000000	8.026685
2325.000000	7.980633
2324.000000	7.910753
2323.000000	7.852686
2322.000000	7.805032
2321.000000	7.747065
2320.000000	7.684093
2319.000000	7.615915
2318.000000	7.536825
2317.000000	7.469848
2316.000000	7.405675
2315.000000	7.335695
2314.000000	7.244691
2313.000000	7.186524
2312.000000	7.143375
2311.000000	7.086209
2310.000000	7.030345
2309.000000	6.996507
2308.000000	6.969976
2307.000000	6.948652
2306.000000	6.925726
2305.000000	6.927327
2304.000000	6.952756
2303.000000	6.955159
2302.000000	6.978786
2301.000000	7.029044
2300.000000	7.068189
2299.000000	7.098123
2298.000000	7.162196
2297.000000	7.208449
2296.000000	7.255703
2295.000000	7.308363
2294.000000	7.345606
2293.000000	7.385752
2292.000000	7.430503
2291.000000	7.456233
2290.000000	7.479960
2289.000000	7.497380
2288.000000	7.513598
2287.000000	7.512697
2286.000000	7.513198
2285.000000	7.513298
2284.000000	7.500784
2283.000000	7.481762
2282.000000	7.473653
2281.000000	7.452528
2280.000000	7.440715
2279.000000	7.424897
2278.000000	7.399167
2277.000000	7.392660
2276.000000	7.382849
2275.000000	7.344204
2274.000000	7.349811
2273.000000	7.362225
2272.000000	7.345005
2271.000000	7.357820
2270.000000	7.384551
2269.000000	7.422194
2268.000000	7.454130
2267.000000	7.488670
2266.000000	7.532720
2265.000000	7.595592
2264.000000	7.670378
2263.000000	7.771193
2262.000000	7.868404
2261.000000	7.984737
2260.000000	8.106877
2259.000000	8.222810
2258.000000	8.344850
2257.000000	8.491617
2256.000000	8.649498
2255.000000	8.788157
2254.000000	8.946738
2253.000000	9.090603
2252.000000	9.219651
2251.000000	9.362314
2250.000000	9.493063
2249.000000	9.630621
2248.000000	9.747755
2247.000000	9.884712
2246.000000	9.985026
2245.000000	10.086443
2244.000000	10.190662
2243.000000	10.277661
2242.000000	10.369466
2241.000000	10.465576
2240.000000	10.542965
2239.000000	10.619753
2238.000000	10.665205
2237.000000	10.733383
2236.000000	10.785543
2235.000000	10.831195
2234.000000	10.886959
2233.000000	10.925703
2232.000000	10.974359
2231.000000	11.015606
2230.000000	11.033927
2229.000000	11.070068
2228.000000	11.090992
2227.000000	11.128635
2226.000000	11.126333
2225.000000	11.153263
2224.000000	11.151061
2223.000000	11.140048
2222.000000	11.159671
2221.000000	11.126132
2220.000000	11.149459
2219.000000	11.119525
2218.000000	11.131739
2217.000000	11.111415
2216.000000	11.100203
2215.000000	11.098401
2214.000000	11.073672
2213.000000	11.040034
2212.000000	11.035328
2211.000000	11.021312
2210.000000	11.031824
2209.000000	11.009098
2208.000000	11.005394
2207.000000	10.983269
2206.000000	10.963346
2205.000000	10.977863
2204.000000	10.967250
2203.000000	10.955737
2202.000000	10.936215
2201.000000	10.916192
2200.000000	10.894667
2199.000000	10.908884
2198.000000	10.904879
2197.000000	10.884356
2196.000000	10.893466
2195.000000	10.871040
2194.000000	10.846813
2193.000000	10.838003
2192.000000	10.823586
2191.000000	10.812573
2190.000000	10.806466
2189.000000	10.801561
2188.000000	10.777633
2187.000000	10.768123
2186.000000	10.747199
2185.000000	10.770325
2184.000000	10.756209
2183.000000	10.735285
2182.000000	10.727476
2181.000000	10.704250
2180.000000	10.685328
2179.000000	10.681724
2178.000000	10.666106
2177.000000	10.655494
2176.000000	10.652490
2175.000000	10.647785
2174.000000	10.657896
2173.000000	10.669710
2172.000000	10.661701
2171.000000	10.673915
2170.000000	10.689533
2169.000000	10.690133
2168.000000	10.701046
2167.000000	10.699044
2166.000000	10.719167
2165.000000	10.721269
2164.000000	10.754006
2163.000000	10.763317
2162.000000	10.787845
2161.000000	10.784441
2160.000000	10.798758
2159.000000	10.826690
2158.000000	10.851418
2157.000000	10.884256
2156.000000	10.885157
2155.000000	10.901475
2154.000000	10.940320
2153.000000	10.966550
2152.000000	10.985171
2151.000000	10.989075
2150.000000	11.029021
2149.000000	11.042637
2148.000000	11.052748
2147.000000	11.072271
2146.000000	11.088189
2145.000000	11.111215
2144.000000	11.127334
2143.000000	11.143452
2142.000000	11.143752
2141.000000	11.168180
2140.000000	11.189805
2139.000000	11.191707
2138.000000	11.193610
2137.000000	11.199717
2136.000000	11.209728
2135.000000	11.214934
2134.000000	11.203120
2133.000000	11.222943
2132.000000	11.222843
2131.000000	11.220140
2130.000000	11.217937
2129.000000	11.196813
2128.000000	11.186201
2127.000000	11.190106
2126.000000	11.186601
2125.000000	11.175088
2124.000000	11.167279
2123.000000	11.143953
2122.000000	11.124631
2121.000000	11.114319
2120.000000	11.100803
2119.000000	11.072571
2118.000000	11.042236
2117.000000	11.019711
2116.000000	11.000288
2115.000000	10.969053
2114.000000	10.947928
2113.000000	10.930408
2112.000000	10.895268
2111.000000	10.885056
2110.000000	10.853921
2109.000000	10.827290
2108.000000	10.802862
2107.000000	10.789747
2106.000000	10.764418
2105.000000	10.739890
2104.000000	10.714161
2103.000000	10.685728
2102.000000	10.665806
2101.000000	10.645282
2100.000000	10.619653
2099.000000	10.600230
2098.000000	10.579907
2097.000000	10.563689
2096.000000	10.536257
2095.000000	10.509326
2094.000000	10.486000
2093.000000	10.494610
2092.000000	10.481795
2091.000000	10.443251
2090.000000	10.425631
2089.000000	10.413216
2088.000000	10.406208
2087.000000	10.390490
2086.000000	10.366863
2085.000000	10.358354
2084.000000	10.343036
2083.000000	10.326417
2082.000000	10.309498
2081.000000	10.291477
2080.000000	10.273356
2079.000000	10.254835
2078.000000	10.223900
2077.000000	10.211185
2076.000000	10.204578
2075.000000	10.175344
2074.000000	10.138802
2073.000000	10.107467
2072.000000	10.092950
2071.000000	10.071525
2070.000000	10.039589
2069.000000	10.010055
2068.000000	9.994237
2067.000000	9.977117
2066.000000	9.945581
2065.000000	9.921153
2064.000000	9.893622
2063.000000	9.865590
2062.000000	9.838359
2061.000000	9.799014
2060.000000	9.769380
2059.000000	9.757066
2058.000000	9.738544
2057.000000	9.721825
2056.000000	9.713316
2055.000000	9.691190
2054.000000	9.674171
2053.000000	9.674071
2052.000000	9.674471
2051.000000	9.676774
2050.000000	9.703004
2049.000000	9.722126
2048.000000	9.742849
2047.000000	9.774185
2046.000000	9.811228
2045.000000	9.856680
2044.000000	9.909840
2043.000000	9.951889
2042.000000	9.989432
2041.000000	10.051803
2040.000000	10.110971
2039.000000	10.165032
2038.000000	10.214689
2037.000000	10.251331
2036.000000	10.303090
2035.000000	10.360056
2034.000000	10.401303
2033.000000	10.461171
2032.000000	10.487201
2031.000000	10.514032
2030.000000	10.540162
2029.000000	10.570797
2028.000000	10.593323
2027.000000	10.592922
2026.000000	10.620153
2025.000000	10.636872
2024.000000	10.644781
2023.000000	10.669109
2022.000000	10.680122
2021.000000	10.685728
2020.000000	10.692836
2019.000000	10.695139
2018.000000	10.682224
2017.000000	10.677118
2016.000000	10.678921
2015.000000	10.688832
2014.000000	10.685828
2013.000000	10.666707
2012.000000	10.653992
2011.000000	10.632467
2010.000000	10.628863
2009.000000	10.615848
2008.000000	10.626561
2007.000000	10.606738
2006.000000	10.570897
2005.000000	10.527447
2004.000000	10.515734
2003.000000	10.498814
2002.000000	10.459970
2001.000000	10.427032
2000.000000	10.410613
1999.000000	10.379077
1998.000000	10.335327
1997.000000	10.293279
1996.000000	10.269953
1995.000000	10.233711
1994.000000	10.189460
1993.000000	10.145911
1992.000000	10.113674
1991.000000	10.060913
1990.000000	10.019666
1989.000000	9.963402
1988.000000	9.906036
1987.000000	9.860184
1986.000000	9.824443
1985.000000	9.768979
1984.000000	9.713616
1983.000000	9.672369
1982.000000	9.628218
1981.000000	9.565947
1980.000000	9.510283
1979.000000	9.452817
1978.000000	9.409768
1977.000000	9.357308
1976.000000	9.293235
1975.000000	9.257694
1974.000000	9.212542
1973.000000	9.154776
1972.000000	9.103618
1971.000000	9.047554
1970.000000	9.017519
1969.000000	8.967162
1968.000000	8.931521
1967.000000	8.880162
1966.000000	8.825399
1965.000000	8.787156
1964.000000	8.753818
1963.000000	8.707464
1962.000000	8.671523
1961.000000	8.617962
1960.000000	8.591332
1959.000000	8.549784
1958.000000	8.512642
1957.000000	8.485611
1956.000000	8.452272
1955.000000	8.416031
1954.000000	8.409223
1953.000000	8.365773
1952.000000	8.307707
1951.000000	8.279475
1950.000000	8.280876
1949.000000	8.243333
1948.000000	8.208193
1947.000000	8.191274
1946.000000	8.171051
1945.000000	8.132206
1944.000000	8.117489
1943.000000	8.119492
1942.000000	8.102272
1941.000000	8.069735
1940.000000	8.095965
1939.000000	8.086954
1938.000000	8.076042
1937.000000	8.077143
1936.000000	8.073839
1935.000000	8.063728
1934.000000	8.091159
1933.000000	8.096665
1932.000000	8.125098
1931.000000	8.159037
1930.000000	8.187369
1929.000000	8.197681
1928.000000	8.232621
1927.000000	8.271766
1926.000000	8.333937
1925.000000	8.349955
1924.000000	8.405919
1923.000000	8.475299
1922.000000	8.525356
1921.000000	8.591332
1920.000000	8.664916
1919.000000	8.737899
1918.000000	8.783351
1917.000000	8.868148
1916.000000	8.963858
1915.000000	9.021924
1914.000000	9.131149
1913.000000	9.230263
1912.000000	9.334182
1911.000000	9.435598
1910.000000	9.521596
1909.000000	9.624914
1908.000000	9.751059
1907.000000	9.884411
1906.000000	10.011457
1905.000000	10.171440
1904.000000	10.320610
1903.000000	10.449758
1902.000000	10.627462
1901.000000	10.769024
1900.000000	10.946427
1899.000000	11.128435
1898.000000	11.312446
1897.000000	11.490950
1896.000000	11.653436
1895.000000	11.844955
1894.000000	12.034171
1893.000000	12.237304
1892.000000	12.463463
1891.000000	12.757900
1890.000000	13.049433
1889.000000	13.314437
1888.000000	13.618585
1887.000000	13.914924
1886.000000	14.229684
1885.000000	14.595102
1884.000000	15.022091
1883.000000	15.455286
1882.000000	15.907404
1881.000000	16.369733
1880.000000	16.812139
1879.000000	17.268962
1878.000000	17.725284
1877.000000	18.181807
1876.000000	18.628918
1875.000000	19.053704
1874.000000	19.464074
1873.000000	19.877046
1872.000000	20.256381
1871.000000	20.612488
1870.000000	20.935157
1869.000000	21.239105
1868.000000	21.525833
1867.000000	21.732370
1866.000000	21.906669
1865.000000	22.070256
1864.000000	22.226235
1863.000000	22.364493
1862.000000	22.500148
1861.000000	22.636705
1860.000000	22.785074
1859.000000	22.883487
1858.000000	22.978396
1857.000000	23.043270
1856.000000	23.095029
1855.000000	23.122260
1854.000000	23.176522
1853.000000	23.204154
1852.000000	23.217469
1851.000000	23.209260
1850.000000	23.225378
1849.000000	23.224077
1848.000000	23.209260
1847.000000	23.180427
1846.000000	23.142984
1845.000000	23.089423
1844.000000	23.053281
1843.000000	23.029554
1842.000000	23.031656
1841.000000	23.037463
1840.000000	23.006328
1839.000000	22.985704
1838.000000	22.960475
1837.000000	22.918427
1836.000000	22.883287
1835.000000	22.826221
1834.000000	22.760346
1833.000000	22.691968
1832.000000	22.649820
1831.000000	22.596358
1830.000000	22.530984
1829.000000	22.471916
1828.000000	22.405740
1827.000000	22.323947
1826.000000	22.256069
1825.000000	22.188792
1824.000000	22.135531
1823.000000	22.087876
1822.000000	22.064450
1821.000000	22.038120
1820.000000	21.992668
1819.000000	21.952722
1818.000000	21.900762
1817.000000	21.864120
1816.000000	21.849003
1815.000000	21.829080
1814.000000	21.805553
1813.000000	21.806154
1812.000000	21.788834
1811.000000	21.750290
1810.000000	21.718554
1809.000000	21.683914
1808.000000	21.653880
1807.000000	21.616837
1806.000000	21.561574
1805.000000	21.505610
1804.000000	21.457856
1803.000000	21.402392
1802.000000	21.364949
1801.000000	21.322801
1800.000000	21.262932
1799.000000	21.204966
1798.000000	21.147901
1797.000000	21.103049
1796.000000	21.066908
1795.000000	21.036573
1794.000000	20.984113
1793.000000	20.927749
1792.000000	20.886001
1791.000000	20.822328
1790.000000	20.762059
1789.000000	20.717608
1788.000000	20.661845
1787.000000	20.604179
1786.000000	20.543009
1785.000000	20.482239
1784.000000	20.417665
1783.000000	20.342880
1782.000000	20.265291
1781.000000	20.191707
1780.000000	20.119124
1779.000000	20.048443
1778.000000	19.965047
1777.000000	19.871340
1776.000000	19.788445
1775.000000	19.700745
1774.000000	19.611543
1773.000000	19.513430
1772.000000	19.399100
1771.000000	19.274857
1770.000000	19.166033
1769.000000	19.044394
1768.000000	18.915046
1767.000000	18.808524
1766.000000	18.714316
1765.000000	18.627717
1764.000000	18.567248
1763.000000	18.527102
1762.000000	18.520094
1761.000000	18.550729
1760.000000	18.599985
1759.000000	18.649642
1758.000000	18.720923
1757.000000	18.806221
1756.000000	18.882809
1755.000000	18.943278
1754.000000	18.999943
1753.000000	19.046396
1752.000000	19.071024
1751.000000	19.096253
1750.000000	19.113773
1749.000000	19.101259
1748.000000	19.061013
1747.000000	19.026373
1746.000000	18.983524
1745.000000	18.911141
1744.000000	18.818836
1743.000000	18.689487
1742.000000	18.544221
1741.000000	18.383437
1740.000000	18.180004
1739.000000	17.976271
1738.000000	17.767933
1737.000000	17.573110
1736.000000	17.405118
1735.000000	17.246136
1734.000000	17.129102
1733.000000	17.068032
1732.000000	17.045406
1731.000000	17.047508
1730.000000	17.109780
1729.000000	17.218404
1728.000000	17.307706
1727.000000	17.429546
1726.000000	17.538270
1725.000000	17.643991
1724.000000	17.733293
1723.000000	17.797567
1722.000000	17.835510
1721.000000	17.873554
1720.000000	17.914200
1719.000000	17.953245
1718.000000	17.975971
1717.000000	18.030433
1716.000000	18.082793
1715.000000	18.155476
1714.000000	18.209238
1713.000000	18.274813
1712.000000	18.358809
1711.000000	18.411770
1710.000000	18.441103
1709.000000	18.466232
1708.000000	18.488958
1707.000000	18.475342
1706.000000	18.487356
1705.000000	18.462828
1704.000000	18.424584
1703.000000	18.368120
1702.000000	18.315159
1701.000000	18.253388
1700.000000	18.143763
1699.000000	18.017919
1698.000000	17.909595
1697.000000	17.806877
1696.000000	17.720579
1695.000000	17.681033
1694.000000	17.689944
1693.000000	17.752816
1692.000000	17.867747
1691.000000	18.038242
1690.000000	18.173297
1689.000000	18.319865
1688.000000	18.451115
1687.000000	18.522997
1686.000000	18.563043
1685.000000	18.604290
1684.000000	18.654948
1683.000000	18.761670
1682.000000	18.938673
1681.000000	19.220495
1680.000000	19.593622
1679.000000	20.021011
1678.000000	20.501661
1677.000000	20.968195
1676.000000	21.400690
1675.000000	21.813362
1674.000000	22.153452
1673.000000	22.468112
1672.000000	22.721602
1671.000000	22.988107
1670.000000	23.167112
1669.000000	23.314480
1668.000000	23.469658
1667.000000	23.571074
1666.000000	23.665282
1665.000000	23.745774
1664.000000	23.833374
1663.000000	23.888437
1662.000000	23.956014
1661.000000	24.001366
1660.000000	24.037708
1659.000000	24.079856
1658.000000	24.083760
1657.000000	24.125008
1656.000000	24.135219
1655.000000	24.155142
1654.000000	24.126009
1653.000000	24.128311
1652.000000	24.117299
1651.000000	24.088666
1650.000000	24.053025
1649.000000	24.026195
1648.000000	23.998163
1647.000000	23.954913
1646.000000	23.913265
1645.000000	23.862207
1644.000000	23.802839
1643.000000	23.759489
1642.000000	23.694916
1641.000000	23.652367
1640.000000	23.586992
1639.000000	23.534432
1638.000000	23.455842
1637.000000	23.393170
1636.000000	23.318585
1635.000000	23.247804
1634.000000	23.183630
1633.000000	23.127867
1632.000000	23.061891
1631.000000	22.980198
1630.000000	22.895300
1629.000000	22.828023
1628.000000	22.731513
1627.000000	22.651521
1626.000000	22.584044
1625.000000	22.507457
1624.000000	22.423360
1623.000000	22.335560
1622.000000	22.253366
1621.000000	22.174476
1620.000000	22.121715
1619.000000	22.037619
1618.000000	21.953022
1617.000000	21.875734
1616.000000	21.796343
1615.000000	21.727564
1614.000000	21.650876
1613.000000	21.604223
1612.000000	21.531139
1611.000000	21.457755
1610.000000	21.400490
1609.000000	21.329709
1608.000000	21.261631
