PE UV       SUBTECH     SPECTRUM    ASCII       PEDS        4.00        
   -1
CICIMAUCR0234-2.ASC
24/06/14
16:07:22.00
24/06/14
16:07:22.00
Vinicio Soto Monge
C. resplendens. Sex M. Dorsal.
250,000000
1
Lambda 1050
1050L1511233
PerkinElmer UV WinLab 6.3.2.0749 / 2.02.05 Lambda 900 UV/VIS/NIR, Aug  7 2015 09:38:08

0
0
3350/servo 860,8/2
0
0
UV/VIS
1
1
1
DoubleDePol,CommonBeamDepol,RBeamAtt,SBeamAtt,60mm sphere, WB InGaAs Detector
0
0
0
0
Program
Program
3350/servo 860,8/2
3350/0,2 860,8/0,2
3350/0,2 860,8/0,2
0
15.00
 
 
 
0
 
860,8
319,2
860,8
Front
100
on
S:100 R:100
0
0
0
0
 
0
 
 
 
0
 
 
0
0
0
0
0
 
 
 
 
0
0


0
0
#HDR
-1
-1
#GR
nm
%R
1.0
0.0
2500,000000
-1,000000
2251
8
92,234800
5,487100
#DATA
2500.000000	7.945446
2499.000000	7.908744
2498.000000	7.791490
2497.000000	7.769196
2496.000000	7.731653
2495.000000	7.775926
2494.000000	7.753947
2493.000000	7.693900
2492.000000	7.661931
2491.000000	7.712093
2490.000000	7.683174
2489.000000	7.574437
2488.000000	7.635746
2487.000000	7.592841
2486.000000	7.610508
2485.000000	7.618184
2484.000000	7.597573
2483.000000	7.585584
2482.000000	7.572650
2481.000000	7.565183
2480.000000	7.555088
2479.000000	7.565183
2478.000000	7.590632
2477.000000	7.514390
2476.000000	7.519123
2475.000000	7.548988
2474.000000	7.500088
2473.000000	7.583271
2472.000000	7.499668
2471.000000	7.529744
2470.000000	7.533740
2469.000000	7.533635
2468.000000	7.549094
2467.000000	7.553615
2466.000000	7.547937
2465.000000	7.538262
2464.000000	7.561397
2463.000000	7.565183
2462.000000	7.605250
2461.000000	7.622811
2460.000000	7.661511
2459.000000	7.693375
2458.000000	7.707466
2457.000000	7.731969
2456.000000	7.766356
2455.000000	7.816518
2454.000000	7.827876
2453.000000	7.870466
2452.000000	7.925465
2451.000000	7.961220
2450.000000	8.010646
2449.000000	8.055970
2448.000000	8.095721
2447.000000	8.155873
2446.000000	8.184687
2445.000000	8.232535
2444.000000	8.304676
2443.000000	8.317821
2442.000000	8.384703
2441.000000	8.438651
2440.000000	8.492809
2439.000000	8.530667
2438.000000	8.565370
2437.000000	8.600179
2436.000000	8.640981
2435.000000	8.676000
2434.000000	8.742146
2433.000000	8.766333
2432.000000	8.765807
2431.000000	8.821753
2430.000000	8.871810
2429.000000	8.904620
2428.000000	8.930279
2427.000000	8.951417
2426.000000	8.993902
2425.000000	9.024609
2424.000000	9.034704
2423.000000	9.060153
2422.000000	9.086128
2421.000000	9.096644
2420.000000	9.124407
2419.000000	9.153746
2418.000000	9.188029
2417.000000	9.203593
2416.000000	9.215897
2415.000000	9.251546
2414.000000	9.257120
2413.000000	9.266374
2412.000000	9.291508
2411.000000	9.316115
2410.000000	9.349662
2409.000000	9.364805
2408.000000	9.364489
2407.000000	9.381525
2406.000000	9.396038
2405.000000	9.427060
2404.000000	9.471859
2403.000000	9.496466
2402.000000	9.509717
2401.000000	9.531380
2400.000000	9.549047
2399.000000	9.551886
2398.000000	9.574496
2397.000000	9.606255
2396.000000	9.613195
2395.000000	9.634858
2394.000000	9.658099
2393.000000	9.674820
2392.000000	9.691751
2391.000000	9.702793
2390.000000	9.723614
2389.000000	9.750746
2388.000000	9.756530
2387.000000	9.771778
2386.000000	9.771358
2385.000000	9.758949
2384.000000	9.769149
2383.000000	9.779770
2382.000000	9.795229
2381.000000	9.796281
2380.000000	9.797858
2379.000000	9.781979
2378.000000	9.757897
2377.000000	9.751377
2376.000000	9.750956
2375.000000	9.735603
2374.000000	9.710364
2373.000000	9.684179
2372.000000	9.675135
2371.000000	9.662200
2370.000000	9.637172
2369.000000	9.601628
2368.000000	9.573234
2367.000000	9.547470
2366.000000	9.502566
2365.000000	9.465023
2364.000000	9.418542
2363.000000	9.365225
2362.000000	9.324318
2361.000000	9.278573
2360.000000	9.225151
2359.000000	9.198124
2358.000000	9.158268
2357.000000	9.107160
2356.000000	9.067304
2355.000000	9.033968
2354.000000	9.010517
2353.000000	8.990011
2352.000000	8.974237
2351.000000	8.975288
2350.000000	9.005259
2349.000000	9.029762
2348.000000	9.043643
2347.000000	9.080975
2346.000000	9.103164
2345.000000	9.118833
2344.000000	9.159741
2343.000000	9.199281
2342.000000	9.222101
2341.000000	9.249233
2340.000000	9.284041
2339.000000	9.307177
2338.000000	9.315905
2337.000000	9.328524
2336.000000	9.340513
2335.000000	9.338620
2334.000000	9.339461
2333.000000	9.326421
2332.000000	9.297712
2331.000000	9.275418
2330.000000	9.248076
2329.000000	9.204224
2328.000000	9.166366
2327.000000	9.116730
2326.000000	9.056788
2325.000000	8.981808
2324.000000	8.903673
2323.000000	8.842470
2322.000000	8.782843
2321.000000	8.709862
2320.000000	8.630465
2319.000000	8.531193
2318.000000	8.443173
2317.000000	8.369665
2316.000000	8.294686
2315.000000	8.197412
2314.000000	8.113914
2313.000000	8.044928
2312.000000	7.946077
2311.000000	7.868152
2310.000000	7.829137
2309.000000	7.779081
2308.000000	7.735229
2307.000000	7.706309
2306.000000	7.694531
2305.000000	7.678757
2304.000000	7.683700
2303.000000	7.707887
2302.000000	7.744378
2301.000000	7.782025
2300.000000	7.822407
2299.000000	7.890236
2298.000000	7.967424
2297.000000	8.037882
2296.000000	8.087413
2295.000000	8.154190
2294.000000	8.205614
2293.000000	8.248625
2292.000000	8.300364
2291.000000	8.347371
2290.000000	8.367983
2289.000000	8.377973
2288.000000	8.383442
2287.000000	8.403212
2286.000000	8.393432
2285.000000	8.360937
2284.000000	8.328442
2283.000000	8.305728
2282.000000	8.274915
2281.000000	8.217708
2280.000000	8.189630
2279.000000	8.135156
2278.000000	8.099507
2277.000000	8.059020
2276.000000	8.008332
2275.000000	7.980044
2274.000000	7.956277
2273.000000	7.933773
2272.000000	7.923151
2271.000000	7.918630
2270.000000	7.895704
2269.000000	7.924729
2268.000000	7.951545
2267.000000	8.009804
2266.000000	8.059230
2265.000000	8.125061
2264.000000	8.216235
2263.000000	8.312353
2262.000000	8.424349
2261.000000	8.559166
2260.000000	8.680627
2259.000000	8.871599
2258.000000	9.053107
2257.000000	9.210008
2256.000000	9.430741
2255.000000	9.563454
2254.000000	9.753165
2253.000000	9.975160
2252.000000	10.155721
2251.000000	10.324189
2250.000000	10.490554
2249.000000	10.679634
2248.000000	10.826754
2247.000000	10.954946
2246.000000	11.109427
2245.000000	11.240353
2244.000000	11.396517
2243.000000	11.499995
2242.000000	11.586753
2241.000000	11.708320
2240.000000	11.799494
2239.000000	11.889722
2238.000000	11.972484
2237.000000	12.049357
2236.000000	12.115503
2235.000000	12.196582
2234.000000	12.260100
2233.000000	12.310577
2232.000000	12.342862
2231.000000	12.410585
2230.000000	12.425413
2229.000000	12.461378
2228.000000	12.477678
2227.000000	12.516482
2226.000000	12.539933
2225.000000	12.529838
2224.000000	12.544771
2223.000000	12.544981
2222.000000	12.541931
2221.000000	12.559914
2220.000000	12.522687
2219.000000	12.514274
2218.000000	12.510804
2217.000000	12.495976
2216.000000	12.503442
2215.000000	12.473261
2214.000000	12.441187
2213.000000	12.437927
2212.000000	12.421943
2211.000000	12.409428
2210.000000	12.409008
2209.000000	12.364735
2208.000000	12.365892
2207.000000	12.366733
2206.000000	12.337603
2205.000000	12.339496
2204.000000	12.322460
2203.000000	12.298168
2202.000000	12.304898
2201.000000	12.288073
2200.000000	12.300902
2199.000000	12.283656
2198.000000	12.264411
2197.000000	12.249058
2196.000000	12.252633
2195.000000	12.238121
2194.000000	12.234756
2193.000000	12.225502
2192.000000	12.221611
2191.000000	12.206257
2190.000000	12.191640
2189.000000	12.188906
2188.000000	12.178495
2187.000000	12.193322
2186.000000	12.174183
2185.000000	12.161879
2184.000000	12.156411
2183.000000	12.139375
2182.000000	12.152310
2181.000000	12.137272
2180.000000	12.114346
2179.000000	12.106670
2178.000000	12.095733
2177.000000	12.103830
2176.000000	12.106354
2175.000000	12.126440
2174.000000	12.110350
2173.000000	12.097416
2172.000000	12.122128
2171.000000	12.122128
2170.000000	12.120235
2169.000000	12.130752
2168.000000	12.158304
2167.000000	12.173026
2166.000000	12.197634
2165.000000	12.202051
2164.000000	12.222347
2163.000000	12.253685
2162.000000	12.268723
2161.000000	12.270826
2160.000000	12.301113
2159.000000	12.328349
2158.000000	12.363052
2157.000000	12.387976
2156.000000	12.415423
2155.000000	12.432879
2154.000000	12.486301
2153.000000	12.506913
2152.000000	12.535306
2151.000000	12.574637
2150.000000	12.586625
2149.000000	12.613336
2148.000000	12.653507
2147.000000	12.677169
2146.000000	12.711977
2145.000000	12.741632
2144.000000	12.747837
2143.000000	12.784959
2142.000000	12.811985
2141.000000	12.832702
2140.000000	12.832492
2139.000000	12.856048
2138.000000	12.873820
2137.000000	12.914938
2136.000000	12.922930
2135.000000	12.934287
2134.000000	12.943016
2133.000000	12.949851
2132.000000	12.950587
2131.000000	12.948484
2130.000000	12.961209
2129.000000	12.968885
2128.000000	12.964469
2127.000000	12.959842
2126.000000	12.951008
2125.000000	12.942069
2124.000000	12.914097
2123.000000	12.915253
2122.000000	12.900741
2121.000000	12.869613
2120.000000	12.856994
2119.000000	12.826918
2118.000000	12.803572
2117.000000	12.774863
2116.000000	12.753200
2115.000000	12.715447
2114.000000	12.693363
2113.000000	12.685581
2112.000000	12.647303
2111.000000	12.610391
2110.000000	12.580736
2109.000000	12.550344
2108.000000	12.527630
2107.000000	12.502181
2106.000000	12.466741
2105.000000	12.443185
2104.000000	12.404170
2103.000000	12.372622
2102.000000	12.335500
2101.000000	12.303005
2100.000000	12.286600
2099.000000	12.258943
2098.000000	12.224029
2097.000000	12.192691
2096.000000	12.161564
2095.000000	12.133591
2094.000000	12.115714
2093.000000	12.088687
2092.000000	12.066709
2091.000000	12.045781
2090.000000	12.028851
2089.000000	12.006346
2088.000000	11.986891
2087.000000	11.958918
2086.000000	11.936624
2085.000000	11.924110
2084.000000	11.897399
2083.000000	11.869742
2082.000000	11.854809
2081.000000	11.826310
2080.000000	11.805173
2079.000000	11.791923
2078.000000	11.761952
2077.000000	11.726512
2076.000000	11.692230
2075.000000	11.680767
2074.000000	11.658789
2073.000000	11.605787
2072.000000	11.569612
2071.000000	11.555415
2070.000000	11.521869
2069.000000	11.486745
2068.000000	11.477175
2067.000000	11.450044
2066.000000	11.403247
2065.000000	11.392310
2064.000000	11.361078
2063.000000	11.317331
2062.000000	11.311967
2061.000000	11.298507
2060.000000	11.289253
2059.000000	11.272953
2058.000000	11.253182
2057.000000	11.244559
2056.000000	11.238775
2055.000000	11.242561
2054.000000	11.265276
2053.000000	11.279262
2052.000000	11.300715
2051.000000	11.324587
2050.000000	11.361603
2049.000000	11.418496
2048.000000	11.453935
2047.000000	11.511037
2046.000000	11.571295
2045.000000	11.634812
2044.000000	11.684763
2043.000000	11.737765
2042.000000	11.803175
2041.000000	11.859226
2040.000000	11.935467
2039.000000	11.996987
2038.000000	12.061030
2037.000000	12.129910
2036.000000	12.184699
2035.000000	12.230865
2034.000000	12.276505
2033.000000	12.321934
2032.000000	12.367049
2031.000000	12.406589
2030.000000	12.453596
2029.000000	12.490928
2028.000000	12.517008
2027.000000	12.548767
2026.000000	12.573375
2025.000000	12.599139
2024.000000	12.627533
2023.000000	12.621959
2022.000000	12.638785
2021.000000	12.666337
2020.000000	12.693679
2019.000000	12.686212
2018.000000	12.700304
2017.000000	12.721967
2016.000000	12.723860
2015.000000	12.729959
2014.000000	12.731958
2013.000000	12.728803
2012.000000	12.715132
2011.000000	12.711346
2010.000000	12.693048
2009.000000	12.681375
2008.000000	12.673593
2007.000000	12.638049
2006.000000	12.613441
2005.000000	12.607552
2004.000000	12.557600
2003.000000	12.544666
2002.000000	12.508911
2001.000000	12.474523
2000.000000	12.452019
1999.000000	12.402278
1998.000000	12.365892
1997.000000	12.321724
1996.000000	12.277136
1995.000000	12.226764
1994.000000	12.169661
1993.000000	12.110350
1992.000000	12.077225
1991.000000	12.018124
1990.000000	11.969540
1989.000000	11.891405
1988.000000	11.854178
1987.000000	11.786139
1986.000000	11.704744
1985.000000	11.651217
1984.000000	11.593694
1983.000000	11.561409
1982.000000	11.487902
1981.000000	11.425962
1980.000000	11.338889
1979.000000	11.303134
1978.000000	11.218059
1977.000000	11.160115
1976.000000	11.108691
1975.000000	11.039811
1974.000000	10.988071
1973.000000	10.932862
1972.000000	10.855358
1971.000000	10.803619
1970.000000	10.736421
1969.000000	10.670169
1968.000000	10.616432
1967.000000	10.571844
1966.000000	10.510114
1965.000000	10.465631
1964.000000	10.412840
1963.000000	10.350900
1962.000000	10.294534
1961.000000	10.227967
1960.000000	10.201151
1959.000000	10.159823
1958.000000	10.078112
1957.000000	10.059078
1956.000000	9.996823
1955.000000	9.935409
1954.000000	9.882828
1953.000000	9.850439
1952.000000	9.791864
1951.000000	9.768203
1950.000000	9.708576
1949.000000	9.663567
1948.000000	9.648319
1947.000000	9.599524
1946.000000	9.551571
1945.000000	9.532537
1944.000000	9.514344
1943.000000	9.467547
1942.000000	9.452930
1941.000000	9.452509
1940.000000	9.429900
1939.000000	9.394565
1938.000000	9.385837
1937.000000	9.388782
1936.000000	9.416965
1935.000000	9.392147
1934.000000	9.394145
1933.000000	9.418016
1932.000000	9.434527
1931.000000	9.453981
1930.000000	9.483532
1929.000000	9.521810
1928.000000	9.586905
1927.000000	9.636857
1926.000000	9.686387
1925.000000	9.754006
1924.000000	9.832141
1923.000000	9.890715
1922.000000	9.948344
1921.000000	10.033840
1920.000000	10.152041
1919.000000	10.256676
1918.000000	10.339964
1917.000000	10.467629
1916.000000	10.573737
1915.000000	10.649873
1914.000000	10.742415
1913.000000	10.919611
1912.000000	11.081559
1911.000000	11.220898
1910.000000	11.364338
1909.000000	11.497472
1908.000000	11.616724
1907.000000	11.772047
1906.000000	11.938727
1905.000000	12.111297
1904.000000	12.325405
1903.000000	12.529312
1902.000000	12.732378
1901.000000	12.911257
1900.000000	13.114849
1899.000000	13.348096
1898.000000	13.620253
1897.000000	13.841197
1896.000000	14.056567
1895.000000	14.279613
1894.000000	14.461647
1893.000000	14.668183
1892.000000	14.918572
1891.000000	15.230480
1890.000000	15.545647
1889.000000	15.854295
1888.000000	16.153163
1887.000000	16.481897
1886.000000	16.809473
1885.000000	17.202776
1884.000000	17.622579
1883.000000	18.074561
1882.000000	18.585644
1881.000000	19.070962
1880.000000	19.566587
1879.000000	20.071886
1878.000000	20.517138
1877.000000	21.016022
1876.000000	21.491981
1875.000000	21.930713
1874.000000	22.384378
1873.000000	22.817011
1872.000000	23.231661
1871.000000	23.614026
1870.000000	23.989557
1869.000000	24.317870
1868.000000	24.627779
1867.000000	24.875959
1866.000000	25.075660
1865.000000	25.226251
1864.000000	25.381784
1863.000000	25.500827
1862.000000	25.598942
1861.000000	25.746798
1860.000000	25.887294
1859.000000	25.995084
1858.000000	26.094987
1857.000000	26.190473
1856.000000	26.242843
1855.000000	26.265663
1854.000000	26.300787
1853.000000	26.325184
1852.000000	26.325184
1851.000000	26.320557
1850.000000	26.302154
1849.000000	26.272814
1848.000000	26.263981
1847.000000	26.284277
1846.000000	26.281858
1845.000000	26.237585
1844.000000	26.166286
1843.000000	26.114547
1842.000000	26.075953
1841.000000	26.091937
1840.000000	26.099719
1839.000000	26.079213
1838.000000	26.055762
1837.000000	26.024844
1836.000000	25.999500
1835.000000	25.976365
1834.000000	25.914425
1833.000000	25.838288
1832.000000	25.766043
1831.000000	25.676446
1830.000000	25.614401
1829.000000	25.558245
1828.000000	25.497672
1827.000000	25.422902
1826.000000	25.356335
1825.000000	25.292292
1824.000000	25.224148
1823.000000	25.148747
1822.000000	25.080077
1821.000000	25.071664
1820.000000	25.085020
1819.000000	25.063356
1818.000000	25.026866
1817.000000	24.987851
1816.000000	24.948941
1815.000000	24.936848
1814.000000	24.929592
1813.000000	24.905089
1812.000000	24.897728
1811.000000	24.882059
1810.000000	24.861132
1809.000000	24.830635
1808.000000	24.785205
1807.000000	24.736621
1806.000000	24.693610
1805.000000	24.643764
1804.000000	24.599070
1803.000000	24.547016
1802.000000	24.479397
1801.000000	24.438805
1800.000000	24.409360
1799.000000	24.349102
1798.000000	24.267077
1797.000000	24.205768
1796.000000	24.166753
1795.000000	24.124163
1794.000000	24.074737
1793.000000	24.020684
1792.000000	23.958955
1791.000000	23.901011
1790.000000	23.843383
1789.000000	23.794588
1788.000000	23.734015
1787.000000	23.660928
1786.000000	23.600986
1785.000000	23.536628
1784.000000	23.448924
1783.000000	23.363007
1782.000000	23.299069
1781.000000	23.215571
1780.000000	23.143115
1779.000000	23.063824
1778.000000	22.984848
1777.000000	22.906713
1776.000000	22.805758
1775.000000	22.717002
1774.000000	22.615732
1773.000000	22.488698
1772.000000	22.373546
1771.000000	22.266492
1770.000000	22.137460
1769.000000	22.016419
1768.000000	21.890436
1767.000000	21.783593
1766.000000	21.683269
1765.000000	21.583892
1764.000000	21.505757
1763.000000	21.454228
1762.000000	21.436666
1761.000000	21.437402
1760.000000	21.458855
1759.000000	21.510384
1758.000000	21.572534
1757.000000	21.648461
1756.000000	21.727752
1755.000000	21.786116
1754.000000	21.833754
1753.000000	21.867721
1752.000000	21.886861
1751.000000	21.895274
1750.000000	21.885809
1749.000000	21.874767
1748.000000	21.837435
1747.000000	21.777388
1746.000000	21.705142
1745.000000	21.599981
1744.000000	21.498080
1743.000000	21.376409
1742.000000	21.230971
1741.000000	21.048306
1740.000000	20.837669
1739.000000	20.610836
1738.000000	20.386633
1737.000000	20.171684
1736.000000	19.978292
1735.000000	19.813189
1734.000000	19.704137
1733.000000	19.632417
1732.000000	19.602867
1731.000000	19.619272
1730.000000	19.675534
1729.000000	19.773333
1728.000000	19.897529
1727.000000	20.000902
1726.000000	20.094706
1725.000000	20.201760
1724.000000	20.288202
1723.000000	20.348985
1722.000000	20.400199
1721.000000	20.421546
1720.000000	20.435112
1719.000000	20.464767
1718.000000	20.490532
1717.000000	20.522606
1716.000000	20.543743
1715.000000	20.598112
1714.000000	20.646591
1713.000000	20.693072
1712.000000	20.757010
1711.000000	20.804648
1710.000000	20.845345
1709.000000	20.864380
1708.000000	20.861120
1707.000000	20.845661
1706.000000	20.810642
1705.000000	20.785404
1704.000000	20.731982
1703.000000	20.655950
1702.000000	20.581391
1701.000000	20.479280
1700.000000	20.361079
1699.000000	20.196186
1698.000000	20.047383
1697.000000	19.910043
1696.000000	19.762712
1695.000000	19.692359
1694.000000	19.663861
1693.000000	19.702770
1692.000000	19.802147
1691.000000	19.937279
1690.000000	20.114476
1689.000000	20.281367
1688.000000	20.433535
1687.000000	20.513247
1686.000000	20.572558
1685.000000	20.608943
1684.000000	20.638704
1683.000000	20.713053
1682.000000	20.889934
1681.000000	21.138955
1680.000000	21.524055
1679.000000	22.023360
1678.000000	22.544538
1677.000000	23.086118
1676.000000	23.600986
1675.000000	24.057280
1674.000000	24.483919
1673.000000	24.866285
1672.000000	25.164732
1671.000000	25.440149
1670.000000	25.664352
1669.000000	25.869942
1668.000000	26.033993
1667.000000	26.162500
1666.000000	26.288588
1665.000000	26.394380
1664.000000	26.476827
1663.000000	26.557064
1662.000000	26.628995
1661.000000	26.691355
1660.000000	26.748983
1659.000000	26.782950
1658.000000	26.808294
1657.000000	26.821755
1656.000000	26.846888
1655.000000	26.847730
1654.000000	26.838686
1653.000000	26.829432
1652.000000	26.815656
1651.000000	26.787262
1650.000000	26.764547
1649.000000	26.727320
1648.000000	26.710074
1647.000000	26.649501
1646.000000	26.605333
1645.000000	26.547285
1644.000000	26.487763
1643.000000	26.455058
1642.000000	26.377134
1641.000000	26.332651
1640.000000	26.277231
1639.000000	26.191525
1638.000000	26.142625
1637.000000	26.046613
1636.000000	25.979835
1635.000000	25.918421
1634.000000	25.828298
1633.000000	25.760469
1632.000000	25.669820
1631.000000	25.608932
1630.000000	25.530377
1629.000000	25.437625
1628.000000	25.347712
1627.000000	25.273573
1626.000000	25.183556
1625.000000	25.092486
1624.000000	25.002573
1623.000000	24.929276
1622.000000	24.847881
1621.000000	24.765435
1620.000000	24.677100
1619.000000	24.592130
1618.000000	24.514416
1617.000000	24.455736
1616.000000	24.370345
1615.000000	24.283797
1614.000000	24.215022
1613.000000	24.145721
1612.000000	24.064011
