PE UV       SUBTECH     SPECTRUM    ASCII       PEDS        4.00        
   -1
CICIMAUCR0210-1.ASC
24/06/06
15:45:06.00
24/06/06
15:45:06.00
Vinicio Soto Monge
C. resplendens. Sex F. Dorsal
250,000000
1
Lambda 1050
1050L1511233
PerkinElmer UV WinLab 6.3.2.0749 / 2.02.05 Lambda 900 UV/VIS/NIR, Aug  7 2015 09:38:08

0
0
3350/servo 860,8/2
0
0
UV/VIS
1
1
1
DoubleDePol,CommonBeamDepol,RBeamAtt,SBeamAtt,60mm sphere, WB InGaAs Detector
0
0
0
0
Program
Program
3350/servo 860,8/2
3350/0,2 860,8/0,2
3350/0,2 860,8/0,2
0
15.00
 
 
 
0
 
860,8
319,2
860,8
Front
100
on
S:100 R:100
0
0
0
0
 
0
 
 
 
0
 
 
0
0
0
0
0
 
 
 
 
0
0


0
0
#HDR
-1
-1
#GR
nm
%R
1.0
0.0
2500,000000
-1,000000
2251
8
90,354900
5,149100
#DATA
2482.000000	5.463204
2481.000000	5.479667
2480.000000	5.483571
2479.000000	5.476079
2478.000000	5.479561
2477.000000	5.436717
2476.000000	5.477029
2475.000000	5.486526
2474.000000	5.453601
2473.000000	5.489586
2472.000000	5.527682
2471.000000	5.505416
2470.000000	5.455184
2469.000000	5.447797
2468.000000	5.462888
2467.000000	5.433762
2466.000000	5.492225
2465.000000	5.494757
2464.000000	5.542245
2463.000000	5.532748
2462.000000	5.560818
2461.000000	5.601130
2460.000000	5.531798
2459.000000	5.577703
2458.000000	5.594798
2457.000000	5.659593
2456.000000	5.635849
2455.000000	5.666030
2454.000000	5.699060
2453.000000	5.723015
2452.000000	5.729136
2451.000000	5.774724
2450.000000	5.791503
2449.000000	5.809232
2448.000000	5.843001
2447.000000	5.868433
2446.000000	5.919087
2445.000000	5.933017
2444.000000	5.967947
2443.000000	5.969952
2442.000000	5.991268
2441.000000	6.048148
2440.000000	6.099435
2439.000000	6.114420
2438.000000	6.138269
2437.000000	6.180797
2436.000000	6.194727
2435.000000	6.230607
2434.000000	6.237677
2433.000000	6.264481
2432.000000	6.289175
2431.000000	6.300255
2430.000000	6.349643
2429.000000	6.373703
2428.000000	6.395864
2427.000000	6.421613
2426.000000	6.448101
2425.000000	6.468573
2424.000000	6.473533
2423.000000	6.488096
2422.000000	6.518805
2421.000000	6.532735
2420.000000	6.550147
2419.000000	6.576740
2418.000000	6.579589
2417.000000	6.588348
2416.000000	6.622750
2415.000000	6.626022
2414.000000	6.647338
2413.000000	6.664012
2412.000000	6.663379
2411.000000	6.683007
2410.000000	6.693876
2409.000000	6.709917
2408.000000	6.734716
2407.000000	6.749384
2406.000000	6.762364
2405.000000	6.773761
2404.000000	6.787902
2403.000000	6.805736
2402.000000	6.813546
2401.000000	6.831485
2400.000000	6.856496
2399.000000	6.893008
2398.000000	6.943451
2397.000000	6.990622
2396.000000	7.040959
2395.000000	7.066497
2394.000000	7.069135
2393.000000	7.079266
2392.000000	7.099739
2391.000000	7.118100
2390.000000	7.131925
2389.000000	7.158834
2388.000000	7.188277
2387.000000	7.191654
2386.000000	7.201890
2385.000000	7.226795
2384.000000	7.250539
2383.000000	7.262463
2382.000000	7.273755
2381.000000	7.275232
2380.000000	7.276604
2379.000000	7.275443
2378.000000	7.271222
2377.000000	7.277448
2376.000000	7.295388
2375.000000	7.288318
2374.000000	7.287474
2373.000000	7.298448
2372.000000	7.288529
2371.000000	7.277976
2370.000000	7.285046
2369.000000	7.284308
2368.000000	7.262463
2367.000000	7.243679
2366.000000	7.221307
2365.000000	7.206744
2364.000000	7.192920
2363.000000	7.182051
2362.000000	7.165166
2361.000000	7.125382
2360.000000	7.101849
2359.000000	7.090030
2358.000000	7.055311
2357.000000	7.020381
2356.000000	7.013205
2355.000000	7.004341
2354.000000	6.985557
2353.000000	6.981125
2352.000000	6.982391
2351.000000	6.976587
2350.000000	6.983235
2349.000000	6.994949
2348.000000	7.013838
2347.000000	7.047819
2346.000000	7.077789
2345.000000	7.101955
2344.000000	7.113879
2343.000000	7.145960
2342.000000	7.199357
2341.000000	7.230383
2340.000000	7.239036
2339.000000	7.263941
2338.000000	7.304991
2337.000000	7.317338
2336.000000	7.335594
2335.000000	7.352373
2334.000000	7.341610
2333.000000	7.353112
2332.000000	7.357544
2331.000000	7.337072
2330.000000	7.316705
2329.000000	7.319449
2328.000000	7.294649
2327.000000	7.264996
2326.000000	7.245051
2325.000000	7.207694
2324.000000	7.179096
2323.000000	7.151342
2322.000000	7.128442
2321.000000	7.083804
2320.000000	7.025658
2319.000000	6.974898
2318.000000	6.934481
2317.000000	6.881189
2316.000000	6.840666
2315.000000	6.790962
2314.000000	6.735666
2313.000000	6.683535
2312.000000	6.625283
2311.000000	6.577373
2310.000000	6.551413
2309.000000	6.509096
2308.000000	6.492001
2307.000000	6.460131
2306.000000	6.445674
2305.000000	6.461608
2304.000000	6.459603
2303.000000	6.470789
2302.000000	6.484719
2301.000000	6.513739
2300.000000	6.569142
2299.000000	6.600378
2298.000000	6.658419
2297.000000	6.705273
2296.000000	6.747907
2295.000000	6.795817
2294.000000	6.854068
2293.000000	6.924245
2292.000000	6.962446
2291.000000	6.982496
2290.000000	7.027874
2289.000000	7.068186
2288.000000	7.079160
2287.000000	7.078527
2286.000000	7.075995
2285.000000	7.075784
2284.000000	7.087181
2283.000000	7.061326
2282.000000	7.043386
2281.000000	7.015421
2280.000000	6.994949
2279.000000	6.982813
2278.000000	6.930999
2277.000000	6.904194
2276.000000	6.873697
2275.000000	6.856285
2274.000000	6.836867
2273.000000	6.803098
2272.000000	6.796872
2271.000000	6.793179
2270.000000	6.811540
2269.000000	6.817028
2268.000000	6.834335
2267.000000	6.846365
2266.000000	6.895225
2265.000000	6.948833
2264.000000	6.998537
2263.000000	7.087814
2262.000000	7.156618
2261.000000	7.264257
2260.000000	7.352268
2259.000000	7.506128
2258.000000	7.618622
2257.000000	7.740823
2256.000000	7.909563
2255.000000	8.057620
2254.000000	8.215279
2253.000000	8.361858
2252.000000	8.498306
2251.000000	8.650478
2250.000000	8.816580
2249.000000	8.940470
2248.000000	9.070164
2247.000000	9.214211
2246.000000	9.336413
2245.000000	9.465368
2244.000000	9.563299
2243.000000	9.654475
2242.000000	9.723491
2241.000000	9.842421
2240.000000	9.915447
2239.000000	10.008734
2238.000000	10.074267
2237.000000	10.147504
2236.000000	10.214092
2235.000000	10.243957
2234.000000	10.337138
2233.000000	10.388003
2232.000000	10.421878
2231.000000	10.450792
2230.000000	10.516114
2229.000000	10.542496
2228.000000	10.553999
2227.000000	10.602437
2226.000000	10.605602
2225.000000	10.613834
2224.000000	10.639688
2223.000000	10.633990
2222.000000	10.646547
2221.000000	10.636839
2220.000000	10.658050
2219.000000	10.657206
2218.000000	10.605919
2217.000000	10.599165
2216.000000	10.594944
2215.000000	10.556848
2214.000000	10.570884
2213.000000	10.545662
2212.000000	10.543341
2211.000000	10.506933
2210.000000	10.507250
2209.000000	10.510943
2208.000000	10.485300
2207.000000	10.468521
2206.000000	10.478968
2205.000000	10.461240
2204.000000	10.473586
2203.000000	10.449420
2202.000000	10.434224
2201.000000	10.427893
2200.000000	10.422300
2199.000000	10.406365
2198.000000	10.413330
2197.000000	10.415440
2196.000000	10.393912
2195.000000	10.399189
2194.000000	10.390008
2193.000000	10.388425
2192.000000	10.354339
2191.000000	10.359616
2190.000000	10.347797
2189.000000	10.343575
2188.000000	10.324686
2187.000000	10.313394
2186.000000	10.307801
2185.000000	10.308962
2184.000000	10.284163
2183.000000	10.274032
2182.000000	10.277409
2181.000000	10.253982
2180.000000	10.232665
2179.000000	10.224539
2178.000000	10.222323
2177.000000	10.203856
2176.000000	10.202167
2175.000000	10.194358
2174.000000	10.189082
2173.000000	10.181695
2172.000000	10.192037
2171.000000	10.176841
2170.000000	10.201007
2169.000000	10.178951
2168.000000	10.179795
2167.000000	10.176946
2166.000000	10.176630
2165.000000	10.197208
2164.000000	10.222640
2163.000000	10.229394
2162.000000	10.241741
2161.000000	10.230238
2160.000000	10.233193
2159.000000	10.261791
2158.000000	10.296299
2157.000000	10.283635
2156.000000	10.293238
2155.000000	10.325108
2154.000000	10.346636
2153.000000	10.342415
2152.000000	10.376500
2151.000000	10.368902
2150.000000	10.392330
2149.000000	10.410480
2148.000000	10.430320
2147.000000	10.451003
2146.000000	10.474853
2145.000000	10.481923
2144.000000	10.500074
2143.000000	10.518330
2142.000000	10.514742
2141.000000	10.536692
2140.000000	10.565924
2139.000000	10.571411
2138.000000	10.584075
2137.000000	10.585552
2136.000000	10.597688
2135.000000	10.614256
2134.000000	10.620376
2133.000000	10.626180
2132.000000	10.640954
2131.000000	10.636417
2130.000000	10.626603
2129.000000	10.626497
2128.000000	10.636839
2127.000000	10.643593
2126.000000	10.622804
2125.000000	10.616155
2124.000000	10.602120
2123.000000	10.597266
2122.000000	10.590406
2121.000000	10.577426
2120.000000	10.564130
2119.000000	10.548301
2118.000000	10.553155
2117.000000	10.542602
2116.000000	10.519280
2115.000000	10.494059
2114.000000	10.470843
2113.000000	10.456385
2112.000000	10.438973
2111.000000	10.426521
2110.000000	10.399505
2109.000000	10.360988
2108.000000	10.352440
2107.000000	10.357927
2106.000000	10.337244
2105.000000	10.301048
2104.000000	10.276670
2103.000000	10.259047
2102.000000	10.244062
2101.000000	10.216203
2100.000000	10.189398
2099.000000	10.180218
2098.000000	10.152252
2097.000000	10.139695
2096.000000	10.132097
2095.000000	10.107614
2094.000000	10.087141
2093.000000	10.068568
2092.000000	10.046724
2091.000000	10.035855
2090.000000	10.022664
2089.000000	10.001452
2088.000000	9.977814
2087.000000	9.959241
2086.000000	9.947105
2085.000000	9.940563
2084.000000	9.925472
2083.000000	9.913758
2082.000000	9.896241
2081.000000	9.858989
2080.000000	9.836089
2079.000000	9.827436
2078.000000	9.809918
2077.000000	9.783220
2076.000000	9.753039
2075.000000	9.742169
2074.000000	9.738792
2073.000000	9.724124
2072.000000	9.699008
2071.000000	9.657641
2070.000000	9.622606
2069.000000	9.615957
2068.000000	9.599284
2067.000000	9.570897
2066.000000	9.550108
2065.000000	9.524781
2064.000000	9.502092
2063.000000	9.486896
2062.000000	9.470117
2061.000000	9.453655
2060.000000	9.447217
2059.000000	9.432654
2058.000000	9.426956
2057.000000	9.416720
2056.000000	9.421468
2055.000000	9.415031
2054.000000	9.406272
2053.000000	9.436137
2052.000000	9.459459
2051.000000	9.488057
2050.000000	9.510323
2049.000000	9.522248
2048.000000	9.549474
2047.000000	9.598545
2046.000000	9.642973
2045.000000	9.681174
2044.000000	9.719586
2043.000000	9.768024
2042.000000	9.808230
2041.000000	9.861838
2040.000000	9.895924
2039.000000	9.924417
2038.000000	9.953543
2037.000000	9.997970
2036.000000	10.036171
2035.000000	10.076694
2034.000000	10.116162
2033.000000	10.134629
2032.000000	10.148559
2031.000000	10.173886
2030.000000	10.201112
2029.000000	10.234143
2028.000000	10.250499
2027.000000	10.259469
2026.000000	10.276670
2025.000000	10.304530
2024.000000	10.304741
2023.000000	10.297882
2022.000000	10.312022
2021.000000	10.310545
2020.000000	10.318776
2019.000000	10.313183
2018.000000	10.328696
2017.000000	10.320148
2016.000000	10.323103
2015.000000	10.305269
2014.000000	10.301575
2013.000000	10.280892
2012.000000	10.278992
2011.000000	10.268228
2010.000000	10.250077
2009.000000	10.237625
2008.000000	10.216097
2007.000000	10.201534
2006.000000	10.178107
2005.000000	10.157318
2004.000000	10.131147
2003.000000	10.094317
2002.000000	10.084081
2001.000000	10.040709
2000.000000	9.994804
1999.000000	9.969899
1998.000000	9.926105
1997.000000	9.891597
1996.000000	9.848331
1995.000000	9.808336
1994.000000	9.776994
1993.000000	9.720114
1992.000000	9.692360
1991.000000	9.654475
1990.000000	9.591369
1989.000000	9.546942
1988.000000	9.505152
1987.000000	9.456715
1986.000000	9.417775
1985.000000	9.368071
1984.000000	9.327759
1983.000000	9.281749
1982.000000	9.227613
1981.000000	9.168200
1980.000000	9.118708
1979.000000	9.060456
1978.000000	9.020461
1977.000000	8.980360
1976.000000	8.944586
1975.000000	8.876625
1974.000000	8.855836
1973.000000	8.811725
1972.000000	8.744820
1971.000000	8.711368
1970.000000	8.670317
1969.000000	8.598769
1968.000000	8.561623
1967.000000	8.519517
1966.000000	8.478994
1965.000000	8.443642
1964.000000	8.416838
1963.000000	8.365024
1962.000000	8.321230
1961.000000	8.278807
1960.000000	8.261078
1959.000000	8.213907
1958.000000	8.186153
1957.000000	8.141409
1956.000000	8.084846
1955.000000	8.075137
1954.000000	8.026278
1953.000000	7.983750
1952.000000	7.973936
1951.000000	7.932041
1950.000000	7.892468
1949.000000	7.866191
1948.000000	7.830100
1947.000000	7.805618
1946.000000	7.797387
1945.000000	7.766467
1944.000000	7.726894
1943.000000	7.739557
1942.000000	7.709270
1941.000000	7.693969
1940.000000	7.669908
1939.000000	7.654079
1938.000000	7.663260
1937.000000	7.650069
1936.000000	7.634240
1935.000000	7.662416
1934.000000	7.654923
1933.000000	7.679828
1932.000000	7.650491
1931.000000	7.670964
1930.000000	7.708321
1929.000000	7.722039
1928.000000	7.760557
1927.000000	7.817015
1926.000000	7.836749
1925.000000	7.891835
1924.000000	7.906186
1923.000000	7.946815
1922.000000	8.016253
1921.000000	8.073765
1920.000000	8.130751
1919.000000	8.201033
1918.000000	8.294636
1917.000000	8.349722
1916.000000	8.453140
1915.000000	8.522261
1914.000000	8.619242
1913.000000	8.722132
1912.000000	8.815630
1911.000000	8.932239
1910.000000	9.031858
1909.000000	9.169256
1908.000000	9.276050
1907.000000	9.397830
1906.000000	9.505680
1905.000000	9.667244
1904.000000	9.819522
1903.000000	9.970638
1902.000000	10.130830
1901.000000	10.271711
1900.000000	10.466199
1899.000000	10.657100
1898.000000	10.840931
1897.000000	11.073937
1896.000000	11.296391
1895.000000	11.464815
1894.000000	11.679143
1893.000000	11.901069
1892.000000	12.134498
1891.000000	12.431138
1890.000000	12.719441
1889.000000	13.049956
1888.000000	13.336466
1887.000000	13.649674
1886.000000	14.004355
1885.000000	14.380669
1884.000000	14.799828
1883.000000	15.253283
1882.000000	15.715076
1881.000000	16.209160
1880.000000	16.741972
1879.000000	17.208408
1878.000000	17.672099
1877.000000	18.174942
1876.000000	18.663433
1875.000000	19.120899
1874.000000	19.572244
1873.000000	20.015357
1872.000000	20.466597
1871.000000	20.870981
1870.000000	21.277582
1869.000000	21.658645
1868.000000	22.036226
1867.000000	22.319992
1866.000000	22.586556
1865.000000	22.791070
1864.000000	23.022494
1863.000000	23.199571
1862.000000	23.361029
1861.000000	23.519111
1860.000000	23.692177
1859.000000	23.841711
1858.000000	23.981641
1857.000000	24.109331
1856.000000	24.208633
1855.000000	24.270789
1854.000000	24.323553
1853.000000	24.386237
1852.000000	24.399639
1851.000000	24.415996
1850.000000	24.442484
1849.000000	24.459368
1848.000000	24.476042
1847.000000	24.480158
1846.000000	24.477836
1845.000000	24.462429
1844.000000	24.401222
1843.000000	24.357534
1842.000000	24.357323
1841.000000	24.374207
1840.000000	24.397107
1839.000000	24.375790
1838.000000	24.333262
1837.000000	24.306669
1836.000000	24.289995
1835.000000	24.276488
1834.000000	24.229950
1833.000000	24.167055
1832.000000	24.095823
1831.000000	24.037466
1830.000000	23.989345
1829.000000	23.929510
1828.000000	23.871259
1827.000000	23.801293
1826.000000	23.720775
1825.000000	23.660096
1824.000000	23.595935
1823.000000	23.543804
1822.000000	23.498216
1821.000000	23.466874
1820.000000	23.455371
1819.000000	23.433316
1818.000000	23.383929
1817.000000	23.350054
1816.000000	23.332009
1815.000000	23.311642
1814.000000	23.292330
1813.000000	23.272280
1812.000000	23.265315
1811.000000	23.238088
1810.000000	23.199782
1809.000000	23.172661
1808.000000	23.133404
1807.000000	23.096892
1806.000000	23.051725
1805.000000	22.991047
1804.000000	22.940921
1803.000000	22.890056
1802.000000	22.848056
1801.000000	22.796452
1800.000000	22.738623
1799.000000	22.681954
1798.000000	22.624652
1797.000000	22.560174
1796.000000	22.516380
1795.000000	22.466148
1794.000000	22.400404
1793.000000	22.352389
1792.000000	22.304795
1791.000000	22.250237
1790.000000	22.188503
1789.000000	22.135317
1788.000000	22.075482
1787.000000	22.010160
1786.000000	21.949904
1785.000000	21.886903
1784.000000	21.809867
1783.000000	21.749505
1782.000000	21.682495
1781.000000	21.603665
1780.000000	21.522619
1779.000000	21.459513
1778.000000	21.391764
1777.000000	21.305231
1776.000000	21.215004
1775.000000	21.142084
1774.000000	21.058505
1773.000000	20.960575
1772.000000	20.858423
1771.000000	20.761548
1770.000000	20.648633
1769.000000	20.533818
1768.000000	20.434094
1767.000000	20.324766
1766.000000	20.239500
1765.000000	20.169218
1764.000000	20.110333
1763.000000	20.067910
1762.000000	20.049865
1761.000000	20.051659
1760.000000	20.075931
1759.000000	20.142730
1758.000000	20.221665
1757.000000	20.282133
1756.000000	20.358008
1755.000000	20.431245
1754.000000	20.508491
1753.000000	20.572019
1752.000000	20.595447
1751.000000	20.616552
1750.000000	20.617819
1749.000000	20.605472
1748.000000	20.590276
1747.000000	20.545848
1746.000000	20.505009
1745.000000	20.445385
1744.000000	20.348194
1743.000000	20.253957
1742.000000	20.123840
1741.000000	19.968503
1740.000000	19.795225
1739.000000	19.592399
1738.000000	19.398544
1737.000000	19.192763
1736.000000	19.012943
1735.000000	18.855811
1734.000000	18.750177
1733.000000	18.669765
1732.000000	18.633463
1731.000000	18.648554
1730.000000	18.690976
1729.000000	18.776137
1728.000000	18.898339
1727.000000	18.997219
1726.000000	19.096944
1725.000000	19.200045
1724.000000	19.288583
1723.000000	19.381343
1722.000000	19.448142
1721.000000	19.467770
1720.000000	19.495419
1719.000000	19.534675
1718.000000	19.549660
1717.000000	19.570450
1716.000000	19.591133
1715.000000	19.638093
1714.000000	19.699722
1713.000000	19.761034
1712.000000	19.816542
1711.000000	19.858014
1710.000000	19.896427
1709.000000	19.910673
1708.000000	19.918693
1707.000000	19.901070
1706.000000	19.871628
1705.000000	19.837014
1704.000000	19.776230
1703.000000	19.717767
1702.000000	19.619626
1701.000000	19.516208
1700.000000	19.403187
1699.000000	19.253020
1698.000000	19.112245
1697.000000	18.956169
1696.000000	18.822781
1695.000000	18.732132
1694.000000	18.682639
1693.000000	18.710710
1692.000000	18.796610
1691.000000	18.910686
1690.000000	19.042491
1689.000000	19.227271
1688.000000	19.359393
1687.000000	19.464394
1686.000000	19.559053
1685.000000	19.576676
1684.000000	19.619204
1683.000000	19.675872
1682.000000	19.810421
1681.000000	20.027810
1680.000000	20.370882
1679.000000	20.790358
1678.000000	21.281381
1677.000000	21.784857
1676.000000	22.307117
1675.000000	22.755718
1674.000000	23.160947
1673.000000	23.515839
1672.000000	23.835696
1671.000000	24.094979
1670.000000	24.309307
1669.000000	24.507806
1668.000000	24.709576
1667.000000	24.814577
1666.000000	24.944060
1665.000000	25.023945
1664.000000	25.097815
1663.000000	25.192791
1662.000000	25.230992
1661.000000	25.305917
1660.000000	25.349606
1659.000000	25.379048
1658.000000	25.408913
1657.000000	25.388018
1656.000000	25.428541
1655.000000	25.443315
1654.000000	25.436878
1653.000000	25.404586
1652.000000	25.380842
1651.000000	25.358048
1650.000000	25.344118
1649.000000	25.320163
1648.000000	25.257585
1647.000000	25.222233
1646.000000	25.173268
1645.000000	25.116388
1644.000000	25.050222
1643.000000	25.004950
1642.000000	24.949337
1641.000000	24.871562
1640.000000	24.800014
1639.000000	24.736380
1638.000000	24.691214
1637.000000	24.616817
1636.000000	24.540098
1635.000000	24.462007
1634.000000	24.381700
1633.000000	24.322604
1632.000000	24.239131
1631.000000	24.140251
1630.000000	24.065114
1629.000000	23.997893
1628.000000	23.898380
1627.000000	23.815012
1626.000000	23.755600
1625.000000	23.662313
1624.000000	23.568181
1623.000000	23.485553
1622.000000	23.400813
1621.000000	23.309320
1620.000000	23.229224
1619.000000	23.161158
1618.000000	23.075469
1617.000000	23.011308
1616.000000	22.915172
1615.000000	22.836236
1614.000000	22.770809
1613.000000	22.700738
1612.000000	22.629401
1611.000000	22.565662
1610.000000	22.495907
1609.000000	22.425625
1608.000000	22.357876
1607.000000	22.283795
1606.000000	22.211508
1605.000000	22.133840
1604.000000	22.079598
1603.000000	22.008155
1602.000000	21.950009
1601.000000	21.876350
1600.000000	21.808179
1599.000000	21.720590
1598.000000	21.669304
1597.000000	21.603770
1596.000000	21.532750
1595.000000	21.478086
1594.000000	21.410654
1593.000000	21.349764
1592.000000	21.281381
1591.000000	21.234632
1590.000000	21.186089
1589.000000	21.136280
