PE UV       SUBTECH     SPECTRUM    ASCII       PEDS        4.00        
   -1
CICIMAUCR0212-3.ASC
24/06/06
17:34:18.00
24/06/06
17:34:18.00
Vinicio Soto Monge
C. resplendens. Sex F. Dorsal
250,000000
1
Lambda 1050
1050L1511233
PerkinElmer UV WinLab 6.3.2.0749 / 2.02.05 Lambda 900 UV/VIS/NIR, Aug  7 2015 09:38:08

0
0
3350/servo 860,8/2
0
0
UV/VIS
1
1
1
DoubleDePol,CommonBeamDepol,RBeamAtt,SBeamAtt,60mm sphere, WB InGaAs Detector
0
0
0
0
Program
Program
3350/servo 860,8/2
3350/0,2 860,8/0,2
3350/0,2 860,8/0,2
0
15.00
 
 
 
0
 
860,8
319,2
860,8
Front
100
on
S:100 R:100
0
0
0
0
 
0
 
 
 
0
 
 
0
0
0
0
0
 
 
 
 
0
0


0
0
#HDR
-1
-1
#GR
nm
%R
1.0
0.0
2500,000000
-1,000000
2251
8
89,566500
5,313500
#DATA
2500.000000	7.293007
2499.000000	7.235762
2498.000000	7.308518
2497.000000	7.256518
2496.000000	7.160216
2495.000000	7.174053
2494.000000	7.158877
2493.000000	7.220809
2492.000000	7.173719
2491.000000	7.106765
2490.000000	7.124731
2489.000000	7.123057
2488.000000	7.054207
2487.000000	7.017048
2486.000000	7.049743
2485.000000	6.991271
2484.000000	7.021958
2483.000000	6.943734
2482.000000	6.967502
2481.000000	7.065477
2480.000000	7.012919
2479.000000	7.066482
2478.000000	7.053537
2477.000000	7.021176
2476.000000	7.051529
2475.000000	7.023743
2474.000000	6.959803
2473.000000	7.025417
2472.000000	7.046507
2471.000000	7.005331
2470.000000	6.998635
2469.000000	7.011245
2468.000000	6.993502
2467.000000	6.977322
2466.000000	7.010018
2465.000000	6.962034
2464.000000	7.015597
2463.000000	7.025863
2462.000000	7.040481
2461.000000	7.040593
2460.000000	7.038361
2459.000000	7.075074
2458.000000	7.114576
2457.000000	7.099847
2456.000000	7.141358
2455.000000	7.167581
2454.000000	7.223934
2453.000000	7.270131
2452.000000	7.310303
2451.000000	7.358175
2450.000000	7.403703
2449.000000	7.441197
2448.000000	7.488511
2447.000000	7.526786
2446.000000	7.578675
2445.000000	7.653551
2444.000000	7.650315
2443.000000	7.714925
2442.000000	7.764024
2441.000000	7.806428
2440.000000	7.844480
2439.000000	7.901948
2438.000000	7.951717
2437.000000	7.986867
2436.000000	8.032172
2435.000000	8.068439
2434.000000	8.092765
2433.000000	8.162173
2432.000000	8.182259
2431.000000	8.233814
2430.000000	8.273539
2429.000000	8.298089
2428.000000	8.359016
2427.000000	8.398407
2426.000000	8.397514
2425.000000	8.417266
2424.000000	8.455429
2423.000000	8.500288
2422.000000	8.531868
2421.000000	8.533765
2420.000000	8.557310
2419.000000	8.585653
2418.000000	8.620916
2417.000000	8.647585
2416.000000	8.672246
2415.000000	8.705946
2414.000000	8.742436
2413.000000	8.759174
2412.000000	8.782943
2411.000000	8.796445
2410.000000	8.812625
2409.000000	8.845209
2408.000000	8.865853
2407.000000	8.876789
2406.000000	8.901450
2405.000000	8.920643
2404.000000	8.960704
2403.000000	8.998086
2402.000000	9.009915
2401.000000	9.043949
2400.000000	9.071846
2399.000000	9.112576
2398.000000	9.189350
2397.000000	9.249273
2396.000000	9.266234
2395.000000	9.288329
2394.000000	9.319797
2393.000000	9.347360
2392.000000	9.370793
2391.000000	9.407952
2390.000000	9.459953
2389.000000	9.481266
2388.000000	9.505927
2387.000000	9.538846
2386.000000	9.565293
2385.000000	9.581250
2384.000000	9.579130
2383.000000	9.591070
2382.000000	9.608143
2381.000000	9.642624
2380.000000	9.661371
2379.000000	9.669517
2378.000000	9.661036
2377.000000	9.664272
2376.000000	9.673311
2375.000000	9.671525
2374.000000	9.663379
2373.000000	9.671079
2372.000000	9.657131
2371.000000	9.650100
2370.000000	9.639723
2369.000000	9.622761
2368.000000	9.600890
2367.000000	9.586718
2366.000000	9.574778
2365.000000	9.526237
2364.000000	9.473790
2363.000000	9.433060
2362.000000	9.397798
2361.000000	9.366441
2360.000000	9.325600
2359.000000	9.279848
2358.000000	9.224612
2357.000000	9.182654
2356.000000	9.152748
2355.000000	9.113692
2354.000000	9.095392
2353.000000	9.066602
2352.000000	9.054885
2351.000000	9.074190
2350.000000	9.080885
2349.000000	9.101418
2348.000000	9.118825
2347.000000	9.138911
2346.000000	9.180423
2345.000000	9.237110
2344.000000	9.287771
2343.000000	9.339772
2342.000000	9.390879
2341.000000	9.425583
2340.000000	9.471781
2339.000000	9.521996
2338.000000	9.554803
2337.000000	9.584709
2336.000000	9.618855
2335.000000	9.640615
2334.000000	9.626444
2333.000000	9.621422
2332.000000	9.601894
2331.000000	9.588615
2330.000000	9.577679
2329.000000	9.543198
2328.000000	9.491979
2327.000000	9.457275
2326.000000	9.408399
2325.000000	9.353497
2324.000000	9.295471
2323.000000	9.203410
2322.000000	9.126525
2321.000000	9.044730
2320.000000	8.964275
2319.000000	8.883708
2318.000000	8.788969
2317.000000	8.675817
2316.000000	8.580074
2315.000000	8.493258
2314.000000	8.404879
2313.000000	8.306012
2312.000000	8.232809
2311.000000	8.133272
2310.000000	8.056164
2309.000000	7.988764
2308.000000	7.942566
2307.000000	7.874832
2306.000000	7.823724
2305.000000	7.828857
2304.000000	7.836668
2303.000000	7.840686
2302.000000	7.878068
2301.000000	7.903957
2300.000000	7.957742
2299.000000	8.031056
2298.000000	8.111177
2297.000000	8.183375
2296.000000	8.253118
2295.000000	8.341832
2294.000000	8.417266
2293.000000	8.478751
2292.000000	8.563224
2291.000000	8.639439
2290.000000	8.703045
2289.000000	8.717328
2288.000000	8.748350
2287.000000	8.772342
2286.000000	8.785509
2285.000000	8.779930
2284.000000	8.772677
2283.000000	8.753706
2282.000000	8.703380
2281.000000	8.677603
2280.000000	8.627722
2279.000000	8.587885
2278.000000	8.528855
2277.000000	8.479867
2276.000000	8.436905
2275.000000	8.398407
2274.000000	8.354553
2273.000000	8.346518
2272.000000	8.299651
2271.000000	8.282243
2270.000000	8.256689
2269.000000	8.273762
2268.000000	8.306346
2267.000000	8.352544
2266.000000	8.372295
2265.000000	8.452863
2264.000000	8.547936
2263.000000	8.649706
2262.000000	8.770110
2261.000000	8.915287
2260.000000	9.097847
2259.000000	9.281299
2258.000000	9.465198
2257.000000	9.679560
2256.000000	9.906643
2255.000000	10.130491
2254.000000	10.380004
2253.000000	10.588005
2252.000000	10.812857
2251.000000	11.041057
2250.000000	11.235779
2249.000000	11.447910
2248.000000	11.650332
2247.000000	11.827759
2246.000000	11.985322
2245.000000	12.150362
2244.000000	12.289291
2243.000000	12.421523
2242.000000	12.549851
2241.000000	12.666908
2240.000000	12.813982
2239.000000	12.915081
2238.000000	12.982927
2237.000000	13.110474
2236.000000	13.186131
2235.000000	13.262123
2234.000000	13.333205
2233.000000	13.401051
2232.000000	13.476597
2231.000000	13.534846
2230.000000	13.552924
2229.000000	13.571113
2228.000000	13.635723
2227.000000	13.643646
2226.000000	13.687835
2225.000000	13.703792
2224.000000	13.718410
2223.000000	13.746307
2222.000000	13.720642
2221.000000	13.717964
2220.000000	13.709483
2219.000000	13.702007
2218.000000	13.723990
2217.000000	13.670204
2216.000000	13.663508
2215.000000	13.658933
2214.000000	13.628581
2213.000000	13.613517
2212.000000	13.613293
2211.000000	13.587851
2210.000000	13.578254
2209.000000	13.564417
2208.000000	13.538417
2207.000000	13.538417
2206.000000	13.551027
2205.000000	13.524915
2204.000000	13.491885
2203.000000	13.489541
2202.000000	13.484297
2201.000000	13.443455
2200.000000	13.472914
2199.000000	13.447137
2198.000000	13.465996
2197.000000	13.458296
2196.000000	13.454949
2195.000000	13.429395
2194.000000	13.403729
2193.000000	13.423927
2192.000000	13.426940
2191.000000	13.399601
2190.000000	13.385317
2189.000000	13.373377
2188.000000	13.375721
2187.000000	13.352398
2186.000000	13.366459
2185.000000	13.353849
2184.000000	13.335102
2183.000000	13.321488
2182.000000	13.305531
2181.000000	13.302630
2180.000000	13.303299
2179.000000	13.283325
2178.000000	13.262569
2177.000000	13.225187
2176.000000	13.216929
2175.000000	13.231771
2174.000000	13.209676
2173.000000	13.218045
2172.000000	13.204655
2171.000000	13.198071
2170.000000	13.207779
2169.000000	13.229204
2168.000000	13.231994
2167.000000	13.250406
2166.000000	13.245496
2165.000000	13.242706
2164.000000	13.255093
2163.000000	13.263239
2162.000000	13.281539
2161.000000	13.297050
2160.000000	13.335325
2159.000000	13.333205
2158.000000	13.336776
2157.000000	13.350836
2156.000000	13.383643
2155.000000	13.386545
2154.000000	13.393575
2153.000000	13.436202
2152.000000	13.452047
2151.000000	13.463876
2150.000000	13.490099
2149.000000	13.512194
2148.000000	13.530718
2147.000000	13.524245
2146.000000	13.566091
2145.000000	13.592538
2144.000000	13.589860
2143.000000	13.617199
2142.000000	13.622220
2141.000000	13.629920
2140.000000	13.638736
2139.000000	13.662727
2138.000000	13.668642
2137.000000	13.685603
2136.000000	13.681251
2135.000000	13.685268
2134.000000	13.686161
2133.000000	13.694307
2132.000000	13.715509
2131.000000	13.696650
2130.000000	13.694307
2129.000000	13.686049
2128.000000	13.693191
2127.000000	13.680024
2126.000000	13.661723
2125.000000	13.645766
2124.000000	13.638289
2123.000000	13.617869
2122.000000	13.596109
2121.000000	13.570890
2120.000000	13.550134
2119.000000	13.514314
2118.000000	13.486305
2117.000000	13.474365
2116.000000	13.442562
2115.000000	13.422253
2114.000000	13.390115
2113.000000	13.360991
2112.000000	13.321935
2111.000000	13.292810
2110.000000	13.261453
2109.000000	13.240252
2108.000000	13.207444
2107.000000	13.175753
2106.000000	13.151092
2105.000000	13.120851
2104.000000	13.081014
2103.000000	13.059477
2102.000000	13.044301
2101.000000	13.010044
2100.000000	12.971992
2099.000000	12.930369
2098.000000	12.902918
2097.000000	12.882051
2096.000000	12.852703
2095.000000	12.819450
2094.000000	12.794007
2093.000000	12.761200
2092.000000	12.729509
2091.000000	12.706633
2090.000000	12.684873
2089.000000	12.665345
2088.000000	12.638006
2087.000000	12.623946
2086.000000	12.590581
2085.000000	12.551859
2084.000000	12.533447
2083.000000	12.506666
2082.000000	12.489481
2081.000000	12.469395
2080.000000	12.434579
2079.000000	12.403223
2078.000000	12.368965
2077.000000	12.332252
2076.000000	12.305583
2075.000000	12.302012
2074.000000	12.271325
2073.000000	12.216311
2072.000000	12.195444
2071.000000	12.170114
2070.000000	12.136637
2069.000000	12.104499
2068.000000	12.072920
2067.000000	12.028730
2066.000000	12.004962
2065.000000	11.989897
2064.000000	11.960103
2063.000000	11.937116
2062.000000	11.905201
2061.000000	11.882884
2060.000000	11.875407
2059.000000	11.873510
2058.000000	11.862463
2057.000000	11.851527
2056.000000	11.852755
2055.000000	11.850076
2054.000000	11.839922
2053.000000	11.851304
2052.000000	11.876300
2051.000000	11.904755
2050.000000	11.943253
2049.000000	11.961107
2048.000000	12.014559
2047.000000	12.057186
2046.000000	12.099813
2045.000000	12.164757
2044.000000	12.222784
2043.000000	12.297548
2042.000000	12.346759
2041.000000	12.380124
2040.000000	12.446073
2039.000000	12.506777
2038.000000	12.549516
2037.000000	12.609886
2036.000000	12.666573
2035.000000	12.694024
2034.000000	12.753947
2033.000000	12.788316
2032.000000	12.825029
2031.000000	12.852368
2030.000000	12.878034
2029.000000	12.910060
2028.000000	12.934833
2027.000000	12.941416
2026.000000	12.934163
2025.000000	12.971880
2024.000000	12.981700
2023.000000	12.986387
2022.000000	12.986498
2021.000000	12.996207
2020.000000	13.004129
2019.000000	13.012275
2018.000000	13.004129
2017.000000	12.997992
2016.000000	12.982704
2015.000000	12.981477
2014.000000	12.963399
2013.000000	12.934163
2012.000000	12.943313
2011.000000	12.931597
2010.000000	12.903922
2009.000000	12.860961
2008.000000	12.810523
2007.000000	12.789432
2006.000000	12.757295
2005.000000	12.721586
2004.000000	12.694358
2003.000000	12.630864
2002.000000	12.603637
2001.000000	12.553756
2000.000000	12.506331
1999.000000	12.445403
1998.000000	12.401884
1997.000000	12.338836
1996.000000	12.276904
1995.000000	12.213633
1994.000000	12.152371
1993.000000	12.122577
1992.000000	12.023486
1991.000000	11.969365
1990.000000	11.917365
1989.000000	11.838583
1988.000000	11.768505
1987.000000	11.690839
1986.000000	11.622770
1985.000000	11.544769
1984.000000	11.481721
1983.000000	11.399146
1982.000000	11.332639
1981.000000	11.237676
1980.000000	11.186345
1979.000000	11.111469
1978.000000	11.021529
1977.000000	10.960824
1976.000000	10.898781
1975.000000	10.811518
1974.000000	10.730951
1973.000000	10.685757
1972.000000	10.569482
1971.000000	10.533438
1970.000000	10.449300
1969.000000	10.387145
1968.000000	10.322201
1967.000000	10.255582
1966.000000	10.207264
1965.000000	10.135401
1964.000000	10.083623
1963.000000	10.005511
1962.000000	9.940008
1961.000000	9.904300
1960.000000	9.847948
1959.000000	9.775415
1958.000000	9.722410
1957.000000	9.648873
1956.000000	9.617182
1955.000000	9.562615
1954.000000	9.502803
1953.000000	9.436296
1952.000000	9.378493
1951.000000	9.369343
1950.000000	9.276501
1949.000000	9.238784
1948.000000	9.219367
1947.000000	9.176294
1946.000000	9.134225
1945.000000	9.085349
1944.000000	9.051984
1943.000000	9.029443
1942.000000	9.011254
1941.000000	8.984584
1940.000000	8.966953
1939.000000	8.969185
1938.000000	8.944747
1937.000000	8.949322
1936.000000	8.937940
1935.000000	8.938386
1934.000000	8.960481
1933.000000	8.971082
1932.000000	8.998867
1931.000000	9.009022
1930.000000	9.057452
1929.000000	9.081443
1928.000000	9.133332
1927.000000	9.205865
1926.000000	9.221822
1925.000000	9.297368
1924.000000	9.356845
1923.000000	9.442322
1922.000000	9.526460
1921.000000	9.604126
1920.000000	9.704667
1919.000000	9.806325
1918.000000	9.887562
1917.000000	10.019013
1916.000000	10.124465
1915.000000	10.261608
1914.000000	10.397300
1913.000000	10.555756
1912.000000	10.697251
1911.000000	10.849124
1910.000000	10.986824
1909.000000	11.153873
1908.000000	11.326947
1907.000000	11.498906
1906.000000	11.676890
1905.000000	11.891699
1904.000000	12.105838
1903.000000	12.302904
1902.000000	12.522846
1901.000000	12.732633
1900.000000	12.968532
1899.000000	13.229651
1898.000000	13.464322
1897.000000	13.709037
1896.000000	13.986335
1895.000000	14.266089
1894.000000	14.570950
1893.000000	14.861304
1892.000000	15.173753
1891.000000	15.510640
1890.000000	15.871519
1889.000000	16.218449
1888.000000	16.565379
1887.000000	16.998902
1886.000000	17.437781
1885.000000	17.897751
1884.000000	18.360733
1883.000000	18.894575
1882.000000	19.446271
1881.000000	20.007340
1880.000000	20.570306
1879.000000	21.137178
1878.000000	21.686865
1877.000000	22.243136
1876.000000	22.786128
1875.000000	23.288055
1874.000000	23.778712
1873.000000	24.244707
1872.000000	24.709810
1871.000000	25.137642
1870.000000	25.534340
1869.000000	25.864421
1868.000000	26.198071
1867.000000	26.529491
1866.000000	26.813373
1865.000000	27.046705
1864.000000	27.272003
1863.000000	27.489490
1862.000000	27.667475
1861.000000	27.865545
1860.000000	28.035607
1859.000000	28.187033
1858.000000	28.314021
1857.000000	28.389902
1856.000000	28.480177
1855.000000	28.554495
1854.000000	28.613637
1853.000000	28.668651
1852.000000	28.704024
1851.000000	28.703132
1850.000000	28.740514
1849.000000	28.774102
1848.000000	28.794746
1847.000000	28.769639
1846.000000	28.721655
1845.000000	28.677243
1844.000000	28.643097
1843.000000	28.643543
1842.000000	28.666977
1841.000000	28.684831
1840.000000	28.668762
1839.000000	28.636736
1838.000000	28.615534
1837.000000	28.591543
1836.000000	28.542890
1835.000000	28.504169
1834.000000	28.453172
1833.000000	28.389790
1832.000000	28.357206
1831.000000	28.313240
1830.000000	28.252647
1829.000000	28.181453
1828.000000	28.123204
1827.000000	28.040182
1826.000000	27.955263
1825.000000	27.891322
1824.000000	27.806849
1823.000000	27.772257
1822.000000	27.772591
1821.000000	27.771141
1820.000000	27.715235
1819.000000	27.639131
1818.000000	27.575302
1817.000000	27.537027
1816.000000	27.532452
1815.000000	27.529886
1814.000000	27.507791
1813.000000	27.488486
1812.000000	27.472975
1811.000000	27.432803
1810.000000	27.405017
1809.000000	27.367858
1808.000000	27.326570
1807.000000	27.287180
1806.000000	27.245334
1805.000000	27.196011
1804.000000	27.130843
1803.000000	27.076388
1802.000000	27.025727
1801.000000	26.979194
1800.000000	26.920721
1799.000000	26.858566
1798.000000	26.806008
1797.000000	26.747982
1796.000000	26.684041
1795.000000	26.630367
1794.000000	26.573568
1793.000000	26.512083
1792.000000	26.449816
1791.000000	26.395361
1790.000000	26.348382
1789.000000	26.287454
1788.000000	26.229093
1787.000000	26.167273
1786.000000	26.094629
1785.000000	26.020757
1784.000000	25.956370
1783.000000	25.868215
1782.000000	25.783295
1781.000000	25.721587
1780.000000	25.653294
1779.000000	25.587903
1778.000000	25.508787
1777.000000	25.415833
1776.000000	25.340734
1775.000000	25.258827
1774.000000	25.160071
1773.000000	25.074594
1772.000000	24.970035
1771.000000	24.851081
1770.000000	24.732239
1769.000000	24.621208
1768.000000	24.516091
1767.000000	24.420013
1766.000000	24.321592
1765.000000	24.241136
1764.000000	24.172286
1763.000000	24.124860
1762.000000	24.115822
1761.000000	24.137024
1760.000000	24.175522
1759.000000	24.228303
1758.000000	24.307197
1757.000000	24.406734
1756.000000	24.481276
1755.000000	24.558160
1754.000000	24.626230
1753.000000	24.679346
1752.000000	24.728668
1751.000000	24.754445
1750.000000	24.769733
1749.000000	24.759467
1748.000000	24.738488
1747.000000	24.695973
1746.000000	24.661269
1745.000000	24.601345
1744.000000	24.504709
1743.000000	24.394683
1742.000000	24.256759
1741.000000	24.098525
1740.000000	23.912172
1739.000000	23.709526
1738.000000	23.491593
1737.000000	23.265849
1736.000000	23.088534
1735.000000	22.932309
1734.000000	22.809338
1733.000000	22.743836
1732.000000	22.711921
1731.000000	22.729218
1730.000000	22.792377
1729.000000	22.893476
1728.000000	23.015555
1727.000000	23.128036
1726.000000	23.254690
1725.000000	23.358133
1724.000000	23.473069
1723.000000	23.569594
1722.000000	23.617577
1721.000000	23.673930
1720.000000	23.704951
1719.000000	23.739879
1718.000000	23.764205
1717.000000	23.784514
1716.000000	23.827811
1715.000000	23.881262
1714.000000	23.936610
1713.000000	24.007804
1712.000000	24.076208
1711.000000	24.133006
1710.000000	24.178088
1709.000000	24.187127
1708.000000	24.175075
1707.000000	24.148517
1706.000000	24.144612
1705.000000	24.099865
1704.000000	24.029006
1703.000000	23.961606
1702.000000	23.877245
1701.000000	23.778600
1700.000000	23.637663
1699.000000	23.497731
1698.000000	23.316399
1697.000000	23.145891
1696.000000	22.998147
1695.000000	22.891803
1694.000000	22.850626
1693.000000	22.880755
1692.000000	22.947039
1691.000000	23.088422
1690.000000	23.257926
1689.000000	23.408906
1688.000000	23.579414
1687.000000	23.687543
1686.000000	23.765879
1685.000000	23.802034
1684.000000	23.840978
1683.000000	23.918198
1682.000000	24.046190
1681.000000	24.295034
1680.000000	24.630693
1679.000000	25.079839
1678.000000	25.598281
1677.000000	26.123418
1676.000000	26.674445
1675.000000	27.138097
1674.000000	27.564032
1673.000000	27.934507
1672.000000	28.267488
1671.000000	28.548693
1670.000000	28.788944
1669.000000	28.970276
1668.000000	29.133642
1667.000000	29.280047
1666.000000	29.399670
1665.000000	29.506237
1664.000000	29.591714
1663.000000	29.660453
1662.000000	29.738677
1661.000000	29.783759
1660.000000	29.802060
1659.000000	29.827167
1658.000000	29.859416
1657.000000	29.895683
1656.000000	29.909408
1655.000000	29.875820
1654.000000	29.875262
1653.000000	29.858189
1652.000000	29.830961
1651.000000	29.805296
1650.000000	29.778626
1649.000000	29.736669
1648.000000	29.704308
1647.000000	29.637243
1646.000000	29.626419
1645.000000	29.560470
1644.000000	29.502890
1643.000000	29.457808
1642.000000	29.404133
1641.000000	29.335841
1640.000000	29.265428
1639.000000	29.201376
1638.000000	29.124045
1637.000000	29.059547
1636.000000	28.986456
1635.000000	28.930215
1634.000000	28.850318
1633.000000	28.780240
1632.000000	28.712840
1631.000000	28.616985
1630.000000	28.540658
1629.000000	28.455516
1628.000000	28.372940
1627.000000	28.273179
1626.000000	28.199308
1625.000000	28.108586
1624.000000	28.033710
1623.000000	27.932498
1622.000000	27.858627
1621.000000	27.770137
1620.000000	27.717801
1619.000000	27.620942
1618.000000	27.569053
1617.000000	27.462597
1616.000000	27.390511
1615.000000	27.343644
1614.000000	27.251583
1613.000000	27.182844
1612.000000	27.110646
