PE UV       SUBTECH     SPECTRUM    ASCII       PEDS        4.00        
   -1
CICIMAUCR0251-1.Sample.ASC
24/05/27
15:16:50.00
24/05/27
15:16:50.00
Vinicio Soto Monge
C. resplendens, F
250,000000
1
Lambda 1050
1050L1511233
PerkinElmer UV WinLab 6.3.2.0749 / 2.02.05 Lambda 900 UV/VIS/NIR, Aug  7 2015 09:38:08

0
0
3350/servo 860,8/2
0
0
UV/VIS
1
1
1
DoubleDePol,CommonBeamDepol,RBeamAtt,SBeamAtt,60mm sphere, WB InGaAs Detector
0
0
0
0
Program
Program
3350/servo 860,8/2
3350/0,2 860,8/0,2
3350/0,2 860,8/0,2
0
15.00
 
 
 
0
 
860,8
319,2
860,8
Front
100
on
S:100 R:100
0
0
0
0
 
0
 
 
 
0
 
 
0
0
0
0
0
 
 
 
 
0
0


0
0
#HDR
-1
-1
#GR
nm
%R
1.0
0.0
2500,000000
-1,000000
2251
8
91,306100
5,141100
#DATA
2500.000000	5.430845
2499.000000	5.489916
2498.000000	5.426726
2497.000000	5.539343
2496.000000	5.408241
2495.000000	5.422406
2494.000000	5.398195
2493.000000	5.438379
2492.000000	5.299843
2491.000000	5.256946
2490.000000	5.401510
2489.000000	5.417282
2488.000000	5.362330
2487.000000	5.335406
2486.000000	5.404725
2485.000000	5.349270
2484.000000	5.314309
2483.000000	5.246397
2482.000000	5.191345
2481.000000	5.254334
2480.000000	5.315917
2479.000000	5.246096
2478.000000	5.289696
2477.000000	5.262170
2476.000000	5.176175
2475.000000	5.250717
2474.000000	5.220880
2473.000000	5.233337
2472.000000	5.221784
2471.000000	5.230123
2470.000000	5.164823
2469.000000	5.219574
2468.000000	5.258855
2467.000000	5.225501
2466.000000	5.217063
2465.000000	5.212743
2464.000000	5.193756
2463.000000	5.221383
2462.000000	5.230525
2461.000000	5.220077
2460.000000	5.193555
2459.000000	5.213245
2458.000000	5.229821
2457.000000	5.255439
2456.000000	5.291706
2455.000000	5.276837
2454.000000	5.302154
2453.000000	5.294719
2452.000000	5.322346
2451.000000	5.318127
2450.000000	5.335105
2449.000000	5.342740
2448.000000	5.371974
2447.000000	5.373481
2446.000000	5.394679
2445.000000	5.440288
2444.000000	5.453147
2443.000000	5.444206
2442.000000	5.459577
2441.000000	5.472436
2440.000000	5.470226
2439.000000	5.496647
2438.000000	5.539243
2437.000000	5.533918
2436.000000	5.550695
2435.000000	5.564559
2434.000000	5.593693
2433.000000	5.612077
2432.000000	5.609666
2431.000000	5.622324
2430.000000	5.647942
2429.000000	5.655075
2428.000000	5.676071
2427.000000	5.678583
2426.000000	5.684711
2425.000000	5.702894
2424.000000	5.726503
2423.000000	5.729416
2422.000000	5.721982
2421.000000	5.739261
2420.000000	5.757947
2419.000000	5.774925
2418.000000	5.791602
2417.000000	5.803356
2416.000000	5.796725
2415.000000	5.820233
2414.000000	5.845248
2413.000000	5.829174
2412.000000	5.841330
2411.000000	5.843540
2410.000000	5.853285
2409.000000	5.869258
2408.000000	5.867350
2407.000000	5.883222
2406.000000	5.907233
2405.000000	5.915370
2404.000000	5.917178
2403.000000	5.923708
2402.000000	5.939380
2401.000000	5.948924
2400.000000	5.947920
2399.000000	5.944303
2398.000000	5.943198
2397.000000	5.951436
2396.000000	5.956559
2395.000000	5.977254
2394.000000	5.995840
2393.000000	6.011512
2392.000000	6.011512
2391.000000	6.010507
2390.000000	6.019950
2389.000000	6.030599
2388.000000	6.026480
2387.000000	6.032307
2386.000000	6.048080
2385.000000	6.056820
2384.000000	6.046171
2383.000000	6.038837
2382.000000	6.032106
2381.000000	6.038234
2380.000000	6.051897
2379.000000	6.056719
2378.000000	6.043057
2377.000000	6.015731
2376.000000	6.029896
2375.000000	6.040445
2374.000000	6.024371
2373.000000	6.023668
2372.000000	6.024572
2371.000000	5.999557
2370.000000	5.973537
2369.000000	5.969117
2368.000000	5.959171
2367.000000	5.943801
2366.000000	5.930339
2365.000000	5.923608
2364.000000	5.904420
2363.000000	5.884328
2362.000000	5.875989
2361.000000	5.861221
2360.000000	5.839522
2359.000000	5.815712
2358.000000	5.804963
2357.000000	5.800442
2356.000000	5.776633
2355.000000	5.759755
2354.000000	5.749609
2353.000000	5.739161
2352.000000	5.731124
2351.000000	5.729918
2350.000000	5.743380
2349.000000	5.755436
2348.000000	5.758851
2347.000000	5.780249
2346.000000	5.794113
2345.000000	5.808278
2344.000000	5.827065
2343.000000	5.822041
2342.000000	5.827768
2341.000000	5.844846
2340.000000	5.858208
2339.000000	5.861020
2338.000000	5.872774
2337.000000	5.870665
2336.000000	5.870464
2335.000000	5.864537
2334.000000	5.864738
2333.000000	5.860317
2332.000000	5.847961
2331.000000	5.834197
2330.000000	5.810991
2329.000000	5.795218
2328.000000	5.791200
2327.000000	5.752623
2326.000000	5.713543
2325.000000	5.726603
2324.000000	5.695460
2323.000000	5.651960
2322.000000	5.639101
2321.000000	5.607054
2320.000000	5.557627
2319.000000	5.533717
2318.000000	5.510611
2317.000000	5.465403
2316.000000	5.427429
2315.000000	5.388450
2314.000000	5.355097
2313.000000	5.339626
2312.000000	5.312200
2311.000000	5.285176
2310.000000	5.250717
2309.000000	5.232534
2308.000000	5.223291
2307.000000	5.213346
2306.000000	5.191144
2305.000000	5.201290
2304.000000	5.213346
2303.000000	5.209930
2302.000000	5.220780
2301.000000	5.226707
2300.000000	5.258654
2299.000000	5.276737
2298.000000	5.291404
2297.000000	5.309889
2296.000000	5.334502
2295.000000	5.355097
2294.000000	5.368056
2293.000000	5.388852
2292.000000	5.413063
2291.000000	5.430041
2290.000000	5.421703
2289.000000	5.428936
2288.000000	5.406834
2287.000000	5.417282
2286.000000	5.409346
2285.000000	5.407939
2284.000000	5.380915
2283.000000	5.367755
2282.000000	5.352786
2281.000000	5.331086
2280.000000	5.314410
2279.000000	5.293715
2278.000000	5.264581
2277.000000	5.251220
2276.000000	5.236552
2275.000000	5.211638
2274.000000	5.206514
2273.000000	5.196468
2272.000000	5.190340
2271.000000	5.191445
2270.000000	5.177682
2269.000000	5.180997
2268.000000	5.193153
2267.000000	5.198276
2266.000000	5.208825
2265.000000	5.234141
2264.000000	5.280353
2263.000000	5.326968
2262.000000	5.369563
2261.000000	5.422908
2260.000000	5.490117
2259.000000	5.548284
2258.000000	5.608561
2257.000000	5.695962
2256.000000	5.768897
2255.000000	5.846956
2254.000000	5.940988
2253.000000	6.013420
2252.000000	6.114887
2251.000000	6.195457
2250.000000	6.292301
2249.000000	6.351071
2248.000000	6.456656
2247.000000	6.506988
2246.000000	6.575201
2245.000000	6.651049
2244.000000	6.707006
2243.000000	6.774014
2242.000000	6.834492
2241.000000	6.873169
2240.000000	6.936661
2239.000000	7.007486
2238.000000	7.023761
2237.000000	7.074896
2236.000000	7.111665
2235.000000	7.156772
2234.000000	7.171038
2233.000000	7.205194
2232.000000	7.251708
2231.000000	7.265672
2230.000000	7.268284
2229.000000	7.281545
2228.000000	7.325748
2227.000000	7.327757
2226.000000	7.339411
2225.000000	7.357896
2224.000000	7.360106
2223.000000	7.344534
2222.000000	7.362216
2221.000000	7.345941
2220.000000	7.329867
2219.000000	7.330470
2218.000000	7.337000
2217.000000	7.297418
2216.000000	7.343932
2215.000000	7.327757
2214.000000	7.304149
2213.000000	7.295509
2212.000000	7.286367
2211.000000	7.290084
2210.000000	7.272001
2209.000000	7.266878
2208.000000	7.260448
2207.000000	7.261252
2206.000000	7.248292
2205.000000	7.245379
2204.000000	7.239251
2203.000000	7.233022
2202.000000	7.229506
2201.000000	7.228803
2200.000000	7.230209
2199.000000	7.222574
2198.000000	7.208711
2197.000000	7.217853
2196.000000	7.212327
2195.000000	7.200774
2194.000000	7.206701
2193.000000	7.200674
2192.000000	7.191431
2191.000000	7.214638
2190.000000	7.187815
2189.000000	7.177869
2188.000000	7.174453
2187.000000	7.172243
2186.000000	7.191230
2185.000000	7.194043
2184.000000	7.176764
2183.000000	7.179979
2182.000000	7.177869
2181.000000	7.194646
2180.000000	7.161594
2179.000000	7.170937
2178.000000	7.175860
2177.000000	7.155366
2176.000000	7.164407
2175.000000	7.187915
2174.000000	7.174252
2173.000000	7.172042
2172.000000	7.181486
2171.000000	7.196153
2170.000000	7.198966
2169.000000	7.227899
2168.000000	7.209313
2167.000000	7.213030
2166.000000	7.227597
2165.000000	7.249699
2164.000000	7.257033
2163.000000	7.253818
2162.000000	7.282449
2161.000000	7.298322
2160.000000	7.312387
2159.000000	7.312387
2158.000000	7.329867
2157.000000	7.354279
2156.000000	7.365129
2155.000000	7.376079
2154.000000	7.396172
2153.000000	7.427315
2152.000000	7.444795
2151.000000	7.452731
2150.000000	7.466495
2149.000000	7.489500
2148.000000	7.501154
2147.000000	7.514515
2146.000000	7.532699
2145.000000	7.544553
2144.000000	7.564746
2143.000000	7.578811
2142.000000	7.589459
2141.000000	7.600410
2140.000000	7.614876
2139.000000	7.628539
2138.000000	7.648531
2137.000000	7.659481
2136.000000	7.663700
2135.000000	7.669226
2134.000000	7.663299
2133.000000	7.656869
2132.000000	7.674852
2131.000000	7.670833
2130.000000	7.660586
2129.000000	7.671235
2128.000000	7.668824
2127.000000	7.658979
2126.000000	7.666714
2125.000000	7.658979
2124.000000	7.653252
2123.000000	7.644613
2122.000000	7.633160
2121.000000	7.618794
2120.000000	7.600309
2119.000000	7.591871
2118.000000	7.578911
2117.000000	7.562737
2116.000000	7.545759
2115.000000	7.534708
2114.000000	7.520141
2113.000000	7.510899
2112.000000	7.496934
2111.000000	7.472120
2110.000000	7.451928
2109.000000	7.426411
2108.000000	7.424502
2107.000000	7.407423
2106.000000	7.390948
2105.000000	7.362015
2104.000000	7.333182
2103.000000	7.315099
2102.000000	7.307766
2101.000000	7.287071
2100.000000	7.267380
2099.000000	7.250101
2098.000000	7.228401
2097.000000	7.218857
2096.000000	7.193440
2095.000000	7.179275
2094.000000	7.163905
2093.000000	7.150443
2092.000000	7.140095
2091.000000	7.122314
2090.000000	7.099710
2089.000000	7.093984
2088.000000	7.091673
2087.000000	7.083636
2086.000000	7.071983
2085.000000	7.049982
2084.000000	7.040237
2083.000000	7.035816
2082.000000	7.015925
2081.000000	7.003769
2080.000000	6.991111
2079.000000	6.972626
2078.000000	6.953639
2077.000000	6.928222
2076.000000	6.917875
2075.000000	6.900696
2074.000000	6.877087
2073.000000	6.860913
2072.000000	6.841625
2071.000000	6.820829
2070.000000	6.802846
2069.000000	6.782654
2068.000000	6.779037
2067.000000	6.771904
2066.000000	6.741766
2065.000000	6.721171
2064.000000	6.715545
2063.000000	6.704897
2062.000000	6.680585
2061.000000	6.663205
2060.000000	6.655771
2059.000000	6.641807
2058.000000	6.641405
2057.000000	6.644017
2056.000000	6.624628
2055.000000	6.616290
2054.000000	6.636482
2053.000000	6.644017
2052.000000	6.642811
2051.000000	6.651953
2050.000000	6.664411
2049.000000	6.696960
2048.000000	6.720569
2047.000000	6.738752
2046.000000	6.771000
2045.000000	6.812993
2044.000000	6.837907
2043.000000	6.859205
2042.000000	6.888841
2041.000000	6.915363
2040.000000	6.944999
2039.000000	6.983878
2038.000000	7.021852
2037.000000	7.045059
2036.000000	7.062439
2035.000000	7.097701
2034.000000	7.120706
2033.000000	7.147228
2032.000000	7.173951
2031.000000	7.176161
2030.000000	7.192235
2029.000000	7.211323
2028.000000	7.222775
2027.000000	7.246384
2026.000000	7.269088
2025.000000	7.259645
2024.000000	7.277728
2023.000000	7.302743
2022.000000	7.307565
2021.000000	7.313191
2020.000000	7.319821
2019.000000	7.325346
2018.000000	7.321227
2017.000000	7.321931
2016.000000	7.319620
2015.000000	7.329666
2014.000000	7.325346
2013.000000	7.325949
2012.000000	7.325045
2011.000000	7.319218
2010.000000	7.310980
2009.000000	7.294605
2008.000000	7.271097
2007.000000	7.281847
2006.000000	7.274011
2005.000000	7.255526
2004.000000	7.242667
2003.000000	7.217350
2002.000000	7.199870
2001.000000	7.173549
2000.000000	7.156571
1999.000000	7.143109
1998.000000	7.135776
1997.000000	7.105436
1996.000000	7.093984
1995.000000	7.059324
1994.000000	7.028684
1993.000000	7.008089
1992.000000	6.994527
1991.000000	6.942086
1990.000000	6.949420
1989.000000	6.937867
1988.000000	6.875480
1987.000000	6.866439
1986.000000	6.850164
1985.000000	6.806664
1984.000000	6.762662
1983.000000	6.741063
1982.000000	6.728505
1981.000000	6.690631
1980.000000	6.680585
1979.000000	6.621112
1978.000000	6.604335
1977.000000	6.560132
1976.000000	6.554104
1975.000000	6.541747
1974.000000	6.522157
1973.000000	6.470319
1972.000000	6.452136
1971.000000	6.441989
1970.000000	6.406124
1969.000000	6.369757
1968.000000	6.366241
1967.000000	6.346149
1966.000000	6.342231
1965.000000	6.288183
1964.000000	6.281251
1963.000000	6.266583
1962.000000	6.249706
1961.000000	6.228006
1960.000000	6.179785
1959.000000	6.175264
1958.000000	6.159692
1957.000000	6.149646
1956.000000	6.122923
1955.000000	6.128750
1954.000000	6.082136
1953.000000	6.068574
1952.000000	6.069177
1951.000000	6.018544
1950.000000	6.027586
1949.000000	5.997146
1948.000000	5.984488
1947.000000	5.992625
1946.000000	5.978560
1945.000000	5.950431
1944.000000	5.935864
1943.000000	5.944102
1942.000000	5.924813
1941.000000	5.946513
1940.000000	5.931544
1939.000000	5.931343
1938.000000	5.929334
1937.000000	5.937170
1936.000000	5.924512
1935.000000	5.908237
1934.000000	5.929033
1933.000000	5.920092
1932.000000	5.957664
1931.000000	5.922804
1930.000000	5.967510
1929.000000	5.979264
1928.000000	6.016133
1927.000000	6.023768
1926.000000	6.058327
1925.000000	6.076410
1924.000000	6.103936
1923.000000	6.139701
1922.000000	6.174058
1921.000000	6.219668
1920.000000	6.249304
1919.000000	6.321536
1918.000000	6.335902
1917.000000	6.381712
1916.000000	6.445204
1915.000000	6.506887
1914.000000	6.562543
1913.000000	6.609056
1912.000000	6.701782
1911.000000	6.779740
1910.000000	6.820427
1909.000000	6.891554
1908.000000	6.979156
1907.000000	7.050584
1906.000000	7.137483
1905.000000	7.267179
1904.000000	7.324241
1903.000000	7.460869
1902.000000	7.551184
1901.000000	7.654759
1900.000000	7.785661
1899.000000	7.924398
1898.000000	8.051582
1897.000000	8.187908
1896.000000	8.344226
1895.000000	8.469301
1894.000000	8.599700
1893.000000	8.762548
1892.000000	8.932026
1891.000000	9.132045
1890.000000	9.339397
1889.000000	9.546649
1888.000000	9.764148
1887.000000	9.990488
1886.000000	10.241139
1885.000000	10.518212
1884.000000	10.800207
1883.000000	11.162471
1882.000000	11.519611
1881.000000	11.871025
1880.000000	12.250167
1879.000000	12.612531
1878.000000	12.973389
1877.000000	13.362275
1876.000000	13.728356
1875.000000	14.084593
1874.000000	14.441231
1873.000000	14.780790
1872.000000	15.115226
1871.000000	15.416309
1870.000000	15.732863
1869.000000	16.005114
1868.000000	16.284597
1867.000000	16.499685
1866.000000	16.675091
1865.000000	16.851903
1864.000000	17.000887
1863.000000	17.146456
1862.000000	17.275951
1861.000000	17.408660
1860.000000	17.537954
1859.000000	17.650471
1858.000000	17.728128
1857.000000	17.818342
1856.000000	17.867166
1855.000000	17.915589
1854.000000	17.954668
1853.000000	17.985610
1852.000000	17.992040
1851.000000	17.998369
1850.000000	18.007611
1849.000000	18.015447
1848.000000	18.013036
1847.000000	18.011730
1846.000000	17.971948
1845.000000	17.933270
1844.000000	17.918703
1843.000000	17.893286
1842.000000	17.885953
1841.000000	17.889469
1840.000000	17.878418
1839.000000	17.877514
1838.000000	17.834516
1837.000000	17.819347
1836.000000	17.801866
1835.000000	17.766906
1834.000000	17.716173
1833.000000	17.669760
1832.000000	17.624251
1831.000000	17.578440
1830.000000	17.534036
1829.000000	17.484308
1828.000000	17.420314
1827.000000	17.354110
1826.000000	17.297550
1825.000000	17.252845
1824.000000	17.193673
1823.000000	17.157406
1822.000000	17.132191
1821.000000	17.114509
1820.000000	17.100847
1819.000000	17.074224
1818.000000	17.029117
1817.000000	17.012742
1816.000000	17.011637
1815.000000	16.987124
1814.000000	16.978786
1813.000000	16.982302
1812.000000	16.982603
1811.000000	16.961507
1810.000000	16.926847
1809.000000	16.906956
1808.000000	16.882243
1807.000000	16.844569
1806.000000	16.815134
1805.000000	16.777059
1804.000000	16.729541
1803.000000	16.687950
1802.000000	16.647163
1801.000000	16.606777
1800.000000	16.560264
1799.000000	16.507722
1798.000000	16.450962
1797.000000	16.419819
1796.000000	16.384155
1795.000000	16.339349
1794.000000	16.307503
1793.000000	16.261190
1792.000000	16.218494
1791.000000	16.171679
1790.000000	16.126873
1789.000000	16.077948
1788.000000	16.019580
1787.000000	15.962418
1786.000000	15.914397
1785.000000	15.869893
1784.000000	15.811826
1783.000000	15.740197
1782.000000	15.678815
1781.000000	15.617634
1780.000000	15.554946
1779.000000	15.500898
1778.000000	15.433287
1777.000000	15.357941
1776.000000	15.286614
1775.000000	15.207349
1774.000000	15.131300
1773.000000	15.047113
1772.000000	14.954589
1771.000000	14.858949
1770.000000	14.762808
1769.000000	14.670885
1768.000000	14.589713
1767.000000	14.520595
1766.000000	14.438920
1765.000000	14.367994
1764.000000	14.323490
1763.000000	14.292246
1762.000000	14.274364
1761.000000	14.292648
1760.000000	14.329317
1759.000000	14.362268
1758.000000	14.417421
1757.000000	14.482822
1756.000000	14.525719
1755.000000	14.590315
1754.000000	14.629093
1753.000000	14.662346
1752.000000	14.689169
1751.000000	14.694393
1750.000000	14.689772
1749.000000	14.660940
1748.000000	14.644765
1747.000000	14.612718
1746.000000	14.557364
1745.000000	14.491260
1744.000000	14.411594
1743.000000	14.299881
1742.000000	14.179930
1741.000000	14.036873
1740.000000	13.877341
1739.000000	13.724840
1738.000000	13.555663
1737.000000	13.405875
1736.000000	13.255283
1735.000000	13.135131
1734.000000	13.066114
1733.000000	13.037282
1732.000000	12.999609
1731.000000	13.020806
1730.000000	13.070736
1729.000000	13.126492
1728.000000	13.210879
1727.000000	13.301998
1726.000000	13.375737
1725.000000	13.454900
1724.000000	13.506839
1723.000000	13.571335
1722.000000	13.598560
1721.000000	13.624178
1720.000000	13.642160
1719.000000	13.648188
1718.000000	13.686263
1717.000000	13.719415
1716.000000	13.741617
1715.000000	13.803903
1714.000000	13.850216
1713.000000	13.893716
1712.000000	13.956605
1711.000000	14.004424
1710.000000	14.033659
1709.000000	14.027530
1708.000000	14.039787
1707.000000	14.030745
1706.000000	14.019694
1705.000000	13.982825
1704.000000	13.940129
1703.000000	13.876235
1702.000000	13.839366
1701.000000	13.751462
1700.000000	13.639548
1699.000000	13.534968
1698.000000	13.434205
1697.000000	13.308528
1696.000000	13.222633
1695.000000	13.169690
1694.000000	13.165772
1693.000000	13.197518
1692.000000	13.269649
1691.000000	13.382367
1690.000000	13.489559
1689.000000	13.610415
1688.000000	13.698318
1687.000000	13.777683
1686.000000	13.821384
1685.000000	13.836654
1684.000000	13.868399
1683.000000	13.929982
1682.000000	14.072738
1681.000000	14.287324
1680.000000	14.586900
1679.000000	14.981412
1678.000000	15.399231
1677.000000	15.808109
1676.000000	16.217690
1675.000000	16.606777
1674.000000	16.965324
1673.000000	17.241493
1672.000000	17.473860
1671.000000	17.701003
1670.000000	17.904036
1669.000000	18.060253
1668.000000	18.190753
1667.000000	18.298347
1666.000000	18.399712
1665.000000	18.501179
1664.000000	18.559948
1663.000000	18.644838
1662.000000	18.699891
1661.000000	18.733546
1660.000000	18.783174
1659.000000	18.806883
1658.000000	18.831998
1657.000000	18.864648
1656.000000	18.851387
1655.000000	18.855305
1654.000000	18.869169
1653.000000	18.838628
1652.000000	18.840135
1651.000000	18.797741
1650.000000	18.794827
1649.000000	18.753337
1648.000000	18.726413
1647.000000	18.679899
1646.000000	18.648656
1645.000000	18.594306
1644.000000	18.531116
1643.000000	18.502485
1642.000000	18.430152
1641.000000	18.375501
1640.000000	18.308895
1639.000000	18.262382
1638.000000	18.223704
1637.000000	18.127161
1636.000000	18.057842
1635.000000	18.000579
1634.000000	17.925635
1633.000000	17.861842
1632.000000	17.806588
1631.000000	17.736265
1630.000000	17.648562
1629.000000	17.570303
1628.000000	17.513341
1627.000000	17.433977
1626.000000	17.351196
1625.000000	17.284088
1624.000000	17.221601
1623.000000	17.138721
1622.000000	17.058050
1621.000000	16.992549
1620.000000	16.937798
1619.000000	16.837537
1618.000000	16.773744
1617.000000	16.713869
1616.000000	16.657008
1615.000000	16.596932
1614.000000	16.523696
1613.000000	16.463117
1612.000000	16.388274
1611.000000	16.310416
1610.000000	16.275958
1609.000000	16.213873
1608.000000	16.167158
1607.000000	16.105274
1606.000000	16.055244
1605.000000	15.997780
1604.000000	15.934288
1603.000000	15.871801
1602.000000	15.819361
1601.000000	15.760691
1600.000000	15.690368
1599.000000	15.649581
1598.000000	15.596939
1597.000000	15.532543
