PE UV       SUBTECH     SPECTRUM    ASCII       PEDS        4.00        
   -1
CICIMAUCR0245-3.Sample.ASC
24/06/21
11:59:24.00
24/06/21
11:59:24.00
Vinicio Soto Monge
C. resplendens. Sex M. Dorsal
250,000000
1
Lambda 1050
1050L1511233
PerkinElmer UV WinLab 6.3.2.0749 / 2.02.05 Lambda 900 UV/VIS/NIR, Aug  7 2015 09:38:08

0
0
3350/servo 860,8/2
0
0
UV/VIS
1
1
1
DoubleDePol,CommonBeamDepol,RBeamAtt,SBeamAtt,60mm sphere, WB InGaAs Detector
0
0
0
0
Program
Program
3350/servo 860,8/2
3350/0,2 860,8/0,2
3350/0,2 860,8/0,2
0
15.00
 
 
 
0
 
860,8
319,2
860,8
Front
100
on
S:100 R:100
0
0
0
0
 
0
 
 
 
0
 
 
0
0
0
0
0
 
 
 
 
0
0


0
0
#HDR
-1
-1
#GR
nm
%R
1.0
0.0
2500,000000
-1,000000
2251
8
89,701100
5,421800
#DATA
2482.000000	7.055822
2481.000000	7.039556
2480.000000	7.025335
2479.000000	7.057970
2478.000000	7.017049
2477.000000	7.062574
2476.000000	7.043034
2475.000000	6.991268
2474.000000	7.034850
2473.000000	7.039556
2472.000000	7.053469
2471.000000	7.027075
2470.000000	7.013570
2469.000000	7.011217
2468.000000	7.017049
2467.000000	7.052344
2466.000000	7.086104
2465.000000	7.013673
2464.000000	7.057868
2463.000000	7.083956
2462.000000	7.100427
2461.000000	7.107486
2460.000000	7.106770
2459.000000	7.123445
2458.000000	7.157615
2457.000000	7.188306
2456.000000	7.183293
2455.000000	7.209176
2454.000000	7.243857
2453.000000	7.288053
2452.000000	7.291838
2451.000000	7.297465
2450.000000	7.348617
2449.000000	7.391380
2448.000000	7.429233
2447.000000	7.453479
2446.000000	7.476293
2445.000000	7.520795
2444.000000	7.555169
2443.000000	7.594966
2442.000000	7.631181
2441.000000	7.642025
2440.000000	7.680287
2439.000000	7.713638
2438.000000	7.735020
2437.000000	7.761619
2436.000000	7.798858
2435.000000	7.812157
2434.000000	7.825662
2433.000000	7.870369
2432.000000	7.900446
2431.000000	7.909449
2430.000000	7.916201
2429.000000	7.954565
2428.000000	7.970627
2427.000000	7.977686
2426.000000	8.008889
2425.000000	8.031395
2424.000000	8.049810
2423.000000	8.070783
2422.000000	8.096666
2421.000000	8.097279
2420.000000	8.111193
2419.000000	8.134620
2418.000000	8.144339
2417.000000	8.165516
2416.000000	8.192013
2415.000000	8.201323
2414.000000	8.210633
2413.000000	8.223421
2412.000000	8.248178
2411.000000	8.261273
2410.000000	8.277642
2409.000000	8.287361
2408.000000	8.316211
2407.000000	8.329203
2406.000000	8.338308
2405.000000	8.353245
2404.000000	8.354575
2403.000000	8.380253
2402.000000	8.384857
2401.000000	8.401328
2400.000000	8.421379
2399.000000	8.419333
2398.000000	8.412683
2397.000000	8.413604
2396.000000	8.415753
2395.000000	8.442761
2394.000000	8.449001
2393.000000	8.456470
2392.000000	8.472634
2391.000000	8.485626
2390.000000	8.477749
2389.000000	8.487366
2388.000000	8.492481
2387.000000	8.505576
2386.000000	8.494425
2385.000000	8.492481
2384.000000	8.507622
2383.000000	8.511305
2382.000000	8.499540
2381.000000	8.487570
2380.000000	8.488286
2379.000000	8.477237
2378.000000	8.479283
2377.000000	8.481330
2376.000000	8.467212
2375.000000	8.453401
2374.000000	8.442965
2373.000000	8.420970
2372.000000	8.412172
2371.000000	8.402248
2370.000000	8.385368
2369.000000	8.352017
2368.000000	8.326236
2367.000000	8.305059
2366.000000	8.272629
2365.000000	8.234776
2364.000000	8.211962
2363.000000	8.174417
2362.000000	8.124799
2361.000000	8.098814
2360.000000	8.077842
2359.000000	8.037636
2358.000000	7.995487
2357.000000	7.978709
2356.000000	7.956816
2355.000000	7.932263
2354.000000	7.915076
2353.000000	7.900241
2352.000000	7.882952
2351.000000	7.870880
2350.000000	7.885407
2349.000000	7.891239
2348.000000	7.887965
2347.000000	7.903311
2346.000000	7.918758
2345.000000	7.933388
2344.000000	7.951496
2343.000000	7.977072
2342.000000	7.995691
2341.000000	8.007865
2340.000000	8.038352
2339.000000	8.041626
2338.000000	8.043570
2337.000000	8.055642
2336.000000	8.049606
2335.000000	8.045718
2334.000000	8.039784
2333.000000	8.023723
2332.000000	8.010730
2331.000000	7.982699
2330.000000	7.953133
2329.000000	7.932365
2328.000000	7.896456
2327.000000	7.859115
2326.000000	7.816352
2325.000000	7.780239
2324.000000	7.735122
2323.000000	7.684993
2322.000000	7.636501
2321.000000	7.581768
2320.000000	7.521306
2319.000000	7.443760
2318.000000	7.389129
2317.000000	7.327440
2316.000000	7.270150
2315.000000	7.199253
2314.000000	7.111373
2313.000000	7.054492
2312.000000	7.017356
2311.000000	6.975309
2310.000000	6.913926
2309.000000	6.870140
2308.000000	6.847428
2307.000000	6.812338
2306.000000	6.790956
2305.000000	6.815100
2304.000000	6.817249
2303.000000	6.826149
2302.000000	6.858375
2301.000000	6.899194
2300.000000	6.918632
2299.000000	6.953313
2298.000000	6.997816
2297.000000	7.045182
2296.000000	7.092140
2295.000000	7.120683
2294.000000	7.166618
2293.000000	7.204982
2292.000000	7.230046
2291.000000	7.235673
2290.000000	7.269638
2289.000000	7.301762
2288.000000	7.308616
2287.000000	7.297465
2286.000000	7.273526
2285.000000	7.271275
2284.000000	7.253474
2283.000000	7.225136
2282.000000	7.208665
2281.000000	7.196388
2280.000000	7.175109
2279.000000	7.137972
2278.000000	7.123241
2277.000000	7.100324
2276.000000	7.073930
2275.000000	7.062881
2274.000000	7.044671
2273.000000	7.054901
2272.000000	7.036077
2271.000000	7.032497
2270.000000	7.045694
2269.000000	7.072805
2268.000000	7.084365
2267.000000	7.129788
2266.000000	7.177769
2265.000000	7.223806
2264.000000	7.274856
2263.000000	7.352504
2262.000000	7.461458
2261.000000	7.549031
2260.000000	7.657576
2259.000000	7.784535
2258.000000	7.884384
2257.000000	8.015538
2256.000000	8.146897
2255.000000	8.279892
2254.000000	8.424141
2253.000000	8.556421
2252.000000	8.685529
2251.000000	8.788447
2250.000000	8.935765
2249.000000	9.059144
2248.000000	9.178738
2247.000000	9.273267
2246.000000	9.369944
2245.000000	9.457619
2244.000000	9.557161
2243.000000	9.642483
2242.000000	9.710311
2241.000000	9.801975
2240.000000	9.859879
2239.000000	9.919011
2238.000000	9.985202
2237.000000	10.047505
2236.000000	10.094872
2235.000000	10.136612
2234.000000	10.190220
2233.000000	10.214057
2232.000000	10.253342
2231.000000	10.305619
2230.000000	10.326796
2229.000000	10.347564
2228.000000	10.346745
2227.000000	10.381017
2226.000000	10.384700
2225.000000	10.390327
2224.000000	10.409765
2223.000000	10.405673
2222.000000	10.408946
2221.000000	10.392987
2220.000000	10.395954
2219.000000	10.381733
2218.000000	10.378050
2217.000000	10.370071
2216.000000	10.347666
2215.000000	10.349610
2214.000000	10.330786
2213.000000	10.315849
2212.000000	10.300606
2211.000000	10.288943
2210.000000	10.271040
2209.000000	10.268687
2208.000000	10.244032
2207.000000	10.256718
2206.000000	10.227049
2205.000000	10.228891
2204.000000	10.232267
2203.000000	10.201780
2202.000000	10.200553
2201.000000	10.176613
2200.000000	10.159733
2199.000000	10.165462
2198.000000	10.148275
2197.000000	10.141932
2196.000000	10.134464
2195.000000	10.118811
2194.000000	10.109706
2193.000000	10.107046
2192.000000	10.077890
2191.000000	10.088529
2190.000000	10.090473
2189.000000	10.082289
2188.000000	10.043618
2187.000000	10.029091
2186.000000	10.021827
2185.000000	10.037275
2184.000000	10.010574
2183.000000	10.010676
2182.000000	10.002696
2181.000000	9.980496
2180.000000	9.982849
2179.000000	9.972926
2178.000000	9.944076
2177.000000	9.961672
2176.000000	9.943871
2175.000000	9.941007
2174.000000	9.932515
2173.000000	9.936915
2172.000000	9.932618
2171.000000	9.945713
2170.000000	9.953795
2169.000000	9.967299
2168.000000	9.961672
2167.000000	9.988374
2166.000000	10.013847
2165.000000	9.996251
2164.000000	10.027045
2163.000000	10.039219
2162.000000	10.028375
2161.000000	10.067455
2160.000000	10.076662
2159.000000	10.097634
2158.000000	10.108990
2157.000000	10.116152
2156.000000	10.153390
2155.000000	10.180808
2154.000000	10.183263
2153.000000	10.211090
2152.000000	10.228891
2151.000000	10.248738
2150.000000	10.264084
2149.000000	10.288841
2148.000000	10.299481
2147.000000	10.329047
2146.000000	10.333343
2145.000000	10.355032
2144.000000	10.356157
2143.000000	10.366797
2142.000000	10.400148
2141.000000	10.419586
2140.000000	10.424087
2139.000000	10.443321
2138.000000	10.446390
2137.000000	10.449868
2136.000000	10.466441
2135.000000	10.456416
2134.000000	10.458769
2133.000000	10.465827
2132.000000	10.459689
2131.000000	10.460201
2130.000000	10.457132
2129.000000	10.453960
2128.000000	10.456313
2127.000000	10.450993
2126.000000	10.430328
2125.000000	10.421530
2124.000000	10.406798
2123.000000	10.382245
2122.000000	10.385621
2121.000000	10.374470
2120.000000	10.331297
2119.000000	10.307665
2118.000000	10.293547
2117.000000	10.276667
2116.000000	10.252114
2115.000000	10.217126
2114.000000	10.207202
2113.000000	10.183059
2112.000000	10.160245
2111.000000	10.139682
2110.000000	10.110320
2109.000000	10.078299
2108.000000	10.045255
2107.000000	10.011392
2106.000000	9.989601
2105.000000	9.970982
2104.000000	9.961672
2103.000000	9.927400
2102.000000	9.897425
2101.000000	9.875225
2100.000000	9.844329
2099.000000	9.828677
2098.000000	9.815684
2097.000000	9.789392
2096.000000	9.762793
2095.000000	9.736296
2094.000000	9.704991
2093.000000	9.693226
2092.000000	9.680745
2091.000000	9.661614
2090.000000	9.635015
2089.000000	9.606881
2088.000000	9.585295
2087.000000	9.570256
2086.000000	9.570256
2085.000000	9.557161
2084.000000	9.528107
2083.000000	9.508874
2082.000000	9.484730
2081.000000	9.473783
2080.000000	9.449128
2079.000000	9.413526
2078.000000	9.401147
2077.000000	9.377003
2076.000000	9.355826
2075.000000	9.345494
2074.000000	9.321350
2073.000000	9.307641
2072.000000	9.289226
2071.000000	9.252601
2070.000000	9.225900
2069.000000	9.208406
2068.000000	9.181807
2067.000000	9.155310
2066.000000	9.130041
2065.000000	9.103135
2064.000000	9.087175
2063.000000	9.072034
2062.000000	9.043798
2061.000000	9.027123
2060.000000	9.024565
2059.000000	9.004411
2058.000000	8.985690
2057.000000	8.960625
2056.000000	8.967582
2055.000000	8.981700
2054.000000	8.968400
2053.000000	8.969219
2052.000000	8.976789
2051.000000	8.987838
2050.000000	9.010038
2049.000000	9.040422
2048.000000	9.061804
2047.000000	9.094848
2046.000000	9.144977
2045.000000	9.177612
2044.000000	9.198073
2043.000000	9.241348
2042.000000	9.285543
2041.000000	9.335059
2040.000000	9.379049
2039.000000	9.417720
2038.000000	9.460688
2037.000000	9.469486
2036.000000	9.518797
2035.000000	9.545805
2034.000000	9.565755
2033.000000	9.585295
2032.000000	9.626114
2031.000000	9.658852
2030.000000	9.687292
2029.000000	9.692714
2028.000000	9.712254
2027.000000	9.735375
2026.000000	9.752869
2025.000000	9.767192
2024.000000	9.764941
2023.000000	9.769033
2022.000000	9.781105
2021.000000	9.787346
2020.000000	9.798395
2019.000000	9.791642
2018.000000	9.792972
2017.000000	9.790926
2016.000000	9.795735
2015.000000	9.780184
2014.000000	9.783663
2013.000000	9.771898
2012.000000	9.761770
2011.000000	9.749084
2010.000000	9.723815
2009.000000	9.705502
2008.000000	9.682791
2007.000000	9.667445
2006.000000	9.644734
2005.000000	9.609336
2004.000000	9.586113
2003.000000	9.564015
2002.000000	9.535780
2001.000000	9.508055
2000.000000	9.474806
1999.000000	9.447184
1998.000000	9.403091
1997.000000	9.380789
1996.000000	9.335059
1995.000000	9.283190
1994.000000	9.241859
1993.000000	9.196129
1992.000000	9.146614
1991.000000	9.126358
1990.000000	9.076945
1989.000000	9.025691
1988.000000	8.986713
1987.000000	8.936993
1986.000000	8.883078
1985.000000	8.853308
1984.000000	8.802258
1983.000000	8.750799
1982.000000	8.699238
1981.000000	8.641640
1980.000000	8.600105
1979.000000	8.575449
1978.000000	8.510896
1977.000000	8.456674
1976.000000	8.414832
1975.000000	8.373399
1974.000000	8.325213
1973.000000	8.283269
1972.000000	8.252680
1971.000000	8.202448
1970.000000	8.142089
1969.000000	8.121014
1968.000000	8.082445
1967.000000	8.039580
1966.000000	7.982187
1965.000000	7.949654
1964.000000	7.919475
1963.000000	7.868629
1962.000000	7.846225
1961.000000	7.818910
1960.000000	7.789651
1959.000000	7.742284
1958.000000	7.701669
1957.000000	7.677525
1956.000000	7.641616
1955.000000	7.614710
1954.000000	7.577881
1953.000000	7.549440
1952.000000	7.535834
1951.000000	7.488671
1950.000000	7.451842
1949.000000	7.452353
1948.000000	7.415422
1947.000000	7.415626
1946.000000	7.352402
1945.000000	7.355471
1944.000000	7.329588
1943.000000	7.303705
1942.000000	7.311378
1941.000000	7.277822
1940.000000	7.275572
1939.000000	7.283142
1938.000000	7.289485
1937.000000	7.288257
1936.000000	7.267694
1935.000000	7.296953
1934.000000	7.309537
1933.000000	7.326519
1932.000000	7.324882
1931.000000	7.353016
1930.000000	7.367645
1929.000000	7.389129
1928.000000	7.427187
1927.000000	7.464425
1926.000000	7.516089
1925.000000	7.562433
1924.000000	7.588316
1923.000000	7.628112
1922.000000	7.705556
1921.000000	7.776044
1920.000000	7.845713
1919.000000	7.934104
1918.000000	7.989860
1917.000000	8.062496
1916.000000	8.133393
1915.000000	8.192525
1914.000000	8.255953
1913.000000	8.363577
1912.000000	8.499642
1911.000000	8.611358
1910.000000	8.700363
1909.000000	8.795301
1908.000000	8.863743
1907.000000	8.976584
1906.000000	9.100168
1905.000000	9.265594
1904.000000	9.440125
1903.000000	9.580589
1902.000000	9.707241
1901.000000	9.851286
1900.000000	10.012722
1899.000000	10.200041
1898.000000	10.395749
1897.000000	10.591559
1896.000000	10.737138
1895.000000	10.885070
1894.000000	11.019294
1893.000000	11.219708
1892.000000	11.449585
1891.000000	11.703709
1890.000000	11.973895
1889.000000	12.233133
1888.000000	12.498511
1887.000000	12.775141
1886.000000	13.039086
1885.000000	13.378123
1884.000000	13.753784
1883.000000	14.165456
1882.000000	14.615595
1881.000000	15.005476
1880.000000	15.431471
1879.000000	15.798846
1878.000000	16.192513
1877.000000	16.623111
1876.000000	17.003376
1875.000000	17.400521
1874.000000	17.778842
1873.000000	18.169440
1872.000000	18.535485
1871.000000	18.908793
1870.000000	19.245272
1869.000000	19.538578
1868.000000	19.804569
1867.000000	20.003551
1866.000000	20.176036
1865.000000	20.310361
1864.000000	20.442641
1863.000000	20.524791
1862.000000	20.622185
1861.000000	20.765717
1860.000000	20.906488
1859.000000	21.018000
1858.000000	21.122350
1857.000000	21.210536
1856.000000	21.248491
1855.000000	21.267315
1854.000000	21.301996
1853.000000	21.336575
1852.000000	21.334631
1851.000000	21.330846
1850.000000	21.323276
1849.000000	21.312125
1848.000000	21.330642
1847.000000	21.344350
1846.000000	21.321025
1845.000000	21.259029
1844.000000	21.201841
1843.000000	21.161328
1842.000000	21.158668
1841.000000	21.192122
1840.000000	21.189973
1839.000000	21.170331
1838.000000	21.145982
1837.000000	21.101275
1836.000000	21.084395
1835.000000	21.055545
1834.000000	21.001836
1833.000000	20.932064
1832.000000	20.844594
1831.000000	20.794567
1830.000000	20.745257
1829.000000	20.697481
1828.000000	20.651853
1827.000000	20.591493
1826.000000	20.518346
1825.000000	20.465966
1824.000000	20.405811
1823.000000	20.342894
1822.000000	20.312510
1821.000000	20.305144
1820.000000	20.296755
1819.000000	20.285604
1818.000000	20.245091
1817.000000	20.200896
1816.000000	20.170102
1815.000000	20.160690
1814.000000	20.150357
1813.000000	20.136853
1812.000000	20.110561
1811.000000	20.098080
1810.000000	20.083553
1809.000000	20.050304
1808.000000	20.013065
1807.000000	19.967028
1806.000000	19.937871
1805.000000	19.899814
1804.000000	19.844365
1803.000000	19.809173
1802.000000	19.770809
1801.000000	19.723544
1800.000000	19.685078
1799.000000	19.639143
1798.000000	19.593413
1797.000000	19.551878
1796.000000	19.507273
1795.000000	19.464817
1794.000000	19.420417
1793.000000	19.372743
1792.000000	19.333151
1791.000000	19.292229
1790.000000	19.247522
1789.000000	19.196473
1788.000000	19.155142
1787.000000	19.108900
1786.000000	19.051917
1785.000000	18.994933
1784.000000	18.937438
1783.000000	18.882194
1782.000000	18.822448
1781.000000	18.764646
1780.000000	18.701934
1779.000000	18.640449
1778.000000	18.574463
1777.000000	18.508579
1776.000000	18.441876
1775.000000	18.370980
1774.000000	18.280543
1773.000000	18.197983
1772.000000	18.107648
1771.000000	18.012608
1770.000000	17.918181
1769.000000	17.829892
1768.000000	17.733829
1767.000000	17.647484
1766.000000	17.570449
1765.000000	17.500268
1764.000000	17.448093
1763.000000	17.415151
1762.000000	17.416890
1761.000000	17.441034
1760.000000	17.462109
1759.000000	17.514591
1758.000000	17.595718
1757.000000	17.654850
1756.000000	17.707946
1755.000000	17.750402
1754.000000	17.803907
1753.000000	17.852399
1752.000000	17.881147
1751.000000	17.877055
1750.000000	17.865392
1749.000000	17.852706
1748.000000	17.834087
1747.000000	17.800224
1746.000000	17.753983
1745.000000	17.675106
1744.000000	17.585999
1743.000000	17.479500
1742.000000	17.345379
1741.000000	17.201846
1740.000000	17.042150
1739.000000	16.845930
1738.000000	16.675900
1737.000000	16.512520
1736.000000	16.367760
1735.000000	16.239470
1734.000000	16.156809
1733.000000	16.109851
1732.000000	16.085809
1731.000000	16.106168
1730.000000	16.170210
1729.000000	16.243460
1728.000000	16.327043
1727.000000	16.433644
1726.000000	16.533390
1725.000000	16.593341
1724.000000	16.665670
1723.000000	16.714264
1722.000000	16.751196
1721.000000	16.780558
1720.000000	16.805315
1719.000000	16.815648
1718.000000	16.837541
1717.000000	16.859946
1716.000000	16.885829
1715.000000	16.932070
1714.000000	16.987417
1713.000000	17.049515
1712.000000	17.093097
1711.000000	17.148751
1710.000000	17.170132
1709.000000	17.179749
1708.000000	17.175247
1707.000000	17.155196
1706.000000	17.111103
1705.000000	17.088186
1704.000000	17.046446
1703.000000	16.984961
1702.000000	16.907926
1701.000000	16.819433
1700.000000	16.711502
1699.000000	16.600809
1698.000000	16.461266
1697.000000	16.325201
1696.000000	16.222488
1695.000000	16.190569
1694.000000	16.195582
1693.000000	16.239777
1692.000000	16.338501
1691.000000	16.447046
1690.000000	16.589556
1689.000000	16.713241
1688.000000	16.815443
1687.000000	16.876314
1686.000000	16.933502
1685.000000	16.936265
1684.000000	16.975754
1683.000000	17.067419
1682.000000	17.232435
1681.000000	17.474078
1680.000000	17.777103
1679.000000	18.197778
1678.000000	18.641983
1677.000000	19.090383
1676.000000	19.482822
1675.000000	19.866054
1674.000000	20.225449
1673.000000	20.505865
1672.000000	20.766024
1671.000000	20.969610
1670.000000	21.138821
1669.000000	21.323071
1668.000000	21.446552
1667.000000	21.575558
1666.000000	21.675100
1665.000000	21.775256
1664.000000	21.846971
1663.000000	21.909684
1662.000000	21.966258
1661.000000	22.017615
1660.000000	22.059355
1659.000000	22.096082
1658.000000	22.119612
1657.000000	22.162477
1656.000000	22.155316
1655.000000	22.170662
1654.000000	22.182018
1653.000000	22.172810
1652.000000	22.168309
1651.000000	22.143347
1650.000000	22.123090
1649.000000	22.101709
1648.000000	22.072757
1647.000000	22.034086
1646.000000	22.009533
1645.000000	21.966053
1644.000000	21.934237
1643.000000	21.873468
1642.000000	21.828249
1641.000000	21.778427
1640.000000	21.718477
1639.000000	21.685944
1638.000000	21.626403
1637.000000	21.567271
1636.000000	21.512743
1635.000000	21.458931
1634.000000	21.379850
1633.000000	21.318570
1632.000000	21.245627
1631.000000	21.174832
1630.000000	21.102196
1629.000000	21.051658
1628.000000	20.996925
1627.000000	20.908637
1626.000000	20.843571
1625.000000	20.751395
1624.000000	20.701573
1623.000000	20.606225
1622.000000	20.564587
1621.000000	20.497067
1620.000000	20.419929
1619.000000	20.344429
1618.000000	20.277931
1617.000000	20.200077
1616.000000	20.147493
1615.000000	20.073732
1614.000000	20.017055
1613.000000	19.945340
1612.000000	19.903702
1611.000000	19.834953
1610.000000	19.753008
1609.000000	19.691216
1608.000000	19.625230
1607.000000	19.558118
1606.000000	19.494076
1605.000000	19.424918
1604.000000	19.370594
1603.000000	19.315862
1602.000000	19.236780
1601.000000	19.182457
1600.000000	19.124962
1599.000000	19.054986
1598.000000	19.006903
1597.000000	18.951454
1596.000000	18.887309
1595.000000	18.820914
1594.000000	18.754825
1593.000000	18.716256
1592.000000	18.667253
1591.000000	18.613441
1590.000000	18.548580
1589.000000	18.496507
1588.000000	18.452516
1587.000000	18.428781
1586.000000	18.370980
