PE UV       SUBTECH     SPECTRUM    ASCII       PEDS        4.00        
   -1
CICIMAUCR0242-2.Sample.ASC
24/06/21
10:51:27.00
24/06/21
10:51:27.00
Vinicio Soto Monge
C. cupreomarginata. Sex M. Dorsal
250,000000
1
Lambda 1050
1050L1511233
PerkinElmer UV WinLab 6.3.2.0749 / 2.02.05 Lambda 900 UV/VIS/NIR, Aug  7 2015 09:38:08

0
0
3350/servo 860,8/2
0
0
UV/VIS
1
1
1
DoubleDePol,CommonBeamDepol,RBeamAtt,SBeamAtt,60mm sphere, WB InGaAs Detector
0
0
0
0
Program
Program
3350/servo 860,8/2
3350/0,2 860,8/0,2
3350/0,2 860,8/0,2
0
15.00
 
 
 
0
 
860,8
319,2
860,8
Front
100
on
S:100 R:100
0
0
0
0
 
0
 
 
 
0
 
 
0
0
0
0
0
 
 
 
 
0
0


0
0
#HDR
-1
-1
#GR
nm
%R
1.0
0.0
2500,000000
-1,000000
2251
8
72,726400
5,270100
#DATA
2482.000000	10.549490
2481.000000	10.538656
2480.000000	10.549692
2479.000000	10.564070
2478.000000	10.558197
2477.000000	10.550199
2476.000000	10.553742
2475.000000	10.604367
2474.000000	10.620263
2473.000000	10.642437
2472.000000	10.637881
2471.000000	10.627047
2470.000000	10.675748
2469.000000	10.651549
2468.000000	10.694175
2467.000000	10.688404
2466.000000	10.705414
2465.000000	10.757659
2464.000000	10.779529
2463.000000	10.784591
2462.000000	10.840582
2461.000000	10.836431
2460.000000	10.895054
2459.000000	10.917734
2458.000000	10.957323
2457.000000	11.065052
2456.000000	11.112538
2455.000000	11.149393
2454.000000	11.238898
2453.000000	11.288206
2452.000000	11.398771
2451.000000	11.457495
2450.000000	11.527965
2449.000000	11.614736
2448.000000	11.672954
2447.000000	11.742310
2446.000000	11.818450
2445.000000	11.922838
2444.000000	11.986828
2443.000000	12.072991
2442.000000	12.158648
2441.000000	12.218689
2440.000000	12.302625
2439.000000	12.381195
2438.000000	12.463004
2437.000000	12.532259
2436.000000	12.590174
2435.000000	12.654670
2434.000000	12.740529
2433.000000	12.810492
2432.000000	12.866180
2431.000000	12.931384
2430.000000	13.015219
2429.000000	13.072425
2428.000000	13.122746
2427.000000	13.172561
2426.000000	13.216706
2425.000000	13.277658
2424.000000	13.324637
2423.000000	13.366251
2422.000000	13.410902
2421.000000	13.478132
2420.000000	13.513468
2419.000000	13.543843
2418.000000	13.575129
2417.000000	13.622716
2416.000000	13.671215
2415.000000	13.707462
2414.000000	13.743608
2413.000000	13.779349
2412.000000	13.810838
2411.000000	13.834530
2410.000000	13.866221
2409.000000	13.908442
2408.000000	13.940437
2407.000000	13.965749
2406.000000	14.003819
2405.000000	14.038042
2404.000000	14.061329
2403.000000	14.104259
2402.000000	14.175032
2401.000000	14.226568
2400.000000	14.250564
2399.000000	14.296835
2398.000000	14.319110
2397.000000	14.347865
2396.000000	14.388669
2395.000000	14.418740
2394.000000	14.448102
2393.000000	14.475946
2392.000000	14.504599
2391.000000	14.530418
2390.000000	14.554920
2389.000000	14.578005
2388.000000	14.613240
2387.000000	14.639767
2386.000000	14.643311
2385.000000	14.652120
2384.000000	14.667206
2383.000000	14.674698
2382.000000	14.680571
2381.000000	14.689987
2380.000000	14.684317
2379.000000	14.688570
2378.000000	14.701226
2377.000000	14.687557
2376.000000	14.674597
2375.000000	14.669636
2374.000000	14.670648
2373.000000	14.676622
2372.000000	14.664270
2371.000000	14.641084
2370.000000	14.621947
2369.000000	14.606659
2368.000000	14.583371
2367.000000	14.546112
2366.000000	14.511484
2365.000000	14.482324
2364.000000	14.454683
2363.000000	14.420967
2362.000000	14.381885
2361.000000	14.355357
2360.000000	14.314250
2359.000000	14.263018
2358.000000	14.230922
2357.000000	14.198826
2356.000000	14.168147
2355.000000	14.156301
2354.000000	14.141721
2353.000000	14.108309
2352.000000	14.088363
2351.000000	14.087249
2350.000000	14.096665
2349.000000	14.118029
2348.000000	14.141417
2347.000000	14.166831
2346.000000	14.182930
2345.000000	14.221202
2344.000000	14.270004
2343.000000	14.304429
2342.000000	14.332576
2341.000000	14.357990
2340.000000	14.384922
2339.000000	14.424308
2338.000000	14.461366
2337.000000	14.471997
2336.000000	14.478679
2335.000000	14.481919
2334.000000	14.485564
2333.000000	14.485969
2332.000000	14.471086
2331.000000	14.462378
2330.000000	14.444963
2329.000000	14.413171
2328.000000	14.381784
2327.000000	14.324881
2326.000000	14.287115
2325.000000	14.252589
2324.000000	14.205609
2323.000000	14.143847
2322.000000	14.076213
2321.000000	13.995213
2320.000000	13.932438
2319.000000	13.858931
2318.000000	13.755657
2317.000000	13.661495
2316.000000	13.553968
2315.000000	13.466286
2314.000000	13.374553
2313.000000	13.288694
2312.000000	13.202733
2311.000000	13.110900
2310.000000	13.044581
2309.000000	12.980794
2308.000000	12.920652
2307.000000	12.878228
2306.000000	12.846740
2305.000000	12.840564
2304.000000	12.851802
2303.000000	12.864661
2302.000000	12.901313
2301.000000	12.939079
2300.000000	13.007524
2299.000000	13.080626
2298.000000	13.160006
2297.000000	13.233310
2296.000000	13.312488
2295.000000	13.407763
2294.000000	13.490282
2293.000000	13.578470
2292.000000	13.643776
2291.000000	13.701994
2290.000000	13.753227
2289.000000	13.778033
2288.000000	13.832201
2287.000000	13.839390
2286.000000	13.857716
2285.000000	13.863082
2284.000000	13.840099
2283.000000	13.806484
2282.000000	13.772464
2281.000000	13.760213
2280.000000	13.720624
2279.000000	13.655521
2278.000000	13.618767
2277.000000	13.591936
2276.000000	13.554069
2275.000000	13.499799
2274.000000	13.475094
2273.000000	13.444112
2272.000000	13.432671
2271.000000	13.416572
2270.000000	13.438239
2269.000000	13.465982
2268.000000	13.509418
2267.000000	13.554980
2266.000000	13.625754
2265.000000	13.731964
2264.000000	13.848705
2263.000000	13.988227
2262.000000	14.149821
2261.000000	14.318300
2260.000000	14.502878
2259.000000	14.716616
2258.000000	14.889145
2257.000000	15.111185
2256.000000	15.335351
2255.000000	15.578553
2254.000000	15.784292
2253.000000	16.005826
2252.000000	16.218652
2251.000000	16.447273
2250.000000	16.617575
2249.000000	16.797192
2248.000000	16.963848
2247.000000	17.138403
2246.000000	17.282379
2245.000000	17.428786
2244.000000	17.551703
2243.000000	17.689200
2242.000000	17.792879
2241.000000	17.898786
2240.000000	17.975129
2239.000000	18.067772
2238.000000	18.147556
2237.000000	18.198586
2236.000000	18.283838
2235.000000	18.322414
2234.000000	18.390150
2233.000000	18.441383
2232.000000	18.462442
2231.000000	18.497272
2230.000000	18.512257
2229.000000	18.510941
2228.000000	18.549618
2227.000000	18.542936
2226.000000	18.519243
2225.000000	18.531393
2224.000000	18.502335
2223.000000	18.490792
2222.000000	18.483604
2221.000000	18.463657
2220.000000	18.444319
2219.000000	18.390555
2218.000000	18.364332
2217.000000	18.302367
2216.000000	18.289002
2215.000000	18.238681
2214.000000	18.213470
2213.000000	18.178235
2212.000000	18.125889
2211.000000	18.104829
2210.000000	18.065342
2209.000000	18.050559
2208.000000	18.022412
2207.000000	17.993252
2206.000000	17.974622
2205.000000	17.943539
2204.000000	17.937059
2203.000000	17.947285
2202.000000	17.910531
2201.000000	17.877828
2200.000000	17.870234
2199.000000	17.857780
2198.000000	17.820217
2197.000000	17.827406
2196.000000	17.804726
2195.000000	17.806346
2194.000000	17.798954
2193.000000	17.778806
2192.000000	17.763922
2191.000000	17.747216
2190.000000	17.725954
2189.000000	17.727675
2188.000000	17.708032
2187.000000	17.706615
2186.000000	17.681404
2185.000000	17.667533
2184.000000	17.654066
2183.000000	17.624198
2182.000000	17.629159
2181.000000	17.615288
2180.000000	17.587039
2179.000000	17.577319
2178.000000	17.562942
2177.000000	17.562031
2176.000000	17.531048
2175.000000	17.541983
2174.000000	17.543603
2173.000000	17.538439
2172.000000	17.523758
2171.000000	17.537427
2170.000000	17.534693
2169.000000	17.534187
2168.000000	17.544717
2167.000000	17.565878
2166.000000	17.559601
2165.000000	17.575699
2164.000000	17.589064
2163.000000	17.618832
2162.000000	17.619844
2161.000000	17.650421
2160.000000	17.681606
2159.000000	17.710564
2158.000000	17.744887
2157.000000	17.777287
2156.000000	17.813939
2155.000000	17.845934
2154.000000	17.895344
2153.000000	17.954980
2152.000000	17.985456
2151.000000	18.027677
2150.000000	18.074353
2149.000000	18.124775
2148.000000	18.150493
2147.000000	18.188765
2146.000000	18.249818
2145.000000	18.282826
2144.000000	18.322313
2143.000000	18.369698
2142.000000	18.404123
2141.000000	18.438041
2140.000000	18.458595
2139.000000	18.493830
2138.000000	18.521876
2137.000000	18.547087
2136.000000	18.585866
2135.000000	18.621100
2134.000000	18.655120
2133.000000	18.676079
2132.000000	18.685900
2131.000000	18.700176
2130.000000	18.712124
2129.000000	18.727210
2128.000000	18.740372
2127.000000	18.745941
2126.000000	18.761837
2125.000000	18.760723
2124.000000	18.750396
2123.000000	18.752117
2122.000000	18.764672
2121.000000	18.751611
2120.000000	18.731665
2119.000000	18.719312
2118.000000	18.699164
2117.000000	18.679825
2116.000000	18.655930
2115.000000	18.640642
2114.000000	18.619379
2113.000000	18.594067
2112.000000	18.574931
2111.000000	18.548099
2110.000000	18.522180
2109.000000	18.493222
2108.000000	18.473074
2107.000000	18.451912
2106.000000	18.419513
2105.000000	18.376684
2104.000000	18.352485
2103.000000	18.315732
2102.000000	18.281915
2101.000000	18.249211
2100.000000	18.216710
2099.000000	18.184513
2098.000000	18.149278
2097.000000	18.129939
2096.000000	18.111309
2095.000000	18.081744
2094.000000	18.058052
2093.000000	18.024032
2092.000000	17.985557
2091.000000	17.966826
2090.000000	17.949006
2089.000000	17.921466
2088.000000	17.887649
2087.000000	17.847554
2086.000000	17.818293
2085.000000	17.795613
2084.000000	17.769390
2083.000000	17.738002
2082.000000	17.697907
2081.000000	17.660141
2080.000000	17.620148
2079.000000	17.566688
2078.000000	17.524872
2077.000000	17.476171
2076.000000	17.425951
2075.000000	17.378971
2074.000000	17.327132
2073.000000	17.264155
2072.000000	17.201582
2071.000000	17.142655
2070.000000	17.087069
2069.000000	17.028142
2068.000000	16.969620
2067.000000	16.912009
2066.000000	16.850348
2065.000000	16.788586
2064.000000	16.725102
2063.000000	16.677211
2062.000000	16.632864
2061.000000	16.574038
2060.000000	16.521894
2059.000000	16.476535
2058.000000	16.436440
2057.000000	16.405862
2056.000000	16.373260
2055.000000	16.360098
2054.000000	16.364046
2053.000000	16.380955
2052.000000	16.381056
2051.000000	16.395940
2050.000000	16.423784
2049.000000	16.464688
2048.000000	16.511769
2047.000000	16.539006
2046.000000	16.597832
2045.000000	16.665061
2044.000000	16.723786
2043.000000	16.795471
2042.000000	16.861688
2041.000000	16.917577
2040.000000	16.965975
2039.000000	17.023079
2038.000000	17.061858
2037.000000	17.111268
2036.000000	17.159361
2035.000000	17.206645
2034.000000	17.256358
2033.000000	17.270533
2032.000000	17.301009
2031.000000	17.335940
2030.000000	17.347382
2029.000000	17.380288
2028.000000	17.405600
2027.000000	17.400538
2026.000000	17.415826
2025.000000	17.432330
2024.000000	17.445290
2023.000000	17.448732
2022.000000	17.453795
2021.000000	17.437899
2020.000000	17.439114
2019.000000	17.437595
2018.000000	17.429900
2017.000000	17.414814
2016.000000	17.432634
2015.000000	17.405701
2014.000000	17.393248
2013.000000	17.371276
2012.000000	17.329663
2011.000000	17.301718
2010.000000	17.268103
2009.000000	17.252612
2008.000000	17.196520
2007.000000	17.157235
2006.000000	17.130910
2005.000000	17.068338
2004.000000	17.027838
2003.000000	16.977720
2002.000000	16.921324
2001.000000	16.857334
2000.000000	16.808734
1999.000000	16.737556
1998.000000	16.677819
1997.000000	16.640154
1996.000000	16.563508
1995.000000	16.474510
1994.000000	16.404647
1993.000000	16.342582
1992.000000	16.263607
1991.000000	16.189290
1990.000000	16.126414
1989.000000	16.037213
1988.000000	15.966338
1987.000000	15.882403
1986.000000	15.804035
1985.000000	15.711898
1984.000000	15.625431
1983.000000	15.583818
1982.000000	15.487732
1981.000000	15.405922
1980.000000	15.318645
1979.000000	15.250201
1978.000000	15.146116
1977.000000	15.064408
1976.000000	14.984826
1975.000000	14.894309
1974.000000	14.829306
1973.000000	14.751142
1972.000000	14.686241
1971.000000	14.589345
1970.000000	14.527887
1969.000000	14.454683
1968.000000	14.378746
1967.000000	14.314149
1966.000000	14.232744
1965.000000	14.155795
1964.000000	14.091299
1963.000000	14.008375
1962.000000	13.962408
1961.000000	13.900747
1960.000000	13.826126
1959.000000	13.745127
1958.000000	13.671923
1957.000000	13.615730
1956.000000	13.564801
1955.000000	13.468209
1954.000000	13.435809
1953.000000	13.375363
1952.000000	13.295073
1951.000000	13.250422
1950.000000	13.195139
1949.000000	13.169928
1948.000000	13.116671
1947.000000	13.071007
1946.000000	13.003879
1945.000000	12.984945
1944.000000	12.942117
1943.000000	12.907287
1942.000000	12.876203
1941.000000	12.897466
1940.000000	12.858890
1939.000000	12.862433
1938.000000	12.847651
1937.000000	12.865673
1936.000000	12.875697
1935.000000	12.877823
1934.000000	12.915286
1933.000000	12.952343
1932.000000	12.976440
1931.000000	13.016839
1930.000000	13.078399
1929.000000	13.148868
1928.000000	13.234930
1927.000000	13.300439
1926.000000	13.378401
1925.000000	13.480157
1924.000000	13.594265
1923.000000	13.677188
1922.000000	13.816406
1921.000000	13.949549
1920.000000	14.095652
1919.000000	14.231226
1918.000000	14.364976
1917.000000	14.522014
1916.000000	14.663763
1915.000000	14.829509
1914.000000	15.024313
1913.000000	15.219623
1912.000000	15.466166
1911.000000	15.661476
1910.000000	15.845649
1909.000000	16.040554
1908.000000	16.250444
1907.000000	16.474105
1906.000000	16.745150
1905.000000	17.021966
1904.000000	17.289771
1903.000000	17.559094
1902.000000	17.848972
1901.000000	18.114347
1900.000000	18.450191
1899.000000	18.778138
1898.000000	19.120058
1897.000000	19.438690
1896.000000	19.735655
1895.000000	20.033835
1894.000000	20.368059
1893.000000	20.710283
1892.000000	21.101410
1891.000000	21.513698
1890.000000	21.924669
1889.000000	22.305469
1888.000000	22.708745
1887.000000	23.101189
1886.000000	23.520361
1885.000000	23.953608
1884.000000	24.431101
1883.000000	24.900190
1882.000000	25.374847
1881.000000	25.796855
1880.000000	26.235873
1879.000000	26.653021
1878.000000	27.053058
1877.000000	27.476281
1876.000000	27.871255
1875.000000	28.262483
1874.000000	28.631740
1873.000000	29.001503
1872.000000	29.363470
1871.000000	29.659828
1870.000000	29.947376
1869.000000	30.205158
1868.000000	30.443904
1867.000000	30.623926
1866.000000	30.783495
1865.000000	30.898717
1864.000000	31.029126
1863.000000	31.153258
1862.000000	31.295615
1861.000000	31.446375
1860.000000	31.587922
1859.000000	31.684413
1858.000000	31.770070
1857.000000	31.856031
1856.000000	31.926399
1855.000000	31.962242
1854.000000	32.019043
1853.000000	32.043039
1852.000000	32.044760
1851.000000	32.082931
1850.000000	32.097106
1849.000000	32.132847
1848.000000	32.156843
1847.000000	32.153401
1846.000000	32.109053
1845.000000	32.059137
1844.000000	32.048607
1843.000000	32.047190
1842.000000	32.071794
1841.000000	32.093360
1840.000000	32.076653
1839.000000	32.070477
1838.000000	32.036964
1837.000000	32.007601
1836.000000	31.983403
1835.000000	31.940777
1834.000000	31.877698
1833.000000	31.809152
1832.000000	31.764299
1831.000000	31.741821
1830.000000	31.706384
1829.000000	31.651608
1828.000000	31.587922
1827.000000	31.522312
1826.000000	31.470068
1825.000000	31.426429
1824.000000	31.376614
1823.000000	31.356162
1822.000000	31.358288
1821.000000	31.355959
1820.000000	31.333685
1819.000000	31.273036
1818.000000	31.234865
1817.000000	31.230005
1816.000000	31.209451
1815.000000	31.184342
1814.000000	31.170268
1813.000000	31.162573
1812.000000	31.136451
1811.000000	31.112657
1810.000000	31.084915
1809.000000	31.042694
1808.000000	31.013230
1807.000000	30.992879
1806.000000	30.959061
1805.000000	30.913904
1804.000000	30.865102
1803.000000	30.827943
1802.000000	30.804656
1801.000000	30.773876
1800.000000	30.724973
1799.000000	30.668374
1798.000000	30.623622
1797.000000	30.587476
1796.000000	30.562670
1795.000000	30.520651
1794.000000	30.471444
1793.000000	30.456864
1792.000000	30.418187
1791.000000	30.361791
1790.000000	30.332529
1789.000000	30.307521
1788.000000	30.275222
1787.000000	30.222471
1786.000000	30.183895
1785.000000	30.151900
1784.000000	30.099251
1783.000000	30.050955
1782.000000	30.013695
1781.000000	29.964589
1780.000000	29.920343
1779.000000	29.876704
1778.000000	29.831243
1777.000000	29.767658
1776.000000	29.718451
1775.000000	29.659625
1774.000000	29.586017
1773.000000	29.519192
1772.000000	29.452671
1771.000000	29.386859
1770.000000	29.325097
1769.000000	29.250881
1768.000000	29.178589
1767.000000	29.125737
1766.000000	29.073796
1765.000000	29.024690
1764.000000	28.993505
1763.000000	28.968294
1762.000000	28.969610
1761.000000	28.993707
1760.000000	29.022766
1759.000000	29.061241
1758.000000	29.117333
1757.000000	29.167856
1756.000000	29.223442
1755.000000	29.268093
1754.000000	29.293305
1753.000000	29.337348
1752.000000	29.375620
1751.000000	29.394149
1750.000000	29.400427
1749.000000	29.388378
1748.000000	29.377443
1747.000000	29.345144
1746.000000	29.293710
1745.000000	29.240554
1744.000000	29.169375
1743.000000	29.099614
1742.000000	29.000288
1741.000000	28.891243
1740.000000	28.782400
1739.000000	28.649661
1738.000000	28.516822
1737.000000	28.403423
1736.000000	28.302072
1735.000000	28.205176
1734.000000	28.166195
1733.000000	28.133998
1732.000000	28.131163
1731.000000	28.178649
1730.000000	28.210340
1729.000000	28.266837
1728.000000	28.322018
1727.000000	28.398664
1726.000000	28.467210
1725.000000	28.544969
1724.000000	28.623944
1723.000000	28.673253
1722.000000	28.725801
1721.000000	28.778350
1720.000000	28.840011
1719.000000	28.898229
1718.000000	28.962219
1717.000000	29.031777
1716.000000	29.109638
1715.000000	29.191144
1714.000000	29.264853
1713.000000	29.354966
1712.000000	29.431409
1711.000000	29.485071
1710.000000	29.529722
1709.000000	29.582676
1708.000000	29.592801
1707.000000	29.620644
1706.000000	29.628845
1705.000000	29.606571
1704.000000	29.573259
1703.000000	29.537518
1702.000000	29.491551
1701.000000	29.411058
1700.000000	29.344031
1699.000000	29.249160
1698.000000	29.153985
1697.000000	29.087566
1696.000000	29.016995
1695.000000	28.984392
1694.000000	28.990771
1693.000000	29.036637
1692.000000	29.097286
1691.000000	29.176058
1690.000000	29.276295
1689.000000	29.380683
1688.000000	29.456519
1687.000000	29.540860
1686.000000	29.597863
1685.000000	29.656082
1684.000000	29.720881
1683.000000	29.853822
1682.000000	30.010759
1681.000000	30.239076
1680.000000	30.532497
1679.000000	30.865811
1678.000000	31.218969
1677.000000	31.567875
1676.000000	31.899163
1675.000000	32.180535
1674.000000	32.434975
1673.000000	32.671899
1672.000000	32.892522
1671.000000	33.063330
1670.000000	33.226645
1669.000000	33.386215
1668.000000	33.508726
1667.000000	33.622632
1666.000000	33.698164
1665.000000	33.796984
1664.000000	33.888615
1663.000000	33.943694
1662.000000	34.021758
1661.000000	34.068839
1660.000000	34.104276
1659.000000	34.144472
1658.000000	34.194388
1657.000000	34.229825
1656.000000	34.222232
1655.000000	34.253417
1654.000000	34.251493
1653.000000	34.257669
1652.000000	34.251392
1651.000000	34.248962
1650.000000	34.228914
1649.000000	34.195704
1648.000000	34.177581
1647.000000	34.139005
1646.000000	34.116932
1645.000000	34.076939
1644.000000	34.038160
1643.000000	34.009203
1642.000000	33.957161
1641.000000	33.917167
1640.000000	33.898335
1639.000000	33.864517
1638.000000	33.780986
1637.000000	33.744132
1636.000000	33.668397
1635.000000	33.620607
1634.000000	33.572615
1633.000000	33.516016
1632.000000	33.469543
1631.000000	33.396542
1630.000000	33.340349
1629.000000	33.289116
1628.000000	33.204370
1627.000000	33.142406
1626.000000	33.065051
1625.000000	33.011895
1624.000000	32.953474
1623.000000	32.876626
1622.000000	32.806055
1621.000000	32.756038
1620.000000	32.689010
1619.000000	32.625628
1618.000000	32.561942
1617.000000	32.498661
1616.000000	32.437709
1615.000000	32.368556
1614.000000	32.313476
1613.000000	32.271154
1612.000000	32.202810
1611.000000	32.129101
1610.000000	32.075438
1609.000000	32.013575
1608.000000	31.943105
1607.000000	31.904934
