PE UV       SUBTECH     SPECTRUM    ASCII       PEDS        4.00        
   -1
CICIMAUCR0252-2.Sample.ASC
24/06/24
17:12:54.00
24/06/24
17:12:54.00
Vinicio Soto Monge
C. resplendens. Sex F.Dorsal. 
250,000000
1
Lambda 1050
1050L1511233
PerkinElmer UV WinLab 6.3.2.0749 / 2.02.05 Lambda 900 UV/VIS/NIR, Aug  7 2015 09:38:08

0
0
3350/servo 860,8/2
0
0
UV/VIS
1
1
1
DoubleDePol,CommonBeamDepol,RBeamAtt,SBeamAtt,60mm sphere, WB InGaAs Detector
0
0
0
0
Program
Program
3350/servo 860,8/2
3350/0,2 860,8/0,2
3350/0,2 860,8/0,2
0
15.00
 
 
 
0
 
860,8
319,2
860,8
Front
100
on
S:100 R:100
0
0
0
0
 
0
 
 
 
0
 
 
0
0
0
0
0
 
 
 
 
0
0


0
0
#HDR
-1
-1
#GR
nm
%R
1.0
0.0
2500,000000
-1,000000
2251
8
89,128300
5,475100
#DATA
2500.000000	8.068041
2499.000000	8.066522
2498.000000	8.176619
2497.000000	8.077765
2496.000000	8.117164
2495.000000	8.009296
2494.000000	8.030566
2493.000000	7.878740
2492.000000	8.036542
2491.000000	8.006764
2490.000000	8.076853
2489.000000	7.916013
2488.000000	7.981949
2487.000000	7.996230
2486.000000	8.019526
2485.000000	7.883298
2484.000000	7.933434
2483.000000	7.955818
2482.000000	7.921178
2481.000000	7.853318
2480.000000	7.906999
2479.000000	7.964933
2478.000000	7.964123
2477.000000	7.939410
2476.000000	7.984481
2475.000000	7.998763
2474.000000	7.979620
2473.000000	7.959464
2472.000000	7.988128
2471.000000	7.982152
2470.000000	7.965136
2469.000000	7.994306
2468.000000	8.034212
2467.000000	8.043530
2466.000000	8.083234
2465.000000	8.099946
2464.000000	8.122026
2463.000000	8.125875
2462.000000	8.191305
2461.000000	8.205789
2460.000000	8.253899
2459.000000	8.245391
2458.000000	8.303630
2457.000000	8.324798
2456.000000	8.372807
2455.000000	8.421323
2454.000000	8.470041
2453.000000	8.525646
2452.000000	8.587632
2451.000000	8.665925
2450.000000	8.705123
2449.000000	8.741585
2448.000000	8.811472
2447.000000	8.873255
2446.000000	8.924404
2445.000000	8.986289
2444.000000	9.055973
2443.000000	9.097095
2442.000000	9.170931
2441.000000	9.224916
2440.000000	9.272419
2439.000000	9.360638
2438.000000	9.401455
2437.000000	9.456149
2436.000000	9.524111
2435.000000	9.567461
2434.000000	9.618610
2433.000000	9.690421
2432.000000	9.740050
2431.000000	9.815508
2430.000000	9.840322
2429.000000	9.897042
2428.000000	9.961459
2427.000000	10.011291
2426.000000	10.065681
2425.000000	10.115716
2424.000000	10.168890
2423.000000	10.217811
2422.000000	10.245056
2421.000000	10.276049
2420.000000	10.320007
2419.000000	10.361230
2418.000000	10.399718
2417.000000	10.433649
2416.000000	10.485405
2415.000000	10.522374
2414.000000	10.546581
2413.000000	10.585576
2412.000000	10.633585
2411.000000	10.658501
2410.000000	10.695368
2409.000000	10.724235
2408.000000	10.744795
2407.000000	10.786221
2406.000000	10.800401
2405.000000	10.818024
2404.000000	10.855905
2403.000000	10.888518
2402.000000	10.904521
2401.000000	10.943314
2400.000000	10.965596
2399.000000	10.993450
2398.000000	11.015732
2397.000000	11.033963
2396.000000	11.046320
2395.000000	11.050979
2394.000000	11.091594
2393.000000	11.113472
2392.000000	11.111142
2391.000000	11.139603
2390.000000	11.168470
2389.000000	11.184979
2388.000000	11.200070
2387.000000	11.206958
2386.000000	11.229949
2385.000000	11.237039
2384.000000	11.243522
2383.000000	11.258005
2382.000000	11.264386
2381.000000	11.261753
2380.000000	11.261550
2379.000000	11.261550
2378.000000	11.261246
2377.000000	11.263272
2376.000000	11.263880
2375.000000	11.268033
2374.000000	11.253245
2373.000000	11.244231
2372.000000	11.250105
2371.000000	11.223366
2370.000000	11.213035
2369.000000	11.223062
2368.000000	11.200678
2367.000000	11.188321
2366.000000	11.175762
2365.000000	11.154594
2364.000000	11.141933
2363.000000	11.124208
2362.000000	11.100811
2361.000000	11.082074
2360.000000	11.061108
2359.000000	11.032647
2358.000000	10.988892
2357.000000	10.956481
2356.000000	10.949391
2355.000000	10.944732
2354.000000	10.934502
2353.000000	10.912118
2352.000000	10.896419
2351.000000	10.886695
2350.000000	10.895710
2349.000000	10.902395
2348.000000	10.899052
2347.000000	10.917992
2346.000000	10.940579
2345.000000	10.947264
2344.000000	10.955468
2343.000000	10.993450
2342.000000	11.021505
2341.000000	11.041357
2340.000000	11.072047
2339.000000	11.090582
2338.000000	11.102837
2337.000000	11.136970
2336.000000	11.143452
2335.000000	11.149023
2334.000000	11.155809
2333.000000	11.160266
2332.000000	11.164418
2331.000000	11.179712
2330.000000	11.166950
2329.000000	11.145782
2328.000000	11.153277
2327.000000	11.131197
2326.000000	11.091189
2325.000000	11.078427
2324.000000	11.034571
2323.000000	10.993551
2322.000000	10.968128
2321.000000	10.933286
2320.000000	10.875757
2319.000000	10.826532
2318.000000	10.760089
2317.000000	10.701648
2316.000000	10.637636
2315.000000	10.579803
2314.000000	10.518626
2313.000000	10.436383
2312.000000	10.377739
2311.000000	10.314943
2310.000000	10.252957
2309.000000	10.218722
2308.000000	10.185602
2307.000000	10.165041
2306.000000	10.135669
2305.000000	10.115108
2304.000000	10.117741
2303.000000	10.116121
2302.000000	10.123413
2301.000000	10.165345
2300.000000	10.198465
2299.000000	10.232497
2298.000000	10.273720
2297.000000	10.329933
2296.000000	10.397591
2295.000000	10.457754
2294.000000	10.505156
2293.000000	10.560255
2292.000000	10.606137
2291.000000	10.673693
2290.000000	10.699319
2289.000000	10.747631
2288.000000	10.778219
2287.000000	10.809820
2286.000000	10.827241
2285.000000	10.835850
2284.000000	10.855398
2283.000000	10.871908
2282.000000	10.877985
2281.000000	10.854689
2280.000000	10.842738
2279.000000	10.840510
2278.000000	10.820050
2277.000000	10.805971
2276.000000	10.793311
2275.000000	10.757253
2274.000000	10.745201
2273.000000	10.752898
2272.000000	10.752898
2271.000000	10.737908
2270.000000	10.735275
2269.000000	10.766268
2268.000000	10.776700
2267.000000	10.834129
2266.000000	10.904724
2265.000000	10.945542
2264.000000	11.019885
2263.000000	11.120461
2262.000000	11.212326
2261.000000	11.348554
2260.000000	11.470805
2259.000000	11.594170
2258.000000	11.736272
2257.000000	11.920914
2256.000000	12.070107
2255.000000	12.231453
2254.000000	12.390876
2253.000000	12.565187
2252.000000	12.729673
2251.000000	12.891020
2250.000000	13.047707
2249.000000	13.213814
2248.000000	13.343358
2247.000000	13.472901
2246.000000	13.603052
2245.000000	13.742622
2244.000000	13.830132
2243.000000	13.939520
2242.000000	14.028347
2241.000000	14.129631
2240.000000	14.195061
2239.000000	14.273354
2238.000000	14.344963
2237.000000	14.405531
2236.000000	14.453337
2235.000000	14.513095
2234.000000	14.551077
2233.000000	14.589160
2232.000000	14.587742
2231.000000	14.627750
2230.000000	14.656717
2229.000000	14.673834
2228.000000	14.688318
2227.000000	14.679203
2226.000000	14.673328
2225.000000	14.657730
2224.000000	14.646285
2223.000000	14.621166
2222.000000	14.603340
2221.000000	14.554420
2220.000000	14.535986
2219.000000	14.492839
2218.000000	14.458300
2217.000000	14.421129
2216.000000	14.388718
2215.000000	14.359446
2214.000000	14.311336
2213.000000	14.273557
2212.000000	14.216331
2211.000000	14.195872
2210.000000	14.173285
2209.000000	14.121934
2208.000000	14.094688
2207.000000	14.073925
2206.000000	14.053364
2205.000000	14.022168
2204.000000	14.013255
2203.000000	13.984794
2202.000000	13.962511
2201.000000	13.940431
2200.000000	13.909236
2199.000000	13.912983
2198.000000	13.871862
2197.000000	13.868823
2196.000000	13.845021
2195.000000	13.819295
2194.000000	13.826182
2193.000000	13.792758
2192.000000	13.781516
2191.000000	13.764500
2190.000000	13.721454
2189.000000	13.723682
2188.000000	13.697348
2187.000000	13.705046
2186.000000	13.683168
2185.000000	13.672533
2184.000000	13.656226
2183.000000	13.636273
2182.000000	13.608521
2181.000000	13.594848
2180.000000	13.596468
2179.000000	13.561120
2178.000000	13.545927
2177.000000	13.539546
2176.000000	13.536103
2175.000000	13.536710
2174.000000	13.533570
2173.000000	13.508249
2172.000000	13.501564
2171.000000	13.503286
2170.000000	13.493867
2169.000000	13.526075
2168.000000	13.533570
2167.000000	13.540559
2166.000000	13.555954
2165.000000	13.563146
2164.000000	13.576819
2163.000000	13.605280
2162.000000	13.619055
2161.000000	13.647921
2160.000000	13.670609
2159.000000	13.718314
2158.000000	13.727632
2157.000000	13.772299
2156.000000	13.810382
2155.000000	13.849376
2154.000000	13.878749
2153.000000	13.947217
2152.000000	13.990669
2151.000000	14.040399
2150.000000	14.098436
2149.000000	14.135303
2148.000000	14.185743
2147.000000	14.230207
2146.000000	14.276190
2145.000000	14.323288
2144.000000	14.363295
2143.000000	14.428624
2142.000000	14.487673
2141.000000	14.514716
2140.000000	14.570828
2139.000000	14.605974
2138.000000	14.637878
2137.000000	14.672214
2136.000000	14.728528
2135.000000	14.760635
2134.000000	14.789198
2133.000000	14.837916
2132.000000	14.878126
2131.000000	14.891192
2130.000000	14.919349
2129.000000	14.946999
2128.000000	14.951152
2127.000000	14.968269
2126.000000	15.005036
2125.000000	15.031066
2124.000000	15.028635
2123.000000	15.040789
2122.000000	15.054564
2121.000000	15.057501
2120.000000	15.064895
2119.000000	15.074011
2118.000000	15.057602
2117.000000	15.057906
2116.000000	15.063376
2115.000000	15.062363
2114.000000	15.049702
2113.000000	15.047879
2112.000000	15.049500
2111.000000	15.030863
2110.000000	15.022558
2109.000000	15.001997
2108.000000	14.983665
2107.000000	14.964826
2106.000000	14.944467
2105.000000	14.938086
2104.000000	14.910841
2103.000000	14.895243
2102.000000	14.884507
2101.000000	14.864756
2100.000000	14.853108
2099.000000	14.831636
2098.000000	14.813202
2097.000000	14.805606
2096.000000	14.794870
2095.000000	14.785653
2094.000000	14.768637
2093.000000	14.738961
2092.000000	14.719210
2091.000000	14.713032
2090.000000	14.708373
2089.000000	14.698953
2088.000000	14.692066
2087.000000	14.680013
2086.000000	14.664314
2085.000000	14.639499
2084.000000	14.633827
2083.000000	14.612962
2082.000000	14.576601
2081.000000	14.543785
2080.000000	14.500536
2079.000000	14.471164
2078.000000	14.435714
2077.000000	14.403201
2076.000000	14.362991
2075.000000	14.314071
2074.000000	14.263327
2073.000000	14.195973
2072.000000	14.151104
2071.000000	14.107956
2070.000000	14.042121
2069.000000	13.975577
2068.000000	13.904374
2067.000000	13.841881
2066.000000	13.787086
2065.000000	13.723884
2064.000000	13.659771
2063.000000	13.582592
2062.000000	13.516251
2061.000000	13.469457
2060.000000	13.423676
2059.000000	13.364324
2058.000000	13.301223
2057.000000	13.250378
2056.000000	13.220702
2055.000000	13.203990
2054.000000	13.185252
2053.000000	13.172186
2052.000000	13.184948
2051.000000	13.195887
2050.000000	13.217461
2049.000000	13.258684
2048.000000	13.301527
2047.000000	13.325937
2046.000000	13.370806
2045.000000	13.434311
2044.000000	13.498425
2043.000000	13.558993
2042.000000	13.640021
2041.000000	13.708692
2040.000000	13.765209
2039.000000	13.825878
2038.000000	13.893131
2037.000000	13.933949
2036.000000	13.987326
2035.000000	14.049515
2034.000000	14.102892
2033.000000	14.137329
2032.000000	14.177336
2031.000000	14.217040
2030.000000	14.251983
2029.000000	14.275887
2028.000000	14.305360
2027.000000	14.330580
2026.000000	14.319236
2025.000000	14.339291
2024.000000	14.361472
2023.000000	14.375146
2022.000000	14.379501
2021.000000	14.383350
2020.000000	14.392668
2019.000000	14.390845
2018.000000	14.387401
2017.000000	14.384160
2016.000000	14.359345
2015.000000	14.349014
2014.000000	14.349419
2013.000000	14.327137
2012.000000	14.322275
2011.000000	14.298574
2010.000000	14.255630
2009.000000	14.243475
2008.000000	14.210862
2007.000000	14.165790
2006.000000	14.135607
2005.000000	14.113122
2004.000000	14.059036
2003.000000	14.031183
2002.000000	13.978514
2001.000000	13.923416
2000.000000	13.865886
1999.000000	13.828917
1998.000000	13.769361
1997.000000	13.718213
1996.000000	13.657543
1995.000000	13.591303
1994.000000	13.514428
1993.000000	13.466419
1992.000000	13.414865
1991.000000	13.346700
1990.000000	13.266685
1989.000000	13.195381
1988.000000	13.127418
1987.000000	13.075763
1986.000000	12.991697
1985.000000	12.925355
1984.000000	12.852633
1983.000000	12.776467
1982.000000	12.680753
1981.000000	12.613196
1980.000000	12.531864
1979.000000	12.477069
1978.000000	12.395433
1977.000000	12.321394
1976.000000	12.242899
1975.000000	12.158326
1974.000000	12.082767
1973.000000	12.030403
1972.000000	11.964568
1971.000000	11.880502
1970.000000	11.819528
1969.000000	11.738602
1968.000000	11.676311
1967.000000	11.604906
1966.000000	11.544945
1965.000000	11.470805
1964.000000	11.417022
1963.000000	11.344604
1962.000000	11.276237
1961.000000	11.219011
1960.000000	11.157936
1959.000000	11.080048
1958.000000	11.024848
1957.000000	10.978358
1956.000000	10.923057
1955.000000	10.883556
1954.000000	10.812757
1953.000000	10.758975
1952.000000	10.716334
1951.000000	10.655361
1950.000000	10.604212
1949.000000	10.574131
1948.000000	10.499990
1947.000000	10.479429
1946.000000	10.411062
1945.000000	10.409340
1944.000000	10.373587
1943.000000	10.328819
1942.000000	10.316969
1941.000000	10.298737
1940.000000	10.264199
1939.000000	10.248500
1938.000000	10.275340
1937.000000	10.281721
1936.000000	10.275746
1935.000000	10.299244
1934.000000	10.286178
1933.000000	10.306030
1932.000000	10.339656
1931.000000	10.346645
1930.000000	10.403061
1929.000000	10.453197
1928.000000	10.503636
1927.000000	10.591450
1926.000000	10.659716
1925.000000	10.741554
1924.000000	10.803642
1923.000000	10.870591
1922.000000	10.976738
1921.000000	11.069312
1920.000000	11.227620
1919.000000	11.388258
1918.000000	11.472020
1917.000000	11.595182
1916.000000	11.753794
1915.000000	11.844545
1914.000000	12.007513
1913.000000	12.173620
1912.000000	12.402625
1911.000000	12.617855
1910.000000	12.755602
1909.000000	12.977112
1908.000000	13.115062
1907.000000	13.313073
1906.000000	13.559094
1905.000000	13.844008
1904.000000	14.145533
1903.000000	14.416774
1902.000000	14.705537
1901.000000	14.986501
1900.000000	15.278302
1899.000000	15.619429
1898.000000	16.026391
1897.000000	16.366303
1896.000000	16.725358
1895.000000	17.024451
1894.000000	17.333775
1893.000000	17.701743
1892.000000	18.089866
1891.000000	18.545648
1890.000000	19.002239
1889.000000	19.429256
1888.000000	19.857690
1887.000000	20.290683
1886.000000	20.707672
1885.000000	21.140766
1884.000000	21.595839
1883.000000	22.060634
1882.000000	22.503958
1881.000000	22.936849
1880.000000	23.377742
1879.000000	23.779133
1878.000000	24.150139
1877.000000	24.539984
1876.000000	24.918283
1875.000000	25.281794
1874.000000	25.637911
1873.000000	25.981773
1872.000000	26.316621
1871.000000	26.616120
1870.000000	26.900932
1869.000000	27.152828
1868.000000	27.420625
1867.000000	27.587846
1866.000000	27.769551
1865.000000	27.926542
1864.000000	28.088800
1863.000000	28.237689
1862.000000	28.356293
1861.000000	28.511563
1860.000000	28.652146
1859.000000	28.779563
1858.000000	28.877910
1857.000000	28.968965
1856.000000	29.052424
1855.000000	29.100230
1854.000000	29.183486
1853.000000	29.234534
1852.000000	29.265122
1851.000000	29.319309
1850.000000	29.370154
1849.000000	29.422417
1848.000000	29.458171
1847.000000	29.464349
1846.000000	29.439332
1845.000000	29.399729
1844.000000	29.401451
1843.000000	29.416137
1842.000000	29.453309
1841.000000	29.480858
1840.000000	29.462526
1839.000000	29.442978
1838.000000	29.438420
1837.000000	29.429608
1836.000000	29.394766
1835.000000	29.354860
1834.000000	29.321132
1833.000000	29.284568
1832.000000	29.264818
1831.000000	29.239294
1830.000000	29.229976
1829.000000	29.199590
1828.000000	29.162520
1827.000000	29.105902
1826.000000	29.053133
1825.000000	29.012517
1824.000000	28.981626
1823.000000	28.993982
1822.000000	29.016569
1821.000000	29.020215
1820.000000	28.988412
1819.000000	28.946581
1818.000000	28.904750
1817.000000	28.887532
1816.000000	28.891280
1815.000000	28.891786
1814.000000	28.870111
1813.000000	28.860286
1812.000000	28.850259
1811.000000	28.822102
1810.000000	28.819064
1809.000000	28.773992
1808.000000	28.745024
1807.000000	28.743404
1806.000000	28.726084
1805.000000	28.694686
1804.000000	28.658223
1803.000000	28.633003
1802.000000	28.626217
1801.000000	28.602719
1800.000000	28.553394
1799.000000	28.503359
1798.000000	28.470138
1797.000000	28.447652
1796.000000	28.411494
1795.000000	28.393364
1794.000000	28.377867
1793.000000	28.343329
1792.000000	28.315476
1791.000000	28.292687
1790.000000	28.265947
1789.000000	28.233334
1788.000000	28.199606
1787.000000	28.192010
1786.000000	28.176108
1785.000000	28.134784
1784.000000	28.107538
1783.000000	28.081001
1782.000000	28.035930
1781.000000	28.003012
1780.000000	27.981236
1779.000000	27.946394
1778.000000	27.896764
1777.000000	27.847540
1776.000000	27.800848
1775.000000	27.750003
1774.000000	27.700677
1773.000000	27.640514
1772.000000	27.588150
1771.000000	27.547838
1770.000000	27.488485
1769.000000	27.409078
1768.000000	27.348814
1767.000000	27.299893
1766.000000	27.240236
1765.000000	27.186150
1764.000000	27.147257
1763.000000	27.119302
1762.000000	27.110389
1761.000000	27.126595
1760.000000	27.134596
1759.000000	27.167210
1758.000000	27.200735
1757.000000	27.244187
1756.000000	27.288144
1755.000000	27.329671
1754.000000	27.369577
1753.000000	27.399659
1752.000000	27.425385
1751.000000	27.445237
1750.000000	27.458606
1749.000000	27.464785
1748.000000	27.458809
1747.000000	27.443414
1746.000000	27.410395
1745.000000	27.381022
1744.000000	27.314681
1743.000000	27.242262
1742.000000	27.157791
1741.000000	27.067546
1740.000000	26.962919
1739.000000	26.861431
1738.000000	26.749005
1737.000000	26.620070
1736.000000	26.509973
1735.000000	26.418817
1734.000000	26.317937
1733.000000	26.250887
1732.000000	26.205005
1731.000000	26.195889
1730.000000	26.197206
1729.000000	26.211791
1728.000000	26.236302
1727.000000	26.289071
1726.000000	26.345386
1725.000000	26.370707
1724.000000	26.421754
1723.000000	26.467434
1722.000000	26.510986
1721.000000	26.568009
1720.000000	26.625539
1719.000000	26.708694
1718.000000	26.802079
1717.000000	26.872877
1716.000000	26.961906
1715.000000	27.066938
1714.000000	27.175110
1713.000000	27.265153
1712.000000	27.359246
1711.000000	27.446857
1710.000000	27.511477
1709.000000	27.557764
1708.000000	27.630284
1707.000000	27.649022
1706.000000	27.666645
1705.000000	27.679205
1704.000000	27.688827
1703.000000	27.676166
1702.000000	27.652769
1701.000000	27.628360
1700.000000	27.590783
1699.000000	27.546522
1698.000000	27.467925
1697.000000	27.404318
1696.000000	27.365424
1695.000000	27.323087
1694.000000	27.294829
1693.000000	27.305059
1692.000000	27.335849
1691.000000	27.372413
1690.000000	27.444224
1689.000000	27.490207
1688.000000	27.544800
1687.000000	27.608204
1686.000000	27.655403
1685.000000	27.728733
1684.000000	27.814521
1683.000000	27.927859
1682.000000	28.033094
1681.000000	28.225839
1680.000000	28.421420
1679.000000	28.676455
1678.000000	28.928249
1677.000000	29.200299
1676.000000	29.450169
1675.000000	29.721106
1674.000000	29.928132
1673.000000	30.130499
1672.000000	30.311697
1671.000000	30.477906
1670.000000	30.615957
1669.000000	30.737701
1668.000000	30.868764
1667.000000	30.994255
1666.000000	31.090071
1665.000000	31.190343
1664.000000	31.264584
1663.000000	31.330318
1662.000000	31.404256
1661.000000	31.455911
1660.000000	31.499565
1659.000000	31.567223
1658.000000	31.617967
1657.000000	31.627083
1656.000000	31.658886
1655.000000	31.682992
1654.000000	31.675598
1653.000000	31.689981
1652.000000	31.716315
1651.000000	31.717935
1650.000000	31.700008
1649.000000	31.673471
1648.000000	31.667495
1647.000000	31.635591
1646.000000	31.635388
1645.000000	31.604496
1644.000000	31.581606
1643.000000	31.552537
1642.000000	31.512935
1641.000000	31.493994
1640.000000	31.463609
1639.000000	31.409624
1638.000000	31.387139
1637.000000	31.357463
1636.000000	31.303984
1635.000000	31.250911
1634.000000	31.228831
1633.000000	31.164515
1632.000000	31.115898
1631.000000	31.079335
1630.000000	31.014918
1629.000000	30.952222
1628.000000	30.910695
1627.000000	30.868156
1626.000000	30.812551
1625.000000	30.743981
1624.000000	30.703366
1623.000000	30.649887
1622.000000	30.593066
