PE UV       SUBTECH     SPECTRUM    ASCII       PEDS        4.00        
   -1
CICIMAUCR0254-2.Sample.ASC
24/06/26
13:36:17.00
24/06/26
13:36:17.00
Vinicio Soto Monge
C. resplendens. Sex F. Dorsal.
250,000000
1
Lambda 1050
1050L1511233
PerkinElmer UV WinLab 6.3.2.0749 / 2.02.05 Lambda 900 UV/VIS/NIR, Aug  7 2015 09:38:08

0
0
3350/servo 860,8/2
0
0
UV/VIS
1
1
1
DoubleDePol,CommonBeamDepol,RBeamAtt,SBeamAtt,60mm sphere, WB InGaAs Detector
0
0
0
0
Program
Program
3350/servo 860,8/2
3350/0,2 860,8/0,2
3350/0,2 860,8/0,2
0
15.00
 
 
 
0
 
860,8
319,2
860,8
Front
100
on
S:100 R:100
0
0
0
0
 
0
 
 
 
0
 
 
0
0
0
0
0
 
 
 
 
0
0


0
0
#HDR
-1
-1
#GR
nm
%R
1.0
0.0
2500,000000
-1,000000
2251
8
87,442900
5,981100
#DATA
2482.000000	8.099664
2481.000000	8.109624
2480.000000	8.162711
2479.000000	8.116915
2478.000000	8.150389
2477.000000	8.153675
2476.000000	8.124719
2475.000000	8.179654
2474.000000	8.168050
2473.000000	8.161171
2472.000000	8.202860
2471.000000	8.204811
2470.000000	8.218057
2469.000000	8.254919
2468.000000	8.232946
2467.000000	8.289934
2466.000000	8.307185
2465.000000	8.335833
2464.000000	8.369615
2463.000000	8.379370
2462.000000	8.358628
2461.000000	8.379370
2460.000000	8.457306
2459.000000	8.442930
2458.000000	8.518915
2457.000000	8.582270
2456.000000	8.620160
2455.000000	8.642750
2454.000000	8.681872
2453.000000	8.743070
2452.000000	8.803961
2451.000000	8.849551
2450.000000	8.916603
2449.000000	8.964658
2448.000000	9.033352
2447.000000	9.089417
2446.000000	9.143838
2445.000000	9.209555
2444.000000	9.286977
2443.000000	9.348381
2442.000000	9.416767
2441.000000	9.472318
2440.000000	9.527561
2439.000000	9.595947
2438.000000	9.647288
2437.000000	9.720809
2436.000000	9.773690
2435.000000	9.852961
2434.000000	9.879761
2433.000000	9.957285
2432.000000	10.024132
2431.000000	10.074548
2430.000000	10.120755
2429.000000	10.198588
2428.000000	10.225594
2427.000000	10.275086
2426.000000	10.335977
2425.000000	10.395225
2424.000000	10.436708
2423.000000	10.467410
2422.000000	10.512282
2421.000000	10.567833
2420.000000	10.622460
2419.000000	10.651930
2418.000000	10.699882
2417.000000	10.749170
2416.000000	10.793118
2415.000000	10.827413
2414.000000	10.852673
2413.000000	10.899291
2412.000000	10.916952
2411.000000	10.947859
2410.000000	11.004026
2409.000000	11.031032
2408.000000	11.062863
2407.000000	11.086686
2406.000000	11.110405
2405.000000	11.142647
2404.000000	11.169139
2403.000000	11.195837
2402.000000	11.230543
2401.000000	11.267303
2400.000000	11.307657
2399.000000	11.326243
2398.000000	11.347909
2397.000000	11.371423
2396.000000	11.380870
2395.000000	11.402946
2394.000000	11.423175
2393.000000	11.430979
2392.000000	11.468252
2391.000000	11.493307
2390.000000	11.496798
2389.000000	11.517231
2388.000000	11.530888
2387.000000	11.545058
2386.000000	11.567238
2385.000000	11.572269
2384.000000	11.572166
2383.000000	11.598658
2382.000000	11.615087
2381.000000	11.625664
2380.000000	11.621864
2379.000000	11.611288
2378.000000	11.627615
2377.000000	11.632543
2376.000000	11.623815
2375.000000	11.614882
2374.000000	11.606051
2373.000000	11.601533
2372.000000	11.604922
2371.000000	11.607284
2370.000000	11.591060
2369.000000	11.582435
2368.000000	11.562720
2367.000000	11.551733
2366.000000	11.541156
2365.000000	11.507887
2364.000000	11.493615
2363.000000	11.483038
2362.000000	11.467841
2361.000000	11.445457
2360.000000	11.408799
2359.000000	11.385798
2358.000000	11.361874
2357.000000	11.329015
2356.000000	11.295541
2355.000000	11.269562
2354.000000	11.250155
2353.000000	11.221815
2352.000000	11.214730
2351.000000	11.218221
2350.000000	11.207132
2349.000000	11.193372
2348.000000	11.189778
2347.000000	11.191627
2346.000000	11.211752
2345.000000	11.248615
2344.000000	11.264531
2343.000000	11.284759
2342.000000	11.311354
2341.000000	11.340002
2340.000000	11.363927
2339.000000	11.392165
2338.000000	11.421326
2337.000000	11.444430
2336.000000	11.454082
2335.000000	11.454595
2334.000000	11.475543
2333.000000	11.463631
2332.000000	11.467020
2331.000000	11.487248
2330.000000	11.462810
2329.000000	11.444430
2328.000000	11.433546
2327.000000	11.409723
2326.000000	11.381691
2325.000000	11.352837
2324.000000	11.334560
2323.000000	11.288353
2322.000000	11.245740
2321.000000	11.177559
2320.000000	11.111227
2319.000000	11.066457
2318.000000	10.990883
2317.000000	10.918390
2316.000000	10.837887
2315.000000	10.762313
2314.000000	10.671337
2313.000000	10.596584
2312.000000	10.520805
2311.000000	10.449646
2310.000000	10.368835
2309.000000	10.288641
2308.000000	10.254755
2307.000000	10.224978
2306.000000	10.188628
2305.000000	10.157824
2304.000000	10.136260
2303.000000	10.158234
2302.000000	10.168297
2301.000000	10.200847
2300.000000	10.231960
2299.000000	10.278680
2298.000000	10.322012
2297.000000	10.380028
2296.000000	10.427569
2295.000000	10.500679
2294.000000	10.552431
2293.000000	10.608187
2292.000000	10.670104
2291.000000	10.730276
2290.000000	10.795787
2289.000000	10.824025
2288.000000	10.834909
2287.000000	10.883786
2286.000000	10.926296
2285.000000	10.927528
2284.000000	10.917774
2283.000000	10.958333
2282.000000	10.935230
2281.000000	10.924961
2280.000000	10.904322
2279.000000	10.880089
2278.000000	10.854932
2277.000000	10.832753
2276.000000	10.805747
2275.000000	10.789216
2274.000000	10.755228
2273.000000	10.747629
2272.000000	10.724937
2271.000000	10.721548
2270.000000	10.724937
2269.000000	10.767036
2268.000000	10.788805
2267.000000	10.825462
2266.000000	10.879987
2265.000000	10.946216
2264.000000	11.026411
2263.000000	11.147063
2262.000000	11.265866
2261.000000	11.379946
2260.000000	11.513330
2259.000000	11.695898
2258.000000	11.856801
2257.000000	12.020682
2256.000000	12.198014
2255.000000	12.414775
2254.000000	12.600630
2253.000000	12.799012
2252.000000	12.957142
2251.000000	13.120612
2250.000000	13.311395
2249.000000	13.500638
2248.000000	13.655483
2247.000000	13.794104
2246.000000	13.951207
2245.000000	14.086748
2244.000000	14.217359
2243.000000	14.328975
2242.000000	14.437099
2241.000000	14.526638
2240.000000	14.637021
2239.000000	14.708693
2238.000000	14.784267
2237.000000	14.832014
2236.000000	14.893110
2235.000000	14.947429
2234.000000	14.993122
2233.000000	15.037275
2232.000000	15.061714
2231.000000	15.095496
2230.000000	15.125274
2229.000000	15.129176
2228.000000	15.139136
2227.000000	15.144784
2226.000000	15.136158
2225.000000	15.127841
2224.000000	15.118189
2223.000000	15.088411
2222.000000	15.053807
2221.000000	15.040356
2220.000000	15.020025
2219.000000	14.987475
2218.000000	14.964782
2217.000000	14.910771
2216.000000	14.878940
2215.000000	14.853269
2214.000000	14.798950
2213.000000	14.763320
2212.000000	14.718242
2211.000000	14.705818
2210.000000	14.663923
2209.000000	14.647700
2208.000000	14.612890
2207.000000	14.581778
2206.000000	14.535263
2205.000000	14.526740
2204.000000	14.512159
2203.000000	14.478890
2202.000000	14.455273
2201.000000	14.429808
2200.000000	14.421183
2199.000000	14.379391
2198.000000	14.379699
2197.000000	14.364913
2196.000000	14.304947
2195.000000	14.297451
2194.000000	14.279174
2193.000000	14.264696
2192.000000	14.227627
2191.000000	14.230502
2190.000000	14.216435
2189.000000	14.202778
2188.000000	14.180702
2187.000000	14.169201
2186.000000	14.137164
2185.000000	14.122994
2184.000000	14.135727
2183.000000	14.106360
2182.000000	14.079560
2181.000000	14.055635
2180.000000	14.033558
2179.000000	14.011995
2178.000000	14.009325
2177.000000	14.002138
2176.000000	13.989405
2175.000000	13.987146
2174.000000	13.981909
2173.000000	13.987043
2172.000000	13.984784
2171.000000	13.989302
2170.000000	13.983655
2169.000000	14.000289
2168.000000	14.010352
2167.000000	14.036947
2166.000000	14.045983
2165.000000	14.072064
2164.000000	14.069086
2163.000000	14.118887
2162.000000	14.132133
2161.000000	14.143941
2160.000000	14.174027
2159.000000	14.222801
2158.000000	14.247753
2157.000000	14.281330
2156.000000	14.312340
2155.000000	14.370047
2154.000000	14.416562
2153.000000	14.462975
2152.000000	14.501070
2151.000000	14.564630
2150.000000	14.618127
2149.000000	14.653655
2148.000000	14.708385
2147.000000	14.736930
2146.000000	14.785191
2145.000000	14.852242
2144.000000	14.885409
2143.000000	14.904302
2142.000000	14.956157
2141.000000	14.999386
2140.000000	15.049084
2139.000000	15.091389
2138.000000	15.109358
2137.000000	15.137493
2136.000000	15.172508
2135.000000	15.218509
2134.000000	15.238943
2133.000000	15.257118
2132.000000	15.282275
2131.000000	15.289565
2130.000000	15.312463
2129.000000	15.317392
2128.000000	15.328071
2127.000000	15.337929
2126.000000	15.347683
2125.000000	15.343679
2124.000000	15.348094
2123.000000	15.359594
2122.000000	15.347786
2121.000000	15.338853
2120.000000	15.340290
2119.000000	15.331254
2118.000000	15.316160
2117.000000	15.297780
2116.000000	15.287306
2115.000000	15.273547
2114.000000	15.246336
2113.000000	15.236068
2112.000000	15.218407
2111.000000	15.188321
2110.000000	15.161726
2109.000000	15.142114
2108.000000	15.115827
2107.000000	15.079375
2106.000000	15.046722
2105.000000	15.025672
2104.000000	15.002877
2103.000000	14.985421
2102.000000	14.956157
2101.000000	14.929767
2100.000000	14.909026
2099.000000	14.889619
2098.000000	14.874627
2097.000000	14.843617
2096.000000	14.826058
2095.000000	14.809116
2094.000000	14.790120
2093.000000	14.768146
2092.000000	14.744221
2091.000000	14.742270
2090.000000	14.727792
2089.000000	14.708487
2088.000000	14.705612
2087.000000	14.672857
2086.000000	14.652012
2085.000000	14.641333
2084.000000	14.607038
2083.000000	14.581983
2082.000000	14.558572
2081.000000	14.536290
2080.000000	14.507128
2079.000000	14.459586
2078.000000	14.424263
2077.000000	14.395718
2076.000000	14.338627
2075.000000	14.276401
2074.000000	14.238204
2073.000000	14.206372
2072.000000	14.138807
2071.000000	14.068675
2070.000000	14.021339
2069.000000	13.958600
2068.000000	13.886518
2067.000000	13.824703
2066.000000	13.770487
2065.000000	13.700355
2064.000000	13.630223
2063.000000	13.556703
2062.000000	13.479280
2061.000000	13.414180
2060.000000	13.360785
2059.000000	13.304926
2058.000000	13.254099
2057.000000	13.193208
2056.000000	13.135706
2055.000000	13.094633
2054.000000	13.062186
2053.000000	13.032921
2052.000000	13.014439
2051.000000	13.017211
2050.000000	13.028506
2049.000000	13.024604
2048.000000	13.048221
2047.000000	13.086522
2046.000000	13.128005
2045.000000	13.179654
2044.000000	13.240545
2043.000000	13.302770
2042.000000	13.365611
2041.000000	13.437386
2040.000000	13.500433
2039.000000	13.570359
2038.000000	13.623754
2037.000000	13.674068
2036.000000	13.751080
2035.000000	13.801907
2034.000000	13.849757
2033.000000	13.902741
2032.000000	13.930157
2031.000000	13.968560
2030.000000	14.001727
2029.000000	14.017951
2028.000000	14.050193
2027.000000	14.074118
2026.000000	14.087158
2025.000000	14.098145
2024.000000	14.108003
2023.000000	14.112623
2022.000000	14.113958
2021.000000	14.126383
2020.000000	14.129258
2019.000000	14.112521
2018.000000	14.107592
2017.000000	14.098351
2016.000000	14.071859
2015.000000	14.055840
2014.000000	14.043005
2013.000000	14.042389
2012.000000	14.015486
2011.000000	13.984374
2010.000000	13.948024
2009.000000	13.933649
2008.000000	13.890214
2007.000000	13.886723
2006.000000	13.846163
2005.000000	13.800162
2004.000000	13.766071
2003.000000	13.725717
2002.000000	13.688238
2001.000000	13.649527
2000.000000	13.589356
1999.000000	13.556292
1998.000000	13.496942
1997.000000	13.440569
1996.000000	13.379679
1995.000000	13.321150
1994.000000	13.253791
1993.000000	13.192695
1992.000000	13.140430
1991.000000	13.084776
1990.000000	13.012590
1989.000000	12.919663
1988.000000	12.856719
1987.000000	12.802195
1986.000000	12.724978
1985.000000	12.648274
1984.000000	12.562535
1983.000000	12.527212
1982.000000	12.452152
1981.000000	12.353269
1980.000000	12.298026
1979.000000	12.224095
1978.000000	12.143489
1977.000000	12.069558
1976.000000	12.001275
1975.000000	11.930938
1974.000000	11.846122
1973.000000	11.777120
1972.000000	11.706064
1971.000000	11.660370
1970.000000	11.574836
1969.000000	11.508606
1968.000000	11.447305
1967.000000	11.394218
1966.000000	11.336716
1965.000000	11.271513
1964.000000	11.230646
1963.000000	11.166572
1962.000000	11.096030
1961.000000	11.037706
1960.000000	10.982566
1959.000000	10.924037
1958.000000	10.870334
1957.000000	10.808623
1956.000000	10.751531
1955.000000	10.700396
1954.000000	10.658296
1953.000000	10.603361
1952.000000	10.539082
1951.000000	10.478192
1950.000000	10.436708
1949.000000	10.407957
1948.000000	10.389988
1947.000000	10.324579
1946.000000	10.318213
1945.000000	10.293467
1944.000000	10.227750
1943.000000	10.218817
1942.000000	10.181030
1941.000000	10.185137
1940.000000	10.177744
1939.000000	10.157516
1938.000000	10.136876
1937.000000	10.127224
1936.000000	10.131229
1935.000000	10.152073
1934.000000	10.161623
1933.000000	10.176409
1932.000000	10.189450
1931.000000	10.239456
1930.000000	10.271185
1929.000000	10.305378
1928.000000	10.349018
1927.000000	10.415761
1926.000000	10.466999
1925.000000	10.528711
1924.000000	10.580360
1923.000000	10.666819
1922.000000	10.728633
1921.000000	10.832034
1920.000000	10.934408
1919.000000	11.034934
1918.000000	11.154148
1917.000000	11.254365
1916.000000	11.403049
1915.000000	11.500905
1914.000000	11.632235
1913.000000	11.810697
1912.000000	11.961434
1911.000000	12.119975
1910.000000	12.300696
1909.000000	12.470429
1908.000000	12.645194
1907.000000	12.806405
1906.000000	13.015979
1905.000000	13.284903
1904.000000	13.544894
1903.000000	13.791947
1902.000000	14.032737
1901.000000	14.314702
1900.000000	14.588657
1899.000000	14.911593
1898.000000	15.226005
1897.000000	15.586727
1896.000000	15.929788
1895.000000	16.231365
1894.000000	16.551733
1893.000000	16.930938
1892.000000	17.318563
1891.000000	17.772726
1890.000000	18.259849
1889.000000	18.683413
1888.000000	19.149487
1887.000000	19.630860
1886.000000	20.083483
1885.000000	20.548530
1884.000000	21.070052
1883.000000	21.608517
1882.000000	22.124186
1881.000000	22.636467
1880.000000	23.138993
1879.000000	23.609277
1878.000000	24.039002
1877.000000	24.499120
1876.000000	24.936854
1875.000000	25.335363
1874.000000	25.748966
1873.000000	26.164418
1872.000000	26.581204
1871.000000	26.955172
1870.000000	27.305113
1869.000000	27.626405
1868.000000	27.949135
1867.000000	28.195264
1866.000000	28.412334
1865.000000	28.607943
1864.000000	28.809713
1863.000000	28.987353
1862.000000	29.158319
1861.000000	29.321173
1860.000000	29.501380
1859.000000	29.652425
1858.000000	29.801827
1857.000000	29.920117
1856.000000	30.015406
1855.000000	30.116959
1854.000000	30.198385
1853.000000	30.273651
1852.000000	30.328484
1851.000000	30.382084
1850.000000	30.436813
1849.000000	30.479837
1848.000000	30.506021
1847.000000	30.546888
1846.000000	30.553049
1845.000000	30.529638
1844.000000	30.517624
1843.000000	30.524196
1842.000000	30.551920
1841.000000	30.580568
1840.000000	30.592377
1839.000000	30.578104
1838.000000	30.544116
1837.000000	30.521013
1836.000000	30.502119
1835.000000	30.491543
1834.000000	30.458993
1833.000000	30.432809
1832.000000	30.393584
1831.000000	30.375615
1830.000000	30.350458
1829.000000	30.320372
1828.000000	30.295933
1827.000000	30.242539
1826.000000	30.199002
1825.000000	30.171688
1824.000000	30.119115
1823.000000	30.094985
1822.000000	30.086359
1821.000000	30.098578
1820.000000	30.102583
1819.000000	30.068493
1818.000000	30.019308
1817.000000	29.989222
1816.000000	29.970842
1815.000000	29.974949
1814.000000	29.978132
1813.000000	29.953489
1812.000000	29.937470
1811.000000	29.925354
1810.000000	29.898862
1809.000000	29.865798
1808.000000	29.838074
1807.000000	29.808091
1806.000000	29.779751
1805.000000	29.745866
1804.000000	29.697605
1803.000000	29.656429
1802.000000	29.631991
1801.000000	29.613406
1800.000000	29.572744
1799.000000	29.524996
1798.000000	29.491419
1797.000000	29.451887
1796.000000	29.411019
1795.000000	29.376416
1794.000000	29.350334
1793.000000	29.318400
1792.000000	29.279073
1791.000000	29.254018
1790.000000	29.214383
1789.000000	29.181628
1788.000000	29.158113
1787.000000	29.131313
1786.000000	29.105129
1785.000000	29.065186
1784.000000	29.018877
1783.000000	28.975955
1782.000000	28.923074
1781.000000	28.896274
1780.000000	28.856536
1779.000000	28.788971
1778.000000	28.743278
1777.000000	28.700254
1776.000000	28.638645
1775.000000	28.569129
1774.000000	28.510087
1773.000000	28.447759
1772.000000	28.359966
1771.000000	28.285316
1770.000000	28.198447
1769.000000	28.111989
1768.000000	28.032307
1767.000000	27.942358
1766.000000	27.850252
1765.000000	27.780633
1764.000000	27.731551
1763.000000	27.692532
1762.000000	27.685653
1761.000000	27.701671
1760.000000	27.722413
1759.000000	27.756811
1758.000000	27.797781
1757.000000	27.855283
1756.000000	27.929728
1755.000000	27.978194
1754.000000	28.037749
1753.000000	28.106341
1752.000000	28.152035
1751.000000	28.193723
1750.000000	28.207175
1749.000000	28.220626
1748.000000	28.223193
1747.000000	28.198241
1746.000000	28.168361
1745.000000	28.132833
1744.000000	28.083648
1743.000000	28.012798
1742.000000	27.918946
1741.000000	27.801478
1740.000000	27.659674
1739.000000	27.513249
1738.000000	27.350190
1737.000000	27.197297
1736.000000	27.045225
1735.000000	26.894590
1734.000000	26.759255
1733.000000	26.642095
1732.000000	26.566418
1731.000000	26.532738
1730.000000	26.522162
1729.000000	26.541364
1728.000000	26.572784
1727.000000	26.613036
1726.000000	26.679676
1725.000000	26.742929
1724.000000	26.802792
1723.000000	26.874567
1722.000000	26.936073
1721.000000	27.005179
1720.000000	27.098517
1719.000000	27.184769
1718.000000	27.299055
1717.000000	27.410054
1716.000000	27.523826
1715.000000	27.643040
1714.000000	27.775602
1713.000000	27.883521
1712.000000	28.010436
1711.000000	28.128520
1710.000000	28.217238
1709.000000	28.291682
1708.000000	28.348363
1707.000000	28.393029
1706.000000	28.432049
1705.000000	28.453612
1704.000000	28.471068
1703.000000	28.456898
1702.000000	28.454947
1701.000000	28.441701
1700.000000	28.383685
1699.000000	28.327621
1698.000000	28.262007
1697.000000	28.210050
1696.000000	28.130266
1695.000000	28.101720
1694.000000	28.085497
1693.000000	28.083238
1692.000000	28.102131
1691.000000	28.145771
1690.000000	28.232127
1689.000000	28.300205
1688.000000	28.389435
1687.000000	28.469117
1686.000000	28.552495
1685.000000	28.614515
1684.000000	28.723460
1683.000000	28.836000
1682.000000	28.969178
1681.000000	29.177931
1680.000000	29.425395
1679.000000	29.693292
1678.000000	30.009964
1677.000000	30.349842
1676.000000	30.652754
1675.000000	30.962443
1674.000000	31.230340
1673.000000	31.472054
1672.000000	31.701035
1671.000000	31.891921
1670.000000	32.066994
1669.000000	32.235803
1668.000000	32.381509
1667.000000	32.503187
1666.000000	32.603405
1665.000000	32.707833
1664.000000	32.810309
1663.000000	32.879414
1662.000000	32.975114
1661.000000	33.054693
1660.000000	33.097716
1659.000000	33.157991
1658.000000	33.193416
1657.000000	33.237569
1656.000000	33.263137
1655.000000	33.300616
1654.000000	33.296303
1653.000000	33.329162
1652.000000	33.309652
1651.000000	33.284084
1650.000000	33.294969
1649.000000	33.279156
1648.000000	33.257079
1647.000000	33.244244
1646.000000	33.200604
1645.000000	33.177808
1644.000000	33.147106
1643.000000	33.116815
1642.000000	33.072867
1641.000000	33.038674
1640.000000	32.983123
1639.000000	32.942564
1638.000000	32.902518
1637.000000	32.863807
1636.000000	32.806613
1635.000000	32.734838
1634.000000	32.695921
1633.000000	32.617780
1632.000000	32.571881
1631.000000	32.515612
1630.000000	32.446301
1629.000000	32.386540
1628.000000	32.316203
1627.000000	32.242375
1626.000000	32.159818
1625.000000	32.072949
1624.000000	32.003639
1623.000000	31.938128
1622.000000	31.871487
1621.000000	31.784002
1620.000000	31.716232
1619.000000	31.658627
1618.000000	31.600817
1617.000000	31.526578
1616.000000	31.458089
1615.000000	31.381694
1614.000000	31.317723
1613.000000	31.240506
1612.000000	31.168526
1611.000000	31.112359
1610.000000	31.031753
1609.000000	30.956384
1608.000000	30.881735
1607.000000	30.812013
1606.000000	30.754820
1605.000000	30.675446
