PE UV       SUBTECH     SPECTRUM    ASCII       PEDS        4.00        
   -1
CICIMAUCR0250-1.Sample.ASC
24/05/27
14:48:34.00
24/05/27
14:48:34.00
Vinicio Soto Monge
C. resplendens, M
250,000000
1
Lambda 1050
1050L1511233
PerkinElmer UV WinLab 6.3.2.0749 / 2.02.05 Lambda 900 UV/VIS/NIR, Aug  7 2015 09:38:08

0
0
3350/servo 860,8/2
0
0
UV/VIS
1
1
1
DoubleDePol,CommonBeamDepol,RBeamAtt,SBeamAtt,60mm sphere, WB InGaAs Detector
0
0
0
0
Program
Program
3350/servo 860,8/2
3350/0,2 860,8/0,2
3350/0,2 860,8/0,2
0
15.00
 
 
 
0
 
860,8
319,2
860,8
Front
100
on
S:100 R:100
0
0
0
0
 
0
 
 
 
0
 
 
0
0
0
0
0
 
 
 
 
0
0


0
0
#HDR
-1
-1
#GR
nm
%R
1.0
0.0
2500,000000
-1,000000
2251
8
95,471000
5,548600
#DATA
2500.000000	7.165653
2499.000000	7.211763
2498.000000	7.034060
2497.000000	7.113327
2496.000000	7.180056
2495.000000	7.069186
2494.000000	6.926194
2493.000000	7.012714
2492.000000	6.971475
2491.000000	7.051156
2490.000000	7.006497
2489.000000	6.980489
2488.000000	6.897803
2487.000000	6.909926
2486.000000	6.908061
2485.000000	6.875836
2484.000000	6.867650
2483.000000	6.900082
2482.000000	6.899772
2481.000000	6.974583
2480.000000	6.928992
2479.000000	6.874282
2478.000000	6.953031
2477.000000	6.883296
2476.000000	6.887545
2475.000000	6.870862
2474.000000	6.896041
2473.000000	6.880084
2472.000000	6.905574
2471.000000	6.878323
2470.000000	6.931789
2469.000000	6.930960
2468.000000	6.883814
2467.000000	6.931997
2466.000000	6.913138
2465.000000	6.928784
2464.000000	6.927126
2463.000000	6.960284
2462.000000	6.964740
2461.000000	6.958212
2460.000000	6.954067
2459.000000	6.988261
2458.000000	7.025563
2457.000000	7.062347
2456.000000	7.078097
2455.000000	7.108457
2454.000000	7.177569
2453.000000	7.181507
2452.000000	7.264297
2451.000000	7.282534
2450.000000	7.291652
2449.000000	7.368225
2448.000000	7.419619
2447.000000	7.444384
2446.000000	7.475055
2445.000000	7.523858
2444.000000	7.553286
2443.000000	7.595769
2442.000000	7.656385
2441.000000	7.684880
2440.000000	7.730575
2439.000000	7.783109
2438.000000	7.817406
2437.000000	7.850978
2436.000000	7.915843
2435.000000	7.932732
2434.000000	7.968687
2433.000000	8.000394
2432.000000	8.028785
2431.000000	8.075413
2430.000000	8.099556
2429.000000	8.134061
2428.000000	8.169601
2427.000000	8.200168
2426.000000	8.234466
2425.000000	8.240994
2424.000000	8.298398
2423.000000	8.319536
2422.000000	8.335907
2421.000000	8.349792
2420.000000	8.373831
2419.000000	8.405952
2418.000000	8.414656
2417.000000	8.434136
2416.000000	8.460455
2415.000000	8.478174
2414.000000	8.498794
2413.000000	8.521693
2412.000000	8.535267
2411.000000	8.558270
2410.000000	8.581169
2409.000000	8.585107
2408.000000	8.612047
2407.000000	8.644894
2406.000000	8.643547
2405.000000	8.655463
2404.000000	8.691833
2403.000000	8.713074
2402.000000	8.730171
2401.000000	8.740533
2400.000000	8.770789
2399.000000	8.795553
2398.000000	8.804775
2397.000000	8.812547
2396.000000	8.827571
2395.000000	8.853683
2394.000000	8.877100
2393.000000	8.895648
2392.000000	8.913781
2391.000000	8.946627
2390.000000	8.960719
2389.000000	8.971496
2388.000000	8.990665
2387.000000	9.008694
2386.000000	9.015429
2385.000000	9.020921
2384.000000	9.032526
2383.000000	9.043510
2382.000000	9.040816
2381.000000	9.031697
2380.000000	9.036982
2379.000000	9.041541
2378.000000	9.031697
2377.000000	9.025998
2376.000000	9.014393
2375.000000	8.998436
2374.000000	8.980821
2373.000000	8.973153
2372.000000	8.959787
2371.000000	8.961030
2370.000000	8.946524
2369.000000	8.911605
2368.000000	8.901243
2367.000000	8.870987
2366.000000	8.828815
2365.000000	8.796693
2364.000000	8.767370
2363.000000	8.739082
2362.000000	8.695770
2361.000000	8.652251
2360.000000	8.612151
2359.000000	8.579719
2358.000000	8.550395
2357.000000	8.515994
2356.000000	8.489986
2355.000000	8.458797
2354.000000	8.440250
2353.000000	8.430095
2352.000000	8.429163
2351.000000	8.440768
2350.000000	8.447088
2349.000000	8.458279
2348.000000	8.472786
2347.000000	8.500555
2346.000000	8.527185
2345.000000	8.543453
2344.000000	8.578268
2343.000000	8.619508
2342.000000	8.651733
2341.000000	8.697946
2340.000000	8.718255
2339.000000	8.730585
2338.000000	8.749029
2337.000000	8.749444
2336.000000	8.765608
2335.000000	8.758562
2334.000000	8.751102
2333.000000	8.744366
2332.000000	8.731829
2331.000000	8.687688
2330.000000	8.645516
2329.000000	8.611322
2328.000000	8.584796
2327.000000	8.542934
2326.000000	8.498068
2325.000000	8.468434
2324.000000	8.408646
2323.000000	8.337151
2322.000000	8.274980
2321.000000	8.216644
2320.000000	8.146391
2319.000000	8.074999
2318.000000	8.018009
2317.000000	7.936048
2316.000000	7.845694
2315.000000	7.778757
2314.000000	7.718970
2313.000000	7.642604
2312.000000	7.576289
2311.000000	7.516812
2310.000000	7.463139
2309.000000	7.429670
2308.000000	7.388223
2307.000000	7.362941
2306.000000	7.363563
2305.000000	7.361179
2304.000000	7.371437
2303.000000	7.395062
2302.000000	7.431121
2301.000000	7.455989
2300.000000	7.488007
2299.000000	7.557120
2298.000000	7.628201
2297.000000	7.680631
2296.000000	7.738450
2295.000000	7.788601
2294.000000	7.840098
2293.000000	7.897502
2292.000000	7.952212
2291.000000	7.980293
2290.000000	8.007440
2289.000000	8.022568
2288.000000	8.031376
2287.000000	8.032930
2286.000000	8.038111
2285.000000	8.016662
2284.000000	7.997286
2283.000000	7.966926
2282.000000	7.934805
2281.000000	7.904134
2280.000000	7.860718
2279.000000	7.815748
2278.000000	7.783523
2277.000000	7.752231
2276.000000	7.718348
2275.000000	7.683222
2274.000000	7.667265
2273.000000	7.648199
2272.000000	7.640324
2271.000000	7.647474
2270.000000	7.637319
2269.000000	7.654831
2268.000000	7.696899
2267.000000	7.746428
2266.000000	7.780311
2265.000000	7.848699
2264.000000	7.937291
2263.000000	8.028164
2262.000000	8.140692
2261.000000	8.276224
2260.000000	8.405849
2259.000000	8.566663
2258.000000	8.734523
2257.000000	8.883006
2256.000000	9.071175
2255.000000	9.252402
2254.000000	9.431349
2253.000000	9.598795
2252.000000	9.788829
2251.000000	9.954202
2250.000000	10.113254
2249.000000	10.259977
2248.000000	10.411361
2247.000000	10.560778
2246.000000	10.701490
2245.000000	10.818059
2244.000000	10.934836
2243.000000	11.050058
2242.000000	11.126217
2241.000000	11.254495
2240.000000	11.333244
2239.000000	11.403808
2238.000000	11.505767
2237.000000	11.575294
2236.000000	11.634356
2235.000000	11.697770
2234.000000	11.736523
2233.000000	11.817241
2232.000000	11.826463
2231.000000	11.908320
2230.000000	11.908735
2229.000000	11.954326
2228.000000	11.994841
2227.000000	12.018466
2226.000000	12.029138
2225.000000	12.038671
2224.000000	12.052245
2223.000000	12.036391
2222.000000	12.047686
2221.000000	12.049551
2220.000000	12.026962
2219.000000	12.015564
2218.000000	12.005203
2217.000000	12.005928
2216.000000	11.989556
2215.000000	11.961372
2214.000000	11.941685
2213.000000	11.943550
2212.000000	11.940960
2211.000000	11.897130
2210.000000	11.900445
2209.000000	11.882623
2208.000000	11.879204
2207.000000	11.867184
2206.000000	11.838793
2205.000000	11.832680
2204.000000	11.830400
2203.000000	11.837239
2202.000000	11.808641
2201.000000	11.795896
2200.000000	11.806672
2199.000000	11.779317
2198.000000	11.776726
2197.000000	11.756417
2196.000000	11.766157
2195.000000	11.757764
2194.000000	11.750097
2193.000000	11.745227
2192.000000	11.744398
2191.000000	11.733414
2190.000000	11.726472
2189.000000	11.721291
2188.000000	11.705127
2187.000000	11.688030
2186.000000	11.683056
2185.000000	11.677875
2184.000000	11.663162
2183.000000	11.658706
2182.000000	11.642542
2181.000000	11.620990
2180.000000	11.637879
2179.000000	11.614151
2178.000000	11.614254
2177.000000	11.605240
2176.000000	11.581719
2175.000000	11.589075
2174.000000	11.587936
2173.000000	11.590008
2172.000000	11.588247
2171.000000	11.597572
2170.000000	11.590941
2169.000000	11.613426
2168.000000	11.625238
2167.000000	11.621715
2166.000000	11.642024
2165.000000	11.652696
2164.000000	11.669586
2163.000000	11.671866
2162.000000	11.669586
2161.000000	11.700257
2160.000000	11.719840
2159.000000	11.739113
2158.000000	11.759733
2157.000000	11.772478
2156.000000	11.796310
2155.000000	11.822318
2154.000000	11.854439
2153.000000	11.876406
2152.000000	11.911325
2151.000000	11.932670
2150.000000	11.984479
2149.000000	11.991732
2148.000000	12.023646
2147.000000	12.041779
2146.000000	12.053385
2145.000000	12.085506
2144.000000	12.118560
2143.000000	12.141045
2142.000000	12.158245
2141.000000	12.188294
2140.000000	12.198449
2139.000000	12.224664
2138.000000	12.232021
2137.000000	12.262691
2136.000000	12.288389
2135.000000	12.287663
2134.000000	12.302999
2133.000000	12.310252
2132.000000	12.318230
2131.000000	12.322997
2130.000000	12.327763
2129.000000	12.325794
2128.000000	12.330146
2127.000000	12.326105
2126.000000	12.314500
2125.000000	12.297403
2124.000000	12.292430
2123.000000	12.297921
2122.000000	12.278545
2121.000000	12.270359
2120.000000	12.256993
2119.000000	12.240310
2118.000000	12.224664
2117.000000	12.211608
2116.000000	12.185704
2115.000000	12.164773
2114.000000	12.141252
2113.000000	12.129129
2112.000000	12.096697
2111.000000	12.066544
2110.000000	12.060016
2109.000000	12.033594
2108.000000	12.014424
2107.000000	11.988831
2106.000000	11.961787
2105.000000	11.937126
2104.000000	11.902725
2103.000000	11.872054
2102.000000	11.870396
2101.000000	11.850606
2100.000000	11.818795
2099.000000	11.800248
2098.000000	11.774965
2097.000000	11.746263
2096.000000	11.722327
2095.000000	11.697356
2094.000000	11.664923
2093.000000	11.656530
2092.000000	11.650728
2091.000000	11.632802
2090.000000	11.620161
2089.000000	11.598919
2088.000000	11.598712
2087.000000	11.582858
2086.000000	11.553224
2085.000000	11.550633
2084.000000	11.534158
2083.000000	11.494680
2082.000000	11.478827
2081.000000	11.466911
2080.000000	11.450436
2079.000000	11.439867
2078.000000	11.421837
2077.000000	11.387747
2076.000000	11.355315
2075.000000	11.334281
2074.000000	11.306926
2073.000000	11.291590
2072.000000	11.281539
2071.000000	11.252630
2070.000000	11.221545
2069.000000	11.193672
2068.000000	11.180616
2067.000000	11.161965
2066.000000	11.147769
2065.000000	11.127564
2064.000000	11.095132
2063.000000	11.071300
2062.000000	11.052752
2061.000000	11.023532
2060.000000	11.029749
2059.000000	11.033480
2058.000000	11.007886
2057.000000	10.994519
2056.000000	11.005296
2055.000000	11.025294
2054.000000	11.040422
2053.000000	11.056172
2052.000000	11.068399
2051.000000	11.101038
2050.000000	11.160204
2049.000000	11.198956
2048.000000	11.233668
2047.000000	11.279260
2046.000000	11.345057
2045.000000	11.404844
2044.000000	11.464424
2043.000000	11.520999
2042.000000	11.583066
2041.000000	11.624823
2040.000000	11.685025
2039.000000	11.748646
2038.000000	11.805118
2037.000000	11.870811
2036.000000	11.913087
2035.000000	11.957746
2034.000000	11.991214
2033.000000	12.039914
2032.000000	12.084366
2031.000000	12.117109
2030.000000	12.161561
2029.000000	12.187880
2028.000000	12.193268
2027.000000	12.222177
2026.000000	12.256474
2025.000000	12.286213
2024.000000	12.311702
2023.000000	12.312221
2022.000000	12.323618
2021.000000	12.337918
2020.000000	12.340715
2019.000000	12.340923
2018.000000	12.359884
2017.000000	12.362889
2016.000000	12.372215
2015.000000	12.374080
2014.000000	12.357398
2013.000000	12.362060
2012.000000	12.356361
2011.000000	12.331493
2010.000000	12.327141
2009.000000	12.302791
2008.000000	12.287767
2007.000000	12.258961
2006.000000	12.223731
2005.000000	12.200314
2004.000000	12.175031
2003.000000	12.135346
2002.000000	12.097940
2001.000000	12.057218
2000.000000	12.037946
1999.000000	11.984790
1998.000000	11.944483
1997.000000	11.905523
1996.000000	11.853714
1995.000000	11.798486
1994.000000	11.756417
1993.000000	11.711033
1992.000000	11.666063
1991.000000	11.609384
1990.000000	11.563793
1989.000000	11.506182
1988.000000	11.436551
1987.000000	11.395933
1986.000000	11.316562
1985.000000	11.263303
1984.000000	11.184864
1983.000000	11.150774
1982.000000	11.071611
1981.000000	11.046328
1980.000000	10.983329
1979.000000	10.911108
1978.000000	10.849559
1977.000000	10.793398
1976.000000	10.736409
1975.000000	10.693097
1974.000000	10.622015
1973.000000	10.572590
1972.000000	10.511248
1971.000000	10.460787
1970.000000	10.403072
1969.000000	10.339451
1968.000000	10.280389
1967.000000	10.253759
1966.000000	10.189102
1965.000000	10.137915
1964.000000	10.076470
1963.000000	10.012953
1962.000000	9.975340
1961.000000	9.948814
1960.000000	9.881877
1959.000000	9.848616
1958.000000	9.801159
1957.000000	9.752252
1956.000000	9.704484
1955.000000	9.653194
1954.000000	9.605841
1953.000000	9.569264
1952.000000	9.531236
1951.000000	9.466579
1950.000000	9.441504
1949.000000	9.428033
1948.000000	9.364101
1947.000000	9.344518
1946.000000	9.320686
1945.000000	9.292087
1944.000000	9.246599
1943.000000	9.225254
1942.000000	9.231160
1941.000000	9.203080
1940.000000	9.198625
1939.000000	9.199246
1938.000000	9.177798
1937.000000	9.187227
1936.000000	9.200283
1935.000000	9.193340
1934.000000	9.167332
1933.000000	9.235720
1932.000000	9.254164
1931.000000	9.257272
1930.000000	9.315401
1929.000000	9.341617
1928.000000	9.411144
1927.000000	9.458497
1926.000000	9.531133
1925.000000	9.570818
1924.000000	9.635475
1923.000000	9.709147
1922.000000	9.790901
1921.000000	9.894622
1920.000000	9.975651
1919.000000	10.081548
1918.000000	10.165270
1917.000000	10.287746
1916.000000	10.379965
1915.000000	10.501716
1914.000000	10.628129
1913.000000	10.761899
1912.000000	10.915563
1911.000000	11.056586
1910.000000	11.203101
1909.000000	11.322986
1908.000000	11.475407
1907.000000	11.623476
1906.000000	11.790300
1905.000000	12.010694
1904.000000	12.192543
1903.000000	12.379986
1902.000000	12.583491
1901.000000	12.765028
1900.000000	12.950089
1899.000000	13.193071
1898.000000	13.424138
1897.000000	13.649402
1896.000000	13.871557
1895.000000	14.078895
1894.000000	14.286337
1893.000000	14.491188
1892.000000	14.739559
1891.000000	15.071134
1890.000000	15.367273
1889.000000	15.632533
1888.000000	15.946700
1887.000000	16.228540
1886.000000	16.558768
1885.000000	16.916558
1884.000000	17.326261
1883.000000	17.762386
1882.000000	18.213432
1881.000000	18.667069
1880.000000	19.116146
1879.000000	19.527299
1878.000000	19.957933
1877.000000	20.389913
1876.000000	20.791845
1875.000000	21.175747
1874.000000	21.577471
1873.000000	21.965829
1872.000000	22.335846
1871.000000	22.666178
1870.000000	22.963974
1869.000000	23.255760
1868.000000	23.519155
1867.000000	23.718308
1866.000000	23.883370
1865.000000	24.003463
1864.000000	24.135575
1863.000000	24.242300
1862.000000	24.359077
1861.000000	24.479170
1860.000000	24.613147
1859.000000	24.704330
1858.000000	24.799243
1857.000000	24.874366
1856.000000	24.888976
1855.000000	24.904519
1854.000000	24.950939
1853.000000	24.972388
1852.000000	24.963580
1851.000000	24.946587
1850.000000	24.935189
1849.000000	24.931874
1848.000000	24.923999
1847.000000	24.939334
1846.000000	24.891463
1845.000000	24.826184
1844.000000	24.773028
1843.000000	24.750751
1842.000000	24.753963
1841.000000	24.768676
1840.000000	24.754377
1839.000000	24.732825
1838.000000	24.696559
1837.000000	24.651796
1836.000000	24.609002
1835.000000	24.565483
1834.000000	24.510566
1833.000000	24.433785
1832.000000	24.374620
1831.000000	24.327578
1830.000000	24.277323
1829.000000	24.226033
1828.000000	24.158163
1827.000000	24.087807
1826.000000	24.024186
1825.000000	23.960565
1824.000000	23.892696
1823.000000	23.848658
1822.000000	23.830629
1821.000000	23.818609
1820.000000	23.799544
1819.000000	23.772707
1818.000000	23.724836
1817.000000	23.685876
1816.000000	23.682767
1815.000000	23.667535
1814.000000	23.659246
1813.000000	23.656656
1812.000000	23.632720
1811.000000	23.612307
1810.000000	23.588683
1809.000000	23.545889
1808.000000	23.518845
1807.000000	23.481024
1806.000000	23.445691
1805.000000	23.408596
1804.000000	23.355647
1803.000000	23.320003
1802.000000	23.284151
1801.000000	23.239803
1800.000000	23.190378
1799.000000	23.141989
1798.000000	23.095257
1797.000000	23.052463
1796.000000	22.996613
1795.000000	22.944390
1794.000000	22.916103
1793.000000	22.880666
1792.000000	22.835592
1791.000000	22.783162
1790.000000	22.731560
1789.000000	22.683896
1788.000000	22.645351
1787.000000	22.594268
1786.000000	22.541941
1785.000000	22.487853
1784.000000	22.417186
1783.000000	22.347037
1782.000000	22.284763
1781.000000	22.220313
1780.000000	22.159904
1779.000000	22.085403
1778.000000	22.021368
1777.000000	21.959508
1776.000000	21.890292
1775.000000	21.814962
1774.000000	21.721914
1773.000000	21.643683
1772.000000	21.545039
1771.000000	21.436552
1770.000000	21.339151
1769.000000	21.239990
1768.000000	21.142693
1767.000000	21.048919
1766.000000	20.955560
1765.000000	20.887691
1764.000000	20.839923
1763.000000	20.812879
1762.000000	20.810081
1761.000000	20.828007
1760.000000	20.861786
1759.000000	20.896602
1758.000000	20.948929
1757.000000	21.014933
1756.000000	21.093475
1755.000000	21.154816
1754.000000	21.195123
1753.000000	21.228177
1752.000000	21.237192
1751.000000	21.240508
1750.000000	21.241647
1749.000000	21.227763
1748.000000	21.182482
1747.000000	21.137408
1746.000000	21.064773
1745.000000	20.979289
1744.000000	20.897638
1743.000000	20.770707
1742.000000	20.631031
1741.000000	20.449390
1740.000000	20.269096
1739.000000	20.089112
1738.000000	19.895244
1737.000000	19.699615
1736.000000	19.553929
1735.000000	19.430417
1734.000000	19.342135
1733.000000	19.285457
1732.000000	19.268360
1731.000000	19.293642
1730.000000	19.352601
1729.000000	19.434251
1728.000000	19.524191
1727.000000	19.627394
1726.000000	19.726037
1725.000000	19.805305
1724.000000	19.869962
1723.000000	19.916693
1722.000000	19.955964
1721.000000	19.980625
1720.000000	19.994717
1719.000000	20.014404
1718.000000	20.030569
1717.000000	20.070979
1716.000000	20.097609
1715.000000	20.141543
1714.000000	20.205475
1713.000000	20.254796
1712.000000	20.312511
1711.000000	20.337794
1710.000000	20.374889
1709.000000	20.397167
1708.000000	20.380070
1707.000000	20.344322
1706.000000	20.328261
1705.000000	20.282669
1704.000000	20.240497
1703.000000	20.165686
1702.000000	20.095848
1701.000000	20.007047
1700.000000	19.872449
1699.000000	19.740337
1698.000000	19.616721
1697.000000	19.466891
1696.000000	19.366485
1695.000000	19.284939
1694.000000	19.276856
1693.000000	19.337991
1692.000000	19.427412
1691.000000	19.545432
1690.000000	19.679099
1689.000000	19.827168
1688.000000	19.936691
1687.000000	20.018342
1686.000000	20.055333
1685.000000	20.057198
1684.000000	20.095433
1683.000000	20.182575
1682.000000	20.345772
1681.000000	20.618286
1680.000000	20.969030
1679.000000	21.392929
1678.000000	21.859932
1677.000000	22.309527
1676.000000	22.761299
1675.000000	23.154215
1674.000000	23.476362
1673.000000	23.797679
1672.000000	24.085942
1671.000000	24.302606
1670.000000	24.496992
1669.000000	24.670344
1668.000000	24.808983
1667.000000	24.930837
1666.000000	25.037252
1665.000000	25.113307
1664.000000	25.215370
1663.000000	25.308522
1662.000000	25.363232
1661.000000	25.402400
1660.000000	25.464052
1659.000000	25.490474
1658.000000	25.518762
1657.000000	25.545495
1656.000000	25.575648
1655.000000	25.588496
1654.000000	25.581968
1653.000000	25.568602
1652.000000	25.596993
1651.000000	25.552127
1650.000000	25.535548
1649.000000	25.518037
1648.000000	25.506949
1647.000000	25.434107
1646.000000	25.398255
1645.000000	25.369242
1644.000000	25.313185
1643.000000	25.290493
1642.000000	25.247699
1641.000000	25.182109
1640.000000	25.136725
1639.000000	25.102428
1638.000000	25.050930
1637.000000	24.963373
1636.000000	24.899856
1635.000000	24.840794
1634.000000	24.800694
1633.000000	24.703501
1632.000000	24.652107
1631.000000	24.590662
1630.000000	24.503831
1629.000000	24.449017
1628.000000	24.376899
1627.000000	24.298357
1626.000000	24.215360
1625.000000	24.148320
1624.000000	24.063043
1623.000000	23.992065
1622.000000	23.929169
1621.000000	23.853010
1620.000000	23.776023
1619.000000	23.723074
1618.000000	23.631684
1617.000000	23.560084
1616.000000	23.501748
1615.000000	23.436158
1614.000000	23.378754
1613.000000	23.298347
1612.000000	23.243015
1611.000000	23.163437
