PE UV       SUBTECH     SPECTRUM    ASCII       PEDS        4.00        
   -1
CICIMAUCR0248-1.Sample.ASC
24/06/24
16:12:42.00
24/06/24
16:12:42.00
Vinicio Soto Monge
C. resplendens. Sex F.Dorsal.  
250,000000
1
Lambda 1050
1050L1511233
PerkinElmer UV WinLab 6.3.2.0749 / 2.02.05 Lambda 900 UV/VIS/NIR, Aug  7 2015 09:38:08

0
0
3350/servo 860,8/2
0
0
UV/VIS
1
1
1
DoubleDePol,CommonBeamDepol,RBeamAtt,SBeamAtt,60mm sphere, WB InGaAs Detector
0
0
0
0
Program
Program
3350/servo 860,8/2
3350/0,2 860,8/0,2
3350/0,2 860,8/0,2
0
15.00
 
 
 
0
 
860,8
319,2
860,8
Front
100
on
S:100 R:100
0
0
0
0
 
0
 
 
 
0
 
 
0
0
0
0
0
 
 
 
 
0
0


0
0
#HDR
-1
-1
#GR
nm
%R
1.0
0.0
2500,000000
-1,000000
2251
8
89,208300
5,468800
#DATA
2500.000000	7.761746
2499.000000	7.680213
2498.000000	7.643452
2497.000000	7.665016
2496.000000	7.709274
2495.000000	7.660395
2494.000000	7.595292
2493.000000	7.616240
2492.000000	7.582353
2491.000000	7.662141
2490.000000	7.528340
2489.000000	7.570544
2488.000000	7.478332
2487.000000	7.447424
2486.000000	7.422368
2485.000000	7.432021
2484.000000	7.502361
2483.000000	7.505852
2482.000000	7.571263
2481.000000	7.484801
2480.000000	7.467037
2479.000000	7.545386
2478.000000	7.507598
2477.000000	7.536145
2476.000000	7.501026
2475.000000	7.447321
2474.000000	7.505339
2473.000000	7.515402
2472.000000	7.569518
2471.000000	7.561200
2470.000000	7.566745
2469.000000	7.567875
2468.000000	7.628459
2467.000000	7.595394
2466.000000	7.576500
2465.000000	7.610489
2464.000000	7.657006
2463.000000	7.688017
2462.000000	7.679700
2461.000000	7.687401
2460.000000	7.714819
2459.000000	7.775403
2458.000000	7.816273
2457.000000	7.854985
2456.000000	7.892260
2455.000000	7.901810
2454.000000	7.957261
2453.000000	7.991147
2452.000000	8.068059
2451.000000	8.103589
2450.000000	8.178036
2449.000000	8.228763
2448.000000	8.286370
2447.000000	8.327342
2446.000000	8.377761
2445.000000	8.409183
2444.000000	8.502011
2443.000000	8.544010
2442.000000	8.584982
2441.000000	8.674422
2440.000000	8.737471
2439.000000	8.778135
2438.000000	8.850529
2437.000000	8.897354
2436.000000	8.966461
2435.000000	9.027252
2434.000000	9.068223
2433.000000	9.138256
2432.000000	9.178611
2431.000000	9.234473
2430.000000	9.294339
2429.000000	9.337570
2428.000000	9.388810
2427.000000	9.429987
2426.000000	9.476607
2425.000000	9.538629
2424.000000	9.591718
2423.000000	9.618006
2422.000000	9.646758
2421.000000	9.706419
2420.000000	9.755195
2419.000000	9.787541
2418.000000	9.827178
2417.000000	9.860243
2416.000000	9.902549
2415.000000	9.948450
2414.000000	9.989422
2413.000000	10.019612
2412.000000	10.041792
2411.000000	10.064896
2410.000000	10.098783
2409.000000	10.125584
2408.000000	10.154439
2407.000000	10.177646
2406.000000	10.210505
2405.000000	10.237717
2404.000000	10.275095
2403.000000	10.303847
2402.000000	10.318429
2401.000000	10.351596
2400.000000	10.391131
2399.000000	10.410641
2398.000000	10.430665
2397.000000	10.448224
2396.000000	10.485910
2395.000000	10.513122
2394.000000	10.532735
2393.000000	10.551321
2392.000000	10.569497
2391.000000	10.594963
2390.000000	10.620224
2389.000000	10.638810
2388.000000	10.661503
2387.000000	10.666124
2386.000000	10.677112
2385.000000	10.696314
2384.000000	10.705659
2383.000000	10.710896
2382.000000	10.718392
2381.000000	10.728352
2380.000000	10.729687
2379.000000	10.732357
2378.000000	10.742009
2377.000000	10.746630
2376.000000	10.750635
2375.000000	10.743036
2374.000000	10.745604
2373.000000	10.743550
2372.000000	10.724039
2371.000000	10.710793
2370.000000	10.700011
2369.000000	10.688613
2368.000000	10.679371
2367.000000	10.662120
2366.000000	10.639323
2365.000000	10.633265
2364.000000	10.608209
2363.000000	10.583359
2362.000000	10.559023
2361.000000	10.529757
2360.000000	10.503983
2359.000000	10.472253
2358.000000	10.444527
2357.000000	10.419164
2356.000000	10.388461
2355.000000	10.369258
2354.000000	10.355601
2353.000000	10.329621
2352.000000	10.310625
2351.000000	10.308468
2350.000000	10.320790
2349.000000	10.335680
2348.000000	10.342560
2347.000000	10.347489
2346.000000	10.362173
2345.000000	10.398421
2344.000000	10.421423
2343.000000	10.437545
2342.000000	10.460238
2341.000000	10.486731
2340.000000	10.510247
2339.000000	10.523082
2338.000000	10.543312
2337.000000	10.561898
2336.000000	10.572885
2335.000000	10.573091
2334.000000	10.574015
2333.000000	10.559741
2332.000000	10.555018
2331.000000	10.532530
2330.000000	10.539512
2329.000000	10.529141
2328.000000	10.488888
2327.000000	10.469275
2326.000000	10.438674
2325.000000	10.399037
2324.000000	10.351288
2323.000000	10.297891
2322.000000	10.259179
2321.000000	10.196232
2320.000000	10.138009
2319.000000	10.087487
2318.000000	9.991886
2317.000000	9.921649
2316.000000	9.859729
2315.000000	9.771727
2314.000000	9.691426
2313.000000	9.646244
2312.000000	9.565430
2311.000000	9.490572
2310.000000	9.435943
2309.000000	9.378233
2308.000000	9.320318
2307.000000	9.301013
2306.000000	9.264046
2305.000000	9.246281
2304.000000	9.242687
2303.000000	9.240018
2302.000000	9.234986
2301.000000	9.274726
2300.000000	9.320832
2299.000000	9.352972
2298.000000	9.379671
2297.000000	9.450319
2296.000000	9.507105
2295.000000	9.570359
2294.000000	9.631868
2293.000000	9.673148
2292.000000	9.716276
2291.000000	9.760021
2290.000000	9.812083
2289.000000	9.843505
2288.000000	9.878829
2287.000000	9.894540
2286.000000	9.907273
2285.000000	9.915077
2284.000000	9.919903
2283.000000	9.891665
2282.000000	9.883655
2281.000000	9.871333
2280.000000	9.849050
2279.000000	9.814034
2278.000000	9.786617
2277.000000	9.771316
2276.000000	9.735273
2275.000000	9.697793
2274.000000	9.680850
2273.000000	9.642240
2272.000000	9.618416
2271.000000	9.608251
2270.000000	9.616671
2269.000000	9.635257
2268.000000	9.660107
2267.000000	9.693069
2266.000000	9.722746
2265.000000	9.788465
2264.000000	9.883039
2263.000000	9.960772
2262.000000	10.058632
2261.000000	10.204858
2260.000000	10.336912
2259.000000	10.485807
2258.000000	10.665097
2257.000000	10.820564
2256.000000	11.003346
2255.000000	11.191056
2254.000000	11.375584
2253.000000	11.561651
2252.000000	11.731597
2251.000000	11.913865
2250.000000	12.082271
2249.000000	12.246569
2248.000000	12.402549
2247.000000	12.570749
2246.000000	12.692432
2245.000000	12.835680
2244.000000	12.950380
2243.000000	13.044543
2242.000000	13.127103
2241.000000	13.231741
2240.000000	13.328574
2239.000000	13.391520
2238.000000	13.475826
2237.000000	13.535486
2236.000000	13.551711
2235.000000	13.622770
2234.000000	13.659018
2233.000000	13.704405
2232.000000	13.739524
2231.000000	13.761499
2230.000000	13.764271
2229.000000	13.776696
2228.000000	13.777621
2227.000000	13.779058
2226.000000	13.768276
2225.000000	13.761704
2224.000000	13.729872
2223.000000	13.697423
2222.000000	13.676783
2221.000000	13.663742
2220.000000	13.638686
2219.000000	13.593093
2218.000000	13.536513
2217.000000	13.517003
2216.000000	13.462271
2215.000000	13.429206
2214.000000	13.361433
2213.000000	13.341923
2212.000000	13.314198
2211.000000	13.275074
2210.000000	13.242009
2209.000000	13.206069
2208.000000	13.185532
2207.000000	13.154007
2206.000000	13.131519
2205.000000	13.120839
2204.000000	13.083153
2203.000000	13.039409
2202.000000	13.011376
2201.000000	12.968658
2200.000000	12.974922
2199.000000	12.970917
2198.000000	12.946478
2197.000000	12.907457
2196.000000	12.902631
2195.000000	12.884045
2194.000000	12.881888
2193.000000	12.869053
2192.000000	12.838349
2191.000000	12.810624
2190.000000	12.815553
2189.000000	12.801999
2188.000000	12.796556
2187.000000	12.756406
2186.000000	12.759692
2185.000000	12.749937
2184.000000	12.743981
2183.000000	12.703625
2182.000000	12.702290
2181.000000	12.697977
2180.000000	12.666145
2179.000000	12.676516
2178.000000	12.689146
2177.000000	12.669533
2176.000000	12.662140
2175.000000	12.639343
2174.000000	12.647764
2173.000000	12.645710
2172.000000	12.655773
2171.000000	12.667274
2170.000000	12.666247
2169.000000	12.673949
2168.000000	12.707733
2167.000000	12.740695
2166.000000	12.741927
2165.000000	12.766777
2164.000000	12.805901
2163.000000	12.805079
2162.000000	12.844203
2161.000000	12.869771
2160.000000	12.911257
2159.000000	12.935183
2158.000000	12.962292
2157.000000	13.020104
2156.000000	13.061692
2155.000000	13.122996
2154.000000	13.162427
2153.000000	13.198676
2152.000000	13.246527
2151.000000	13.295303
2150.000000	13.348084
2149.000000	13.398914
2148.000000	13.456007
2147.000000	13.503551
2146.000000	13.550889
2145.000000	13.588267
2144.000000	13.645361
2143.000000	13.698655
2142.000000	13.756057
2141.000000	13.797234
2140.000000	13.820338
2139.000000	13.856689
2138.000000	13.900433
2137.000000	13.937503
2136.000000	13.964304
2135.000000	14.010616
2134.000000	14.032796
2133.000000	14.057338
2132.000000	14.087528
2131.000000	14.099542
2130.000000	14.123468
2129.000000	14.133839
2128.000000	14.133120
2127.000000	14.152528
2126.000000	14.161873
2125.000000	14.162797
2124.000000	14.146880
2123.000000	14.152631
2122.000000	14.149345
2121.000000	14.142670
2120.000000	14.143081
2119.000000	14.148421
2118.000000	14.121928
2117.000000	14.092765
2116.000000	14.082804
2115.000000	14.067299
2114.000000	14.043270
2113.000000	14.006200
2112.000000	13.975497
2111.000000	13.955268
2110.000000	13.941611
2109.000000	13.925078
2108.000000	13.885133
2107.000000	13.840157
2106.000000	13.819517
2105.000000	13.802471
2104.000000	13.772486
2103.000000	13.733979
2102.000000	13.704611
2101.000000	13.690851
2100.000000	13.656143
2099.000000	13.640226
2098.000000	13.621332
2097.000000	13.578204
2096.000000	13.562390
2095.000000	13.556126
2094.000000	13.541134
2093.000000	13.511150
2092.000000	13.484246
2091.000000	13.475107
2090.000000	13.462066
2089.000000	13.436600
2088.000000	13.419451
2087.000000	13.401070
2086.000000	13.374269
2085.000000	13.355786
2084.000000	13.339972
2083.000000	13.313581
2082.000000	13.270659
2081.000000	13.242317
2080.000000	13.206480
2079.000000	13.154623
2078.000000	13.108414
2077.000000	13.074528
2076.000000	13.030989
2075.000000	12.966194
2074.000000	12.900885
2073.000000	12.850672
2072.000000	12.809905
2071.000000	12.759384
2070.000000	12.689044
2069.000000	12.621168
2068.000000	12.551444
2067.000000	12.473402
2066.000000	12.411380
2065.000000	12.345763
2064.000000	12.280866
2063.000000	12.217200
2062.000000	12.153432
2061.000000	12.094490
2060.000000	12.033700
2059.000000	11.975477
2058.000000	11.918178
2057.000000	11.879979
2056.000000	11.840136
2055.000000	11.800705
2054.000000	11.782735
2053.000000	11.775855
2052.000000	11.773596
2051.000000	11.774520
2050.000000	11.792593
2049.000000	11.817443
2048.000000	11.854718
2047.000000	11.904418
2046.000000	11.947752
2045.000000	12.000738
2044.000000	12.071078
2043.000000	12.134538
2042.000000	12.202619
2041.000000	12.279120
2040.000000	12.342580
2039.000000	12.405321
2038.000000	12.467755
2037.000000	12.515401
2036.000000	12.573932
2035.000000	12.633696
2034.000000	12.674154
2033.000000	12.711840
2032.000000	12.746959
2031.000000	12.769036
2030.000000	12.801896
2029.000000	12.837117
2028.000000	12.841943
2027.000000	12.872647
2026.000000	12.900783
2025.000000	12.894211
2024.000000	12.897394
2023.000000	12.910230
2022.000000	12.921115
2021.000000	12.925941
2020.000000	12.931281
2019.000000	12.926146
2018.000000	12.904274
2017.000000	12.885791
2016.000000	12.878089
2015.000000	12.869463
2014.000000	12.848207
2013.000000	12.826438
2012.000000	12.802204
2011.000000	12.781153
2010.000000	12.753839
2009.000000	12.732993
2008.000000	12.685039
2007.000000	12.665118
2006.000000	12.622400
2005.000000	12.589541
2004.000000	12.539019
2003.000000	12.492605
2002.000000	12.458924
2001.000000	12.408197
2000.000000	12.345661
1999.000000	12.292880
1998.000000	12.238046
1997.000000	12.175920
1996.000000	12.118621
1995.000000	12.053724
1994.000000	11.978557
1993.000000	11.915097
1992.000000	11.842395
1991.000000	11.767845
1990.000000	11.704796
1989.000000	11.621517
1988.000000	11.573460
1987.000000	11.481761
1986.000000	11.388317
1985.000000	11.346832
1984.000000	11.263656
1983.000000	11.189619
1982.000000	11.117122
1981.000000	11.060029
1980.000000	10.949436
1979.000000	10.882587
1978.000000	10.808858
1977.000000	10.746630
1976.000000	10.677317
1975.000000	10.603896
1974.000000	10.529244
1973.000000	10.457158
1972.000000	10.403453
1971.000000	10.308263
1970.000000	10.242749
1969.000000	10.192535
1968.000000	10.139447
1967.000000	10.077732
1966.000000	10.021049
1965.000000	9.943110
1964.000000	9.868149
1963.000000	9.818757
1962.000000	9.757351
1961.000000	9.716276
1960.000000	9.636592
1959.000000	9.592026
1958.000000	9.555675
1957.000000	9.491188
1956.000000	9.439742
1955.000000	9.411914
1954.000000	9.349687
1953.000000	9.309947
1952.000000	9.252340
1951.000000	9.198738
1950.000000	9.156636
1949.000000	9.101494
1948.000000	9.057749
1947.000000	9.038958
1946.000000	9.005688
1945.000000	8.987307
1944.000000	8.943152
1943.000000	8.931753
1942.000000	8.913475
1941.000000	8.907622
1940.000000	8.882977
1939.000000	8.879383
1938.000000	8.875687
1937.000000	8.887701
1936.000000	8.885031
1935.000000	8.897662
1934.000000	8.901872
1933.000000	8.914194
1932.000000	8.938736
1931.000000	8.970672
1930.000000	9.018113
1929.000000	9.064732
1928.000000	9.108990
1927.000000	9.165262
1926.000000	9.222150
1925.000000	9.298857
1924.000000	9.344347
1923.000000	9.445698
1922.000000	9.531647
1921.000000	9.643780
1920.000000	9.752217
1919.000000	9.846483
1918.000000	9.949682
1917.000000	10.071160
1916.000000	10.192433
1915.000000	10.327978
1914.000000	10.471739
1913.000000	10.630492
1912.000000	10.802389
1911.000000	10.949744
1910.000000	11.124002
1909.000000	11.312842
1908.000000	11.472520
1907.000000	11.676352
1906.000000	11.891890
1905.000000	12.169965
1904.000000	12.433355
1903.000000	12.702290
1902.000000	12.942679
1901.000000	13.245809
1900.000000	13.533330
1899.000000	13.873530
1898.000000	14.184566
1897.000000	14.531440
1896.000000	14.855005
1895.000000	15.170149
1894.000000	15.526573
1893.000000	15.919861
1892.000000	16.331325
1891.000000	16.805017
1890.000000	17.272753
1889.000000	17.715228
1888.000000	18.229481
1887.000000	18.649570
1886.000000	19.139178
1885.000000	19.630737
1884.000000	20.156696
1883.000000	20.707403
1882.000000	21.235210
1881.000000	21.730671
1880.000000	22.201899
1879.000000	22.639753
1878.000000	23.112520
1877.000000	23.564648
1876.000000	24.004248
1875.000000	24.433066
1874.000000	24.844735
1873.000000	25.246443
1872.000000	25.635419
1871.000000	25.988557
1870.000000	26.331016
1869.000000	26.627060
1868.000000	26.923105
1867.000000	27.152917
1866.000000	27.369071
1865.000000	27.523203
1864.000000	27.695100
1863.000000	27.848000
1862.000000	27.987448
1861.000000	28.166430
1860.000000	28.340175
1859.000000	28.496258
1858.000000	28.618352
1857.000000	28.718574
1856.000000	28.805138
1855.000000	28.877224
1854.000000	28.959784
1853.000000	29.017802
1852.000000	29.051996
1851.000000	29.090504
1850.000000	29.126854
1849.000000	29.168956
1848.000000	29.215267
1847.000000	29.250078
1846.000000	29.239809
1845.000000	29.194217
1844.000000	29.185078
1843.000000	29.173577
1842.000000	29.216500
1841.000000	29.241350
1840.000000	29.205307
1839.000000	29.195962
1838.000000	29.184667
1837.000000	29.176863
1836.000000	29.152321
1835.000000	29.121515
1834.000000	29.070890
1833.000000	29.026427
1832.000000	28.977857
1831.000000	28.953931
1830.000000	28.934420
1829.000000	28.890779
1828.000000	28.843030
1827.000000	28.800107
1826.000000	28.754103
1825.000000	28.720525
1824.000000	28.684379
1823.000000	28.658502
1822.000000	28.671749
1821.000000	28.680785
1820.000000	28.668668
1819.000000	28.632523
1818.000000	28.583336
1817.000000	28.550374
1816.000000	28.544829
1815.000000	28.542672
1814.000000	28.522340
1813.000000	28.494513
1812.000000	28.477877
1811.000000	28.461653
1810.000000	28.423454
1809.000000	28.377861
1808.000000	28.343050
1807.000000	28.314709
1806.000000	28.293247
1805.000000	28.255972
1804.000000	28.205759
1803.000000	28.167046
1802.000000	28.144455
1801.000000	28.121351
1800.000000	28.076374
1799.000000	28.009115
1798.000000	27.966089
1797.000000	27.934975
1796.000000	27.890717
1795.000000	27.850464
1794.000000	27.805898
1793.000000	27.764721
1792.000000	27.737407
1791.000000	27.706395
1790.000000	27.654950
1789.000000	27.610178
1788.000000	27.593543
1787.000000	27.563559
1786.000000	27.523203
1785.000000	27.492705
1784.000000	27.460565
1783.000000	27.407784
1782.000000	27.349355
1781.000000	27.313107
1780.000000	27.264434
1779.000000	27.212372
1778.000000	27.161748
1777.000000	27.105784
1776.000000	27.052900
1775.000000	26.987386
1774.000000	26.928650
1773.000000	26.854818
1772.000000	26.772567
1771.000000	26.700173
1770.000000	26.621412
1769.000000	26.543782
1768.000000	26.470053
1767.000000	26.398481
1766.000000	26.330194
1765.000000	26.269096
1764.000000	26.233772
1763.000000	26.218985
1762.000000	26.220833
1761.000000	26.234183
1760.000000	26.261805
1759.000000	26.291173
1758.000000	26.331529
1757.000000	26.378868
1756.000000	26.434215
1755.000000	26.480630
1754.000000	26.539469
1753.000000	26.584137
1752.000000	26.609501
1751.000000	26.630038
1750.000000	26.636507
1749.000000	26.626958
1748.000000	26.619667
1747.000000	26.594201
1746.000000	26.551997
1745.000000	26.504966
1744.000000	26.426411
1743.000000	26.327422
1742.000000	26.221141
1741.000000	26.092886
1740.000000	25.961859
1739.000000	25.811423
1738.000000	25.665609
1737.000000	25.501516
1736.000000	25.373672
1735.000000	25.241412
1734.000000	25.157004
1733.000000	25.087793
1732.000000	25.030392
1731.000000	25.023614
1730.000000	25.026900
1729.000000	25.049491
1728.000000	25.072596
1727.000000	25.109665
1726.000000	25.159879
1725.000000	25.199824
1724.000000	25.239153
1723.000000	25.287210
1722.000000	25.351183
1721.000000	25.426658
1720.000000	25.517227
1719.000000	25.613650
1718.000000	25.705246
1717.000000	25.820152
1716.000000	25.928588
1715.000000	26.056125
1714.000000	26.157681
1713.000000	26.276181
1712.000000	26.389444
1711.000000	26.478576
1710.000000	26.558363
1709.000000	26.618845
1708.000000	26.652732
1707.000000	26.669162
1706.000000	26.691136
1705.000000	26.684051
1704.000000	26.682203
1703.000000	26.641334
1702.000000	26.583932
1701.000000	26.527352
1700.000000	26.451569
1699.000000	26.357406
1698.000000	26.252974
1697.000000	26.171441
1696.000000	26.075430
1695.000000	26.018850
1694.000000	25.979213
1693.000000	25.964631
1692.000000	25.988968
1691.000000	26.016180
1690.000000	26.054482
1689.000000	26.123179
1688.000000	26.174727
1687.000000	26.217753
1686.000000	26.280699
1685.000000	26.378457
1684.000000	26.446538
1683.000000	26.562881
1682.000000	26.737345
1681.000000	26.955040
1680.000000	27.233012
1679.000000	27.554728
1678.000000	27.849951
1677.000000	28.167559
1676.000000	28.483833
1675.000000	28.770122
1674.000000	29.034540
1673.000000	29.252132
1672.000000	29.474961
1671.000000	29.653224
1670.000000	29.837341
1669.000000	29.997223
1668.000000	30.148583
1667.000000	30.262462
1666.000000	30.342968
1665.000000	30.443190
1664.000000	30.550702
1663.000000	30.643120
1662.000000	30.723934
1661.000000	30.784313
1660.000000	30.866462
1659.000000	30.910720
1658.000000	30.959085
1657.000000	30.972537
1656.000000	31.003959
1655.000000	31.036511
1654.000000	31.037640
1653.000000	31.042364
1652.000000	31.055816
1651.000000	31.031171
1650.000000	31.020081
1649.000000	31.008375
1648.000000	30.976850
1647.000000	30.940397
1646.000000	30.894598
1645.000000	30.852086
1644.000000	30.833192
1643.000000	30.798998
1642.000000	30.769321
1641.000000	30.719108
1640.000000	30.666327
1639.000000	30.632235
1638.000000	30.574833
1637.000000	30.525236
1636.000000	30.488885
1635.000000	30.420188
1634.000000	30.373466
1633.000000	30.294911
1632.000000	30.238639
1631.000000	30.178156
1630.000000	30.124143
1629.000000	30.034396
1628.000000	29.968163
1627.000000	29.903984
1626.000000	29.835492
1625.000000	29.746771
1624.000000	29.680950
1623.000000	29.627655
1622.000000	29.539037
1621.000000	29.475474
1620.000000	29.401848
1619.000000	29.331714
1618.000000	29.266610
1617.000000	29.217732
1616.000000	29.125314
