PE UV       SUBTECH     SPECTRUM    ASCII       PEDS        4.00        
   -1
CICIMAUCR0260-2.Sample.ASC
24/07/01
11:36:37.00
24/07/01
11:36:37.00
Vinicio Soto Monge
C. resplendens. Sex F. Dorsal.
250,000000
1
Lambda 1050
1050L1511233
PerkinElmer UV WinLab 6.3.2.0749 / 2.02.05 Lambda 900 UV/VIS/NIR, Aug  7 2015 09:38:08

0
0
3350/servo 860,8/2
0
0
UV/VIS
1
1
1
DoubleDePol,CommonBeamDepol,RBeamAtt,SBeamAtt,60mm sphere, WB InGaAs Detector
0
0
0
0
Program
Program
3350/servo 860,8/2
3350/0,2 860,8/0,2
3350/0,2 860,8/0,2
0
15.00
 
 
 
0
 
860,8
319,2
860,8
Front
100
on
S:100 R:100
0
0
0
0
 
0
 
 
 
0
 
 
0
0
0
0
0
 
 
 
 
0
0


0
0
#HDR
-1
-1
#GR
nm
%R
1.0
0.0
2500,000000
-1,000000
2251
8
91,591200
5,627200
#DATA
2500.000000	9.032314
2499.000000	9.084755
2498.000000	9.058938
2497.000000	9.095243
2496.000000	9.062972
2495.000000	9.062367
2494.000000	9.092218
2493.000000	9.036752
2492.000000	8.971402
2491.000000	8.939131
2490.000000	8.979470
2489.000000	8.944879
2488.000000	9.025053
2487.000000	8.969083
2486.000000	8.932475
2485.000000	8.907465
2484.000000	8.954662
2483.000000	8.926626
2482.000000	8.926324
2481.000000	8.956981
2480.000000	8.982496
2479.000000	8.987740
2478.000000	8.986933
2477.000000	9.037861
2476.000000	9.029491
2475.000000	9.014464
2474.000000	9.034029
2473.000000	9.009926
2472.000000	9.008817
2471.000000	8.994799
2470.000000	9.032012
2469.000000	9.033424
2468.000000	9.058232
2467.000000	9.092319
2466.000000	9.115514
2465.000000	9.123884
2464.000000	9.169971
2463.000000	9.170375
2462.000000	9.212428
2461.000000	9.256499
2460.000000	9.292501
2459.000000	9.300468
2458.000000	9.330924
2457.000000	9.391836
2456.000000	9.443773
2455.000000	9.508517
2454.000000	9.565899
2453.000000	9.594136
2452.000000	9.672091
2451.000000	9.727558
2450.000000	9.798554
2449.000000	9.840104
2448.000000	9.911504
2447.000000	9.986938
2446.000000	10.030201
2445.000000	10.093029
2444.000000	10.155958
2443.000000	10.242990
2442.000000	10.283329
2441.000000	10.336375
2440.000000	10.420280
2439.000000	10.479175
2438.000000	10.553500
2437.000000	10.607756
2436.000000	10.674214
2435.000000	10.742790
2434.000000	10.797450
2433.000000	10.844142
2432.000000	10.908786
2431.000000	10.988455
2430.000000	11.033131
2429.000000	11.092732
2428.000000	11.143962
2427.000000	11.201950
2426.000000	11.259332
2425.000000	11.311571
2424.000000	11.358969
2423.000000	11.396585
2422.000000	11.449430
2421.000000	11.495719
2420.000000	11.543218
2419.000000	11.584666
2418.000000	11.637208
2417.000000	11.660403
2416.000000	11.699632
2415.000000	11.745518
2414.000000	11.778294
2413.000000	11.819339
2412.000000	11.854131
2411.000000	11.888520
2410.000000	11.938944
2409.000000	11.968694
2408.000000	11.992796
2407.000000	12.032530
2406.000000	12.063087
2405.000000	12.093644
2404.000000	12.154153
2403.000000	12.196307
2402.000000	12.219603
2401.000000	12.263774
2400.000000	12.289793
2399.000000	12.315408
2398.000000	12.346570
2397.000000	12.367344
2396.000000	12.401935
2395.000000	12.429366
2394.000000	12.455384
2393.000000	12.471823
2392.000000	12.501472
2391.000000	12.526381
2390.000000	12.551896
2389.000000	12.578519
2388.000000	12.594957
2387.000000	12.610286
2386.000000	12.630758
2385.000000	12.654357
2384.000000	12.663332
2383.000000	12.682695
2382.000000	12.687233
2381.000000	12.694696
2380.000000	12.711537
2379.000000	12.721622
2378.000000	12.721420
2377.000000	12.711537
2376.000000	12.728177
2375.000000	12.732816
2374.000000	12.724849
2373.000000	12.707907
2372.000000	12.698629
2371.000000	12.699839
2370.000000	12.691166
2369.000000	12.680275
2368.000000	12.667669
2367.000000	12.656172
2366.000000	12.649516
2365.000000	12.639330
2364.000000	12.616337
2363.000000	12.598588
2362.000000	12.584873
2361.000000	12.549072
2360.000000	12.517910
2359.000000	12.509237
2358.000000	12.480294
2357.000000	12.463452
2356.000000	12.454779
2355.000000	12.423718
2354.000000	12.401733
2353.000000	12.380152
2352.000000	12.371681
2351.000000	12.381866
2350.000000	12.388220
2349.000000	12.387716
2348.000000	12.403145
2347.000000	12.430979
2346.000000	12.456191
2345.000000	12.480899
2344.000000	12.511052
2343.000000	12.552299
2342.000000	12.584974
2341.000000	12.622287
2340.000000	12.646188
2339.000000	12.655970
2338.000000	12.682897
2337.000000	12.718798
2336.000000	12.754398
2335.000000	12.760953
2334.000000	12.758331
2333.000000	12.774970
2332.000000	12.790400
2331.000000	12.787677
2330.000000	12.786568
2329.000000	12.775071
2328.000000	12.766499
2327.000000	12.748246
2326.000000	12.721723
2325.000000	12.701352
2324.000000	12.680678
2323.000000	12.654256
2322.000000	12.623497
2321.000000	12.558350
2320.000000	12.504396
2319.000000	12.469906
2318.000000	12.416659
2317.000000	12.333863
2316.000000	12.263976
2315.000000	12.203265
2314.000000	12.134790
2313.000000	12.070449
2312.000000	12.000965
2311.000000	11.925733
2310.000000	11.857963
2309.000000	11.807035
2308.000000	11.757721
2307.000000	11.728979
2306.000000	11.698120
2305.000000	11.688741
2304.000000	11.680875
2303.000000	11.692977
2302.000000	11.713549
2301.000000	11.746123
2300.000000	11.787269
2299.000000	11.858367
2298.000000	11.913329
2297.000000	11.972728
2296.000000	12.046952
2295.000000	12.120470
2294.000000	12.193181
2293.000000	12.265690
2292.000000	12.322366
2291.000000	12.393161
2290.000000	12.441568
2289.000000	12.483117
2288.000000	12.528095
2287.000000	12.554518
2286.000000	12.588806
2285.000000	12.603126
2284.000000	12.588907
2283.000000	12.588604
2282.000000	12.569746
2281.000000	12.559862
2280.000000	12.541508
2279.000000	12.510750
2278.000000	12.489673
2277.000000	12.459822
2276.000000	12.421096
2275.000000	12.372286
2274.000000	12.356251
2273.000000	12.340922
2272.000000	12.310668
2271.000000	12.294028
2270.000000	12.300583
2269.000000	12.315408
2268.000000	12.339410
2267.000000	12.362100
2266.000000	12.415146
2265.000000	12.520330
2264.000000	12.603227
2263.000000	12.694191
2262.000000	12.813898
2261.000000	12.936528
2260.000000	13.106961
2259.000000	13.277897
2258.000000	13.445607
2257.000000	13.628847
2256.000000	13.839921
2255.000000	14.021951
2254.000000	14.202972
2253.000000	14.405374
2252.000000	14.598093
2251.000000	14.808461
2250.000000	15.000576
2249.000000	15.161831
2248.000000	15.325608
2247.000000	15.510865
2246.000000	15.638336
2245.000000	15.780128
2244.000000	15.905885
2243.000000	16.029726
2242.000000	16.141667
2241.000000	16.245943
2240.000000	16.323999
2239.000000	16.421519
2238.000000	16.487675
2237.000000	16.577631
2236.000000	16.633904
2235.000000	16.671217
2234.000000	16.739290
2233.000000	16.764401
2232.000000	16.818556
2231.000000	16.843566
2230.000000	16.855063
2229.000000	16.880274
2228.000000	16.897923
2227.000000	16.889048
2226.000000	16.922328
2225.000000	16.912142
2224.000000	16.883905
2223.000000	16.870089
2222.000000	16.855365
2221.000000	16.815329
2220.000000	16.789612
2219.000000	16.748668
2218.000000	16.709338
2217.000000	16.691084
2216.000000	16.662948
2215.000000	16.621197
2214.000000	16.584993
2213.000000	16.530232
2212.000000	16.512887
2211.000000	16.485759
2210.000000	16.462059
2209.000000	16.427973
2208.000000	16.409518
2207.000000	16.366758
2206.000000	16.339731
2205.000000	16.331865
2204.000000	16.284971
2203.000000	16.285173
2202.000000	16.263793
2201.000000	16.241909
2200.000000	16.235152
2199.000000	16.214176
2198.000000	16.195822
2197.000000	16.182409
2196.000000	16.184123
2195.000000	16.167988
2194.000000	16.161634
2193.000000	16.148121
2192.000000	16.127346
2191.000000	16.116455
2190.000000	16.101832
2189.000000	16.103950
2188.000000	16.084083
2187.000000	16.081158
2186.000000	16.076922
2185.000000	16.050702
2184.000000	16.029928
2183.000000	16.007741
2182.000000	16.019238
2181.000000	16.005724
2180.000000	15.990395
2179.000000	15.974260
2178.000000	15.948039
2177.000000	15.928677
2176.000000	15.939467
2175.000000	15.925147
2174.000000	15.909717
2173.000000	15.919802
2172.000000	15.916676
2171.000000	15.916071
2170.000000	15.929887
2169.000000	15.938055
2168.000000	15.928273
2167.000000	15.941383
2166.000000	15.952174
2165.000000	15.949451
2164.000000	15.980916
2163.000000	15.996446
2162.000000	16.032449
2161.000000	16.058064
2160.000000	16.067947
2159.000000	16.107782
2158.000000	16.136221
2157.000000	16.168391
2156.000000	16.199351
2155.000000	16.239287
2154.000000	16.261877
2153.000000	16.318957
2152.000000	16.373112
2151.000000	16.413955
2150.000000	16.469825
2149.000000	16.520148
2148.000000	16.547982
2147.000000	16.583379
2146.000000	16.637333
2145.000000	16.677268
2144.000000	16.720431
2143.000000	16.773981
2142.000000	16.820169
2141.000000	16.863231
2140.000000	16.905486
2139.000000	16.936043
2138.000000	16.989694
2137.000000	17.015309
2136.000000	17.046270
2135.000000	17.069162
2134.000000	17.107081
2133.000000	17.128965
2132.000000	17.160127
2131.000000	17.183221
2130.000000	17.194011
2129.000000	17.216198
2128.000000	17.241611
2127.000000	17.255831
2126.000000	17.268134
2125.000000	17.272572
2124.000000	17.283463
2123.000000	17.288405
2122.000000	17.305448
2121.000000	17.286690
2120.000000	17.280438
2119.000000	17.287699
2118.000000	17.281648
2117.000000	17.274387
2116.000000	17.256537
2115.000000	17.234754
2114.000000	17.214887
2113.000000	17.202886
2112.000000	17.191087
2111.000000	17.193507
2110.000000	17.186044
2109.000000	17.160227
2108.000000	17.125233
2107.000000	17.104761
2106.000000	17.093063
2105.000000	17.079953
2104.000000	17.052825
2103.000000	17.020352
2102.000000	17.000384
2101.000000	16.969424
2100.000000	16.931303
2099.000000	16.924950
2098.000000	16.927169
2097.000000	16.896108
2096.000000	16.874425
2095.000000	16.863332
2094.000000	16.844070
2093.000000	16.824102
2092.000000	16.808168
2091.000000	16.805244
2090.000000	16.795260
2089.000000	16.771561
2088.000000	16.755123
2087.000000	16.755223
2086.000000	16.750383
2085.000000	16.725473
2084.000000	16.701068
2083.000000	16.671822
2082.000000	16.662242
2081.000000	16.634509
2080.000000	16.585094
2079.000000	16.549999
2078.000000	16.529224
2077.000000	16.490398
2076.000000	16.441285
2075.000000	16.411837
2074.000000	16.379465
2073.000000	16.324806
2072.000000	16.274180
2071.000000	16.222950
2070.000000	16.156189
2069.000000	16.094974
2068.000000	16.055442
2067.000000	15.997253
2066.000000	15.935534
2065.000000	15.877748
2064.000000	15.809374
2063.000000	15.757336
2062.000000	15.701870
2061.000000	15.648824
2060.000000	15.613629
2059.000000	15.570970
2058.000000	15.529824
2057.000000	15.510865
2056.000000	15.474459
2055.000000	15.439767
2054.000000	15.430691
2053.000000	15.440171
2052.000000	15.445919
2051.000000	15.465484
2050.000000	15.489687
2049.000000	15.504713
2048.000000	15.558868
2047.000000	15.599813
2046.000000	15.633092
2045.000000	15.705501
2044.000000	15.765001
2043.000000	15.826720
2042.000000	15.870487
2041.000000	15.928273
2040.000000	16.005220
2039.000000	16.050702
2038.000000	16.090033
2037.000000	16.144793
2036.000000	16.188662
2035.000000	16.234749
2034.000000	16.280332
2033.000000	16.311998
2032.000000	16.335597
2031.000000	16.362422
2030.000000	16.376339
2029.000000	16.394592
2028.000000	16.415871
2027.000000	16.434730
2026.000000	16.440982
2025.000000	16.442092
2024.000000	16.461555
2023.000000	16.453387
2022.000000	16.465791
2021.000000	16.464480
2020.000000	16.434730
2019.000000	16.429082
2018.000000	16.428477
2017.000000	16.421922
2016.000000	16.388037
2015.000000	16.368473
2014.000000	16.363834
2013.000000	16.342353
2012.000000	16.314822
2011.000000	16.275491
2010.000000	16.223857
2009.000000	16.213168
2008.000000	16.192595
2007.000000	16.153365
2006.000000	16.106471
2005.000000	16.049694
2004.000000	16.006934
2003.000000	15.954594
2002.000000	15.903162
2001.000000	15.844973
2000.000000	15.793440
1999.000000	15.721636
1998.000000	15.662842
1997.000000	15.620587
1996.000000	15.553826
1995.000000	15.464072
1994.000000	15.401950
1993.000000	15.328835
1992.000000	15.274276
1991.000000	15.196624
1990.000000	15.118064
1989.000000	15.052109
1988.000000	14.975062
1987.000000	14.890955
1986.000000	14.820765
1985.000000	14.744726
1984.000000	14.667073
1983.000000	14.586092
1982.000000	14.499565
1981.000000	14.427963
1980.000000	14.343554
1979.000000	14.249665
1978.000000	14.164449
1977.000000	14.095671
1976.000000	14.021548
1975.000000	13.960434
1974.000000	13.879252
1973.000000	13.794943
1972.000000	13.721829
1971.000000	13.619267
1970.000000	13.551900
1969.000000	13.511360
1968.000000	13.431690
1967.000000	13.343953
1966.000000	13.282133
1965.000000	13.206699
1964.000000	13.163839
1963.000000	13.119466
1962.000000	13.007828
1961.000000	12.928864
1960.000000	12.889231
1959.000000	12.809864
1958.000000	12.753591
1957.000000	12.692175
1956.000000	12.629145
1955.000000	12.570351
1954.000000	12.503287
1953.000000	12.431181
1952.000000	12.370773
1951.000000	12.333460
1950.000000	12.302499
1949.000000	12.253689
1948.000000	12.184508
1947.000000	12.145379
1946.000000	12.112906
1945.000000	12.067121
1944.000000	12.014580
1943.000000	12.009739
1942.000000	11.967484
1941.000000	11.933801
1940.000000	11.898504
1939.000000	11.893966
1938.000000	11.858165
1937.000000	11.873292
1936.000000	11.867645
1935.000000	11.844147
1934.000000	11.864720
1933.000000	11.897899
1932.000000	11.904151
1931.000000	11.925531
1930.000000	11.948222
1929.000000	11.979686
1928.000000	12.014479
1927.000000	12.076601
1926.000000	12.116536
1925.000000	12.211535
1924.000000	12.311071
1923.000000	12.358167
1922.000000	12.440963
1921.000000	12.533844
1920.000000	12.651432
1919.000000	12.762667
1918.000000	12.854539
1917.000000	13.025173
1916.000000	13.146594
1915.000000	13.263577
1914.000000	13.392359
1913.000000	13.577616
1912.000000	13.748251
1911.000000	13.919288
1910.000000	14.079434
1909.000000	14.270540
1908.000000	14.457814
1907.000000	14.656686
1906.000000	14.863322
1905.000000	15.108281
1904.000000	15.327625
1903.000000	15.564213
1902.000000	15.828232
1901.000000	16.079444
1900.000000	16.378961
1899.000000	16.705203
1898.000000	17.050404
1897.000000	17.402564
1896.000000	17.713477
1895.000000	18.043652
1894.000000	18.389761
1893.000000	18.758662
1892.000000	19.106485
1891.000000	19.541340
1890.000000	19.955017
1889.000000	20.368895
1888.000000	20.791346
1887.000000	21.243748
1886.000000	21.688083
1885.000000	22.147746
1884.000000	22.636252
1883.000000	23.127682
1882.000000	23.578572
1881.000000	24.047312
1880.000000	24.541162
1879.000000	24.964823
1878.000000	25.392013
1877.000000	25.833323
1876.000000	26.222897
1875.000000	26.573040
1874.000000	26.958479
1873.000000	27.328489
1872.000000	27.648983
1871.000000	27.949710
1870.000000	28.255077
1869.000000	28.503364
1868.000000	28.811554
1867.000000	29.048344
1866.000000	29.258611
1865.000000	29.448507
1864.000000	29.643748
1863.000000	29.849780
1862.000000	30.025860
1861.000000	30.183989
1860.000000	30.329008
1859.000000	30.457992
1858.000000	30.546032
1857.000000	30.648392
1856.000000	30.756904
1855.000000	30.816606
1854.000000	30.888510
1853.000000	30.943775
1852.000000	30.960011
1851.000000	31.015175
1850.000000	31.099382
1849.000000	31.170883
1848.000000	31.192566
1847.000000	31.151521
1846.000000	31.105938
1845.000000	31.075280
1844.000000	31.098071
1843.000000	31.139520
1842.000000	31.204062
1841.000000	31.223425
1840.000000	31.182078
1839.000000	31.141738
1838.000000	31.107551
1837.000000	31.081129
1836.000000	31.059850
1835.000000	31.025260
1834.000000	30.984416
1833.000000	30.953859
1832.000000	30.935505
1831.000000	30.938732
1830.000000	30.909991
1829.000000	30.861786
1828.000000	30.820135
1827.000000	30.762854
1826.000000	30.707892
1825.000000	30.676428
1824.000000	30.652023
1823.000000	30.657267
1822.000000	30.682882
1821.000000	30.690546
1820.000000	30.631450
1819.000000	30.567311
1818.000000	30.525963
1817.000000	30.511239
1816.000000	30.514769
1815.000000	30.517694
1814.000000	30.507004
1813.000000	30.491675
1812.000000	30.479472
1811.000000	30.452849
1810.000000	30.412308
1809.000000	30.376003
1808.000000	30.365817
1807.000000	30.349883
1806.000000	30.329714
1805.000000	30.294820
1804.000000	30.248834
1803.000000	30.215352
1802.000000	30.186207
1801.000000	30.160088
1800.000000	30.118438
1799.000000	30.058131
1798.000000	30.022431
1797.000000	30.002867
1796.000000	29.965150
1795.000000	29.944778
1794.000000	29.920272
1793.000000	29.875093
1792.000000	29.835056
1791.000000	29.789070
1790.000000	29.753672
1789.000000	29.733402
1788.000000	29.720392
1787.000000	29.690642
1786.000000	29.664825
1785.000000	29.638605
1784.000000	29.586769
1783.000000	29.550162
1782.000000	29.519504
1781.000000	29.472610
1780.000000	29.431061
1779.000000	29.396873
1778.000000	29.348063
1777.000000	29.300766
1776.000000	29.252056
1775.000000	29.208591
1774.000000	29.159075
1773.000000	29.095440
1772.000000	29.054597
1771.000000	29.005786
1770.000000	28.949009
1769.000000	28.884366
1768.000000	28.814983
1767.000000	28.766072
1766.000000	28.720287
1765.000000	28.667543
1764.000000	28.630936
1763.000000	28.622969
1762.000000	28.605522
1761.000000	28.617019
1760.000000	28.635171
1759.000000	28.672082
1758.000000	28.707580
1757.000000	28.752255
1756.000000	28.802276
1755.000000	28.845136
1754.000000	28.885979
1753.000000	28.926016
1752.000000	28.955161
1751.000000	28.986323
1750.000000	28.997618
1749.000000	28.994491
1748.000000	28.986928
1747.000000	28.967968
1746.000000	28.936807
1745.000000	28.895762
1744.000000	28.842716
1743.000000	28.786645
1742.000000	28.711110
1741.000000	28.613590
1740.000000	28.503263
1739.000000	28.383254
1738.000000	28.276356
1737.000000	28.151204
1736.000000	28.038860
1735.000000	27.941340
1734.000000	27.860864
1733.000000	27.794304
1732.000000	27.761327
1731.000000	27.745998
1730.000000	27.749830
1729.000000	27.773933
1728.000000	27.818608
1727.000000	27.856628
1726.000000	27.897370
1725.000000	27.937911
1724.000000	27.980570
1723.000000	28.033414
1722.000000	28.087569
1721.000000	28.138497
1720.000000	28.192450
1719.000000	28.244690
1718.000000	28.304391
1717.000000	28.393541
1716.000000	28.468067
1715.000000	28.559031
1714.000000	28.651811
1713.000000	28.740456
1712.000000	28.827488
1711.000000	28.904233
1710.000000	28.967868
1709.000000	29.025452
1708.000000	29.037049
1707.000000	29.050764
1706.000000	29.065791
1705.000000	29.057723
1704.000000	29.041789
1703.000000	29.008106
1702.000000	28.970288
1701.000000	28.899493
1700.000000	28.836967
1699.000000	28.756289
1698.000000	28.670871
1697.000000	28.573150
1696.000000	28.498725
1695.000000	28.415929
1694.000000	28.408769
1693.000000	28.407458
1692.000000	28.411290
1691.000000	28.464941
1690.000000	28.538358
1689.000000	28.619742
1688.000000	28.689226
1687.000000	28.753062
1686.000000	28.821235
1685.000000	28.892333
1684.000000	28.963330
1683.000000	29.067102
1682.000000	29.222609
1681.000000	29.397680
1680.000000	29.623982
1679.000000	29.877916
1678.000000	30.187216
1677.000000	30.482397
1676.000000	30.775763
1675.000000	31.063783
1674.000000	31.322457
1673.000000	31.576795
1672.000000	31.769515
1671.000000	31.956184
1670.000000	32.074175
1669.000000	32.252171
1668.000000	32.389324
1667.000000	32.507820
1666.000000	32.603827
1665.000000	32.693178
1664.000000	32.761553
1663.000000	32.832549
1662.000000	32.896184
1661.000000	32.957802
1660.000000	32.992695
1659.000000	33.049876
1658.000000	33.087694
1657.000000	33.122083
1656.000000	33.135798
1655.000000	33.150421
1654.000000	33.164540
1653.000000	33.152942
1652.000000	33.145479
1651.000000	33.179163
1650.000000	33.135395
1649.000000	33.123797
1648.000000	33.115225
1647.000000	33.087089
1646.000000	33.082349
1645.000000	33.040598
1644.000000	33.025067
1643.000000	32.986846
1642.000000	32.939649
1641.000000	32.907378
1640.000000	32.875510
1639.000000	32.825288
1638.000000	32.809455
1637.000000	32.768209
1636.000000	32.735836
1635.000000	32.675328
1634.000000	32.644872
1633.000000	32.580329
1632.000000	32.518308
1631.000000	32.480087
1630.000000	32.430571
1629.000000	32.377727
1628.000000	32.308848
1627.000000	32.249549
1626.000000	32.186822
1625.000000	32.132566
1624.000000	32.063586
1623.000000	32.026979
