PE UV       SUBTECH     SPECTRUM    ASCII       PEDS        4.00        
   -1
CICIMAUCR0244-1.Sample.ASC
24/06/20
16:35:49.00
24/06/20
16:35:49.00
Vinicio Soto Monge
C. cupreomarginata. Sex M
250,000000
1
Lambda 1050
1050L1511233
PerkinElmer UV WinLab 6.3.2.0749 / 2.02.05 Lambda 900 UV/VIS/NIR, Aug  7 2015 09:38:08

0
0
3350/servo 860,8/2
0
0
UV/VIS
1
1
1
DoubleDePol,CommonBeamDepol,RBeamAtt,SBeamAtt,60mm sphere, WB InGaAs Detector
0
0
0
0
Program
Program
3350/servo 860,8/2
3350/0,2 860,8/0,2
3350/0,2 860,8/0,2
0
15.00
 
 
 
0
 
860,8
319,2
860,8
Front
100
on
S:100 R:100
0
0
0
0
 
0
 
 
 
0
 
 
0
0
0
0
0
 
 
 
 
0
0


0
0
#HDR
-1
-1
#GR
nm
%R
1.0
0.0
2500,000000
-1,000000
2251
8
72,054300
5,243500
#DATA
2500.000000	7.515585
2499.000000	7.756611
2498.000000	7.687893
2497.000000	7.735955
2496.000000	7.666623
2495.000000	7.639421
2494.000000	7.605471
2493.000000	7.558636
2492.000000	7.581440
2491.000000	7.567840
2490.000000	7.572032
2489.000000	7.588905
2488.000000	7.518959
2487.000000	7.455763
2486.000000	7.452388
2485.000000	7.456376
2484.000000	7.501166
2483.000000	7.458626
2482.000000	7.524788
2481.000000	7.441549
2480.000000	7.483066
2479.000000	7.468852
2478.000000	7.429789
2477.000000	7.439503
2476.000000	7.429891
2475.000000	7.547183
2474.000000	7.513437
2473.000000	7.538696
2472.000000	7.481635
2471.000000	7.517323
2470.000000	7.525402
2469.000000	7.466909
2468.000000	7.461694
2467.000000	7.501371
2466.000000	7.534196
2465.000000	7.519062
2464.000000	7.534810
2463.000000	7.526527
2462.000000	7.586451
2461.000000	7.611402
2460.000000	7.619583
2459.000000	7.640546
2458.000000	7.671429
2457.000000	7.702004
2456.000000	7.707117
2455.000000	7.774302
2454.000000	7.816331
2453.000000	7.835760
2452.000000	7.875744
2451.000000	7.931680
2450.000000	7.971357
2449.000000	7.996104
2448.000000	8.040280
2447.000000	8.073412
2446.000000	8.135075
2445.000000	8.180376
2444.000000	8.224552
2443.000000	8.253083
2442.000000	8.304621
2441.000000	8.360353
2440.000000	8.412812
2439.000000	8.441138
2438.000000	8.461590
2437.000000	8.526321
2436.000000	8.567327
2435.000000	8.590744
2434.000000	8.647192
2433.000000	8.667235
2432.000000	8.691675
2431.000000	8.758655
2430.000000	8.803547
2429.000000	8.805183
2428.000000	8.813364
2427.000000	8.867153
2426.000000	8.884332
2425.000000	8.912556
2424.000000	8.951722
2423.000000	8.974219
2422.000000	8.970231
2421.000000	9.007351
2420.000000	9.049686
2419.000000	9.056129
2418.000000	9.073718
2417.000000	9.113906
2416.000000	9.133846
2415.000000	9.151537
2414.000000	9.176080
2413.000000	9.173319
2412.000000	9.202974
2411.000000	9.234061
2410.000000	9.238049
2409.000000	9.258501
2408.000000	9.283861
2407.000000	9.294701
2406.000000	9.313312
2405.000000	9.328651
2404.000000	9.347569
2403.000000	9.375077
2402.000000	9.396552
2401.000000	9.398392
2400.000000	9.422628
2399.000000	9.427025
2398.000000	9.459339
2397.000000	9.472735
2396.000000	9.475599
2395.000000	9.477030
2394.000000	9.492471
2393.000000	9.504231
2392.000000	9.512821
2391.000000	9.528160
2390.000000	9.539715
2389.000000	9.548408
2388.000000	9.551475
2387.000000	9.552191
2386.000000	9.555157
2385.000000	9.548612
2384.000000	9.557713
2383.000000	9.556384
2382.000000	9.549839
2381.000000	9.563542
2380.000000	9.559963
2379.000000	9.533273
2378.000000	9.521820
2377.000000	9.519877
2376.000000	9.506174
2375.000000	9.489813
2374.000000	9.475190
2373.000000	9.473656
2372.000000	9.456681
2371.000000	9.423037
2370.000000	9.396347
2369.000000	9.378043
2368.000000	9.355341
2367.000000	9.324663
2366.000000	9.294701
2365.000000	9.259524
2364.000000	9.219233
2363.000000	9.180988
2362.000000	9.146629
2361.000000	9.109406
2360.000000	9.063594
2359.000000	9.010930
2358.000000	8.981684
2357.000000	8.956221
2356.000000	8.925032
2355.000000	8.896297
2354.000000	8.875845
2353.000000	8.849257
2352.000000	8.831669
2351.000000	8.831771
2350.000000	8.845883
2349.000000	8.855291
2348.000000	8.861324
2347.000000	8.873391
2346.000000	8.893433
2345.000000	8.930452
2344.000000	8.957653
2343.000000	8.968594
2342.000000	8.987206
2341.000000	9.021463
2340.000000	9.049277
2339.000000	9.073615
2338.000000	9.096931
2337.000000	9.104395
2336.000000	9.120859
2335.000000	9.125563
2334.000000	9.114928
2333.000000	9.118916
2332.000000	9.106747
2331.000000	9.082410
2330.000000	9.067889
2329.000000	9.033325
2328.000000	8.995693
2327.000000	8.962663
2326.000000	8.910920
2325.000000	8.866539
2324.000000	8.819704
2323.000000	8.773483
2322.000000	8.714990
2321.000000	8.650771
2320.000000	8.583382
2319.000000	8.501267
2318.000000	8.434287
2317.000000	8.351661
2316.000000	8.263104
2315.000000	8.190397
2314.000000	8.121883
2313.000000	8.039564
2312.000000	7.970539
2311.000000	7.900695
2310.000000	7.849974
2309.000000	7.795470
2308.000000	7.766735
2307.000000	7.735137
2306.000000	7.716321
2305.000000	7.710492
2304.000000	7.716423
2303.000000	7.739738
2302.000000	7.770212
2301.000000	7.823591
2300.000000	7.855701
2299.000000	7.907547
2298.000000	7.991809
2297.000000	8.045291
2296.000000	8.102658
2295.000000	8.162378
2294.000000	8.230790
2293.000000	8.287646
2292.000000	8.329777
2291.000000	8.388781
2290.000000	8.429174
2289.000000	8.444104
2288.000000	8.472532
2287.000000	8.467419
2286.000000	8.469873
2285.000000	8.472021
2284.000000	8.465885
2283.000000	8.441956
2282.000000	8.429072
2281.000000	8.386941
2280.000000	8.371090
2279.000000	8.367409
2278.000000	8.323744
2277.000000	8.286317
2276.000000	8.261366
2275.000000	8.252878
2274.000000	8.241016
2273.000000	8.227313
2272.000000	8.217189
2271.000000	8.216678
2270.000000	8.240198
2269.000000	8.273841
2268.000000	8.300531
2267.000000	8.353911
2266.000000	8.419766
2265.000000	8.499222
2264.000000	8.583689
2263.000000	8.668973
2262.000000	8.804979
2261.000000	8.927793
2260.000000	9.084557
2259.000000	9.224142
2258.000000	9.396449
2257.000000	9.576018
2256.000000	9.742190
2255.000000	9.922678
2254.000000	10.102758
2253.000000	10.294904
2252.000000	10.459542
2251.000000	10.627351
2250.000000	10.804260
2249.000000	10.959491
2248.000000	11.077908
2247.000000	11.229559
2246.000000	11.377120
2245.000000	11.512409
2244.000000	11.620805
2243.000000	11.721838
2242.000000	11.846288
2241.000000	11.929936
2240.000000	12.025958
2239.000000	12.090791
2238.000000	12.181291
2237.000000	12.251032
2236.000000	12.327727
2235.000000	12.374255
2234.000000	12.451666
2233.000000	12.516294
2232.000000	12.544313
2231.000000	12.580513
2230.000000	12.637676
2229.000000	12.646164
2228.000000	12.672036
2227.000000	12.682466
2226.000000	12.699339
2225.000000	12.694840
2224.000000	12.734107
2223.000000	12.700362
2222.000000	12.710485
2221.000000	12.714678
2220.000000	12.703839
2219.000000	12.689931
2218.000000	12.651788
2217.000000	12.648107
2216.000000	12.632972
2215.000000	12.622337
2214.000000	12.612009
2213.000000	12.616509
2212.000000	12.564765
2211.000000	12.542473
2210.000000	12.550551
2209.000000	12.543904
2208.000000	12.499626
2207.000000	12.509545
2206.000000	12.493592
2205.000000	12.476004
2204.000000	12.481832
2203.000000	12.464960
2202.000000	12.447269
2201.000000	12.433055
2200.000000	12.441747
2199.000000	12.438270
2198.000000	12.411478
2197.000000	12.413830
2196.000000	12.398388
2195.000000	12.417409
2194.000000	12.408614
2193.000000	12.373233
2192.000000	12.394094
2191.000000	12.379879
2190.000000	12.363007
2189.000000	12.364643
2188.000000	12.356155
2187.000000	12.344804
2186.000000	12.326909
2185.000000	12.312286
2184.000000	12.303798
2183.000000	12.296333
2182.000000	12.295822
2181.000000	12.276086
2180.000000	12.269950
2179.000000	12.256861
2178.000000	12.261258
2177.000000	12.254611
2176.000000	12.262076
2175.000000	12.262076
2174.000000	12.240704
2173.000000	12.235284
2172.000000	12.250112
2171.000000	12.261872
2170.000000	12.252055
2169.000000	12.267087
2168.000000	12.300526
2167.000000	12.281608
2166.000000	12.306661
2165.000000	12.307275
2164.000000	12.342964
2163.000000	12.363825
2162.000000	12.371290
2161.000000	12.396037
2160.000000	12.416079
2159.000000	12.430703
2158.000000	12.449416
2157.000000	12.483162
2156.000000	12.544518
2155.000000	12.552699
2154.000000	12.573048
2153.000000	12.624689
2152.000000	12.643505
2151.000000	12.694328
2150.000000	12.712633
2149.000000	12.755991
2148.000000	12.785544
2147.000000	12.795668
2146.000000	12.829823
2145.000000	12.848638
2144.000000	12.892610
2143.000000	12.911119
2142.000000	12.948035
2141.000000	12.979326
2140.000000	13.006016
2139.000000	13.010004
2138.000000	13.025855
2137.000000	13.052851
2136.000000	13.069213
2135.000000	13.085063
2134.000000	13.098459
2133.000000	13.117991
2132.000000	13.128114
2131.000000	13.129853
2130.000000	13.132307
2129.000000	13.135784
2128.000000	13.141511
2127.000000	13.126990
2126.000000	13.138545
2125.000000	13.139977
2124.000000	13.126069
2123.000000	13.104492
2122.000000	13.110117
2121.000000	13.097539
2120.000000	13.075553
2119.000000	13.059805
2118.000000	13.049374
2117.000000	13.026877
2116.000000	13.001824
2115.000000	12.981269
2114.000000	12.953455
2113.000000	12.931980
2112.000000	12.912858
2111.000000	12.885656
2110.000000	12.845980
2109.000000	12.812336
2108.000000	12.787589
2107.000000	12.777057
2106.000000	12.753332
2105.000000	12.720507
2104.000000	12.690545
2103.000000	12.655061
2102.000000	12.627348
2101.000000	12.607919
2100.000000	12.589512
2099.000000	12.551983
2098.000000	12.515885
2097.000000	12.499012
2096.000000	12.475186
2095.000000	12.449927
2094.000000	12.420272
2093.000000	12.392048
2092.000000	12.364745
2091.000000	12.352883
2090.000000	12.321080
2089.000000	12.285698
2088.000000	12.281199
2087.000000	12.257577
2086.000000	12.237125
2085.000000	12.214321
2084.000000	12.186915
2083.000000	12.160225
2082.000000	12.132104
2081.000000	12.109607
2080.000000	12.074838
2079.000000	12.044263
2078.000000	12.012358
2077.000000	11.984134
2076.000000	11.945991
2075.000000	11.899054
2074.000000	11.866024
2073.000000	11.844345
2072.000000	11.804259
2071.000000	11.758753
2070.000000	11.722758
2069.000000	11.680218
2068.000000	11.655062
2067.000000	11.616612
2066.000000	11.568039
2065.000000	11.521613
2064.000000	11.483572
2063.000000	11.449315
2062.000000	11.403401
2061.000000	11.367507
2060.000000	11.341124
2059.000000	11.323229
2058.000000	11.284984
2057.000000	11.261464
2056.000000	11.244591
2055.000000	11.229457
2054.000000	11.230275
2053.000000	11.242444
2052.000000	11.248988
2051.000000	11.255942
2050.000000	11.263305
2049.000000	11.291017
2048.000000	11.330796
2047.000000	11.366689
2046.000000	11.400230
2045.000000	11.446145
2044.000000	11.503820
2043.000000	11.552802
2042.000000	11.620805
2041.000000	11.679502
2040.000000	11.723269
2039.000000	11.780330
2038.000000	11.842709
2037.000000	11.913984
2036.000000	11.957546
2035.000000	11.981680
2034.000000	12.038434
2033.000000	12.083633
2032.000000	12.109607
2031.000000	12.144580
2030.000000	12.181393
2029.000000	12.212173
2028.000000	12.225058
2027.000000	12.252464
2026.000000	12.269541
2025.000000	12.293163
2024.000000	12.313922
2023.000000	12.336930
2022.000000	12.346645
2021.000000	12.348792
2020.000000	12.350429
2019.000000	12.379061
2018.000000	12.366688
2017.000000	12.373130
2016.000000	12.370778
2015.000000	12.371392
2014.000000	12.367915
2013.000000	12.352372
2012.000000	12.341430
2011.000000	12.341839
2010.000000	12.331613
2009.000000	12.297765
2008.000000	12.272711
2007.000000	12.257168
2006.000000	12.230171
2005.000000	12.201743
2004.000000	12.193664
2003.000000	12.164827
2002.000000	12.122082
2001.000000	12.094472
2000.000000	12.045592
1999.000000	12.008574
1998.000000	11.974317
1997.000000	11.943026
1996.000000	11.882385
1995.000000	11.824609
1994.000000	11.786568
1993.000000	11.738301
1992.000000	11.675105
1991.000000	11.613033
1990.000000	11.574072
1989.000000	11.540940
1988.000000	11.491344
1987.000000	11.422830
1986.000000	11.365462
1985.000000	11.312594
1984.000000	11.255328
1983.000000	11.193870
1982.000000	11.122186
1981.000000	11.069318
1980.000000	11.008166
1979.000000	10.954275
1978.000000	10.890977
1977.000000	10.839335
1976.000000	10.770106
1975.000000	10.719794
1974.000000	10.662937
1973.000000	10.607206
1972.000000	10.573869
1971.000000	10.506377
1970.000000	10.430705
1969.000000	10.396448
1968.000000	10.364952
1967.000000	10.293575
1966.000000	10.232321
1965.000000	10.195917
1964.000000	10.139367
1963.000000	10.104905
1962.000000	10.046617
1961.000000	10.001316
1960.000000	9.957856
1959.000000	9.914804
1958.000000	9.867765
1957.000000	9.822259
1956.000000	9.791786
1955.000000	9.772970
1954.000000	9.714477
1953.000000	9.673062
1952.000000	9.624693
1951.000000	9.607002
1950.000000	9.549839
1949.000000	9.532557
1948.000000	9.484700
1947.000000	9.443796
1946.000000	9.436024
1945.000000	9.410050
1944.000000	9.409334
1943.000000	9.359738
1942.000000	9.346035
1941.000000	9.338366
1940.000000	9.336116
1939.000000	9.297769
1938.000000	9.361272
1937.000000	9.335605
1936.000000	9.352069
1935.000000	9.347467
1934.000000	9.382951
1933.000000	9.367919
1932.000000	9.427536
1931.000000	9.442364
1930.000000	9.487767
1929.000000	9.531432
1928.000000	9.588800
1927.000000	9.635840
1926.000000	9.712637
1925.000000	9.759983
1924.000000	9.823793
1923.000000	9.889240
1922.000000	9.979739
1921.000000	10.077193
1920.000000	10.182418
1919.000000	10.310141
1918.000000	10.386427
1917.000000	10.511388
1916.000000	10.607921
1915.000000	10.693002
1914.000000	10.808453
1913.000000	10.946810
1912.000000	11.141513
1911.000000	11.316173
1910.000000	11.432442
1909.000000	11.573970
1908.000000	11.695046
1907.000000	11.812338
1906.000000	11.999473
1905.000000	12.181189
1904.000000	12.415670
1903.000000	12.605158
1902.000000	12.794338
1901.000000	12.989450
1900.000000	13.189982
1899.000000	13.443177
1898.000000	13.684306
1897.000000	13.911220
1896.000000	14.163086
1895.000000	14.350324
1894.000000	14.540936
1893.000000	14.761101
1892.000000	15.025034
1891.000000	15.331098
1890.000000	15.662624
1889.000000	15.964495
1888.000000	16.255015
1887.000000	16.583064
1886.000000	16.908046
1885.000000	17.263706
1884.000000	17.667223
1883.000000	18.111440
1882.000000	18.555043
1881.000000	19.024824
1880.000000	19.478040
1879.000000	19.904361
1878.000000	20.328535
1877.000000	20.766002
1876.000000	21.209503
1875.000000	21.616599
1874.000000	22.028604
1873.000000	22.443165
1872.000000	22.851898
1871.000000	23.233634
1870.000000	23.589293
1869.000000	23.942396
1868.000000	24.256845
1867.000000	24.479772
1866.000000	24.674474
1865.000000	24.828682
1864.000000	24.976959
1863.000000	25.080752
1862.000000	25.190477
1861.000000	25.324029
1860.000000	25.458398
1859.000000	25.598289
1858.000000	25.712002
1857.000000	25.808433
1856.000000	25.860995
1855.000000	25.896172
1854.000000	25.927668
1853.000000	25.973481
1852.000000	25.976344
1851.000000	25.965709
1850.000000	25.956710
1849.000000	25.929816
1848.000000	25.933395
1847.000000	25.955483
1846.000000	25.977264
1845.000000	25.946177
1844.000000	25.848417
1843.000000	25.772029
1842.000000	25.738794
1841.000000	25.750963
1840.000000	25.755667
1839.000000	25.746566
1838.000000	25.716297
1837.000000	25.673757
1836.000000	25.640932
1835.000000	25.620582
1834.000000	25.559942
1833.000000	25.480793
1832.000000	25.374647
1831.000000	25.300918
1830.000000	25.254696
1829.000000	25.194670
1828.000000	25.123702
1827.000000	25.059073
1826.000000	24.986367
1825.000000	24.929919
1824.000000	24.870915
1823.000000	24.784608
1822.000000	24.709447
1821.000000	24.679689
1820.000000	24.659340
1819.000000	24.653716
1818.000000	24.613016
1817.000000	24.551865
1816.000000	24.514642
1815.000000	24.486827
1814.000000	24.469852
1813.000000	24.454513
1812.000000	24.429767
1811.000000	24.400213
1810.000000	24.369945
1809.000000	24.331188
1808.000000	24.273718
1807.000000	24.214612
1806.000000	24.170027
1805.000000	24.133111
1804.000000	24.074516
1803.000000	24.009990
1802.000000	23.941374
1801.000000	23.898834
1800.000000	23.849340
1799.000000	23.780621
1798.000000	23.725605
1797.000000	23.662204
1796.000000	23.603610
1795.000000	23.555650
1794.000000	23.502372
1793.000000	23.436517
1792.000000	23.374957
1791.000000	23.311453
1790.000000	23.262778
1789.000000	23.217886
1788.000000	23.143440
1787.000000	23.071449
1786.000000	23.005594
1785.000000	22.940046
1784.000000	22.869691
1783.000000	22.805778
1782.000000	22.726834
1781.000000	22.643083
1780.000000	22.563014
1779.000000	22.488773
1778.000000	22.422713
1777.000000	22.340701
1776.000000	22.245088
1775.000000	22.170438
1774.000000	22.074110
1773.000000	21.966634
1772.000000	21.860284
1771.000000	21.757615
1770.000000	21.648709
1769.000000	21.551766
1768.000000	21.432020
1767.000000	21.316262
1766.000000	21.224842
1765.000000	21.151419
1764.000000	21.085257
1763.000000	21.048444
1762.000000	21.019913
1761.000000	21.009074
1760.000000	21.018072
1759.000000	21.066646
1758.000000	21.133012
1757.000000	21.190278
1756.000000	21.266155
1755.000000	21.322807
1754.000000	21.361665
1753.000000	21.396331
1752.000000	21.425169
1751.000000	21.448075
1750.000000	21.443371
1749.000000	21.428339
1748.000000	21.418011
1747.000000	21.360745
1746.000000	21.305320
1745.000000	21.238340
1744.000000	21.150601
1743.000000	21.031366
1742.000000	20.904257
1741.000000	20.751379
1740.000000	20.586127
1739.000000	20.399503
1738.000000	20.212470
1737.000000	20.029936
1736.000000	19.864377
1735.000000	19.709454
1734.000000	19.615886
1733.000000	19.548497
1732.000000	19.520682
1731.000000	19.540009
1730.000000	19.583163
1729.000000	19.656074
1728.000000	19.756800
1727.000000	19.863252
1726.000000	19.954264
1725.000000	20.036174
1724.000000	20.147944
1723.000000	20.214106
1722.000000	20.270962
1721.000000	20.306037
1720.000000	20.350725
1719.000000	20.381812
1718.000000	20.416478
1717.000000	20.462802
1716.000000	20.514852
1715.000000	20.583877
1714.000000	20.651778
1713.000000	20.715077
1712.000000	20.786863
1711.000000	20.866012
1710.000000	20.922050
1709.000000	20.944650
1708.000000	20.962136
1707.000000	20.971647
1706.000000	20.945366
1705.000000	20.923175
1704.000000	20.901905
1703.000000	20.866421
1702.000000	20.804861
1701.000000	20.727450
1700.000000	20.631326
1699.000000	20.528657
1698.000000	20.401855
1697.000000	20.286915
1696.000000	20.183428
1695.000000	20.110517
1694.000000	20.096916
1693.000000	20.125140
1692.000000	20.228422
1691.000000	20.332829
1690.000000	20.500024
1689.000000	20.655970
1688.000000	20.784613
1687.000000	20.884214
1686.000000	20.945468
1685.000000	20.993530
1684.000000	21.050284
1683.000000	21.130865
1682.000000	21.294992
1681.000000	21.536223
1680.000000	21.875112
1679.000000	22.265744
1678.000000	22.732765
1677.000000	23.241405
1676.000000	23.680816
1675.000000	24.113784
1674.000000	24.488361
1673.000000	24.825001
1672.000000	25.120429
1671.000000	25.396633
1670.000000	25.621707
1669.000000	25.803525
1668.000000	25.964686
1667.000000	26.102123
1666.000000	26.225756
1665.000000	26.328322
1664.000000	26.418822
1663.000000	26.491938
1662.000000	26.554419
1661.000000	26.629989
1660.000000	26.687663
1659.000000	26.717421
1658.000000	26.744929
1657.000000	26.775913
1656.000000	26.790843
1655.000000	26.798820
1654.000000	26.824589
1653.000000	26.787366
1652.000000	26.773255
1651.000000	26.775198
1650.000000	26.759654
1649.000000	26.722125
1648.000000	26.688993
1647.000000	26.644203
1646.000000	26.604730
1645.000000	26.577734
1644.000000	26.517094
1643.000000	26.477315
1642.000000	26.417390
1641.000000	26.360329
1640.000000	26.316051
1639.000000	26.248764
1638.000000	26.176262
1637.000000	26.137096
1636.000000	26.060401
1635.000000	25.974401
1634.000000	25.923782
1633.000000	25.842690
1632.000000	25.790129
1631.000000	25.702083
1630.000000	25.641238
1629.000000	25.538570
1628.000000	25.476293
1627.000000	25.387123
1626.000000	25.299179
1625.000000	25.211645
1624.000000	25.131678
1623.000000	25.058562
1622.000000	24.970210
1621.000000	24.899139
1620.000000	24.810480
1619.000000	24.712515
1618.000000	24.656783
1617.000000	24.571703
1616.000000	24.497565
1615.000000	24.412791
1614.000000	24.323723
1613.000000	24.265435
1612.000000	24.190785
