PE UV       SUBTECH     SPECTRUM    ASCII       PEDS        4.00        
   -1
CICIMAUCR0210-3.ASC
24/06/06
17:17:43.00
24/06/06
17:17:43.00
Vinicio Soto Monge
C. resplendens. Sex F. Dorsal
250,000000
1
Lambda 1050
1050L1511233
PerkinElmer UV WinLab 6.3.2.0749 / 2.02.05 Lambda 900 UV/VIS/NIR, Aug  7 2015 09:38:08

0
0
3350/servo 860,8/2
0
0
UV/VIS
1
1
1
DoubleDePol,CommonBeamDepol,RBeamAtt,SBeamAtt,60mm sphere, WB InGaAs Detector
0
0
0
0
Program
Program
3350/servo 860,8/2
3350/0,2 860,8/0,2
3350/0,2 860,8/0,2
0
15.00
 
 
 
0
 
860,8
319,2
860,8
Front
100
on
S:100 R:100
0
0
0
0
 
0
 
 
 
0
 
 
0
0
0
0
0
 
 
 
 
0
0


0
0
#HDR
-1
-1
#GR
nm
%R
1.0
0.0
2500,000000
-1,000000
2251
8
91,100500
5,644400
#DATA
2500.000000	6.596662
2499.000000	6.664679
2498.000000	6.846257
2497.000000	6.609589
2496.000000	6.556786
2495.000000	6.604219
2494.000000	6.649365
2493.000000	6.634946
2492.000000	6.629875
2491.000000	6.608396
2490.000000	6.579757
2489.000000	6.505077
2488.000000	6.521485
2487.000000	6.489266
2486.000000	6.498514
2485.000000	6.493741
2484.000000	6.567625
2483.000000	6.432784
2482.000000	6.462815
2481.000000	6.548234
2480.000000	6.451181
2479.000000	6.445712
2478.000000	6.478726
2477.000000	6.421349
2476.000000	6.512038
2475.000000	6.480814
2474.000000	6.486880
2473.000000	6.477930
2472.000000	6.483499
2471.000000	6.479919
2470.000000	6.497520
2469.000000	6.465600
2468.000000	6.481411
2467.000000	6.457247
2466.000000	6.441535
2465.000000	6.473058
2464.000000	6.517507
2463.000000	6.516911
2462.000000	6.537495
2461.000000	6.558178
2460.000000	6.527253
2459.000000	6.528346
2458.000000	6.542666
2457.000000	6.561460
2456.000000	6.574288
2455.000000	6.619235
2454.000000	6.624505
2453.000000	6.660005
2452.000000	6.702665
2451.000000	6.735182
2450.000000	6.767401
2449.000000	6.771179
2448.000000	6.799420
2447.000000	6.819507
2446.000000	6.867736
2445.000000	6.893391
2444.000000	6.919643
2443.000000	6.960613
2442.000000	6.967673
2441.000000	7.029425
2440.000000	7.048617
2439.000000	7.064031
2438.000000	7.099431
2437.000000	7.121408
2436.000000	7.135031
2435.000000	7.187436
2434.000000	7.199269
2433.000000	7.239443
2432.000000	7.266590
2431.000000	7.267883
2430.000000	7.294533
2429.000000	7.318498
2428.000000	7.326254
2427.000000	7.364738
2426.000000	7.380350
2425.000000	7.390095
2424.000000	7.412966
2423.000000	7.447372
2422.000000	7.468851
2421.000000	7.485160
2420.000000	7.496993
2419.000000	7.485557
2418.000000	7.512108
2417.000000	7.534581
2416.000000	7.560138
2415.000000	7.551785
2414.000000	7.570977
2413.000000	7.579528
2412.000000	7.606377
2411.000000	7.616719
2410.000000	7.642176
2409.000000	7.660870
2408.000000	7.662959
2407.000000	7.678074
2406.000000	7.685233
2405.000000	7.693686
2404.000000	7.711784
2403.000000	7.718645
2402.000000	7.735152
2401.000000	7.752952
2400.000000	7.775823
2399.000000	7.780298
2398.000000	7.781889
2397.000000	7.803865
2396.000000	7.825344
2395.000000	7.835288
2394.000000	7.851199
2393.000000	7.859552
2392.000000	7.873772
2391.000000	7.893262
2390.000000	7.913349
2389.000000	7.922796
2388.000000	7.925381
2387.000000	7.933834
2386.000000	7.949744
2385.000000	7.958197
2384.000000	7.957600
2383.000000	7.942783
2382.000000	7.945667
2381.000000	7.952528
2380.000000	7.964262
2379.000000	7.980173
2378.000000	7.963268
2377.000000	7.948451
2376.000000	7.947258
2375.000000	7.926972
2374.000000	7.931447
2373.000000	7.938706
2372.000000	7.939502
2371.000000	7.928464
2370.000000	7.896742
2369.000000	7.876656
2368.000000	7.857961
2367.000000	7.851000
2366.000000	7.848315
2365.000000	7.821963
2364.000000	7.794120
2363.000000	7.765680
2362.000000	7.735152
2361.000000	7.704823
2360.000000	7.692393
2359.000000	7.669820
2358.000000	7.637900
2357.000000	7.622884
2356.000000	7.605979
2355.000000	7.589075
2354.000000	7.568491
2353.000000	7.566502
2352.000000	7.566701
2351.000000	7.565010
2350.000000	7.585097
2349.000000	7.592157
2348.000000	7.598124
2347.000000	7.625470
2346.000000	7.643270
2345.000000	7.663655
2344.000000	7.691597
2343.000000	7.719242
2342.000000	7.730081
2341.000000	7.747682
2340.000000	7.780298
2339.000000	7.797601
2338.000000	7.797004
2337.000000	7.809732
2336.000000	7.818682
2335.000000	7.830714
2334.000000	7.834891
2333.000000	7.817688
2332.000000	7.805655
2331.000000	7.797501
2330.000000	7.783679
2329.000000	7.760410
2328.000000	7.729882
2327.000000	7.696868
2326.000000	7.676681
2325.000000	7.643667
2324.000000	7.617813
2323.000000	7.572667
2322.000000	7.510119
2321.000000	7.451251
2320.000000	7.417739
2319.000000	7.377367
2318.000000	7.327050
2317.000000	7.264900
2316.000000	7.210406
2315.000000	7.170829
2314.000000	7.121010
2313.000000	7.090183
2312.000000	7.034298
2311.000000	6.992732
2310.000000	6.978214
2309.000000	6.945100
2308.000000	6.924516
2307.000000	6.905722
2306.000000	6.897568
2305.000000	6.897866
2304.000000	6.894783
2303.000000	6.911589
2302.000000	6.941520
2301.000000	6.980004
2300.000000	7.008841
2299.000000	7.051501
2298.000000	7.083919
2297.000000	7.141892
2296.000000	7.168343
2295.000000	7.220848
2294.000000	7.259331
2293.000000	7.287671
2292.000000	7.329635
2291.000000	7.349324
2290.000000	7.380350
2289.000000	7.400536
2288.000000	7.407895
2287.000000	7.401630
2286.000000	7.424799
2285.000000	7.393874
2284.000000	7.389200
2283.000000	7.372494
2282.000000	7.351313
2281.000000	7.333116
2280.000000	7.322177
2279.000000	7.294632
2278.000000	7.265795
2277.000000	7.228306
2276.000000	7.214384
2275.000000	7.197479
2274.000000	7.182862
2273.000000	7.165658
2272.000000	7.170432
2271.000000	7.169338
2270.000000	7.157703
2269.000000	7.168741
2268.000000	7.205832
2267.000000	7.216075
2266.000000	7.254558
2265.000000	7.308454
2264.000000	7.361058
2263.000000	7.445781
2262.000000	7.523742
2261.000000	7.614233
2260.000000	7.721628
2259.000000	7.823157
2258.000000	7.932740
2257.000000	8.049681
2256.000000	8.176169
2255.000000	8.298381
2254.000000	8.450724
2253.000000	8.573532
2252.000000	8.695048
2251.000000	8.832773
2250.000000	8.972983
2249.000000	9.087936
2248.000000	9.224269
2247.000000	9.321422
2246.000000	9.414697
2245.000000	9.515628
2244.000000	9.622725
2243.000000	9.692433
2242.000000	9.797840
2241.000000	9.858001
2240.000000	9.945707
2239.000000	10.014122
2238.000000	10.061257
2237.000000	10.118037
2236.000000	10.205445
2235.000000	10.242834
2234.000000	10.292952
2233.000000	10.340186
2232.000000	10.378968
2231.000000	10.424313
2230.000000	10.439626
2229.000000	10.467470
2228.000000	10.498793
2227.000000	10.502473
2226.000000	10.517090
2225.000000	10.537674
2224.000000	10.541055
2223.000000	10.567109
2222.000000	10.550204
2221.000000	10.548812
2220.000000	10.531310
2219.000000	10.553187
2218.000000	10.544039
2217.000000	10.519875
2216.000000	10.525940
2215.000000	10.536879
2214.000000	10.500981
2213.000000	10.476519
2212.000000	10.479800
2211.000000	10.453250
2210.000000	10.455139
2209.000000	10.467669
2208.000000	10.411286
2207.000000	10.406314
2206.000000	10.426998
2205.000000	10.403530
2204.000000	10.391597
2203.000000	10.405419
2202.000000	10.382249
2201.000000	10.378073
2200.000000	10.368129
2199.000000	10.354705
2198.000000	10.351721
2197.000000	10.351622
2196.000000	10.337104
2195.000000	10.336109
2194.000000	10.310653
2193.000000	10.319403
2192.000000	10.321492
2191.000000	10.303294
2190.000000	10.304487
2189.000000	10.283008
2188.000000	10.288378
2187.000000	10.279130
2186.000000	10.244326
2185.000000	10.238360
2184.000000	10.241542
2183.000000	10.237663
2182.000000	10.216383
2181.000000	10.193114
2180.000000	10.195004
2179.000000	10.193810
2178.000000	10.188242
2177.000000	10.191623
2176.000000	10.173226
2175.000000	10.163581
2174.000000	10.163581
2173.000000	10.153637
2172.000000	10.159603
2171.000000	10.143593
2170.000000	10.142499
2169.000000	10.150454
2168.000000	10.161194
2167.000000	10.153637
2166.000000	10.162288
2165.000000	10.159006
2164.000000	10.181082
2163.000000	10.171635
2162.000000	10.181778
2161.000000	10.176209
2160.000000	10.190131
2159.000000	10.207036
2158.000000	10.227222
2157.000000	10.226128
2156.000000	10.255065
2155.000000	10.254966
2154.000000	10.284798
2153.000000	10.312244
2152.000000	10.314730
2151.000000	10.339590
2150.000000	10.359875
2149.000000	10.382349
2148.000000	10.403828
2147.000000	10.422423
2146.000000	10.443306
2145.000000	10.443206
2144.000000	10.467768
2143.000000	10.498197
2142.000000	10.495910
2141.000000	10.505257
2140.000000	10.525841
2139.000000	10.524747
2138.000000	10.523852
2137.000000	10.529819
2136.000000	10.543044
2135.000000	10.548911
2134.000000	10.544337
2133.000000	10.551298
2132.000000	10.558159
2131.000000	10.546922
2130.000000	10.548513
2129.000000	10.558955
2128.000000	10.557861
2127.000000	10.554281
2126.000000	10.556071
2125.000000	10.551298
2124.000000	10.525543
2123.000000	10.528128
2122.000000	10.531609
2121.000000	10.513809
2120.000000	10.495213
2119.000000	10.476419
2118.000000	10.460807
2117.000000	10.447681
2116.000000	10.449968
2115.000000	10.420733
2114.000000	10.401839
2113.000000	10.388514
2112.000000	10.363455
2111.000000	10.338197
2110.000000	10.311547
2109.000000	10.310056
2108.000000	10.301504
2107.000000	10.275252
2106.000000	10.256159
2105.000000	10.237862
2104.000000	10.210119
2103.000000	10.190230
2102.000000	10.173525
2101.000000	10.155228
2100.000000	10.131163
2099.000000	10.110977
2098.000000	10.102524
2097.000000	10.088105
2096.000000	10.061455
2095.000000	10.021679
2094.000000	10.022972
2093.000000	10.016906
2092.000000	10.000797
2091.000000	9.984489
2090.000000	9.961916
2089.000000	9.958535
2088.000000	9.943221
2087.000000	9.927311
2086.000000	9.912594
2085.000000	9.894197
2084.000000	9.881071
2083.000000	9.863868
2082.000000	9.851338
2081.000000	9.853526
2080.000000	9.844775
2079.000000	9.815242
2078.000000	9.784017
2077.000000	9.771389
2076.000000	9.753290
2075.000000	9.733502
2074.000000	9.724055
2073.000000	9.711824
2072.000000	9.685771
2071.000000	9.663297
2070.000000	9.646591
2069.000000	9.622825
2068.000000	9.606517
2067.000000	9.595379
2066.000000	9.579469
2065.000000	9.561570
2064.000000	9.546057
2063.000000	9.532832
2062.000000	9.513142
2061.000000	9.500116
2060.000000	9.487387
2059.000000	9.480924
2058.000000	9.482515
2057.000000	9.472272
2056.000000	9.477642
2055.000000	9.471974
2054.000000	9.459345
2053.000000	9.479929
2052.000000	9.506480
2051.000000	9.529948
2050.000000	9.542676
2049.000000	9.573503
2048.000000	9.583745
2047.000000	9.603534
2046.000000	9.650966
2045.000000	9.698300
2044.000000	9.738573
2043.000000	9.769897
2042.000000	9.802116
2041.000000	9.825484
2040.000000	9.866851
2039.000000	9.899766
2038.000000	9.935067
2037.000000	9.956347
2036.000000	10.008255
2035.000000	10.047335
2034.000000	10.055290
2033.000000	10.084028
2032.000000	10.108192
2031.000000	10.132655
2030.000000	10.137726
2029.000000	10.165271
2028.000000	10.165470
2027.000000	10.179292
2026.000000	10.194606
2025.000000	10.201865
2024.000000	10.215091
2023.000000	10.210119
2022.000000	10.218372
2021.000000	10.212306
2020.000000	10.233487
2019.000000	10.245917
2018.000000	10.237862
2017.000000	10.218869
2016.000000	10.226626
2015.000000	10.204152
2014.000000	10.239155
2013.000000	10.206837
2012.000000	10.189236
2011.000000	10.190728
2010.000000	10.156620
2009.000000	10.136632
2008.000000	10.118534
2007.000000	10.111573
2006.000000	10.089597
2005.000000	10.074582
2004.000000	10.054097
2003.000000	10.030728
2002.000000	9.987273
2001.000000	9.964203
2000.000000	9.947000
1999.000000	9.926018
1998.000000	9.881071
1997.000000	9.861084
1996.000000	9.809176
1995.000000	9.781730
1994.000000	9.735292
1993.000000	9.705857
1992.000000	9.668269
1991.000000	9.640625
1990.000000	9.576486
1989.000000	9.535516
1988.000000	9.500215
1987.000000	9.465809
1986.000000	9.421956
1985.000000	9.371937
1984.000000	9.335144
1983.000000	9.283833
1982.000000	9.270210
1981.000000	9.220192
1980.000000	9.158837
1979.000000	9.134574
1978.000000	9.084158
1977.000000	9.039409
1976.000000	9.013555
1975.000000	8.970398
1974.000000	8.916104
1973.000000	8.907154
1972.000000	8.838441
1971.000000	8.810697
1970.000000	8.774302
1969.000000	8.748149
1968.000000	8.686894
1967.000000	8.645328
1966.000000	8.639958
1965.000000	8.601177
1964.000000	8.552650
1963.000000	8.526298
1962.000000	8.486721
1961.000000	8.457684
1960.000000	8.397324
1959.000000	8.391457
1958.000000	8.375945
1957.000000	8.333683
1956.000000	8.311507
1955.000000	8.300470
1954.000000	8.244385
1953.000000	8.227779
1952.000000	8.212366
1951.000000	8.174280
1950.000000	8.152900
1949.000000	8.134206
1948.000000	8.112727
1947.000000	8.088563
1946.000000	8.062410
1945.000000	8.051273
1944.000000	8.039936
1943.000000	8.006127
1942.000000	7.999265
1941.000000	8.013187
1940.000000	7.982858
1939.000000	7.983057
1938.000000	7.989719
1937.000000	7.964561
1936.000000	7.951236
1935.000000	7.946264
1934.000000	7.972019
1933.000000	7.965257
1932.000000	7.964859
1931.000000	7.979377
1930.000000	8.020048
1929.000000	8.036058
1928.000000	8.048190
1927.000000	8.068675
1926.000000	8.118096
1925.000000	8.135598
1924.000000	8.171993
1923.000000	8.225492
1922.000000	8.244087
1921.000000	8.290526
1920.000000	8.346510
1919.000000	8.399413
1918.000000	8.463949
1917.000000	8.510388
1916.000000	8.582979
1915.000000	8.664918
1914.000000	8.730250
1913.000000	8.783649
1912.000000	8.888161
1911.000000	8.977558
1910.000000	9.056016
1909.000000	9.167091
1908.000000	9.244555
1907.000000	9.349663
1906.000000	9.460638
1905.000000	9.564752
1904.000000	9.714210
1903.000000	9.833041
1902.000000	9.982599
1901.000000	10.108988
1900.000000	10.219963
1899.000000	10.390503
1898.000000	10.561441
1897.000000	10.753957
1896.000000	10.925292
1895.000000	11.095733
1894.000000	11.284868
1893.000000	11.453916
1892.000000	11.665028
1891.000000	11.931627
1890.000000	12.171874
1889.000000	12.414508
1888.000000	12.688068
1887.000000	12.981218
1886.000000	13.287394
1885.000000	13.629369
1884.000000	13.964979
1883.000000	14.365524
1882.000000	14.808431
1881.000000	15.240200
1880.000000	15.686388
1879.000000	16.105528
1878.000000	16.525464
1877.000000	16.946096
1876.000000	17.379755
1875.000000	17.799790
1874.000000	18.224200
1873.000000	18.618381
1872.000000	19.015844
1871.000000	19.389739
1870.000000	19.749215
1869.000000	20.111674
1868.000000	20.415563
1867.000000	20.702249
1866.000000	20.936033
1865.000000	21.122682
1864.000000	21.309232
1863.000000	21.478280
1862.000000	21.614215
1861.000000	21.765464
1860.000000	21.929440
1859.000000	22.069949
1858.000000	22.185996
1857.000000	22.302540
1856.000000	22.404267
1855.000000	22.458263
1854.000000	22.509077
1853.000000	22.562675
1852.000000	22.575802
1851.000000	22.605534
1850.000000	22.628008
1849.000000	22.629499
1848.000000	22.623036
1847.000000	22.649884
1846.000000	22.648095
1845.000000	22.624229
1844.000000	22.581569
1843.000000	22.562974
1842.000000	22.550245
1841.000000	22.573216
1840.000000	22.578188
1839.000000	22.562576
1838.000000	22.537617
1837.000000	22.508381
1836.000000	22.487001
1835.000000	22.466119
1834.000000	22.413714
1833.000000	22.356934
1832.000000	22.297966
1831.000000	22.255008
1830.000000	22.217021
1829.000000	22.152087
1828.000000	22.107140
1827.000000	22.029278
1826.000000	21.966631
1825.000000	21.918601
1824.000000	21.856650
1823.000000	21.801560
1822.000000	21.758204
1821.000000	21.731853
1820.000000	21.714152
1819.000000	21.689790
1818.000000	21.642058
1817.000000	21.601984
1816.000000	21.580505
1815.000000	21.570959
1814.000000	21.572749
1813.000000	21.547690
1812.000000	21.521338
1811.000000	21.490810
1810.000000	21.468436
1809.000000	21.436913
1808.000000	21.410860
1807.000000	21.376851
1806.000000	21.339760
1805.000000	21.294714
1804.000000	21.241513
1803.000000	21.192788
1802.000000	21.148437
1801.000000	21.110551
1800.000000	21.061029
1799.000000	21.010216
1798.000000	20.955722
1797.000000	20.910974
1796.000000	20.863541
1795.000000	20.807556
1794.000000	20.755947
1793.000000	20.715475
1792.000000	20.676295
1791.000000	20.619913
1790.000000	20.553487
1789.000000	20.500784
1788.000000	20.461206
1787.000000	20.401741
1786.000000	20.347845
1785.000000	20.297230
1784.000000	20.235079
1783.000000	20.168455
1782.000000	20.095764
1781.000000	20.021581
1780.000000	19.958835
1779.000000	19.900762
1778.000000	19.846964
1777.000000	19.770197
1776.000000	19.699196
1775.000000	19.627202
1774.000000	19.535220
1773.000000	19.451889
1772.000000	19.370447
1771.000000	19.271007
1770.000000	19.193344
1769.000000	19.093506
1768.000000	18.987205
1767.000000	18.912724
1766.000000	18.834763
1765.000000	18.758691
1764.000000	18.703800
1763.000000	18.666411
1762.000000	18.651694
1761.000000	18.656268
1760.000000	18.692564
1759.000000	18.745366
1758.000000	18.803439
1757.000000	18.869368
1756.000000	18.925055
1755.000000	19.004010
1754.000000	19.064768
1753.000000	19.100666
1752.000000	19.140343
1751.000000	19.158938
1750.000000	19.180417
1749.000000	19.190162
1748.000000	19.157148
1747.000000	19.115483
1746.000000	19.084855
1745.000000	19.039908
1744.000000	18.968411
1743.000000	18.870860
1742.000000	18.754316
1741.000000	18.617884
1740.000000	18.454007
1739.000000	18.288439
1738.000000	18.111932
1737.000000	17.942288
1736.000000	17.788851
1735.000000	17.650232
1734.000000	17.553974
1733.000000	17.486653
1732.000000	17.462489
1731.000000	17.456821
1730.000000	17.488343
1729.000000	17.575751
1728.000000	17.659579
1727.000000	17.769262
1726.000000	17.862139
1725.000000	17.967645
1724.000000	18.051175
1723.000000	18.111137
1722.000000	18.152504
1721.000000	18.197451
1720.000000	18.228079
1719.000000	18.247668
1718.000000	18.266164
1717.000000	18.277401
1716.000000	18.323044
1715.000000	18.376145
1714.000000	18.426064
1713.000000	18.481054
1712.000000	18.532863
1711.000000	18.575523
1710.000000	18.605454
1709.000000	18.628524
1708.000000	18.640457
1707.000000	18.627828
1706.000000	18.588151
1705.000000	18.554541
1704.000000	18.522322
1703.000000	18.448935
1702.000000	18.372167
1701.000000	18.283367
1700.000000	18.171895
1699.000000	18.069571
1698.000000	17.928465
1697.000000	17.791138
1696.000000	17.668131
1695.000000	17.571475
1694.000000	17.546416
1693.000000	17.546516
1692.000000	17.609859
1691.000000	17.728392
1690.000000	17.849510
1689.000000	17.989422
1688.000000	18.122175
1687.000000	18.231062
1686.000000	18.285853
1685.000000	18.309620
1684.000000	18.337562
1683.000000	18.410551
1682.000000	18.520234
1681.000000	18.705391
1680.000000	18.993569
1679.000000	19.368956
1678.000000	19.805299
1677.000000	20.272270
1676.000000	20.699067
1675.000000	21.114727
1674.000000	21.480667
1673.000000	21.779982
1672.000000	22.080192
1671.000000	22.313379
1670.000000	22.504702
1669.000000	22.693439
1668.000000	22.841903
1667.000000	22.947211
1666.000000	23.076483
1665.000000	23.166476
1664.000000	23.232107
1663.000000	23.312355
1662.000000	23.354418
1661.000000	23.418060
1660.000000	23.459029
1659.000000	23.485381
1658.000000	23.517997
1657.000000	23.527344
1656.000000	23.545940
1655.000000	23.550514
1654.000000	23.559762
1653.000000	23.540371
1652.000000	23.526847
1651.000000	23.502087
1650.000000	23.466587
1649.000000	23.454157
1648.000000	23.422733
1647.000000	23.371223
1646.000000	23.328961
1645.000000	23.263033
1644.000000	23.219478
1643.000000	23.165681
1642.000000	23.108701
1641.000000	23.085631
1640.000000	23.024575
1639.000000	22.950691
1638.000000	22.885160
1637.000000	22.842301
1636.000000	22.768019
1635.000000	22.687175
1634.000000	22.623334
1633.000000	22.583061
1632.000000	22.518226
1631.000000	22.442353
1630.000000	22.374336
1629.000000	22.290707
1628.000000	22.218712
1627.000000	22.145126
1626.000000	22.076512
1625.000000	21.997458
1624.000000	21.924568
1623.000000	21.858440
1622.000000	21.779882
1621.000000	21.688099
1620.000000	21.645340
1619.000000	21.584980
1618.000000	21.483451
1617.000000	21.428262
1616.000000	21.368001
1615.000000	21.304857
1614.000000	21.238928
1613.000000	21.190103
1612.000000	21.120694
1611.000000	21.049992
1610.000000	21.003354
1609.000000	20.926586
1608.000000	20.883529
1607.000000	20.814517
1606.000000	20.758532
