PE UV       SUBTECH     SPECTRUM    ASCII       PEDS        4.00        
   -1
CICIMAUCR0223-1.Sample.ASC
24/06/13
15:39:12.00
24/06/13
15:39:12.00
Vinicio Soto Monge
C. resplendens. Sex M. Dorsal.
250,000000
1
Lambda 1050
1050L1511233
PerkinElmer UV WinLab 6.3.2.0749 / 2.02.05 Lambda 900 UV/VIS/NIR, Aug  7 2015 09:38:08

0
0
3350/servo 860,8/2
0
0
UV/VIS
1
1
1
DoubleDePol,CommonBeamDepol,RBeamAtt,SBeamAtt,60mm sphere, WB InGaAs Detector
0
0
0
0
Program
Program
3350/servo 860,8/2
3350/0,2 860,8/0,2
3350/0,2 860,8/0,2
0
15.00
 
 
 
0
 
860,8
319,2
860,8
Front
100
on
S:100 R:100
0
0
0
0
 
0
 
 
 
0
 
 
0
0
0
0
0
 
 
 
 
0
0


0
0
#HDR
-1
-1
#GR
nm
%R
1.0
0.0
2500,000000
-1,000000
2251
8
89,120400
5,868800
#DATA
2500.000000	8.338976
2499.000000	8.155285
2498.000000	8.205392
2497.000000	8.264432
2496.000000	8.270079
2495.000000	8.266177
2494.000000	8.123045
2493.000000	7.969747
2492.000000	8.062259
2491.000000	8.094603
2490.000000	8.128179
2489.000000	8.006197
2488.000000	8.016773
2487.000000	8.012871
2486.000000	8.093268
2485.000000	8.012769
2484.000000	7.978577
2483.000000	8.013077
2482.000000	8.034228
2481.000000	8.080023
2480.000000	8.018724
2479.000000	7.990282
2478.000000	8.080228
2477.000000	8.057536
2476.000000	8.056612
2475.000000	8.007019
2474.000000	8.066264
2473.000000	7.997264
2472.000000	8.032072
2471.000000	8.107540
2470.000000	8.099839
2469.000000	8.117808
2468.000000	8.089161
2467.000000	8.076840
2466.000000	8.116165
2465.000000	8.137933
2464.000000	8.161549
2463.000000	8.181571
2462.000000	8.214017
2461.000000	8.217303
2460.000000	8.246977
2459.000000	8.288561
2458.000000	8.302628
2457.000000	8.338257
2456.000000	8.380355
2455.000000	8.434774
2454.000000	8.458288
2453.000000	8.534269
2452.000000	8.583657
2451.000000	8.643210
2450.000000	8.689518
2449.000000	8.726585
2448.000000	8.807597
2447.000000	8.838195
2446.000000	8.911199
2445.000000	8.971471
2444.000000	9.057310
2443.000000	9.109573
2442.000000	9.167380
2441.000000	9.233299
2440.000000	9.296036
2439.000000	9.344397
2438.000000	9.395120
2437.000000	9.465249
2436.000000	9.503445
2435.000000	9.563409
2434.000000	9.642881
2433.000000	9.658283
2432.000000	9.700586
2431.000000	9.738166
2430.000000	9.807679
2429.000000	9.840536
2428.000000	9.892902
2427.000000	9.934281
2426.000000	9.990651
2425.000000	10.016731
2424.000000	10.057391
2423.000000	10.081418
2422.000000	10.105650
2421.000000	10.145592
2420.000000	10.184404
2419.000000	10.198573
2418.000000	10.233792
2417.000000	10.274041
2416.000000	10.300019
2415.000000	10.328255
2414.000000	10.359777
2413.000000	10.386576
2412.000000	10.406496
2411.000000	10.428674
2410.000000	10.458348
2409.000000	10.484428
2408.000000	10.513794
2407.000000	10.531147
2406.000000	10.543673
2405.000000	10.581972
2404.000000	10.604561
2403.000000	10.620476
2402.000000	10.655592
2401.000000	10.689168
2400.000000	10.699333
2399.000000	10.690092
2398.000000	10.678797
2397.000000	10.686703
2396.000000	10.708266
2395.000000	10.723359
2394.000000	10.754573
2393.000000	10.759810
2392.000000	10.769975
2391.000000	10.808993
2390.000000	10.817618
2389.000000	10.817618
2388.000000	10.830760
2387.000000	10.831479
2386.000000	10.817515
2385.000000	10.826551
2384.000000	10.834559
2383.000000	10.830350
2382.000000	10.829015
2381.000000	10.830966
2380.000000	10.811354
2379.000000	10.795953
2378.000000	10.791948
2377.000000	10.770489
2376.000000	10.755600
2375.000000	10.736913
2374.000000	10.714529
2373.000000	10.699333
2372.000000	10.663909
2371.000000	10.620579
2370.000000	10.602508
2369.000000	10.583512
2368.000000	10.536897
2367.000000	10.508660
2366.000000	10.461531
2365.000000	10.403518
2364.000000	10.355670
2363.000000	10.306796
2362.000000	10.258229
2361.000000	10.195698
2360.000000	10.144976
2359.000000	10.107909
2358.000000	10.045994
2357.000000	9.986749
2356.000000	9.948142
2355.000000	9.901218
2354.000000	9.879964
2353.000000	9.855116
2352.000000	9.829960
2351.000000	9.817125
2350.000000	9.816201
2349.000000	9.828728
2348.000000	9.842179
2347.000000	9.860455
2346.000000	9.872777
2345.000000	9.890335
2344.000000	9.931406
2343.000000	9.969705
2342.000000	9.993526
2341.000000	10.007695
2340.000000	10.033262
2339.000000	10.073614
2338.000000	10.102878
2337.000000	10.093431
2336.000000	10.090659
2335.000000	10.079878
2334.000000	10.061601
2333.000000	10.057186
2332.000000	10.033159
2331.000000	9.999481
2330.000000	9.976379
2329.000000	9.914772
2328.000000	9.854705
2327.000000	9.821540
2326.000000	9.765170
2325.000000	9.686006
2324.000000	9.617622
2323.000000	9.539485
2322.000000	9.457034
2321.000000	9.380437
2320.000000	9.303942
2319.000000	9.196849
2318.000000	9.109983
2317.000000	9.015109
2316.000000	8.930605
2315.000000	8.826182
2314.000000	8.718678
2313.000000	8.615077
2312.000000	8.547823
2311.000000	8.466502
2310.000000	8.398940
2309.000000	8.329222
2308.000000	8.276856
2307.000000	8.241843
2306.000000	8.241637
2305.000000	8.212477
2304.000000	8.200258
2303.000000	8.237530
2302.000000	8.265048
2301.000000	8.300883
2300.000000	8.360744
2299.000000	8.419475
2298.000000	8.493095
2297.000000	8.571336
2296.000000	8.649268
2295.000000	8.718884
2294.000000	8.801231
2293.000000	8.856677
2292.000000	8.912637
2291.000000	8.939846
2290.000000	8.975373
2289.000000	9.021167
2288.000000	9.043243
2287.000000	9.047453
2286.000000	9.049917
2285.000000	9.020859
2284.000000	8.998065
2283.000000	8.969007
2282.000000	8.932146
2281.000000	8.888918
2280.000000	8.856369
2279.000000	8.813553
2278.000000	8.757183
2277.000000	8.706562
2276.000000	8.660152
2275.000000	8.616309
2274.000000	8.572260
2273.000000	8.568255
2272.000000	8.538787
2271.000000	8.554291
2270.000000	8.539711
2269.000000	8.557885
2268.000000	8.595876
2267.000000	8.627603
2266.000000	8.697732
2265.000000	8.765294
2264.000000	8.870744
2263.000000	9.005868
2262.000000	9.138117
2261.000000	9.275603
2260.000000	9.454057
2259.000000	9.616698
2258.000000	9.820103
2257.000000	10.024945
2256.000000	10.235537
2255.000000	10.435554
2254.000000	10.667503
2253.000000	10.888260
2252.000000	11.102446
2251.000000	11.286239
2250.000000	11.484921
2249.000000	11.674361
2248.000000	11.871502
2247.000000	12.034965
2246.000000	12.212495
2245.000000	12.352753
2244.000000	12.493627
2243.000000	12.627211
2242.000000	12.752170
2241.000000	12.846325
2240.000000	12.974878
2239.000000	13.053632
2238.000000	13.141216
2237.000000	13.229108
2236.000000	13.309813
2235.000000	13.357558
2234.000000	13.436004
2233.000000	13.490731
2232.000000	13.541659
2231.000000	13.568663
2230.000000	13.603163
2229.000000	13.632632
2228.000000	13.668672
2227.000000	13.679658
2226.000000	13.675448
2225.000000	13.688283
2224.000000	13.692904
2223.000000	13.689721
2222.000000	13.675962
2221.000000	13.670828
2220.000000	13.653578
2219.000000	13.627909
2218.000000	13.614766
2217.000000	13.574721
2216.000000	13.558704
2215.000000	13.527387
2214.000000	13.498945
2213.000000	13.482209
2212.000000	13.442370
2211.000000	13.430767
2210.000000	13.397602
2209.000000	13.394111
2208.000000	13.377477
2207.000000	13.344004
2206.000000	13.321621
2205.000000	13.315563
2204.000000	13.285786
2203.000000	13.292460
2202.000000	13.249849
2201.000000	13.243586
2200.000000	13.225720
2199.000000	13.209805
2198.000000	13.222742
2197.000000	13.173867
2196.000000	13.175305
2195.000000	13.158774
2194.000000	13.142653
2193.000000	13.160622
2192.000000	13.124479
2191.000000	13.105587
2190.000000	13.089466
2189.000000	13.059176
2188.000000	13.057020
2187.000000	13.072935
2186.000000	13.030529
2185.000000	13.009994
2184.000000	12.999520
2183.000000	12.983605
2182.000000	12.963994
2181.000000	12.952289
2180.000000	12.922307
2179.000000	12.894173
2178.000000	12.899102
2177.000000	12.890887
2176.000000	12.881338
2175.000000	12.894686
2174.000000	12.876718
2173.000000	12.864807
2172.000000	12.874972
2171.000000	12.864191
2170.000000	12.865834
2169.000000	12.893762
2168.000000	12.882262
2167.000000	12.883392
2166.000000	12.897459
2165.000000	12.917892
2164.000000	12.921177
2163.000000	12.935552
2162.000000	12.958552
2161.000000	12.990074
2160.000000	13.006708
2159.000000	13.028476
2158.000000	13.059176
2157.000000	13.074578
2156.000000	13.105792
2155.000000	13.141627
2154.000000	13.172738
2153.000000	13.201385
2152.000000	13.245639
2151.000000	13.272541
2150.000000	13.309607
2149.000000	13.333223
2148.000000	13.350473
2147.000000	13.401196
2146.000000	13.433848
2145.000000	13.473892
2144.000000	13.495043
2143.000000	13.546280
2142.000000	13.574824
2141.000000	13.596694
2140.000000	13.629038
2139.000000	13.643824
2138.000000	13.673292
2137.000000	13.678323
2136.000000	13.714877
2135.000000	13.731921
2134.000000	13.735720
2133.000000	13.751327
2132.000000	13.770528
2131.000000	13.781617
2130.000000	13.778845
2129.000000	13.774224
2128.000000	13.773403
2127.000000	13.766832
2126.000000	13.767140
2125.000000	13.781104
2124.000000	13.764983
2123.000000	13.760363
2122.000000	13.742189
2121.000000	13.727711
2120.000000	13.703993
2119.000000	13.670417
2118.000000	13.653783
2117.000000	13.643516
2116.000000	13.624417
2115.000000	13.591766
2114.000000	13.567945
2113.000000	13.539400
2112.000000	13.508392
2111.000000	13.484776
2110.000000	13.450481
2109.000000	13.415776
2108.000000	13.372241
2107.000000	13.356223
2106.000000	13.325522
2105.000000	13.299340
2104.000000	13.264224
2103.000000	13.229211
2102.000000	13.210523
2101.000000	13.192452
2100.000000	13.157542
2099.000000	13.101069
2098.000000	13.080225
2097.000000	13.053221
2096.000000	13.021391
2095.000000	13.002704
2094.000000	12.979909
2093.000000	12.951570
2092.000000	12.936374
2091.000000	12.910088
2090.000000	12.895405
2089.000000	12.892838
2088.000000	12.865834
2087.000000	12.838111
2086.000000	12.816035
2085.000000	12.797964
2084.000000	12.775580
2083.000000	12.741902
2082.000000	12.714282
2081.000000	12.700317
2080.000000	12.669514
2079.000000	12.641072
2078.000000	12.616532
2077.000000	12.570841
2076.000000	12.537676
2075.000000	12.520734
2074.000000	12.477609
2073.000000	12.440337
2072.000000	12.417440
2071.000000	12.377807
2070.000000	12.341459
2069.000000	12.304803
2068.000000	12.268147
2067.000000	12.236522
2066.000000	12.191652
2065.000000	12.153353
2064.000000	12.126349
2063.000000	12.101809
2062.000000	12.076653
2061.000000	12.041845
2060.000000	12.021720
2059.000000	11.991943
2058.000000	11.970997
2057.000000	11.968533
2056.000000	11.972640
2055.000000	11.967711
2054.000000	11.970894
2053.000000	11.999234
2052.000000	12.023979
2051.000000	12.052318
2050.000000	12.084456
2049.000000	12.128402
2048.000000	12.187647
2047.000000	12.244633
2046.000000	12.299874
2045.000000	12.367641
2044.000000	12.436230
2043.000000	12.518064
2042.000000	12.590966
2041.000000	12.667358
2040.000000	12.733688
2039.000000	12.799710
2038.000000	12.882673
2037.000000	12.948695
2036.000000	13.010918
2035.000000	13.084640
2034.000000	13.134439
2033.000000	13.180747
2032.000000	13.221715
2031.000000	13.253443
2030.000000	13.312893
2029.000000	13.338973
2028.000000	13.376964
2027.000000	13.418446
2026.000000	13.444218
2025.000000	13.475843
2024.000000	13.482825
2023.000000	13.526052
2022.000000	13.552543
2021.000000	13.561784
2020.000000	13.572463
2019.000000	13.575646
2018.000000	13.601623
2017.000000	13.598543
2016.000000	13.593511
2015.000000	13.606757
2014.000000	13.615793
2013.000000	13.601110
2012.000000	13.575748
2011.000000	13.550592
2010.000000	13.535088
2009.000000	13.521534
2008.000000	13.505003
2007.000000	13.457053
2006.000000	13.437749
2005.000000	13.402017
2004.000000	13.357455
2003.000000	13.308067
2002.000000	13.277880
2001.000000	13.227157
2000.000000	13.180336
1999.000000	13.141010
1998.000000	13.085462
1997.000000	13.037409
1996.000000	12.989766
1995.000000	12.936784
1994.000000	12.879490
1993.000000	12.813776
1992.000000	12.727116
1991.000000	12.653291
1990.000000	12.596510
1989.000000	12.525149
1988.000000	12.447935
1987.000000	12.374624
1986.000000	12.308910
1985.000000	12.236317
1984.000000	12.146063
1983.000000	12.083737
1982.000000	12.020282
1981.000000	11.928386
1980.000000	11.844293
1979.000000	11.774677
1978.000000	11.691303
1977.000000	11.625794
1976.000000	11.541907
1975.000000	11.458532
1974.000000	11.371154
1973.000000	11.292400
1972.000000	11.229048
1971.000000	11.150294
1970.000000	11.102138
1969.000000	11.031187
1968.000000	10.950893
1967.000000	10.884564
1966.000000	10.798314
1965.000000	10.719766
1964.000000	10.657748
1963.000000	10.612570
1962.000000	10.551477
1961.000000	10.446437
1960.000000	10.404750
1959.000000	10.325278
1958.000000	10.282666
1957.000000	10.216850
1956.000000	10.140560
1955.000000	10.061909
1954.000000	10.018066
1953.000000	9.958102
1952.000000	9.887152
1951.000000	9.861482
1950.000000	9.789094
1949.000000	9.740220
1948.000000	9.680051
1947.000000	9.626966
1946.000000	9.593082
1945.000000	9.551806
1944.000000	9.513096
1943.000000	9.483833
1942.000000	9.459499
1941.000000	9.419762
1940.000000	9.391937
1939.000000	9.364522
1938.000000	9.367397
1937.000000	9.338236
1936.000000	9.344705
1935.000000	9.371298
1934.000000	9.375611
1933.000000	9.391629
1932.000000	9.377767
1931.000000	9.410419
1930.000000	9.429927
1929.000000	9.468226
1928.000000	9.528601
1927.000000	9.578913
1926.000000	9.679024
1925.000000	9.731184
1924.000000	9.805728
1923.000000	9.859634
1922.000000	9.943932
1921.000000	10.036445
1920.000000	10.174136
1919.000000	10.310595
1918.000000	10.417688
1917.000000	10.536691
1916.000000	10.651793
1915.000000	10.762685
1914.000000	10.885796
1913.000000	11.064558
1912.000000	11.262315
1911.000000	11.452474
1910.000000	11.604643
1909.000000	11.777655
1908.000000	11.901176
1907.000000	12.070697
1906.000000	12.288990
1905.000000	12.520734
1904.000000	12.794370
1903.000000	13.040592
1902.000000	13.264326
1901.000000	13.514860
1900.000000	13.743626
1899.000000	14.044164
1898.000000	14.387621
1897.000000	14.666494
1896.000000	14.954711
1895.000000	15.250628
1894.000000	15.501675
1893.000000	15.808579
1892.000000	16.120001
1891.000000	16.517467
1890.000000	16.923557
1889.000000	17.319072
1888.000000	17.716538
1887.000000	18.131972
1886.000000	18.542170
1885.000000	18.988099
1884.000000	19.494096
1883.000000	20.055846
1882.000000	20.584328
1881.000000	21.126570
1880.000000	21.691811
1879.000000	22.209409
1878.000000	22.688915
1877.000000	23.190188
1876.000000	23.685711
1875.000000	24.140881
1874.000000	24.588146
1873.000000	25.025142
1872.000000	25.461009
1871.000000	25.862480
1870.000000	26.224111
1869.000000	26.601452
1868.000000	26.943061
1867.000000	27.191541
1866.000000	27.425338
1865.000000	27.600301
1864.000000	27.768693
1863.000000	27.911415
1862.000000	28.058347
1861.000000	28.219037
1860.000000	28.368125
1859.000000	28.511566
1858.000000	28.632007
1857.000000	28.730373
1856.000000	28.800912
1855.000000	28.856358
1854.000000	28.908519
1853.000000	28.972384
1852.000000	28.986554
1851.000000	28.987478
1850.000000	28.996205
1849.000000	29.014174
1848.000000	29.014893
1847.000000	29.027111
1846.000000	29.028036
1845.000000	29.003188
1844.000000	28.956674
1843.000000	28.922175
1842.000000	28.907286
1841.000000	28.938603
1840.000000	28.929157
1839.000000	28.912831
1838.000000	28.881001
1837.000000	28.858412
1836.000000	28.833153
1835.000000	28.804301
1834.000000	28.767747
1833.000000	28.694538
1832.000000	28.624307
1831.000000	28.584159
1830.000000	28.538776
1829.000000	28.484254
1828.000000	28.413612
1827.000000	28.345742
1826.000000	28.289988
1825.000000	28.254050
1824.000000	28.193163
1823.000000	28.116257
1822.000000	28.086788
1821.000000	28.091409
1820.000000	28.080012
1819.000000	28.044588
1818.000000	27.996740
1817.000000	27.960084
1816.000000	27.943758
1815.000000	27.943964
1814.000000	27.927843
1813.000000	27.898888
1812.000000	27.885745
1811.000000	27.864902
1810.000000	27.840054
1809.000000	27.798674
1808.000000	27.749594
1807.000000	27.716943
1806.000000	27.673305
1805.000000	27.615805
1804.000000	27.563850
1803.000000	27.507070
1802.000000	27.455833
1801.000000	27.410655
1800.000000	27.357057
1799.000000	27.304589
1798.000000	27.256433
1797.000000	27.192978
1796.000000	27.134965
1795.000000	27.095434
1794.000000	27.032185
1793.000000	26.966984
1792.000000	26.931971
1791.000000	26.884123
1790.000000	26.829602
1789.000000	26.768611
1788.000000	26.702795
1787.000000	26.643344
1786.000000	26.579376
1785.000000	26.519207
1784.000000	26.462529
1783.000000	26.399176
1782.000000	26.321860
1781.000000	26.245057
1780.000000	26.161067
1779.000000	26.097920
1778.000000	26.034978
1777.000000	25.960537
1776.000000	25.879216
1775.000000	25.784444
1774.000000	25.696039
1773.000000	25.586687
1772.000000	25.468608
1771.000000	25.368189
1770.000000	25.269002
1769.000000	25.155646
1768.000000	25.045267
1767.000000	24.954911
1766.000000	24.860242
1765.000000	24.782515
1764.000000	24.713412
1763.000000	24.675422
1762.000000	24.650266
1761.000000	24.652319
1760.000000	24.694520
1759.000000	24.748426
1758.000000	24.814345
1757.000000	24.885808
1756.000000	24.945670
1755.000000	25.009022
1754.000000	25.076173
1753.000000	25.125458
1752.000000	25.159137
1751.000000	25.172690
1750.000000	25.174744
1749.000000	25.161806
1748.000000	25.132441
1747.000000	25.078432
1746.000000	25.028223
1745.000000	24.953987
1744.000000	24.859831
1743.000000	24.747810
1742.000000	24.600878
1741.000000	24.443986
1740.000000	24.254237
1739.000000	24.046520
1738.000000	23.856772
1737.000000	23.649157
1736.000000	23.458177
1735.000000	23.327879
1734.000000	23.221915
1733.000000	23.142545
1732.000000	23.136590
1731.000000	23.170371
1730.000000	23.201379
1729.000000	23.278901
1728.000000	23.369258
1727.000000	23.485489
1726.000000	23.594533
1725.000000	23.684684
1724.000000	23.789312
1723.000000	23.864165
1722.000000	23.921356
1721.000000	23.979677
1720.000000	24.011507
1719.000000	24.059355
1718.000000	24.107306
1717.000000	24.159363
1716.000000	24.225282
1715.000000	24.311018
1714.000000	24.389361
1713.000000	24.476432
1712.000000	24.563708
1711.000000	24.640511
1710.000000	24.689694
1709.000000	24.718238
1708.000000	24.734667
1707.000000	24.737747
1706.000000	24.721011
1705.000000	24.671212
1704.000000	24.646877
1703.000000	24.582806
1702.000000	24.491423
1701.000000	24.417700
1700.000000	24.282679
1699.000000	24.148582
1698.000000	23.989226
1697.000000	23.844142
1696.000000	23.718362
1695.000000	23.639711
1694.000000	23.595765
1693.000000	23.636220
1692.000000	23.702755
1691.000000	23.818678
1690.000000	23.954829
1689.000000	24.093752
1688.000000	24.216144
1687.000000	24.309273
1686.000000	24.384638
1685.000000	24.393982
1684.000000	24.452816
1683.000000	24.567918
1682.000000	24.714131
1681.000000	24.989410
1680.000000	25.335229
1679.000000	25.769967
1678.000000	26.236227
1677.000000	26.741093
1676.000000	27.215259
1675.000000	27.631720
1674.000000	27.997664
1673.000000	28.324282
1672.000000	28.605722
1671.000000	28.857590
1670.000000	29.067258
1669.000000	29.258239
1668.000000	29.418314
1667.000000	29.526536
1666.000000	29.665665
1665.000000	29.787235
1664.000000	29.857364
1663.000000	29.959939
1662.000000	30.023291
1661.000000	30.071858
1660.000000	30.152973
1659.000000	30.187268
1658.000000	30.213245
1657.000000	30.249696
1656.000000	30.277111
1655.000000	30.307195
1654.000000	30.290048
1653.000000	30.286557
1652.000000	30.283785
1651.000000	30.268178
1650.000000	30.216017
1649.000000	30.205339
1648.000000	30.167656
1647.000000	30.124737
1646.000000	30.097835
1645.000000	30.060563
1644.000000	30.002037
1643.000000	29.943305
1642.000000	29.883547
1641.000000	29.815369
1640.000000	29.768650
1639.000000	29.693901
1638.000000	29.642459
1637.000000	29.575924
1636.000000	29.523969
1635.000000	29.445215
1634.000000	29.377653
1633.000000	29.297873
1632.000000	29.221583
1631.000000	29.165418
1630.000000	29.072700
1629.000000	28.999183
1628.000000	28.911907
1627.000000	28.837568
1626.000000	28.765078
1625.000000	28.660860
1624.000000	28.589396
1623.000000	28.484767
1622.000000	28.433839
1621.000000	28.361246
1620.000000	28.276742
1619.000000	28.179301
1618.000000	28.131248
1617.000000	28.062043
1616.000000	27.979182
