PE UV       SUBTECH     SPECTRUM    ASCII       PEDS        4.00        
   -1
CICIMAUCR0236-2..ASC
24/06/17
13:53:45.00
24/06/17
13:53:45.00
Vinicio Soto Monge
C. resplendens. Sex M. Dorsal.
250,000000
1
Lambda 1050
1050L1511233
PerkinElmer UV WinLab 6.3.2.0749 / 2.02.05 Lambda 900 UV/VIS/NIR, Aug  7 2015 09:38:08

0
0
3350/servo 860,8/2
0
0
UV/VIS
1
1
1
DoubleDePol,CommonBeamDepol,RBeamAtt,SBeamAtt,60mm sphere, WB InGaAs Detector
0
0
0
0
Program
Program
3350/servo 860,8/2
3350/0,2 860,8/0,2
3350/0,2 860,8/0,2
0
15.00
 
 
 
0
 
860,8
319,2
860,8
Front
100
on
S:100 R:100
0
0
0
0
 
0
 
 
 
0
 
 
0
0
0
0
0
 
 
 
 
0
0


0
0
#HDR
-1
-1
#GR
nm
%R
1.0
0.0
2500,000000
-1,000000
2251
8
91,742500
5,485700
#DATA
2500.000000	8.498847
2499.000000	8.599537
2498.000000	8.676258
2497.000000	8.534643
2496.000000	8.604352
2495.000000	8.650719
2494.000000	8.462737
2493.000000	8.445677
2492.000000	8.460435
2491.000000	8.366653
2490.000000	8.435629
2489.000000	8.418672
2488.000000	8.459179
2487.000000	8.476553
2486.000000	8.434163
2485.000000	8.404019
2484.000000	8.462423
2483.000000	8.420138
2482.000000	8.413648
2481.000000	8.458865
2480.000000	8.485031
2479.000000	8.446933
2478.000000	8.472053
2477.000000	8.457609
2476.000000	8.481054
2475.000000	8.511721
2474.000000	8.509419
2473.000000	8.546471
2472.000000	8.507221
2471.000000	8.548983
2470.000000	8.590117
2469.000000	8.569602
2468.000000	8.547413
2467.000000	8.549401
2466.000000	8.593466
2465.000000	8.642764
2464.000000	8.695726
2463.000000	8.678874
2462.000000	8.703471
2461.000000	8.752246
2460.000000	8.760933
2459.000000	8.814732
2458.000000	8.842259
2457.000000	8.882033
2456.000000	8.921178
2455.000000	8.986072
2454.000000	9.036312
2453.000000	9.094821
2452.000000	9.153748
2451.000000	9.224922
2450.000000	9.256426
2449.000000	9.318284
2448.000000	9.381085
2447.000000	9.440849
2446.000000	9.481879
2445.000000	9.563519
2444.000000	9.612398
2443.000000	9.676455
2442.000000	9.745221
2441.000000	9.809486
2440.000000	9.863390
2439.000000	9.930481
2438.000000	10.002178
2437.000000	10.070002
2436.000000	10.095436
2435.000000	10.157399
2434.000000	10.222606
2433.000000	10.274312
2432.000000	10.322249
2431.000000	10.374687
2430.000000	10.429742
2429.000000	10.485111
2428.000000	10.528338
2427.000000	10.583184
2426.000000	10.620969
2425.000000	10.675291
2424.000000	10.732544
2423.000000	10.772526
2422.000000	10.807904
2421.000000	10.847677
2420.000000	10.881589
2419.000000	10.946797
2418.000000	10.977359
2417.000000	10.989187
2416.000000	11.039218
2415.000000	11.071350
2414.000000	11.109868
2413.000000	11.137290
2412.000000	11.177901
2411.000000	11.230130
2410.000000	11.265403
2409.000000	11.293872
2408.000000	11.332704
2407.000000	11.374047
2406.000000	11.414134
2405.000000	11.462700
2404.000000	11.516708
2403.000000	11.548003
2402.000000	11.581497
2401.000000	11.612269
2400.000000	11.643564
2399.000000	11.681454
2398.000000	11.705632
2397.000000	11.754825
2396.000000	11.800983
2395.000000	11.813334
2394.000000	11.841175
2393.000000	11.882728
2392.000000	11.905231
2391.000000	11.929096
2390.000000	11.951390
2389.000000	11.982790
2388.000000	12.017120
2387.000000	12.045485
2386.000000	12.076781
2385.000000	12.095621
2384.000000	12.111635
2383.000000	12.115612
2382.000000	12.130579
2381.000000	12.166899
2380.000000	12.172865
2379.000000	12.179877
2378.000000	12.170457
2377.000000	12.174121
2376.000000	12.187727
2375.000000	12.193275
2374.000000	12.207195
2373.000000	12.212847
2372.000000	12.199136
2371.000000	12.197775
2370.000000	12.199136
2369.000000	12.204997
2368.000000	12.188983
2367.000000	12.166585
2366.000000	12.160933
2365.000000	12.161875
2364.000000	12.155909
2363.000000	12.134138
2362.000000	12.114775
2361.000000	12.089864
2360.000000	12.061708
2359.000000	12.031774
2358.000000	12.007910
2357.000000	11.990744
2356.000000	11.969811
2355.000000	11.954844
2354.000000	11.953169
2353.000000	11.941551
2352.000000	11.942493
2351.000000	11.949401
2350.000000	11.961124
2349.000000	11.977242
2348.000000	11.989802
2347.000000	12.006130
2346.000000	12.041194
2345.000000	12.095830
2344.000000	12.131835
2343.000000	12.156223
2342.000000	12.219965
2341.000000	12.269682
2340.000000	12.292394
2339.000000	12.319398
2338.000000	12.351112
2337.000000	12.392037
2336.000000	12.428775
2335.000000	12.456721
2334.000000	12.472212
2333.000000	12.485400
2332.000000	12.504973
2331.000000	12.508113
2330.000000	12.505601
2329.000000	12.508427
2328.000000	12.496285
2327.000000	12.468235
2326.000000	12.455361
2325.000000	12.428671
2324.000000	12.387746
2323.000000	12.351217
2322.000000	12.313014
2321.000000	12.286114
2320.000000	12.239014
2319.000000	12.166480
2318.000000	12.099179
2317.000000	12.049253
2316.000000	11.965938
2315.000000	11.887647
2314.000000	11.807682
2313.000000	11.750952
2312.000000	11.670778
2311.000000	11.612688
2310.000000	11.551248
2309.000000	11.497135
2308.000000	11.453070
2307.000000	11.419786
2306.000000	11.404819
2305.000000	11.382316
2304.000000	11.382944
2303.000000	11.408796
2302.000000	11.438208
2301.000000	11.468980
2300.000000	11.512103
2299.000000	11.567053
2298.000000	11.656962
2297.000000	11.728030
2296.000000	11.805170
2295.000000	11.879483
2294.000000	11.974835
2293.000000	12.067779
2292.000000	12.142407
2291.000000	12.203532
2290.000000	12.245713
2289.000000	12.289045
2288.000000	12.336040
2287.000000	12.371313
2286.000000	12.379896
2285.000000	12.402295
2284.000000	12.407214
2283.000000	12.409831
2282.000000	12.398108
2281.000000	12.375919
2280.000000	12.342111
2279.000000	12.309874
2278.000000	12.265600
2277.000000	12.223000
2276.000000	12.201020
2275.000000	12.164491
2274.000000	12.133405
2273.000000	12.097923
2272.000000	12.081491
2271.000000	12.062336
2270.000000	12.074164
2269.000000	12.074164
2268.000000	12.112577
2267.000000	12.153606
2266.000000	12.198717
2265.000000	12.294488
2264.000000	12.369638
2263.000000	12.502356
2262.000000	12.628794
2261.000000	12.769257
2260.000000	12.945306
2259.000000	13.132346
2258.000000	13.299604
2257.000000	13.484969
2256.000000	13.684255
2255.000000	13.889716
2254.000000	14.124065
2253.000000	14.313303
2252.000000	14.501389
2251.000000	14.701512
2250.000000	14.889389
2249.000000	15.069730
2248.000000	15.231545
2247.000000	15.393256
2246.000000	15.538743
2245.000000	15.676798
2244.000000	15.815901
2243.000000	15.928313
2242.000000	16.014559
2241.000000	16.137437
2240.000000	16.210809
2239.000000	16.280308
2238.000000	16.346981
2237.000000	16.422550
2236.000000	16.480117
2235.000000	16.556628
2234.000000	16.596611
2233.000000	16.647793
2232.000000	16.651143
2231.000000	16.677205
2230.000000	16.731422
2229.000000	16.736760
2228.000000	16.745343
2227.000000	16.727549
2226.000000	16.726084
2225.000000	16.719699
2224.000000	16.690707
2223.000000	16.680345
2222.000000	16.677937
2221.000000	16.617440
2220.000000	16.629372
2219.000000	16.579132
2218.000000	16.537998
2217.000000	16.489956
2216.000000	16.470278
2215.000000	16.427469
2214.000000	16.389789
2213.000000	16.345725
2212.000000	16.327094
2211.000000	16.276749
2210.000000	16.241581
2209.000000	16.226614
2208.000000	16.196470
2207.000000	16.158475
2206.000000	16.132623
2205.000000	16.102165
2204.000000	16.093268
2203.000000	16.056425
2202.000000	16.064799
2201.000000	16.067729
2200.000000	16.024188
2199.000000	15.990276
2198.000000	15.982530
2197.000000	15.973110
2196.000000	15.976355
2195.000000	15.959294
2194.000000	15.945478
2193.000000	15.923812
2192.000000	15.911566
2191.000000	15.892517
2190.000000	15.893982
2189.000000	15.871793
2188.000000	15.851487
2187.000000	15.832961
2186.000000	15.818831
2185.000000	15.815482
2184.000000	15.803131
2183.000000	15.793816
2182.000000	15.749856
2181.000000	15.728190
2180.000000	15.732272
2179.000000	15.733737
2178.000000	15.679310
2177.000000	15.698046
2176.000000	15.661098
2175.000000	15.657121
2174.000000	15.653353
2173.000000	15.631059
2172.000000	15.635978
2171.000000	15.627710
2170.000000	15.622581
2169.000000	15.641002
2168.000000	15.634304
2167.000000	15.657121
2166.000000	15.653144
2165.000000	15.676694
2164.000000	15.692603
2163.000000	15.709140
2162.000000	15.709350
2161.000000	15.728085
2160.000000	15.767126
2159.000000	15.789734
2158.000000	15.796747
2157.000000	15.836834
2156.000000	15.877445
2155.000000	15.926115
2154.000000	15.955526
2153.000000	15.978448
2152.000000	16.023560
2151.000000	16.057472
2150.000000	16.093268
2149.000000	16.148323
2148.000000	16.191446
2147.000000	16.220229
2146.000000	16.260840
2145.000000	16.318616
2144.000000	16.355249
2143.000000	16.384451
2142.000000	16.423701
2141.000000	16.460649
2140.000000	16.491421
2139.000000	16.515704
2138.000000	16.562594
2137.000000	16.583946
2136.000000	16.619847
2135.000000	16.653341
2134.000000	16.674483
2133.000000	16.700022
2132.000000	16.723153
2131.000000	16.744191
2130.000000	16.758635
2129.000000	16.775278
2128.000000	16.776743
2127.000000	16.802910
2126.000000	16.805003
2125.000000	16.793594
2124.000000	16.803538
2123.000000	16.827088
2122.000000	16.836822
2121.000000	16.837554
2120.000000	16.809399
2119.000000	16.792757
2118.000000	16.792338
2117.000000	16.780720
2116.000000	16.774336
2115.000000	16.773917
2114.000000	16.747541
2113.000000	16.724095
2112.000000	16.692905
2111.000000	16.680449
2110.000000	16.689241
2109.000000	16.671762
2108.000000	16.642874
2107.000000	16.606031
2106.000000	16.579341
2105.000000	16.582586
2104.000000	16.566781
2103.000000	16.527531
2102.000000	16.487339
2101.000000	16.456043
2100.000000	16.438459
2099.000000	16.406327
2098.000000	16.397744
2097.000000	16.369484
2096.000000	16.334421
2095.000000	16.319453
2094.000000	16.289100
2093.000000	16.267852
2092.000000	16.245244
2091.000000	16.217508
2090.000000	16.200656
2089.000000	16.189352
2088.000000	16.172292
2087.000000	16.142985
2086.000000	16.120691
2085.000000	16.085313
2084.000000	16.052971
2083.000000	16.036643
2082.000000	16.006499
2081.000000	15.969028
2080.000000	15.939408
2079.000000	15.896599
2078.000000	15.847405
2077.000000	15.796956
2076.000000	15.750170
2075.000000	15.703174
2074.000000	15.664448
2073.000000	15.614522
2072.000000	15.556955
2071.000000	15.508913
2070.000000	15.441089
2069.000000	15.382161
2068.000000	15.335794
2067.000000	15.276866
2066.000000	15.219299
2065.000000	15.170106
2064.000000	15.114947
2063.000000	15.047960
2062.000000	14.990393
2061.000000	14.954283
2060.000000	14.911474
2059.000000	14.850035
2058.000000	14.799794
2057.000000	14.793828
2056.000000	14.784304
2055.000000	14.759184
2054.000000	14.732598
2053.000000	14.714491
2052.000000	14.730819
2051.000000	14.742332
2050.000000	14.759498
2049.000000	14.785664
2048.000000	14.819681
2047.000000	14.863955
2046.000000	14.892320
2045.000000	14.917859
2044.000000	14.972704
2043.000000	15.023049
2042.000000	15.064078
2041.000000	15.104061
2040.000000	15.157441
2039.000000	15.183294
2038.000000	15.211973
2037.000000	15.256561
2036.000000	15.298846
2035.000000	15.323757
2034.000000	15.337364
2033.000000	15.355785
2032.000000	15.376509
2031.000000	15.402048
2030.000000	15.394930
2029.000000	15.393988
2028.000000	15.398280
2027.000000	15.413247
2026.000000	15.401629
2025.000000	15.383731
2024.000000	15.389069
2023.000000	15.387918
2022.000000	15.362693
2021.000000	15.360600
2020.000000	15.343016
2019.000000	15.305545
2018.000000	15.284298
2017.000000	15.270272
2016.000000	15.227987
2015.000000	15.215741
2014.000000	15.192609
2013.000000	15.173141
2012.000000	15.116203
2011.000000	15.065020
2010.000000	15.021165
2009.000000	14.983904
2008.000000	14.952190
2007.000000	14.886459
2006.000000	14.833916
2005.000000	14.781373
2004.000000	14.722864
2003.000000	14.670740
2002.000000	14.597159
2001.000000	14.553932
2000.000000	14.493434
1999.000000	14.409492
1998.000000	14.347634
1997.000000	14.254271
1996.000000	14.199844
1995.000000	14.141021
1994.000000	14.058753
1993.000000	13.964762
1992.000000	13.892019
1991.000000	13.807448
1990.000000	13.721935
1989.000000	13.656099
1988.000000	13.584716
1987.000000	13.501402
1986.000000	13.415156
1985.000000	13.330167
1984.000000	13.237013
1983.000000	13.183947
1982.000000	13.084723
1981.000000	12.990313
1980.000000	12.909929
1979.000000	12.827870
1978.000000	12.738694
1977.000000	12.659042
1976.000000	12.587974
1975.000000	12.480376
1974.000000	12.413808
1973.000000	12.332796
1972.000000	12.260366
1971.000000	12.167003
1970.000000	12.093737
1969.000000	12.032925
1968.000000	11.942493
1967.000000	11.869959
1966.000000	11.811450
1965.000000	11.728030
1964.000000	11.650054
1963.000000	11.589033
1962.000000	11.509905
1961.000000	11.435068
1960.000000	11.389956
1959.000000	11.305281
1958.000000	11.239236
1957.000000	11.158433
1956.000000	11.110705
1955.000000	11.039950
1954.000000	10.991175
1953.000000	10.913408
1952.000000	10.851236
1951.000000	10.808322
1950.000000	10.764258
1949.000000	10.722182
1948.000000	10.664301
1947.000000	10.612281
1946.000000	10.555447
1945.000000	10.513266
1944.000000	10.480924
1943.000000	10.437278
1942.000000	10.435290
1941.000000	10.404727
1940.000000	10.367989
1939.000000	10.367361
1938.000000	10.365477
1937.000000	10.349986
1936.000000	10.334391
1935.000000	10.356999
1934.000000	10.340147
1933.000000	10.396772
1932.000000	10.382956
1931.000000	10.426184
1930.000000	10.456118
1929.000000	10.488565
1928.000000	10.557017
1927.000000	10.617515
1926.000000	10.725740
1925.000000	10.746988
1924.000000	10.855213
1923.000000	10.896871
1922.000000	10.993478
1921.000000	11.122323
1920.000000	11.246667
1919.000000	11.398016
1918.000000	11.489076
1917.000000	11.614886
1916.000000	11.741951
1915.000000	11.863365
1914.000000	12.046322
1913.000000	12.233153
1912.000000	12.432020
1911.000000	12.603360
1910.000000	12.779200
1909.000000	12.958390
1908.000000	13.109215
1907.000000	13.328597
1906.000000	13.570272
1905.000000	13.846384
1904.000000	14.124274
1903.000000	14.391280
1902.000000	14.644364
1901.000000	14.935129
1900.000000	15.245257
1899.000000	15.578935
1898.000000	15.924545
1897.000000	16.292240
1896.000000	16.643397
1895.000000	16.969016
1894.000000	17.301752
1893.000000	17.666097
1892.000000	18.091568
1891.000000	18.566965
1890.000000	19.054504
1889.000000	19.494733
1888.000000	19.954325
1887.000000	20.401462
1886.000000	20.884500
1885.000000	21.348802
1884.000000	21.871718
1883.000000	22.431895
1882.000000	22.973128
1881.000000	23.461294
1880.000000	23.958253
1879.000000	24.393039
1878.000000	24.858074
1877.000000	25.323109
1876.000000	25.723669
1875.000000	26.131870
1874.000000	26.559225
1873.000000	26.977160
1872.000000	27.386826
1871.000000	27.761115
1870.000000	28.162722
1869.000000	28.493679
1868.000000	28.831334
1867.000000	29.091850
1866.000000	29.303172
1865.000000	29.502249
1864.000000	29.680392
1863.000000	29.814051
1862.000000	29.975343
1861.000000	30.154638
1860.000000	30.331106
1859.000000	30.464766
1858.000000	30.603031
1857.000000	30.745587
1856.000000	30.844288
1855.000000	30.899133
1854.000000	31.000032
1853.000000	31.093290
1852.000000	31.119457
1851.000000	31.163103
1850.000000	31.178280
1849.000000	31.198899
1848.000000	31.243278
1847.000000	31.322615
1846.000000	31.345014
1845.000000	31.321673
1844.000000	31.301891
1843.000000	31.274678
1842.000000	31.294460
1841.000000	31.346584
1840.000000	31.350143
1839.000000	31.346480
1838.000000	31.327221
1837.000000	31.316859
1836.000000	31.298961
1835.000000	31.286610
1834.000000	31.254268
1833.000000	31.215018
1832.000000	31.178175
1831.000000	31.136622
1830.000000	31.111607
1829.000000	31.084394
1828.000000	31.026303
1827.000000	30.959945
1826.000000	30.931999
1825.000000	30.904890
1824.000000	30.870454
1823.000000	30.845230
1822.000000	30.832251
1821.000000	30.833507
1820.000000	30.814562
1819.000000	30.807131
1818.000000	30.767253
1817.000000	30.721618
1816.000000	30.704767
1815.000000	30.716280
1814.000000	30.714082
1813.000000	30.696812
1812.000000	30.673785
1811.000000	30.652329
1810.000000	30.619673
1809.000000	30.581469
1808.000000	30.544208
1807.000000	30.520658
1806.000000	30.518250
1805.000000	30.489676
1804.000000	30.431586
1803.000000	30.396941
1802.000000	30.363657
1801.000000	30.318441
1800.000000	30.288402
1799.000000	30.248419
1798.000000	30.191690
1797.000000	30.145741
1796.000000	30.112875
1795.000000	30.078545
1794.000000	30.054157
1793.000000	30.029770
1792.000000	29.987485
1791.000000	29.954096
1790.000000	29.911496
1789.000000	29.867641
1788.000000	29.833520
1787.000000	29.806620
1786.000000	29.780244
1785.000000	29.732516
1784.000000	29.691382
1783.000000	29.653911
1782.000000	29.608276
1781.000000	29.559397
1780.000000	29.513971
1779.000000	29.474617
1778.000000	29.439449
1777.000000	29.396535
1776.000000	29.346190
1775.000000	29.284123
1774.000000	29.229068
1773.000000	29.176839
1772.000000	29.114981
1771.000000	29.052600
1770.000000	28.978914
1769.000000	28.931710
1768.000000	28.863362
1767.000000	28.788944
1766.000000	28.739018
1765.000000	28.690243
1764.000000	28.655389
1763.000000	28.643248
1762.000000	28.632048
1761.000000	28.636026
1760.000000	28.667530
1759.000000	28.687417
1758.000000	28.728970
1757.000000	28.788839
1756.000000	28.848918
1755.000000	28.892669
1754.000000	28.940920
1753.000000	28.974623
1752.000000	29.006965
1751.000000	29.024654
1750.000000	29.032399
1749.000000	29.041505
1748.000000	29.031352
1747.000000	28.991893
1746.000000	28.956830
1745.000000	28.912137
1744.000000	28.859280
1743.000000	28.788002
1742.000000	28.691604
1741.000000	28.584111
1740.000000	28.478188
1739.000000	28.355728
1738.000000	28.239233
1737.000000	28.101178
1736.000000	27.992115
1735.000000	27.886611
1734.000000	27.812716
1733.000000	27.776501
1732.000000	27.751276
1731.000000	27.736414
1730.000000	27.749392
1729.000000	27.793771
1728.000000	27.842441
1727.000000	27.909219
1726.000000	27.973589
1725.000000	28.028330
1724.000000	28.076790
1723.000000	28.135299
1722.000000	28.174863
1721.000000	28.234628
1720.000000	28.271261
1719.000000	28.322758
1718.000000	28.392989
1717.000000	28.436949
1716.000000	28.534185
1715.000000	28.606614
1714.000000	28.668891
1713.000000	28.740169
1712.000000	28.827252
1711.000000	28.897169
1710.000000	28.918940
1709.000000	28.965412
1708.000000	28.991893
1707.000000	29.002569
1706.000000	28.999115
1705.000000	28.965936
1704.000000	28.939350
1703.000000	28.899158
1702.000000	28.836881
1701.000000	28.760893
1700.000000	28.688987
1699.000000	28.594787
1698.000000	28.506553
1697.000000	28.401153
1696.000000	28.296277
1695.000000	28.252212
1694.000000	28.248863
1693.000000	28.262783
1692.000000	28.292299
1691.000000	28.369962
1690.000000	28.457150
1689.000000	28.572283
1688.000000	28.662925
1687.000000	28.736401
1686.000000	28.795643
1685.000000	28.874666
1684.000000	28.945840
1683.000000	29.051762
1682.000000	29.200599
1681.000000	29.402815
1680.000000	29.656737
1679.000000	29.971889
1678.000000	30.279505
1677.000000	30.607741
1676.000000	30.948327
1675.000000	31.242231
1674.000000	31.529123
1673.000000	31.751226
1672.000000	31.993321
1671.000000	32.171883
1670.000000	32.345525
1669.000000	32.515399
1668.000000	32.639220
1667.000000	32.730490
1666.000000	32.806687
1665.000000	32.919832
1664.000000	32.987656
1663.000000	33.055376
1662.000000	33.123933
1661.000000	33.169568
1660.000000	33.228076
1659.000000	33.277898
1658.000000	33.296110
1657.000000	33.342373
1656.000000	33.351688
1655.000000	33.356293
1654.000000	33.372726
1653.000000	33.377017
1652.000000	33.379320
1651.000000	33.349071
1650.000000	33.332325
1649.000000	33.312752
1648.000000	33.304902
1647.000000	33.280514
1646.000000	33.239694
1645.000000	33.202328
1644.000000	33.165590
1643.000000	33.129689
1642.000000	33.095359
1641.000000	33.060714
1640.000000	33.005973
1639.000000	32.975724
1638.000000	32.925170
1637.000000	32.861637
1636.000000	32.828353
1635.000000	32.758227
1634.000000	32.718453
1633.000000	32.644872
1632.000000	32.595993
1631.000000	32.528692
1630.000000	32.458042
1629.000000	32.403196
1628.000000	32.337570
1627.000000	32.273619
1626.000000	32.199619
1625.000000	32.146553
1624.000000	32.085428
1623.000000	32.012161
1622.000000	31.947686
