PE UV       SUBTECH     SPECTRUM    ASCII       PEDS        4.00        
   -1
CICIMAUCR0238-3.Sample.ASC
24/06/20
12:09:23.00
24/06/20
12:09:23.00
Vinicio Soto Monge
C. cupreomarginata. Sex M. Dorsal.
250,000000
1
Lambda 1050
1050L1511233
PerkinElmer UV WinLab 6.3.2.0749 / 2.02.05 Lambda 900 UV/VIS/NIR, Aug  7 2015 09:38:08

0
0
3350/servo 860,8/2
0
0
UV/VIS
1
1
1
DoubleDePol,CommonBeamDepol,RBeamAtt,SBeamAtt,60mm sphere, WB InGaAs Detector
0
0
0
0
Program
Program
3350/servo 860,8/2
3350/0,2 860,8/0,2
3350/0,2 860,8/0,2
0
15.00
 
 
 
0
 
860,8
319,2
860,8
Front
100
on
S:100 R:100
0
0
0
0
 
0
 
 
 
0
 
 
0
0
0
0
0
 
 
 
 
0
0


0
0
#HDR
-1
-1
#GR
nm
%R
1.0
0.0
2500,000000
-1,000000
2251
8
74,014800
5,227200
#DATA
2482.000000	12.248405
2481.000000	12.345581
2480.000000	12.252346
2479.000000	12.292792
2478.000000	12.321105
2477.000000	12.345788
2476.000000	12.359996
2475.000000	12.298496
2474.000000	12.346929
2473.000000	12.330335
2472.000000	12.362174
2471.000000	12.396709
2470.000000	12.393909
2469.000000	12.432593
2468.000000	12.435600
2467.000000	12.443897
2466.000000	12.495648
2465.000000	12.512138
2464.000000	12.529872
2463.000000	12.601743
2462.000000	12.606721
2461.000000	12.661169
2460.000000	12.704623
2459.000000	12.752329
2458.000000	12.810303
2457.000000	12.825133
2456.000000	12.917850
2455.000000	12.999365
2454.000000	13.067917
2453.000000	13.169553
2452.000000	13.227941
2451.000000	13.295456
2450.000000	13.370334
2449.000000	13.458591
2448.000000	13.551930
2447.000000	13.626082
2446.000000	13.712990
2445.000000	13.793158
2444.000000	13.896556
2443.000000	13.964175
2442.000000	14.054402
2441.000000	14.173253
2440.000000	14.244709
2439.000000	14.335766
2438.000000	14.407637
2437.000000	14.501183
2436.000000	14.585810
2435.000000	14.646480
2434.000000	14.695327
2433.000000	14.763049
2432.000000	14.828905
2431.000000	14.900568
2430.000000	14.967046
2429.000000	15.029790
2428.000000	15.076045
2427.000000	15.158079
2426.000000	15.216052
2425.000000	15.263863
2424.000000	15.314888
2423.000000	15.385514
2422.000000	15.442139
2421.000000	15.483208
2420.000000	15.530707
2419.000000	15.572087
2418.000000	15.614712
2417.000000	15.649973
2416.000000	15.686375
2415.000000	15.734081
2414.000000	15.773802
2413.000000	15.822338
2412.000000	15.853140
2411.000000	15.886327
2410.000000	15.914640
2409.000000	15.947101
2408.000000	15.981429
2407.000000	16.013890
2406.000000	16.043447
2405.000000	16.063463
2404.000000	16.085760
2403.000000	16.124859
2402.000000	16.160224
2401.000000	16.185736
2400.000000	16.218923
2399.000000	16.249933
2398.000000	16.276690
2397.000000	16.286957
2396.000000	16.317862
2395.000000	16.336945
2394.000000	16.349701
2393.000000	16.370754
2392.000000	16.393570
2391.000000	16.414208
2390.000000	16.440136
2389.000000	16.452477
2388.000000	16.463782
2387.000000	16.476953
2386.000000	16.491161
2385.000000	16.489398
2384.000000	16.483901
2383.000000	16.479960
2382.000000	16.481101
2381.000000	16.463885
2380.000000	16.447707
2379.000000	16.452581
2378.000000	16.447707
2377.000000	16.433706
2376.000000	16.420120
2375.000000	16.404252
2374.000000	16.379466
2373.000000	16.350323
2372.000000	16.339641
2371.000000	16.320248
2370.000000	16.289031
2369.000000	16.275653
2368.000000	16.243399
2367.000000	16.209071
2366.000000	16.181277
2365.000000	16.131600
2364.000000	16.078293
2363.000000	16.035980
2362.000000	15.999267
2361.000000	15.941293
2360.000000	15.896491
2359.000000	15.862681
2358.000000	15.823686
2357.000000	15.771417
2356.000000	15.732941
2355.000000	15.702346
2354.000000	15.658062
2353.000000	15.646758
2352.000000	15.641054
2351.000000	15.629646
2350.000000	15.613260
2349.000000	15.601230
2348.000000	15.616267
2347.000000	15.640847
2346.000000	15.658685
2345.000000	15.679530
2344.000000	15.708154
2343.000000	15.737711
2342.000000	15.770898
2341.000000	15.794544
2340.000000	15.814664
2339.000000	15.838932
2338.000000	15.863822
2337.000000	15.886223
2336.000000	15.908002
2335.000000	15.915884
2334.000000	15.917958
2333.000000	15.904061
2332.000000	15.881556
2331.000000	15.867659
2330.000000	15.845258
2329.000000	15.812175
2328.000000	15.770587
2327.000000	15.730970
2326.000000	15.682227
2325.000000	15.634624
2324.000000	15.577688
2323.000000	15.519506
2322.000000	15.454066
2321.000000	15.374935
2320.000000	15.296635
2319.000000	15.209311
2318.000000	15.113899
2317.000000	15.015997
2316.000000	14.919651
2315.000000	14.813971
2314.000000	14.715032
2313.000000	14.596803
2312.000000	14.500353
2311.000000	14.406185
2310.000000	14.315024
2309.000000	14.248754
2308.000000	14.179994
2307.000000	14.131562
2306.000000	14.107087
2305.000000	14.106879
2304.000000	14.107709
2303.000000	14.122747
2302.000000	14.162571
2301.000000	14.213700
2300.000000	14.276133
2299.000000	14.336803
2298.000000	14.418630
2297.000000	14.504709
2296.000000	14.580728
2295.000000	14.656332
2294.000000	14.722499
2293.000000	14.812311
2292.000000	14.861988
2291.000000	14.938941
2290.000000	14.978972
2289.000000	15.007493
2288.000000	15.032694
2287.000000	15.059140
2286.000000	15.081126
2285.000000	15.075422
2284.000000	15.086830
2283.000000	15.093468
2282.000000	15.066296
2281.000000	15.031968
2280.000000	15.016826
2279.000000	14.995462
2278.000000	14.990277
2277.000000	14.967876
2276.000000	14.930333
2275.000000	14.931992
2274.000000	14.904613
2273.000000	14.900464
2272.000000	14.915606
2271.000000	14.903472
2270.000000	14.939667
2269.000000	15.004381
2268.000000	15.032487
2267.000000	15.127070
2266.000000	15.211697
2265.000000	15.321110
2264.000000	15.417871
2263.000000	15.564309
2262.000000	15.729000
2261.000000	15.907691
2260.000000	16.085760
2259.000000	16.277208
2258.000000	16.480790
2257.000000	16.699306
2256.000000	16.929126
2255.000000	17.145049
2254.000000	17.353609
2253.000000	17.579800
2252.000000	17.805886
2251.000000	18.008846
2250.000000	18.191686
2249.000000	18.378985
2248.000000	18.579456
2247.000000	18.759495
2246.000000	18.925223
2245.000000	19.049260
2244.000000	19.184704
2243.000000	19.311126
2242.000000	19.434022
2241.000000	19.538872
2240.000000	19.628063
2239.000000	19.720779
2238.000000	19.807169
2237.000000	19.890033
2236.000000	19.942406
2235.000000	19.999550
2234.000000	20.049434
2233.000000	20.092163
2232.000000	20.150862
2231.000000	20.180316
2230.000000	20.198776
2229.000000	20.216407
2228.000000	20.222733
2227.000000	20.208525
2226.000000	20.223044
2225.000000	20.206762
2224.000000	20.188613
2223.000000	20.181560
2222.000000	20.145988
2221.000000	20.102222
2220.000000	20.068724
2219.000000	20.030663
2218.000000	20.004010
2217.000000	19.938050
2216.000000	19.909115
2215.000000	19.854668
2214.000000	19.824281
2213.000000	19.792027
2212.000000	19.747017
2211.000000	19.701489
2210.000000	19.675354
2209.000000	19.643723
2208.000000	19.599750
2207.000000	19.557851
2206.000000	19.548103
2205.000000	19.531509
2204.000000	19.508797
2203.000000	19.475091
2202.000000	19.461920
2201.000000	19.455905
2200.000000	19.442526
2199.000000	19.418777
2198.000000	19.399902
2197.000000	19.384967
2196.000000	19.353336
2195.000000	19.357381
2194.000000	19.326060
2193.000000	19.304904
2192.000000	19.328031
2191.000000	19.312889
2190.000000	19.289970
2189.000000	19.295466
2188.000000	19.289970
2187.000000	19.260101
2186.000000	19.249212
2185.000000	19.221418
2184.000000	19.212395
2183.000000	19.209491
2182.000000	19.190616
2181.000000	19.182319
2180.000000	19.158673
2179.000000	19.145191
2178.000000	19.134924
2177.000000	19.133368
2176.000000	19.115945
2175.000000	19.124034
2174.000000	19.130568
2173.000000	19.116256
2172.000000	19.128183
2171.000000	19.139798
2170.000000	19.160644
2169.000000	19.170185
2168.000000	19.177030
2167.000000	19.186986
2166.000000	19.220795
2165.000000	19.242159
2164.000000	19.272443
2163.000000	19.307496
2162.000000	19.344417
2161.000000	19.380612
2160.000000	19.412451
2159.000000	19.451756
2158.000000	19.496352
2157.000000	19.551940
2156.000000	19.613854
2155.000000	19.659383
2154.000000	19.713830
2153.000000	19.774397
2152.000000	19.828118
2151.000000	19.870432
2150.000000	19.930065
2149.000000	19.992290
2148.000000	20.056590
2147.000000	20.133958
2146.000000	20.188820
2145.000000	20.253535
2144.000000	20.288174
2143.000000	20.332250
2142.000000	20.400387
2141.000000	20.466450
2140.000000	20.488437
2139.000000	20.533550
2138.000000	20.590487
2137.000000	20.648979
2136.000000	20.690878
2135.000000	20.731947
2134.000000	20.771149
2133.000000	20.812736
2132.000000	20.840012
2131.000000	20.881911
2130.000000	20.889689
2129.000000	20.914061
2128.000000	20.944344
2127.000000	20.956789
2126.000000	20.971827
2125.000000	20.984687
2124.000000	20.987279
2123.000000	20.981990
2122.000000	20.977012
2121.000000	20.964152
2120.000000	20.966123
2119.000000	20.974523
2118.000000	20.960834
2117.000000	20.950670
2116.000000	20.942581
2115.000000	20.925054
2114.000000	20.925365
2113.000000	20.899749
2112.000000	20.875377
2111.000000	20.869362
2110.000000	20.850694
2109.000000	20.828604
2108.000000	20.810455
2107.000000	20.779653
2106.000000	20.749681
2105.000000	20.723961
2104.000000	20.708612
2103.000000	20.698967
2102.000000	20.666610
2101.000000	20.633526
2100.000000	20.600339
2099.000000	20.583746
2098.000000	20.572960
2097.000000	20.537699
2096.000000	20.511771
2095.000000	20.502230
2094.000000	20.491755
2093.000000	20.481177
2092.000000	20.454731
2091.000000	20.423307
2090.000000	20.420714
2089.000000	20.419055
2088.000000	20.398106
2087.000000	20.380994
2086.000000	20.362533
2085.000000	20.347495
2084.000000	20.325820
2083.000000	20.298959
2082.000000	20.274069
2081.000000	20.247623
2080.000000	20.210806
2079.000000	20.175338
2078.000000	20.144225
2077.000000	20.092059
2076.000000	20.048086
2075.000000	20.006706
2074.000000	19.953088
2073.000000	19.897085
2072.000000	19.833822
2071.000000	19.779064
2070.000000	19.722853
2069.000000	19.670583
2068.000000	19.602550
2067.000000	19.528501
2066.000000	19.463994
2065.000000	19.397931
2064.000000	19.326890
2063.000000	19.265390
2062.000000	19.208869
2061.000000	19.148821
2060.000000	19.098211
2059.000000	19.055379
2058.000000	19.006324
2057.000000	18.974796
2056.000000	18.963388
2055.000000	18.933313
2054.000000	18.926468
2053.000000	18.945861
2052.000000	18.959033
2051.000000	18.979878
2050.000000	19.026444
2049.000000	19.071039
2048.000000	19.141872
2047.000000	19.217269
2046.000000	19.302518
2045.000000	19.394198
2044.000000	19.503404
2043.000000	19.608773
2042.000000	19.707297
2041.000000	19.821066
2040.000000	19.918553
2039.000000	20.039582
2038.000000	20.144640
2037.000000	20.244823
2036.000000	20.335569
2035.000000	20.432122
2034.000000	20.527017
2033.000000	20.592561
2032.000000	20.671277
2031.000000	20.754970
2030.000000	20.832545
2029.000000	20.892178
2028.000000	20.942581
2027.000000	20.987798
2026.000000	21.058113
2025.000000	21.107168
2024.000000	21.142221
2023.000000	21.167008
2022.000000	21.208907
2021.000000	21.231101
2020.000000	21.267917
2019.000000	21.296749
2018.000000	21.334188
2017.000000	21.360323
2016.000000	21.353996
2015.000000	21.360323
2014.000000	21.378783
2013.000000	21.373286
2012.000000	21.377642
2011.000000	21.365093
2010.000000	21.360219
2009.000000	21.381272
2008.000000	21.373909
2007.000000	21.346944
2006.000000	21.329832
2005.000000	21.301208
2004.000000	21.285859
2003.000000	21.249042
2002.000000	21.218967
2001.000000	21.210359
2000.000000	21.168356
1999.000000	21.123346
1998.000000	21.060913
1997.000000	21.032082
1996.000000	20.964463
1995.000000	20.910846
1994.000000	20.851213
1993.000000	20.792617
1992.000000	20.736406
1991.000000	20.673558
1990.000000	20.607495
1989.000000	20.531787
1988.000000	20.457013
1987.000000	20.390224
1986.000000	20.312234
1985.000000	20.248660
1984.000000	20.161752
1983.000000	20.092474
1982.000000	20.016455
1981.000000	19.942302
1980.000000	19.868150
1979.000000	19.784042
1978.000000	19.709993
1977.000000	19.625988
1976.000000	19.543850
1975.000000	19.479862
1974.000000	19.392020
1973.000000	19.311852
1972.000000	19.254293
1971.000000	19.163133
1970.000000	19.063779
1969.000000	19.021466
1968.000000	18.950010
1967.000000	18.881665
1966.000000	18.822551
1965.000000	18.730975
1964.000000	18.672587
1963.000000	18.610154
1962.000000	18.548135
1961.000000	18.476265
1960.000000	18.396927
1959.000000	18.340198
1958.000000	18.271957
1957.000000	18.200397
1956.000000	18.148439
1955.000000	18.065575
1954.000000	18.009468
1953.000000	17.958547
1952.000000	17.857015
1951.000000	17.816465
1950.000000	17.770936
1949.000000	17.701347
1948.000000	17.661730
1947.000000	17.617861
1946.000000	17.586852
1945.000000	17.532716
1944.000000	17.494239
1943.000000	17.438858
1942.000000	17.442073
1941.000000	17.439896
1940.000000	17.418013
1939.000000	17.406709
1938.000000	17.390841
1937.000000	17.407642
1936.000000	17.395093
1935.000000	17.428695
1934.000000	17.428902
1933.000000	17.485839
1932.000000	17.535619
1931.000000	17.596497
1930.000000	17.652293
1929.000000	17.706014
1928.000000	17.771870
1927.000000	17.887298
1926.000000	17.978044
1925.000000	18.058004
1924.000000	18.187019
1923.000000	18.310226
1922.000000	18.449611
1921.000000	18.582878
1920.000000	18.741554
1919.000000	18.899503
1918.000000	19.042415
1917.000000	19.222766
1916.000000	19.427696
1915.000000	19.586786
1914.000000	19.792857
1913.000000	20.028900
1912.000000	20.241297
1911.000000	20.460331
1910.000000	20.689011
1909.000000	20.921320
1908.000000	21.150103
1907.000000	21.404399
1906.000000	21.689704
1905.000000	21.970446
1904.000000	22.280641
1903.000000	22.553086
1902.000000	22.874896
1901.000000	23.160305
1900.000000	23.496635
1899.000000	23.847277
1898.000000	24.180599
1897.000000	24.494320
1896.000000	24.851807
1895.000000	25.180359
1894.000000	25.495739
1893.000000	25.850322
1892.000000	26.195882
1891.000000	26.609580
1890.000000	26.985941
1889.000000	27.342184
1888.000000	27.734413
1887.000000	28.124672
1886.000000	28.510264
1885.000000	28.936821
1884.000000	29.355082
1883.000000	29.789624
1882.000000	30.239516
1881.000000	30.645954
1880.000000	31.074378
1879.000000	31.486312
1878.000000	31.887357
1877.000000	32.269215
1876.000000	32.648896
1875.000000	32.992278
1874.000000	33.354017
1873.000000	33.683502
1872.000000	33.993697
1871.000000	34.284706
1870.000000	34.527490
1869.000000	34.731590
1868.000000	34.950832
1867.000000	35.117701
1866.000000	35.236656
1865.000000	35.348766
1864.000000	35.452268
1863.000000	35.568941
1862.000000	35.675658
1861.000000	35.796272
1860.000000	35.921242
1859.000000	36.012921
1858.000000	36.073280
1857.000000	36.132291
1856.000000	36.169211
1855.000000	36.198354
1854.000000	36.228118
1853.000000	36.245023
1852.000000	36.223659
1851.000000	36.225422
1850.000000	36.258402
1849.000000	36.267943
1848.000000	36.280596
1847.000000	36.270121
1846.000000	36.187568
1845.000000	36.116942
1844.000000	36.103563
1843.000000	36.098067
1842.000000	36.120364
1841.000000	36.145566
1840.000000	36.118083
1839.000000	36.072762
1838.000000	36.033041
1837.000000	35.989172
1836.000000	35.949140
1835.000000	35.887744
1834.000000	35.833608
1833.000000	35.764641
1832.000000	35.710608
1831.000000	35.684992
1830.000000	35.646308
1829.000000	35.585327
1828.000000	35.529116
1827.000000	35.459112
1826.000000	35.395331
1825.000000	35.347832
1824.000000	35.290792
1823.000000	35.252316
1822.000000	35.261650
1821.000000	35.278865
1820.000000	35.243189
1819.000000	35.194446
1818.000000	35.138235
1817.000000	35.116353
1816.000000	35.100381
1815.000000	35.093433
1814.000000	35.094781
1813.000000	35.075076
1812.000000	35.048112
1811.000000	35.034111
1810.000000	35.012436
1809.000000	34.967426
1808.000000	34.937142
1807.000000	34.896903
1806.000000	34.872117
1805.000000	34.848471
1804.000000	34.802735
1803.000000	34.754510
1802.000000	34.726923
1801.000000	34.701618
1800.000000	34.655156
1799.000000	34.606413
1798.000000	34.557566
1797.000000	34.520334
1796.000000	34.505400
1795.000000	34.479887
1794.000000	34.439441
1793.000000	34.395053
1792.000000	34.362695
1791.000000	34.329716
1790.000000	34.293729
1789.000000	34.262927
1788.000000	34.237207
1787.000000	34.198420
1786.000000	34.166373
1785.000000	34.127275
1784.000000	34.081954
1783.000000	34.046900
1782.000000	34.006142
1781.000000	33.952939
1780.000000	33.899010
1779.000000	33.854104
1778.000000	33.797375
1777.000000	33.731519
1776.000000	33.663901
1775.000000	33.613809
1774.000000	33.533538
1773.000000	33.439162
1772.000000	33.359099
1771.000000	33.280590
1770.000000	33.200941
1769.000000	33.106981
1768.000000	32.994456
1767.000000	32.906303
1766.000000	32.844181
1765.000000	32.781333
1764.000000	32.706973
1763.000000	32.685713
1762.000000	32.688720
1761.000000	32.696602
1760.000000	32.714233
1759.000000	32.759761
1758.000000	32.818150
1757.000000	32.886909
1756.000000	32.934512
1755.000000	32.967491
1754.000000	33.016235
1753.000000	33.054815
1752.000000	33.072031
1751.000000	33.079187
1750.000000	33.084891
1749.000000	33.082713
1748.000000	33.069127
1747.000000	33.051289
1746.000000	33.004931
1745.000000	32.926422
1744.000000	32.843351
1743.000000	32.745657
1742.000000	32.644540
1741.000000	32.500902
1740.000000	32.334552
1739.000000	32.193404
1738.000000	32.044892
1737.000000	31.888601
1736.000000	31.733141
1735.000000	31.624661
1734.000000	31.521677
1733.000000	31.457170
1732.000000	31.412367
1731.000000	31.408011
1730.000000	31.440887
1729.000000	31.491912
1728.000000	31.562850
1727.000000	31.632024
1726.000000	31.697672
1725.000000	31.768713
1724.000000	31.820360
1723.000000	31.891609
1722.000000	31.943982
1721.000000	31.982666
1720.000000	32.029646
1719.000000	32.109917
1718.000000	32.195996
1717.000000	32.267348
1716.000000	32.378318
1715.000000	32.469478
1714.000000	32.566758
1713.000000	32.666423
1712.000000	32.741508
1711.000000	32.836403
1710.000000	32.886183
1709.000000	32.924556
1708.000000	32.986367
1707.000000	33.019346
1706.000000	33.020280
1705.000000	33.032102
1704.000000	33.018413
1703.000000	32.994248
1702.000000	32.943016
1701.000000	32.901117
1700.000000	32.843973
1699.000000	32.770443
1698.000000	32.685402
1697.000000	32.616746
1696.000000	32.559809
1695.000000	32.516459
1694.000000	32.535023
1693.000000	32.569039
1692.000000	32.611042
1691.000000	32.703862
1690.000000	32.805601
1689.000000	32.899147
1688.000000	32.971743
1687.000000	33.042370
1686.000000	33.097543
1685.000000	33.157798
1684.000000	33.223343
1683.000000	33.347068
1682.000000	33.524100
1681.000000	33.749357
1680.000000	34.058930
1679.000000	34.417247
1678.000000	34.767992
1677.000000	35.174948
1676.000000	35.506508
1675.000000	35.838586
1674.000000	36.111342
1673.000000	36.365326
1672.000000	36.603236
1671.000000	36.793543
1670.000000	36.968916
1669.000000	37.129976
1668.000000	37.271540
1667.000000	37.375042
1666.000000	37.455209
1665.000000	37.554978
1664.000000	37.649976
1663.000000	37.714691
1662.000000	37.777850
1661.000000	37.839557
1660.000000	37.875337
1659.000000	37.911116
1658.000000	37.964527
1657.000000	38.002899
1656.000000	38.001966
1655.000000	38.011818
1654.000000	38.019908
1653.000000	38.005907
1652.000000	37.999270
1651.000000	37.994706
1650.000000	37.962349
1649.000000	37.950319
1648.000000	37.899916
1647.000000	37.875337
1646.000000	37.835305
1645.000000	37.787910
1644.000000	37.752234
1643.000000	37.698408
1642.000000	37.668747
1641.000000	37.595943
1640.000000	37.565038
1639.000000	37.506753
1638.000000	37.472425
1637.000000	37.411237
1636.000000	37.345796
1635.000000	37.287822
1634.000000	37.249242
1633.000000	37.172497
1632.000000	37.100108
1631.000000	37.026682
1630.000000	36.962071
1629.000000	36.901090
1628.000000	36.835545
1627.000000	36.766371
1626.000000	36.695330
1625.000000	36.621281
1624.000000	36.572745
1623.000000	36.502534
1622.000000	36.409610
1621.000000	36.350807
1620.000000	36.271780
1619.000000	36.221896
1618.000000	36.163819
1617.000000	36.096822
1616.000000	36.039886
1615.000000	35.989794
1614.000000	35.918027
1613.000000	35.868350
1612.000000	35.802806
1611.000000	35.743277
1610.000000	35.696607
1609.000000	35.634693
1608.000000	35.570704
1607.000000	35.505782
