PE UV       SUBTECH     SPECTRUM    ASCII       PEDS        4.00        
   -1
CICIMAUCR0244-3.Sample.ASC
24/06/21
11:45:11.00
24/06/21
11:45:11.00
Vinicio Soto Monge
C. cupreomarginata. Sex M. Dorsal
250,000000
1
Lambda 1050
1050L1511233
PerkinElmer UV WinLab 6.3.2.0749 / 2.02.05 Lambda 900 UV/VIS/NIR, Aug  7 2015 09:38:08

0
0
3350/servo 860,8/2
0
0
UV/VIS
1
1
1
DoubleDePol,CommonBeamDepol,RBeamAtt,SBeamAtt,60mm sphere, WB InGaAs Detector
0
0
0
0
Program
Program
3350/servo 860,8/2
3350/0,2 860,8/0,2
3350/0,2 860,8/0,2
0
15.00
 
 
 
0
 
860,8
319,2
860,8
Front
100
on
S:100 R:100
0
0
0
0
 
0
 
 
 
0
 
 
0
0
0
0
0
 
 
 
 
0
0


0
0
#HDR
-1
-1
#GR
nm
%R
1.0
0.0
2500,000000
-1,000000
2251
8
73,398900
5,496100
#DATA
2482.000000	8.233948
2481.000000	8.251309
2480.000000	8.185416
2479.000000	8.178614
2478.000000	8.285322
2477.000000	8.307557
2476.000000	8.269483
2475.000000	8.251411
2474.000000	8.297201
2473.000000	8.267249
2472.000000	8.326136
2471.000000	8.324106
2470.000000	8.317710
2469.000000	8.340249
2468.000000	8.329995
2467.000000	8.368373
2466.000000	8.358524
2465.000000	8.416193
2464.000000	8.425635
2463.000000	8.424214
2462.000000	8.447058
2461.000000	8.495691
2460.000000	8.507468
2459.000000	8.551634
2458.000000	8.607069
2457.000000	8.644736
2456.000000	8.686262
2455.000000	8.710934
2454.000000	8.795203
2453.000000	8.826068
2452.000000	8.877442
2451.000000	8.930542
2450.000000	8.993592
2449.000000	9.044661
2448.000000	9.102229
2447.000000	9.172284
2446.000000	9.259295
2445.000000	9.307724
2444.000000	9.347321
2443.000000	9.415752
2442.000000	9.469258
2441.000000	9.539618
2440.000000	9.591297
2439.000000	9.662875
2438.000000	9.740545
2437.000000	9.779228
2436.000000	9.826845
2435.000000	9.897814
2434.000000	9.932538
2433.000000	10.010208
2432.000000	10.050921
2431.000000	10.104326
2430.000000	10.134480
2429.000000	10.197022
2428.000000	10.245046
2427.000000	10.277230
2426.000000	10.315507
2425.000000	10.383633
2424.000000	10.417341
2423.000000	10.464349
2422.000000	10.509835
2421.000000	10.547604
2420.000000	10.578266
2419.000000	10.611161
2418.000000	10.654616
2417.000000	10.667206
2416.000000	10.715026
2415.000000	10.751374
2414.000000	10.790462
2413.000000	10.817368
2412.000000	10.849248
2411.000000	10.879199
2410.000000	10.910877
2409.000000	10.940828
2408.000000	10.962454
2407.000000	10.986008
2406.000000	11.017990
2405.000000	11.050784
2404.000000	11.070887
2403.000000	11.097183
2402.000000	11.125612
2401.000000	11.143785
2400.000000	11.149573
2399.000000	11.144192
2398.000000	11.133429
2397.000000	11.143887
2396.000000	11.176376
2395.000000	11.197088
2394.000000	11.211912
2393.000000	11.231812
2392.000000	11.233233
2391.000000	11.253539
2390.000000	11.277094
2389.000000	11.276891
2388.000000	11.283592
2387.000000	11.301461
2386.000000	11.308060
2385.000000	11.313137
2384.000000	11.321158
2383.000000	11.322071
2382.000000	11.313238
2381.000000	11.318924
2380.000000	11.318112
2379.000000	11.302781
2378.000000	11.291714
2377.000000	11.290902
2376.000000	11.279429
2375.000000	11.261864
2374.000000	11.261052
2373.000000	11.250696
2372.000000	11.225415
2371.000000	11.215465
2370.000000	11.203383
2369.000000	11.177899
2368.000000	11.155664
2367.000000	11.138607
2366.000000	11.109773
2365.000000	11.087944
2364.000000	11.063374
2363.000000	11.016366
2362.000000	10.974028
2361.000000	10.951082
2360.000000	10.918491
2359.000000	10.878996
2358.000000	10.840314
2357.000000	10.800615
2356.000000	10.758988
2355.000000	10.736449
2354.000000	10.723250
2353.000000	10.710356
2352.000000	10.687308
2351.000000	10.673703
2350.000000	10.676648
2349.000000	10.672790
2348.000000	10.676952
2347.000000	10.689441
2346.000000	10.695938
2345.000000	10.712285
2344.000000	10.753810
2343.000000	10.779193
2342.000000	10.800209
2341.000000	10.822850
2340.000000	10.846710
2339.000000	10.872295
2338.000000	10.897373
2337.000000	10.899607
2336.000000	10.903668
2335.000000	10.915547
2334.000000	10.915547
2333.000000	10.916156
2332.000000	10.906308
2331.000000	10.886002
2330.000000	10.876763
2329.000000	10.852802
2328.000000	10.819398
2327.000000	10.786300
2326.000000	10.756145
2325.000000	10.696548
2324.000000	10.647204
2323.000000	10.607506
2322.000000	10.553391
2321.000000	10.483234
2320.000000	10.406579
2319.000000	10.345458
2318.000000	10.256011
2317.000000	10.169203
2316.000000	10.094680
2315.000000	9.999750
2314.000000	9.917613
2313.000000	9.824002
2312.000000	9.743896
2311.000000	9.682369
2310.000000	9.620639
2309.000000	9.554035
2308.000000	9.491696
2307.000000	9.441134
2306.000000	9.421945
2305.000000	9.410574
2304.000000	9.415650
2303.000000	9.419915
2302.000000	9.431286
2301.000000	9.463268
2300.000000	9.507839
2299.000000	9.552005
2298.000000	9.629472
2297.000000	9.697090
2296.000000	9.746434
2295.000000	9.838724
2294.000000	9.904008
2293.000000	9.950914
2292.000000	10.022899
2291.000000	10.065338
2290.000000	10.120063
2289.000000	10.141079
2288.000000	10.165954
2287.000000	10.197936
2286.000000	10.213571
2285.000000	10.212150
2284.000000	10.206058
2283.000000	10.214587
2282.000000	10.197124
2281.000000	10.166868
2280.000000	10.158745
2279.000000	10.126764
2278.000000	10.087370
2277.000000	10.073867
2276.000000	10.046352
2275.000000	10.027366
2274.000000	10.002390
2273.000000	9.981982
2272.000000	9.954062
2271.000000	9.960154
2270.000000	9.975485
2269.000000	10.002694
2268.000000	10.033864
2267.000000	10.065744
2266.000000	10.149303
2265.000000	10.240477
2264.000000	10.330940
2263.000000	10.424651
2262.000000	10.547198
2261.000000	10.688527
2260.000000	10.848030
2259.000000	10.996263
2258.000000	11.175767
2257.000000	11.362988
2256.000000	11.541680
2255.000000	11.724941
2254.000000	11.920588
2253.000000	12.117251
2252.000000	12.285587
2251.000000	12.461538
2250.000000	12.665105
2249.000000	12.798515
2248.000000	12.973856
2247.000000	13.111327
2246.000000	13.256108
2245.000000	13.395509
2244.000000	13.500693
2243.000000	13.619381
2242.000000	13.716850
2241.000000	13.839904
2240.000000	13.898486
2239.000000	13.983466
2238.000000	14.047430
2237.000000	14.116572
2236.000000	14.177997
2235.000000	14.254347
2234.000000	14.278613
2233.000000	14.305214
2232.000000	14.384001
2231.000000	14.386234
2230.000000	14.392021
2229.000000	14.431923
2228.000000	14.453345
2227.000000	14.447253
2226.000000	14.435882
2225.000000	14.440045
2224.000000	14.431516
2223.000000	14.410297
2222.000000	14.424511
2221.000000	14.378721
2220.000000	14.356384
2219.000000	14.339632
2218.000000	14.326738
2217.000000	14.270694
2216.000000	14.241859
2215.000000	14.219929
2214.000000	14.202567
2213.000000	14.147538
2212.000000	14.131293
2211.000000	14.121851
2210.000000	14.070274
2209.000000	14.060426
2208.000000	14.040323
2207.000000	14.017682
2206.000000	13.997274
2205.000000	13.974024
2204.000000	13.952195
2203.000000	13.933209
2202.000000	13.914426
2201.000000	13.895237
2200.000000	13.890668
2199.000000	13.875033
2198.000000	13.851173
2197.000000	13.849752
2196.000000	13.842239
2195.000000	13.832187
2194.000000	13.801627
2193.000000	13.791982
2192.000000	13.770356
2191.000000	13.752994
2190.000000	13.736648
2189.000000	13.720302
2188.000000	13.719388
2187.000000	13.695021
2186.000000	13.691772
2185.000000	13.686797
2184.000000	13.657759
2183.000000	13.656846
2182.000000	13.629331
2181.000000	13.630651
2180.000000	13.615219
2179.000000	13.600801
2178.000000	13.614508
2177.000000	13.593999
2176.000000	13.590039
2175.000000	13.572475
2174.000000	13.576840
2173.000000	13.565977
2172.000000	13.563845
2171.000000	13.599278
2170.000000	13.602020
2169.000000	13.607401
2168.000000	13.627199
2167.000000	13.663445
2166.000000	13.669029
2165.000000	13.685782
2164.000000	13.714718
2163.000000	13.731165
2162.000000	13.760406
2161.000000	13.801830
2160.000000	13.839497
2159.000000	13.858179
2158.000000	13.872596
2157.000000	13.903258
2156.000000	13.958693
2155.000000	14.006920
2154.000000	14.063269
2153.000000	14.092509
2152.000000	14.126623
2151.000000	14.169976
2150.000000	14.197491
2149.000000	14.242773
2148.000000	14.294045
2147.000000	14.320748
2146.000000	14.346841
2145.000000	14.390194
2144.000000	14.427151
2143.000000	14.466443
2142.000000	14.497003
2141.000000	14.526142
2140.000000	14.563505
2139.000000	14.588786
2138.000000	14.616503
2137.000000	14.633662
2136.000000	14.662801
2135.000000	14.675289
2134.000000	14.712855
2133.000000	14.719048
2132.000000	14.721789
2131.000000	14.741182
2130.000000	14.740572
2129.000000	14.743111
2128.000000	14.746360
2127.000000	14.742501
2126.000000	14.734481
2125.000000	14.736410
2124.000000	14.726257
2123.000000	14.713667
2122.000000	14.704022
2121.000000	14.675289
2120.000000	14.651531
2119.000000	14.638129
2118.000000	14.619448
2117.000000	14.572541
2116.000000	14.553149
2115.000000	14.548275
2114.000000	14.509796
2113.000000	14.476494
2112.000000	14.458828
2111.000000	14.421465
2110.000000	14.377097
2109.000000	14.342576
2108.000000	14.314757
2107.000000	14.290898
2106.000000	14.253027
2105.000000	14.210994
2104.000000	14.185815
2103.000000	14.158097
2102.000000	14.122156
2101.000000	14.076874
2100.000000	14.041237
2099.000000	14.014737
2098.000000	13.989964
2097.000000	13.966308
2096.000000	13.930569
2095.000000	13.883358
2094.000000	13.860006
2093.000000	13.845082
2092.000000	13.825182
2091.000000	13.795941
2090.000000	13.770254
2089.000000	13.741318
2088.000000	13.702128
2087.000000	13.689437
2086.000000	13.674613
2085.000000	13.628519
2084.000000	13.587501
2083.000000	13.564860
2082.000000	13.539985
2081.000000	13.512775
2080.000000	13.466782
2079.000000	13.401600
2078.000000	13.354795
2077.000000	13.312254
2076.000000	13.270018
2075.000000	13.221994
2074.000000	13.175189
2073.000000	13.119043
2072.000000	13.049597
2071.000000	12.989796
2070.000000	12.926950
2069.000000	12.869179
2068.000000	12.813947
2067.000000	12.750186
2066.000000	12.687441
2065.000000	12.628757
2064.000000	12.549869
2063.000000	12.481742
2062.000000	12.419708
2061.000000	12.375847
2060.000000	12.322239
2059.000000	12.261931
2058.000000	12.206089
2057.000000	12.156238
2056.000000	12.117860
2055.000000	12.084355
2054.000000	12.057349
2053.000000	12.028311
2052.000000	12.007904
2051.000000	12.002827
2050.000000	12.007091
2049.000000	12.020493
2048.000000	12.046993
2047.000000	12.075421
2046.000000	12.114307
2045.000000	12.154919
2044.000000	12.207409
2043.000000	12.238782
2042.000000	12.283861
2041.000000	12.349855
2040.000000	12.409453
2039.000000	12.464787
2038.000000	12.527126
2037.000000	12.571291
2036.000000	12.598501
2035.000000	12.652109
2034.000000	12.706630
2033.000000	12.722469
2032.000000	12.772015
2031.000000	12.799022
2030.000000	12.816485
2029.000000	12.836690
2028.000000	12.834659
2027.000000	12.862377
2026.000000	12.871819
2025.000000	12.877098
2024.000000	12.875474
2023.000000	12.891414
2022.000000	12.890602
2021.000000	12.882276
2020.000000	12.892226
2019.000000	12.891110
2018.000000	12.871819
2017.000000	12.859128
2016.000000	12.852325
2015.000000	12.848975
2014.000000	12.830903
2013.000000	12.802779
2012.000000	12.782981
2011.000000	12.744399
2010.000000	12.726226
2009.000000	12.691198
2008.000000	12.662059
2007.000000	12.646119
2006.000000	12.629468
2005.000000	12.589364
2004.000000	12.550173
2003.000000	12.504688
2002.000000	12.477986
2001.000000	12.428947
2000.000000	12.400112
1999.000000	12.342038
1998.000000	12.281729
1997.000000	12.263961
1996.000000	12.196241
1995.000000	12.147811
1994.000000	12.079279
1993.000000	12.029834
1992.000000	11.974399
1991.000000	11.914090
1990.000000	11.856726
1989.000000	11.783523
1988.000000	11.728494
1987.000000	11.672247
1986.000000	11.607471
1985.000000	11.540766
1984.000000	11.466853
1983.000000	11.398726
1982.000000	11.339534
1981.000000	11.282170
1980.000000	11.238106
1979.000000	11.156680
1978.000000	11.108859
1977.000000	11.028854
1976.000000	10.954737
1975.000000	10.890774
1974.000000	10.822952
1973.000000	10.767821
1972.000000	10.727210
1971.000000	10.681217
1970.000000	10.595018
1969.000000	10.550548
1968.000000	10.493184
1967.000000	10.426682
1966.000000	10.386273
1965.000000	10.348403
1964.000000	10.276824
1963.000000	10.236822
1962.000000	10.207277
1961.000000	10.148796
1960.000000	10.083410
1959.000000	10.046758
1958.000000	10.019751
1957.000000	9.949696
1956.000000	9.912942
1955.000000	9.877712
1954.000000	9.825221
1953.000000	9.811616
1952.000000	9.730798
1951.000000	9.700847
1950.000000	9.679221
1949.000000	9.648762
1948.000000	9.603886
1947.000000	9.589977
1946.000000	9.551903
1945.000000	9.528145
1944.000000	9.521444
1943.000000	9.489970
1942.000000	9.478396
1941.000000	9.473522
1940.000000	9.470883
1939.000000	9.451998
1938.000000	9.456059
1937.000000	9.456465
1936.000000	9.466618
1935.000000	9.481746
1934.000000	9.492711
1933.000000	9.516165
1932.000000	9.571092
1931.000000	9.561751
1930.000000	9.607440
1929.000000	9.662367
1928.000000	9.712421
1927.000000	9.781563
1926.000000	9.822073
1925.000000	9.906038
1924.000000	9.971525
1923.000000	10.038128
1922.000000	10.128896
1921.000000	10.222709
1920.000000	10.318045
1919.000000	10.453080
1918.000000	10.547502
1917.000000	10.655733
1916.000000	10.763151
1915.000000	10.871179
1914.000000	11.017990
1913.000000	11.141349
1912.000000	11.332021
1911.000000	11.492133
1910.000000	11.661789
1909.000000	11.805758
1908.000000	11.929218
1907.000000	12.094813
1906.000000	12.304269
1905.000000	12.556671
1904.000000	12.779529
1903.000000	13.008072
1902.000000	13.244940
1901.000000	13.473686
1900.000000	13.728526
1899.000000	14.044790
1898.000000	14.378416
1897.000000	14.657318
1896.000000	14.936017
1895.000000	15.220706
1894.000000	15.496663
1893.000000	15.812826
1892.000000	16.187267
1891.000000	16.632678
1890.000000	17.064382
1889.000000	17.465626
1888.000000	17.896416
1887.000000	18.298677
1886.000000	18.715862
1885.000000	19.180664
1884.000000	19.697348
1883.000000	20.221241
1882.000000	20.742697
1881.000000	21.249126
1880.000000	21.751190
1879.000000	22.174264
1878.000000	22.660997
1877.000000	23.136764
1876.000000	23.598115
1875.000000	24.036621
1874.000000	24.477462
1873.000000	24.906222
1872.000000	25.329397
1871.000000	25.733180
1870.000000	26.130059
1869.000000	26.466833
1868.000000	26.795890
1867.000000	27.033470
1866.000000	27.240082
1865.000000	27.406997
1864.000000	27.565180
1863.000000	27.705189
1862.000000	27.841138
1861.000000	28.011504
1860.000000	28.167961
1859.000000	28.318530
1858.000000	28.460468
1857.000000	28.572354
1856.000000	28.650734
1855.000000	28.702718
1854.000000	28.763737
1853.000000	28.818563
1852.000000	28.840595
1851.000000	28.866789
1850.000000	28.876638
1849.000000	28.878364
1848.000000	28.910346
1847.000000	28.952480
1846.000000	28.961009
1845.000000	28.910142
1844.000000	28.864251
1843.000000	28.820289
1842.000000	28.827294
1841.000000	28.855418
1840.000000	28.835823
1839.000000	28.823335
1838.000000	28.795211
1837.000000	28.774601
1836.000000	28.749929
1835.000000	28.707489
1834.000000	28.654288
1833.000000	28.573673
1832.000000	28.506258
1831.000000	28.457625
1830.000000	28.431634
1829.000000	28.386758
1828.000000	28.318225
1827.000000	28.244616
1826.000000	28.179130
1825.000000	28.124608
1824.000000	28.072117
1823.000000	28.019017
1822.000000	27.991198
1821.000000	27.994143
1820.000000	27.985716
1819.000000	27.952312
1818.000000	27.893933
1817.000000	27.849260
1816.000000	27.822151
1815.000000	27.812608
1814.000000	27.781134
1813.000000	27.766006
1812.000000	27.747832
1811.000000	27.710672
1810.000000	27.677979
1809.000000	27.639195
1808.000000	27.605183
1807.000000	27.552895
1806.000000	27.512283
1805.000000	27.459386
1804.000000	27.401717
1803.000000	27.365674
1802.000000	27.318159
1801.000000	27.271861
1800.000000	27.216528
1799.000000	27.159976
1798.000000	27.111343
1797.000000	27.069614
1796.000000	27.012250
1795.000000	26.971029
1794.000000	26.938336
1793.000000	26.875896
1792.000000	26.828481
1791.000000	26.789190
1790.000000	26.742587
1789.000000	26.698930
1788.000000	26.653140
1787.000000	26.606030
1786.000000	26.548158
1785.000000	26.493941
1784.000000	26.439420
1783.000000	26.383883
1782.000000	26.333728
1781.000000	26.264992
1780.000000	26.196054
1779.000000	26.135136
1778.000000	26.087417
1777.000000	26.023149
1776.000000	25.944260
1775.000000	25.880500
1774.000000	25.789428
1773.000000	25.705158
1772.000000	25.619163
1771.000000	25.512658
1770.000000	25.411535
1769.000000	25.317823
1768.000000	25.214973
1767.000000	25.126744
1766.000000	25.044404
1765.000000	24.959322
1764.000000	24.904090
1763.000000	24.876677
1762.000000	24.875052
1761.000000	24.885916
1760.000000	24.926325
1759.000000	24.974856
1758.000000	25.028971
1757.000000	25.098214
1756.000000	25.179946
1755.000000	25.250712
1754.000000	25.307974
1753.000000	25.355998
1752.000000	25.394376
1751.000000	25.423109
1750.000000	25.449710
1749.000000	25.460472
1748.000000	25.454685
1747.000000	25.441181
1746.000000	25.387980
1745.000000	25.331225
1744.000000	25.267464
1743.000000	25.175580
1742.000000	25.064710
1741.000000	24.937595
1740.000000	24.800936
1739.000000	24.620213
1738.000000	24.431368
1737.000000	24.277043
1736.000000	24.132668
1735.000000	23.975906
1734.000000	23.878539
1733.000000	23.790615
1732.000000	23.755689
1731.000000	23.752846
1730.000000	23.787264
1729.000000	23.849502
1728.000000	23.913973
1727.000000	24.005248
1726.000000	24.096016
1725.000000	24.168508
1724.000000	24.261509
1723.000000	24.344053
1722.000000	24.412585
1721.000000	24.495027
1720.000000	24.580617
1719.000000	24.663871
1718.000000	24.741338
1717.000000	24.859011
1716.000000	24.943382
1715.000000	25.064913
1714.000000	25.186240
1713.000000	25.302289
1712.000000	25.411332
1711.000000	25.493266
1710.000000	25.553676
1709.000000	25.630026
1708.000000	25.690030
1707.000000	25.698863
1706.000000	25.735211
1705.000000	25.749933
1704.000000	25.751354
1703.000000	25.727901
1702.000000	25.711961
1701.000000	25.645662
1700.000000	25.580175
1699.000000	25.516212
1698.000000	25.433973
1697.000000	25.333763
1696.000000	25.278937
1695.000000	25.253961
1694.000000	25.248986
1693.000000	25.279851
1692.000000	25.332748
1691.000000	25.420469
1690.000000	25.538244
1689.000000	25.657744
1688.000000	25.784047
1687.000000	25.860194
1686.000000	25.942128
1685.000000	26.006701
1684.000000	26.100210
1683.000000	26.213314
1682.000000	26.386219
1681.000000	26.624407
1680.000000	26.939250
1679.000000	27.310645
1678.000000	27.698387
1677.000000	28.104505
1676.000000	28.509608
1675.000000	28.831152
1674.000000	29.171074
1673.000000	29.444797
1672.000000	29.707556
1671.000000	29.923509
1670.000000	30.119055
1669.000000	30.300590
1668.000000	30.443950
1667.000000	30.558272
1666.000000	30.651781
1665.000000	30.764986
1664.000000	30.860526
1663.000000	30.916266
1662.000000	30.977691
1661.000000	31.060133
1660.000000	31.078104
1659.000000	31.130798
1658.000000	31.158109
1657.000000	31.189685
1656.000000	31.228063
1655.000000	31.226845
1654.000000	31.228571
1653.000000	31.217098
1652.000000	31.214458
1651.000000	31.179024
1650.000000	31.165927
1649.000000	31.134757
1648.000000	31.100745
1647.000000	31.067443
1646.000000	31.014140
1645.000000	30.981041
1644.000000	30.918296
1643.000000	30.870679
1642.000000	30.821640
1641.000000	30.774327
1640.000000	30.715034
1639.000000	30.633810
1638.000000	30.601930
1637.000000	30.535733
1636.000000	30.463139
1635.000000	30.392881
1634.000000	30.336735
1633.000000	30.253379
1632.000000	30.176623
1631.000000	30.101998
1630.000000	30.034278
1629.000000	29.947876
1628.000000	29.866450
1627.000000	29.765732
1626.000000	29.694357
1625.000000	29.611204
1624.000000	29.519828
1623.000000	29.442970
1622.000000	29.362457
1621.000000	29.276969
1620.000000	29.178993
1619.000000	29.112694
1618.000000	29.033095
1617.000000	28.955019
1616.000000	28.874709
1615.000000	28.785566
1614.000000	28.705154
1613.000000	28.631850
1612.000000	28.543519
1611.000000	28.482906
1610.000000	28.399043
1609.000000	28.316093
1608.000000	28.232940
1607.000000	28.143797
1606.000000	28.060137
1605.000000	27.987949
1604.000000	27.913427
1603.000000	27.818293
1602.000000	27.746715
