PE UV       SUBTECH     SPECTRUM    ASCII       PEDS        4.00        
   -1
CICIMAUCR0258-1.Sample.ASC
24/07/01
10:36:38.00
24/07/01
10:36:38.00
Vinicio Soto Monge
C. resplendens. Sex M. Dorsal.
250,000000
1
Lambda 1050
1050L1511233
PerkinElmer UV WinLab 6.3.2.0749 / 2.02.05 Lambda 900 UV/VIS/NIR, Aug  7 2015 09:38:08

0
0
3350/servo 860,8/2
0
0
UV/VIS
1
1
1
DoubleDePol,CommonBeamDepol,RBeamAtt,SBeamAtt,60mm sphere, WB InGaAs Detector
0
0
0
0
Program
Program
3350/servo 860,8/2
3350/0,2 860,8/0,2
3350/0,2 860,8/0,2
0
15.00
 
 
 
0
 
860,8
319,2
860,8
Front
100
on
S:100 R:100
0
0
0
0
 
0
 
 
 
0
 
 
0
0
0
0
0
 
 
 
 
0
0


0
0
#HDR
-1
-1
#GR
nm
%R
1.0
0.0
2500,000000
-1,000000
2251
8
95,943200
5,144800
#DATA
2482.000000	10.168801
2481.000000	10.088497
2480.000000	10.101810
2479.000000	10.089342
2478.000000	10.107833
2477.000000	10.154220
2476.000000	10.188244
2475.000000	10.187821
2474.000000	10.165737
2473.000000	10.191625
2472.000000	10.230826
2471.000000	10.241181
2470.000000	10.261892
2469.000000	10.287885
2468.000000	10.303101
2467.000000	10.365759
2466.000000	10.393655
2465.000000	10.401474
2464.000000	10.405489
2463.000000	10.481145
2462.000000	10.538732
2461.000000	10.590507
2460.000000	10.613014
2459.000000	10.629708
2458.000000	10.714768
2457.000000	10.766861
2456.000000	10.843150
2455.000000	10.902216
2454.000000	10.964241
2453.000000	11.034085
2452.000000	11.101076
2451.000000	11.175253
2450.000000	11.244357
2449.000000	11.328783
2448.000000	11.415955
2447.000000	11.495309
2446.000000	11.582377
2445.000000	11.689731
2444.000000	11.738548
2443.000000	11.836182
2442.000000	11.930751
2441.000000	12.004927
2440.000000	12.086606
2439.000000	12.171349
2438.000000	12.246159
2437.000000	12.326569
2436.000000	12.410361
2435.000000	12.478620
2434.000000	12.571816
2433.000000	12.657826
2432.000000	12.720908
2431.000000	12.782087
2430.000000	12.859962
2429.000000	12.933081
2428.000000	12.992887
2427.000000	13.068437
2426.000000	13.131730
2425.000000	13.199566
2424.000000	13.253772
2423.000000	13.334183
2422.000000	13.379935
2421.000000	13.437839
2420.000000	13.501238
2419.000000	13.551322
2418.000000	13.597286
2417.000000	13.670934
2416.000000	13.724717
2415.000000	13.779451
2414.000000	13.810939
2413.000000	13.858277
2412.000000	13.911320
2411.000000	13.964364
2410.000000	13.999550
2409.000000	14.034102
2408.000000	14.064850
2407.000000	14.116097
2406.000000	14.180341
2405.000000	14.254412
2404.000000	14.318550
2403.000000	14.389767
2402.000000	14.424320
2401.000000	14.462993
2400.000000	14.504096
2399.000000	14.543086
2398.000000	14.586725
2397.000000	14.636388
2396.000000	14.691439
2395.000000	14.722927
2394.000000	14.747546
2393.000000	14.780091
2392.000000	14.823519
2391.000000	14.858599
2390.000000	14.911960
2389.000000	14.937953
2388.000000	14.971871
2387.000000	14.993532
2386.000000	15.026394
2385.000000	15.064750
2384.000000	15.067392
2383.000000	15.088630
2382.000000	15.105853
2381.000000	15.118850
2380.000000	15.133854
2379.000000	15.136073
2378.000000	15.156044
2377.000000	15.178233
2376.000000	15.177494
2375.000000	15.177071
2374.000000	15.180347
2373.000000	15.177599
2372.000000	15.177494
2371.000000	15.179713
2370.000000	15.177282
2369.000000	15.172105
2368.000000	15.174007
2367.000000	15.166188
2366.000000	15.156255
2365.000000	15.141885
2364.000000	15.121386
2363.000000	15.105642
2362.000000	15.082290
2361.000000	15.049534
2360.000000	15.040870
2359.000000	15.026922
2358.000000	14.999027
2357.000000	14.970181
2356.000000	14.945984
2355.000000	14.925062
2354.000000	14.907628
2353.000000	14.901710
2352.000000	14.895053
2351.000000	14.900020
2350.000000	14.905409
2349.000000	14.911431
2348.000000	14.927598
2347.000000	14.959614
2346.000000	14.986136
2345.000000	15.017096
2344.000000	15.070245
2343.000000	15.108495
2342.000000	15.150549
2341.000000	15.201057
2340.000000	15.239096
2339.000000	15.270161
2338.000000	15.322042
2337.000000	15.369274
2336.000000	15.384807
2335.000000	15.400973
2334.000000	15.423480
2333.000000	15.439858
2332.000000	15.449685
2331.000000	15.446937
2330.000000	15.428552
2329.000000	15.438167
2328.000000	15.425276
2327.000000	15.408793
2326.000000	15.388188
2325.000000	15.364308
2324.000000	15.337575
2323.000000	15.286117
2322.000000	15.227050
2321.000000	15.170837
2320.000000	15.132481
2319.000000	15.065067
2318.000000	14.978211
2317.000000	14.891038
2316.000000	14.806507
2315.000000	14.716798
2314.000000	14.630470
2313.000000	14.550483
2312.000000	14.450102
2311.000000	14.358808
2310.000000	14.273326
2309.000000	14.210878
2308.000000	14.145789
2307.000000	14.084821
2306.000000	14.032728
2305.000000	14.029136
2304.000000	14.018992
2303.000000	14.022796
2302.000000	14.048895
2301.000000	14.082073
2300.000000	14.141985
2299.000000	14.198727
2298.000000	14.263921
2297.000000	14.340422
2296.000000	14.437528
2295.000000	14.522799
2294.000000	14.615994
2293.000000	14.689642
2292.000000	14.768151
2291.000000	14.840742
2290.000000	14.904880
2289.000000	14.967433
2288.000000	15.002408
2287.000000	15.046682
2286.000000	15.087045
2285.000000	15.090849
2284.000000	15.098246
2283.000000	15.098774
2282.000000	15.083030
2281.000000	15.067814
2280.000000	15.037383
2279.000000	14.998076
2278.000000	14.965003
2277.000000	14.934678
2276.000000	14.878570
2275.000000	14.854161
2274.000000	14.801963
2273.000000	14.766460
2272.000000	14.747124
2271.000000	14.736135
2270.000000	14.750716
2269.000000	14.757479
2268.000000	14.792348
2267.000000	14.817179
2266.000000	14.908156
2265.000000	14.978211
2264.000000	15.081551
2263.000000	15.217752
2262.000000	15.386920
2261.000000	15.547001
2260.000000	15.732019
2259.000000	15.933838
2258.000000	16.144743
2257.000000	16.371710
2256.000000	16.605017
2255.000000	16.819515
2254.000000	17.065712
2253.000000	17.309268
2252.000000	17.523238
2251.000000	17.739427
2250.000000	17.959948
2249.000000	18.151834
2248.000000	18.362211
2247.000000	18.539410
2246.000000	18.700231
2245.000000	18.852704
2244.000000	19.026205
2243.000000	19.134405
2242.000000	19.271240
2241.000000	19.388527
2240.000000	19.464183
2239.000000	19.590663
2238.000000	19.661458
2237.000000	19.731513
2236.000000	19.816150
2235.000000	19.851019
2234.000000	19.927626
2233.000000	19.963657
2232.000000	20.001908
2231.000000	20.018920
2230.000000	20.055691
2229.000000	20.075873
2228.000000	20.091617
2227.000000	20.085066
2226.000000	20.063404
2225.000000	20.074499
2224.000000	20.061819
2223.000000	20.027690
2222.000000	20.006029
2221.000000	19.954359
2220.000000	19.926041
2219.000000	19.889270
2218.000000	19.872469
2217.000000	19.811818
2216.000000	19.746940
2215.000000	19.724222
2214.000000	19.662303
2213.000000	19.617713
2212.000000	19.575342
2211.000000	19.542163
2210.000000	19.500848
2209.000000	19.461436
2208.000000	19.426672
2207.000000	19.397615
2206.000000	19.351862
2205.000000	19.305264
2204.000000	19.301354
2203.000000	19.274938
2202.000000	19.247466
2201.000000	19.234363
2200.000000	19.215133
2199.000000	19.200234
2198.000000	19.174557
2197.000000	19.167372
2196.000000	19.141273
2195.000000	19.108834
2194.000000	19.113167
2193.000000	19.092879
2192.000000	19.085905
2191.000000	19.075973
2190.000000	19.060652
2189.000000	19.054206
2188.000000	19.050085
2187.000000	19.016061
2186.000000	18.986053
2185.000000	18.977071
2184.000000	18.964497
2183.000000	18.948014
2182.000000	18.932375
2181.000000	18.905537
2180.000000	18.886094
2179.000000	18.872252
2178.000000	18.858727
2177.000000	18.837806
2176.000000	18.835376
2175.000000	18.833791
2174.000000	18.809805
2173.000000	18.820371
2172.000000	18.822062
2171.000000	18.815405
2170.000000	18.836010
2169.000000	18.838017
2168.000000	18.829036
2167.000000	18.869505
2166.000000	18.871196
2165.000000	18.886623
2164.000000	18.903212
2163.000000	18.937658
2162.000000	18.970097
2161.000000	19.005706
2160.000000	19.027050
2159.000000	19.069739
2158.000000	19.109363
2157.000000	19.153319
2156.000000	19.210272
2155.000000	19.263844
2154.000000	19.300403
2153.000000	19.351228
2152.000000	19.396875
2151.000000	19.451820
2150.000000	19.495354
2149.000000	19.557801
2148.000000	19.612747
2147.000000	19.671813
2146.000000	19.724328
2145.000000	19.772828
2144.000000	19.833902
2143.000000	19.889058
2142.000000	19.938087
2141.000000	19.978450
2140.000000	20.023569
2139.000000	20.071118
2138.000000	20.100387
2137.000000	20.152902
2136.000000	20.183861
2135.000000	20.221689
2134.000000	20.259940
2133.000000	20.296394
2132.000000	20.313406
2131.000000	20.320591
2130.000000	20.357256
2129.000000	20.384306
2128.000000	20.387582
2127.000000	20.399628
2126.000000	20.417168
2125.000000	20.419915
2124.000000	20.414526
2123.000000	20.423508
2122.000000	20.403009
2121.000000	20.393711
2120.000000	20.396880
2119.000000	20.370887
2118.000000	20.362962
2117.000000	20.361272
2116.000000	20.341512
2115.000000	20.307700
2114.000000	20.304107
2113.000000	20.288152
2112.000000	20.260468
2111.000000	20.229086
2110.000000	20.210806
2109.000000	20.186397
2108.000000	20.157762
2107.000000	20.126063
2106.000000	20.093519
2105.000000	20.063404
2104.000000	20.041849
2103.000000	20.017757
2102.000000	19.986375
2101.000000	19.949815
2100.000000	19.915052
2099.000000	19.900576
2098.000000	19.870462
2097.000000	19.836755
2096.000000	19.811395
2095.000000	19.792693
2094.000000	19.756239
2093.000000	19.719679
2092.000000	19.696855
2091.000000	19.682591
2090.000000	19.654907
2089.000000	19.627857
2088.000000	19.606407
2087.000000	19.571643
2086.000000	19.542057
2085.000000	19.518283
2084.000000	19.486584
2083.000000	19.445375
2082.000000	19.406807
2081.000000	19.372149
2080.000000	19.328827
2079.000000	19.275361
2078.000000	19.223374
2077.000000	19.168852
2076.000000	19.113801
2075.000000	19.054840
2074.000000	18.991547
2073.000000	18.922126
2072.000000	18.851753
2071.000000	18.792582
2070.000000	18.730134
2069.000000	18.638418
2068.000000	18.554415
2067.000000	18.489325
2066.000000	18.416206
2065.000000	18.340762
2064.000000	18.276412
2063.000000	18.192726
2062.000000	18.107138
2061.000000	18.048812
2060.000000	17.990379
2059.000000	17.933109
2058.000000	17.880911
2057.000000	17.831038
2056.000000	17.792259
2055.000000	17.777889
2054.000000	17.765103
2053.000000	17.751367
2052.000000	17.757178
2051.000000	17.767851
2050.000000	17.787927
2049.000000	17.814765
2048.000000	17.854495
2047.000000	17.907750
2046.000000	17.958257
2045.000000	18.001685
2044.000000	18.064133
2043.000000	18.126052
2042.000000	18.185224
2041.000000	18.254223
2040.000000	18.302089
2039.000000	18.348052
2038.000000	18.388522
2037.000000	18.448539
2036.000000	18.484782
2035.000000	18.525674
2034.000000	18.581042
2033.000000	18.608620
2032.000000	18.631549
2031.000000	18.631655
2030.000000	18.644757
2029.000000	18.675611
2028.000000	18.691144
2027.000000	18.693363
2026.000000	18.699069
2025.000000	18.712171
2024.000000	18.706148
2023.000000	18.690510
2022.000000	18.663671
2021.000000	18.642855
2020.000000	18.632078
2019.000000	18.609043
2018.000000	18.588544
2017.000000	18.555366
2016.000000	18.523772
2015.000000	18.497039
2014.000000	18.463543
2013.000000	18.425082
2012.000000	18.388310
2011.000000	18.326603
2010.000000	18.278208
2009.000000	18.238267
2008.000000	18.178778
2007.000000	18.114006
2006.000000	18.049974
2005.000000	17.974318
2004.000000	17.911448
2003.000000	17.861997
2002.000000	17.779896
2001.000000	17.698324
2000.000000	17.604705
1999.000000	17.530106
1998.000000	17.451492
1997.000000	17.366327
1996.000000	17.263833
1995.000000	17.171482
1994.000000	17.078920
1993.000000	16.990691
1992.000000	16.894959
1991.000000	16.797959
1990.000000	16.696416
1989.000000	16.585469
1988.000000	16.473465
1987.000000	16.387454
1986.000000	16.273020
1985.000000	16.173484
1984.000000	16.051442
1983.000000	15.961310
1982.000000	15.845820
1981.000000	15.725045
1980.000000	15.631321
1979.000000	15.534110
1978.000000	15.411329
1977.000000	15.313061
1976.000000	15.216484
1975.000000	15.090955
1974.000000	15.016779
1973.000000	14.915658
1972.000000	14.786431
1971.000000	14.692390
1970.000000	14.572249
1969.000000	14.479371
1968.000000	14.381526
1967.000000	14.281673
1966.000000	14.177700
1965.000000	14.097606
1964.000000	14.014026
1963.000000	13.908362
1962.000000	13.827529
1961.000000	13.728310
1960.000000	13.644730
1959.000000	13.554070
1958.000000	13.467214
1957.000000	13.381414
1956.000000	13.299842
1955.000000	13.226088
1954.000000	13.130356
1953.000000	13.036421
1952.000000	12.969958
1951.000000	12.885955
1950.000000	12.844958
1949.000000	12.751445
1948.000000	12.670612
1947.000000	12.610594
1946.000000	12.575831
1945.000000	12.517504
1944.000000	12.467102
1943.000000	12.429169
1942.000000	12.384367
1941.000000	12.368412
1940.000000	12.351717
1939.000000	12.313678
1938.000000	12.324562
1937.000000	12.327520
1936.000000	12.292334
1935.000000	12.299096
1934.000000	12.318750
1933.000000	12.359219
1932.000000	12.366088
1931.000000	12.428324
1930.000000	12.470695
1929.000000	12.524584
1928.000000	12.609326
1927.000000	12.656558
1926.000000	12.745845
1925.000000	12.834285
1924.000000	12.947029
1923.000000	13.075200
1922.000000	13.181498
1921.000000	13.315163
1920.000000	13.465417
1919.000000	13.631838
1918.000000	13.760115
1917.000000	13.930657
1916.000000	14.091900
1915.000000	14.276390
1914.000000	14.479793
1913.000000	14.724934
1912.000000	14.950633
1911.000000	15.161116
1910.000000	15.394951
1909.000000	15.600150
1908.000000	15.838212
1907.000000	16.113995
1906.000000	16.409749
1905.000000	16.750833
1904.000000	17.094770
1903.000000	17.399611
1902.000000	17.754748
1901.000000	18.103651
1900.000000	18.483831
1899.000000	18.918322
1898.000000	19.336224
1897.000000	19.763741
1896.000000	20.173084
1895.000000	20.569641
1894.000000	21.002019
1893.000000	21.470217
1892.000000	22.006146
1891.000000	22.594167
1890.000000	23.159258
1889.000000	23.690432
1888.000000	24.253516
1887.000000	24.815967
1886.000000	25.407686
1885.000000	25.998560
1884.000000	26.594189
1883.000000	27.202075
1882.000000	27.845147
1881.000000	28.417107
1880.000000	28.979769
1879.000000	29.512210
1878.000000	30.042222
1877.000000	30.591253
1876.000000	31.122849
1875.000000	31.637328
1874.000000	32.131942
1873.000000	32.597287
1872.000000	33.077530
1871.000000	33.513078
1870.000000	33.906360
1869.000000	34.248395
1868.000000	34.571727
1867.000000	34.842650
1866.000000	35.065918
1865.000000	35.279254
1864.000000	35.487307
1863.000000	35.691661
1862.000000	35.894114
1861.000000	36.104280
1860.000000	36.331247
1859.000000	36.533276
1858.000000	36.696845
1857.000000	36.826811
1856.000000	36.962907
1855.000000	37.067620
1854.000000	37.158069
1853.000000	37.235415
1852.000000	37.286979
1851.000000	37.359676
1850.000000	37.423920
1849.000000	37.519017
1848.000000	37.605556
1847.000000	37.639052
1846.000000	37.618976
1845.000000	37.574068
1844.000000	37.569630
1843.000000	37.591503
1842.000000	37.667792
1841.000000	37.729395
1840.000000	37.713228
1839.000000	37.718089
1838.000000	37.699597
1837.000000	37.672864
1836.000000	37.644969
1835.000000	37.588333
1834.000000	37.525674
1833.000000	37.458260
1832.000000	37.426350
1831.000000	37.391058
1830.000000	37.377216
1829.000000	37.339177
1828.000000	37.286979
1827.000000	37.235837
1826.000000	37.158808
1825.000000	37.111788
1824.000000	37.068677
1823.000000	37.038774
1822.000000	37.039513
1821.000000	37.051348
1820.000000	37.018064
1819.000000	36.972839
1818.000000	36.915041
1817.000000	36.860730
1816.000000	36.821211
1815.000000	36.813075
1814.000000	36.792048
1813.000000	36.760137
1812.000000	36.727064
1811.000000	36.703818
1810.000000	36.661870
1809.000000	36.605445
1808.000000	36.571633
1807.000000	36.533065
1806.000000	36.494709
1805.000000	36.452443
1804.000000	36.398238
1803.000000	36.347202
1802.000000	36.316348
1801.000000	36.276513
1800.000000	36.221461
1799.000000	36.152357
1798.000000	36.086951
1797.000000	36.039191
1796.000000	36.010133
1795.000000	35.972200
1794.000000	35.920953
1793.000000	35.878370
1792.000000	35.830504
1791.000000	35.775030
1790.000000	35.736569
1789.000000	35.710575
1788.000000	35.668098
1787.000000	35.623085
1786.000000	35.584412
1785.000000	35.553875
1784.000000	35.524712
1783.000000	35.478325
1782.000000	35.423063
1781.000000	35.377733
1780.000000	35.343921
1779.000000	35.298591
1778.000000	35.239630
1777.000000	35.188383
1776.000000	35.138404
1775.000000	35.089270
1774.000000	35.041087
1773.000000	34.980330
1772.000000	34.907950
1771.000000	34.851209
1770.000000	34.791614
1769.000000	34.730540
1768.000000	34.672425
1767.000000	34.604589
1766.000000	34.551334
1765.000000	34.500404
1764.000000	34.467859
1763.000000	34.446515
1762.000000	34.437005
1761.000000	34.439647
1760.000000	34.460991
1759.000000	34.499347
1758.000000	34.551334
1757.000000	34.611140
1756.000000	34.652666
1755.000000	34.705392
1754.000000	34.771538
1753.000000	34.829653
1752.000000	34.860507
1751.000000	34.888402
1750.000000	34.911332
1749.000000	34.908690
1748.000000	34.917671
1747.000000	34.909218
1746.000000	34.877308
1745.000000	34.841065
1744.000000	34.813170
1743.000000	34.749771
1742.000000	34.662810
1741.000000	34.587788
1740.000000	34.497973
1739.000000	34.388294
1738.000000	34.286434
1737.000000	34.164814
1736.000000	34.044463
1735.000000	33.971555
1734.000000	33.885861
1733.000000	33.829331
1732.000000	33.805345
1731.000000	33.799745
1730.000000	33.833769
1729.000000	33.865256
1728.000000	33.910586
1727.000000	33.953803
1726.000000	34.039497
1725.000000	34.114413
1724.000000	34.189540
1723.000000	34.250402
1722.000000	34.309257
1721.000000	34.383116
1720.000000	34.462787
1719.000000	34.554081
1718.000000	34.654145
1717.000000	34.750194
1716.000000	34.839269
1715.000000	34.943665
1714.000000	35.061692
1713.000000	35.158903
1712.000000	35.273865
1711.000000	35.346351
1710.000000	35.430460
1709.000000	35.488152
1708.000000	35.546585
1707.000000	35.575748
1706.000000	35.564970
1705.000000	35.568563
1704.000000	35.542252
1703.000000	35.498930
1702.000000	35.445675
1701.000000	35.392526
1700.000000	35.321943
1699.000000	35.218180
1698.000000	35.116109
1697.000000	35.025660
1696.000000	34.965749
1695.000000	34.878576
1694.000000	34.837155
1693.000000	34.861352
1692.000000	34.871602
1691.000000	34.921687
1690.000000	34.976738
1689.000000	35.075745
1688.000000	35.186904
1687.000000	35.251148
1686.000000	35.327331
1685.000000	35.431094
1684.000000	35.515836
1683.000000	35.642739
1682.000000	35.786336
1681.000000	35.991642
1680.000000	36.250096
1679.000000	36.530846
1678.000000	36.873726
1677.000000	37.172967
1676.000000	37.497145
1675.000000	37.784657
1674.000000	38.069528
1673.000000	38.312449
1672.000000	38.533393
1671.000000	38.740706
1670.000000	38.916954
1669.000000	39.066046
1668.000000	39.209538
1667.000000	39.295971
1666.000000	39.405334
1665.000000	39.495571
1664.000000	39.573129
1663.000000	39.642761
1662.000000	39.719473
1661.000000	39.777166
1660.000000	39.830843
1659.000000	39.870573
1658.000000	39.904703
1657.000000	39.952357
1656.000000	39.944115
1655.000000	39.975392
1654.000000	39.982154
1653.000000	39.989445
1652.000000	39.965460
1651.000000	39.959542
1650.000000	39.930168
1649.000000	39.916431
1648.000000	39.879238
1647.000000	39.845214
1646.000000	39.820805
1645.000000	39.777272
1644.000000	39.738493
1643.000000	39.713873
1642.000000	39.661464
1641.000000	39.630716
1640.000000	39.562879
1639.000000	39.515964
1638.000000	39.473065
1637.000000	39.424882
1636.000000	39.364970
1635.000000	39.319112
1634.000000	39.287413
1633.000000	39.204995
1632.000000	39.152163
1631.000000	39.086545
1630.000000	39.016490
1629.000000	38.975386
1628.000000	38.912939
1627.000000	38.845842
1626.000000	38.773991
1625.000000	38.705626
1624.000000	38.651420
1623.000000	38.577984
1622.000000	38.514162
1621.000000	38.454039
1620.000000	38.387682
1619.000000	38.341401
1618.000000	38.262153
1617.000000	38.212491
1616.000000	38.144338
1615.000000	38.101966
1614.000000	38.031066
1613.000000	37.983623
1612.000000	37.932376
1611.000000	37.870879
1610.000000	37.802514
1609.000000	37.742391
1608.000000	37.693575
1607.000000	37.624153
