PE UV       SUBTECH     SPECTRUM    ASCII       PEDS        4.00        
   -1
CICIMAUCR0212-2.ASC
24/06/06
16:43:01.00
24/06/06
16:43:01.00
Vinicio Soto Monge
C. resplendens. Sex F. Dorsal
250,000000
1
Lambda 1050
1050L1511233
PerkinElmer UV WinLab 6.3.2.0749 / 2.02.05 Lambda 900 UV/VIS/NIR, Aug  7 2015 09:38:08

0
0
3350/servo 860,8/2
0
0
UV/VIS
1
1
1
DoubleDePol,CommonBeamDepol,RBeamAtt,SBeamAtt,60mm sphere, WB InGaAs Detector
0
0
0
0
Program
Program
3350/servo 860,8/2
3350/0,2 860,8/0,2
3350/0,2 860,8/0,2
0
15.00
 
 
 
0
 
860,8
319,2
860,8
Front
100
on
S:100 R:100
0
0
0
0
 
0
 
 
 
0
 
 
0
0
0
0
0
 
 
 
 
0
0


0
0
#HDR
-1
-1
#GR
nm
%R
1.0
0.0
2500,000000
-1,000000
2251
8
91,289900
5,239400
#DATA
2500.000000	7.396964
2499.000000	7.330869
2498.000000	7.086360
2497.000000	7.122231
2496.000000	7.111355
2495.000000	7.112505
2494.000000	7.145239
2493.000000	7.065026
2492.000000	7.165632
2491.000000	7.083641
2490.000000	7.036684
2489.000000	6.955530
2488.000000	7.067117
2487.000000	6.964106
2486.000000	6.918927
2485.000000	6.975400
2484.000000	7.043901
2483.000000	6.953229
2482.000000	6.945386
2481.000000	6.979793
2480.000000	6.930745
2479.000000	6.947478
2478.000000	6.986695
2477.000000	6.957517
2476.000000	6.918090
2475.000000	6.887867
2474.000000	6.925202
2473.000000	6.928339
2472.000000	6.906168
2471.000000	6.915581
2470.000000	6.918823
2469.000000	6.914744
2468.000000	6.911920
2467.000000	6.919450
2466.000000	6.883474
2465.000000	6.928130
2464.000000	6.933987
2463.000000	6.928130
2462.000000	6.936915
2461.000000	6.972995
2460.000000	7.002382
2459.000000	6.985858
2458.000000	7.035952
2457.000000	7.044005
2456.000000	7.044737
2455.000000	7.106126
2454.000000	7.147853
2453.000000	7.170652
2452.000000	7.205059
2451.000000	7.239152
2450.000000	7.295102
2449.000000	7.334634
2448.000000	7.360988
2447.000000	7.396022
2446.000000	7.433671
2445.000000	7.440051
2444.000000	7.484184
2443.000000	7.544108
2442.000000	7.589600
2441.000000	7.621811
2440.000000	7.665630
2439.000000	7.702233
2438.000000	7.730993
2437.000000	7.760903
2436.000000	7.800016
2435.000000	7.837665
2434.000000	7.852097
2433.000000	7.914322
2432.000000	7.942350
2431.000000	7.970064
2430.000000	7.985960
2429.000000	8.018798
2428.000000	8.031034
2427.000000	8.058538
2426.000000	8.102985
2425.000000	8.126097
2424.000000	8.124529
2423.000000	8.143144
2422.000000	8.177551
2421.000000	8.214991
2420.000000	8.227959
2419.000000	8.233292
2418.000000	8.242704
2417.000000	8.268327
2416.000000	8.299910
2415.000000	8.326473
2414.000000	8.328565
2413.000000	8.341010
2412.000000	8.365377
2411.000000	8.378031
2410.000000	8.401457
2409.000000	8.423419
2408.000000	8.430740
2407.000000	8.454479
2406.000000	8.492442
2405.000000	8.497985
2404.000000	8.503946
2403.000000	8.531137
2402.000000	8.563138
2401.000000	8.611141
2400.000000	8.622017
2399.000000	8.633416
2398.000000	8.648580
2397.000000	8.656842
2396.000000	8.670542
2395.000000	8.699302
2394.000000	8.727852
2393.000000	8.738729
2392.000000	8.766965
2391.000000	8.795307
2390.000000	8.805974
2389.000000	8.826367
2388.000000	8.844355
2387.000000	8.846237
2386.000000	8.844041
2385.000000	8.857427
2384.000000	8.881585
2383.000000	8.895704
2382.000000	8.888069
2381.000000	8.896959
2380.000000	8.918188
2379.000000	8.898527
2378.000000	8.887023
2377.000000	8.900410
2376.000000	8.888278
2375.000000	8.880017
2374.000000	8.887546
2373.000000	8.865480
2372.000000	8.840799
2371.000000	8.841740
2370.000000	8.817582
2369.000000	8.792797
2368.000000	8.770939
2367.000000	8.739252
2366.000000	8.719590
2365.000000	8.693341
2364.000000	8.648371
2363.000000	8.611350
2362.000000	8.576629
2361.000000	8.544732
2360.000000	8.495370
2359.000000	8.442662
2358.000000	8.404804
2357.000000	8.369769
2356.000000	8.338291
2355.000000	8.306707
2354.000000	8.290184
2353.000000	8.283491
2352.000000	8.277320
2351.000000	8.284118
2350.000000	8.293321
2349.000000	8.296249
2348.000000	8.320303
2347.000000	8.356069
2346.000000	8.387757
2345.000000	8.431785
2344.000000	8.476128
2343.000000	8.522666
2342.000000	8.561779
2341.000000	8.597127
2340.000000	8.636449
2339.000000	8.679013
2338.000000	8.701498
2337.000000	8.701916
2336.000000	8.715303
2335.000000	8.735382
2334.000000	8.732454
2333.000000	8.725552
2332.000000	8.723042
2331.000000	8.696583
2330.000000	8.665941
2329.000000	8.636135
2328.000000	8.602565
2327.000000	8.544941
2326.000000	8.504260
2325.000000	8.443603
2324.000000	8.376776
2323.000000	8.322185
2322.000000	8.240194
2321.000000	8.156949
2320.000000	8.092632
2319.000000	8.016811
2318.000000	7.929800
2317.000000	7.835469
2316.000000	7.755151
2315.000000	7.685919
2314.000000	7.600163
2313.000000	7.509178
2312.000000	7.436809
2311.000000	7.372073
2310.000000	7.322712
2309.000000	7.266761
2308.000000	7.217608
2307.000000	7.174208
2306.000000	7.156011
2305.000000	7.178077
2304.000000	7.171384
2303.000000	7.191568
2302.000000	7.210183
2301.000000	7.242498
2300.000000	7.297926
2299.000000	7.370923
2298.000000	7.432207
2297.000000	7.503531
2296.000000	7.538670
2295.000000	7.613863
2294.000000	7.701397
2293.000000	7.750445
2292.000000	7.812252
2291.000000	7.847182
2290.000000	7.892360
2289.000000	7.906583
2288.000000	7.934506
2287.000000	7.922166
2286.000000	7.916205
2285.000000	7.904492
2284.000000	7.895812
2283.000000	7.866947
2282.000000	7.825534
2281.000000	7.770420
2280.000000	7.739987
2279.000000	7.691985
2278.000000	7.623066
2277.000000	7.601418
2276.000000	7.564292
2275.000000	7.490668
2274.000000	7.472157
2273.000000	7.446221
2272.000000	7.420703
2271.000000	7.412023
2270.000000	7.414219
2269.000000	7.404912
2268.000000	7.431998
2267.000000	7.476549
2266.000000	7.526434
2265.000000	7.577469
2264.000000	7.645133
2263.000000	7.770315
2262.000000	7.874268
2261.000000	7.994535
2260.000000	8.154752
2259.000000	8.312146
2258.000000	8.501122
2257.000000	8.665836
2256.000000	8.849688
2255.000000	9.022769
2254.000000	9.227328
2253.000000	9.419965
2252.000000	9.605176
2251.000000	9.787041
2250.000000	9.961377
2249.000000	10.171060
2248.000000	10.319878
2247.000000	10.452172
2246.000000	10.603918
2245.000000	10.753677
2244.000000	10.886076
2243.000000	10.991702
2242.000000	11.104439
2241.000000	11.189149
2240.000000	11.297285
2239.000000	11.379485
2238.000000	11.454365
2237.000000	11.565115
2236.000000	11.631838
2235.000000	11.705567
2234.000000	11.743739
2233.000000	11.831272
2232.000000	11.874046
2231.000000	11.898622
2230.000000	11.948298
2229.000000	11.962834
2228.000000	12.009268
2227.000000	12.048590
2226.000000	12.063231
2225.000000	12.081428
2224.000000	12.104959
2223.000000	12.075049
2222.000000	12.086239
2221.000000	12.099102
2220.000000	12.101612
2219.000000	12.060512
2218.000000	12.069192
2217.000000	12.078605
2216.000000	12.038237
2215.000000	12.044407
2214.000000	12.029138
2213.000000	12.018576
2212.000000	11.981763
2211.000000	11.989711
2210.000000	11.976430
2209.000000	11.951644
2208.000000	11.960533
2207.000000	11.933970
2206.000000	11.937107
2205.000000	11.917028
2204.000000	11.914100
2203.000000	11.900609
2202.000000	11.883562
2201.000000	11.884817
2200.000000	11.863274
2199.000000	11.870072
2198.000000	11.869444
2197.000000	11.867352
2196.000000	11.858881
2195.000000	11.836083
2194.000000	11.826043
2193.000000	11.820500
2192.000000	11.808265
2191.000000	11.809938
2190.000000	11.769674
2189.000000	11.784629
2188.000000	11.767060
2187.000000	11.758798
2186.000000	11.741542
2185.000000	11.761099
2184.000000	11.733176
2183.000000	11.733176
2182.000000	11.713724
2181.000000	11.699501
2180.000000	11.684860
2179.000000	11.674611
2178.000000	11.674506
2177.000000	11.672310
2176.000000	11.668964
2175.000000	11.659029
2174.000000	11.651917
2173.000000	11.655682
2172.000000	11.645851
2171.000000	11.659865
2170.000000	11.648570
2169.000000	11.645224
2168.000000	11.658819
2167.000000	11.676284
2166.000000	11.680049
2165.000000	11.689148
2164.000000	11.695109
2163.000000	11.718744
2162.000000	11.712783
2161.000000	11.732548
2160.000000	11.760785
2159.000000	11.775113
2158.000000	11.798434
2157.000000	11.810565
2156.000000	11.828553
2155.000000	11.866725
2154.000000	11.878647
2153.000000	11.890778
2152.000000	11.909394
2151.000000	11.938049
2150.000000	11.955304
2149.000000	11.980927
2148.000000	11.993999
2147.000000	12.030602
2146.000000	12.048799
2145.000000	12.045557
2144.000000	12.057793
2143.000000	12.078291
2142.000000	12.093560
2141.000000	12.110083
2140.000000	12.133091
2139.000000	12.122737
2138.000000	12.133300
2137.000000	12.148151
2136.000000	12.158818
2135.000000	12.156203
2134.000000	12.163942
2133.000000	12.169799
2132.000000	12.159968
2131.000000	12.162269
2130.000000	12.182244
2129.000000	12.168753
2128.000000	12.146059
2127.000000	12.138843
2126.000000	12.132463
2125.000000	12.115626
2124.000000	12.089899
2123.000000	12.080592
2122.000000	12.075676
2121.000000	12.047231
2120.000000	12.026733
2119.000000	12.009582
2118.000000	11.984482
2117.000000	11.968586
2116.000000	11.935330
2115.000000	11.901341
2114.000000	11.879275
2113.000000	11.852293
2112.000000	11.810879
2111.000000	11.784211
2110.000000	11.771034
2109.000000	11.741752
2108.000000	11.707972
2107.000000	11.682036
2106.000000	11.651185
2105.000000	11.613222
2104.000000	11.587809
2103.000000	11.553821
2102.000000	11.530708
2101.000000	11.508224
2100.000000	11.475386
2099.000000	11.447567
2098.000000	11.428847
2097.000000	11.396741
2096.000000	11.361811
2095.000000	11.316005
2094.000000	11.294985
2093.000000	11.288919
2092.000000	11.256604
2091.000000	11.227426
2090.000000	11.216445
2089.000000	11.197934
2088.000000	11.172103
2087.000000	11.127029
2086.000000	11.098060
2085.000000	11.082268
2084.000000	11.058738
2083.000000	11.030083
2082.000000	10.995676
2081.000000	10.982080
2080.000000	10.958759
2079.000000	10.920064
2078.000000	10.892873
2077.000000	10.865996
2076.000000	10.842361
2075.000000	10.822386
2074.000000	10.787770
2073.000000	10.754618
2072.000000	10.740500
2071.000000	10.712368
2070.000000	10.677856
2069.000000	10.661123
2068.000000	10.641149
2067.000000	10.605487
2066.000000	10.591891
2065.000000	10.576309
2064.000000	10.536568
2063.000000	10.511992
2062.000000	10.497978
2061.000000	10.485951
2060.000000	10.472879
2059.000000	10.451545
2058.000000	10.437008
2057.000000	10.438054
2056.000000	10.445270
2055.000000	10.435544
2054.000000	10.446838
2053.000000	10.462525
2052.000000	10.478003
2051.000000	10.495887
2050.000000	10.524437
2049.000000	10.551628
2048.000000	10.587394
2047.000000	10.621697
2046.000000	10.666352
2045.000000	10.709230
2044.000000	10.746566
2043.000000	10.799797
2042.000000	10.849786
2041.000000	10.883775
2040.000000	10.925502
2039.000000	10.970263
2038.000000	11.009899
2037.000000	11.036148
2036.000000	11.089484
2035.000000	11.128284
2034.000000	11.141984
2033.000000	11.171266
2032.000000	11.197411
2031.000000	11.217595
2030.000000	11.228471
2029.000000	11.259218
2028.000000	11.270617
2027.000000	11.282539
2026.000000	11.301259
2025.000000	11.286932
2024.000000	11.276578
2023.000000	11.301991
2022.000000	11.308266
2021.000000	11.313182
2020.000000	11.304711
2019.000000	11.300527
2018.000000	11.299481
2017.000000	11.286618
2016.000000	11.266748
2015.000000	11.267166
2014.000000	11.251793
2013.000000	11.247610
2012.000000	11.221465
2011.000000	11.201176
2010.000000	11.160599
2009.000000	11.138742
2008.000000	11.116780
2007.000000	11.082477
2006.000000	11.045142
2005.000000	11.020357
2004.000000	10.974341
2003.000000	10.944118
2002.000000	10.903331
2001.000000	10.862545
2000.000000	10.807640
1999.000000	10.746356
1998.000000	10.704524
1997.000000	10.658091
1996.000000	10.625252
1995.000000	10.585198
1994.000000	10.522973
1993.000000	10.450394
1992.000000	10.388483
1991.000000	10.345500
1990.000000	10.283798
1989.000000	10.239665
1988.000000	10.165308
1987.000000	10.095553
1986.000000	10.049852
1985.000000	9.987313
1984.000000	9.938578
1983.000000	9.872379
1982.000000	9.804297
1981.000000	9.732973
1980.000000	9.669911
1979.000000	9.614379
1978.000000	9.541905
1977.000000	9.472673
1976.000000	9.426030
1975.000000	9.354916
1974.000000	9.304299
1973.000000	9.250963
1972.000000	9.186855
1971.000000	9.140631
1970.000000	9.085935
1969.000000	9.007814
1968.000000	8.965563
1967.000000	8.929065
1966.000000	8.859623
1965.000000	8.822602
1964.000000	8.755043
1963.000000	8.705995
1962.000000	8.685288
1961.000000	8.627978
1960.000000	8.548079
1959.000000	8.512626
1958.000000	8.468702
1957.000000	8.454584
1956.000000	8.393823
1955.000000	8.333166
1954.000000	8.306394
1953.000000	8.277007
1952.000000	8.234965
1951.000000	8.190833
1950.000000	8.155589
1949.000000	8.137392
1948.000000	8.100371
1947.000000	8.072448
1946.000000	8.016079
1945.000000	8.007190
1944.000000	7.983241
1943.000000	7.983241
1942.000000	7.954272
1941.000000	7.932101
1940.000000	7.929277
1939.000000	7.927290
1938.000000	7.924989
1937.000000	7.932728
1936.000000	7.927290
1935.000000	7.948311
1934.000000	7.942454
1933.000000	7.958873
1932.000000	7.989306
1931.000000	8.017125
1930.000000	8.040446
1929.000000	8.069310
1928.000000	8.141366
1927.000000	8.168661
1926.000000	8.233606
1925.000000	8.295099
1924.000000	8.340801
1923.000000	8.416308
1922.000000	8.453957
1921.000000	8.558432
1920.000000	8.639796
1919.000000	8.757762
1918.000000	8.846133
1917.000000	8.966191
1916.000000	9.046195
1915.000000	9.126512
1914.000000	9.222935
1913.000000	9.370080
1912.000000	9.494844
1911.000000	9.661127
1910.000000	9.803251
1909.000000	9.917976
1908.000000	10.038766
1907.000000	10.149935
1906.000000	10.304400
1905.000000	10.481977
1904.000000	10.700655
1903.000000	10.866310
1902.000000	11.037822
1901.000000	11.232236
1900.000000	11.428638
1899.000000	11.651603
1898.000000	11.869235
1897.000000	12.116672
1896.000000	12.338277
1895.000000	12.539281
1894.000000	12.723656
1893.000000	12.963563
1892.000000	13.208699
1891.000000	13.523695
1890.000000	13.835658
1889.000000	14.144797
1888.000000	14.483637
1887.000000	14.826870
1886.000000	15.176168
1885.000000	15.572004
1884.000000	16.009255
1883.000000	16.510926
1882.000000	17.044390
1881.000000	17.568860
1880.000000	18.111737
1879.000000	18.620938
1878.000000	19.120309
1877.000000	19.660989
1876.000000	20.163079
1875.000000	20.678241
1874.000000	21.180959
1873.000000	21.648851
1872.000000	22.130548
1871.000000	22.605342
1870.000000	23.024396
1869.000000	23.431422
1868.000000	23.816800
1867.000000	24.130646
1866.000000	24.385613
1865.000000	24.598433
1864.000000	24.805502
1863.000000	24.966242
1862.000000	25.123845
1861.000000	25.290023
1860.000000	25.464777
1859.000000	25.621229
1858.000000	25.759693
1857.000000	25.900249
1856.000000	25.992907
1855.000000	26.038922
1854.000000	26.078663
1853.000000	26.132417
1852.000000	26.150405
1851.000000	26.169125
1850.000000	26.171426
1849.000000	26.151869
1848.000000	26.163791
1847.000000	26.180419
1846.000000	26.201545
1845.000000	26.156993
1844.000000	26.104494
1843.000000	26.056387
1842.000000	26.018947
1841.000000	26.022189
1840.000000	26.032438
1839.000000	26.008908
1838.000000	26.013405
1837.000000	25.977743
1836.000000	25.939362
1835.000000	25.902863
1834.000000	25.855593
1833.000000	25.789080
1832.000000	25.706252
1831.000000	25.644864
1830.000000	25.589750
1829.000000	25.531917
1828.000000	25.457038
1827.000000	25.359150
1826.000000	25.280401
1825.000000	25.219327
1824.000000	25.139218
1823.000000	25.078666
1822.000000	25.024075
1821.000000	24.995734
1820.000000	24.980988
1819.000000	24.938215
1818.000000	24.893664
1817.000000	24.855283
1816.000000	24.833635
1815.000000	24.817634
1814.000000	24.811568
1813.000000	24.782599
1812.000000	24.763043
1811.000000	24.753735
1810.000000	24.724453
1809.000000	24.690150
1808.000000	24.652815
1807.000000	24.611611
1806.000000	24.567373
1805.000000	24.515397
1804.000000	24.436229
1803.000000	24.382580
1802.000000	24.352984
1801.000000	24.309896
1800.000000	24.256142
1799.000000	24.189315
1798.000000	24.121861
1797.000000	24.066747
1796.000000	24.004104
1795.000000	23.960494
1794.000000	23.914897
1793.000000	23.857064
1792.000000	23.811885
1791.000000	23.741712
1790.000000	23.683356
1789.000000	23.628242
1788.000000	23.561625
1787.000000	23.497621
1786.000000	23.423683
1785.000000	23.345352
1784.000000	23.274029
1783.000000	23.196430
1782.000000	23.126571
1781.000000	23.049599
1780.000000	22.983400
1779.000000	22.899004
1778.000000	22.808019
1777.000000	22.747362
1776.000000	22.665476
1775.000000	22.569262
1774.000000	22.466460
1773.000000	22.350585
1772.000000	22.250815
1771.000000	22.138391
1770.000000	22.017078
1769.000000	21.909883
1768.000000	21.808650
1767.000000	21.695912
1766.000000	21.584743
1765.000000	21.497105
1764.000000	21.440004
1763.000000	21.391270
1762.000000	21.367112
1761.000000	21.377884
1760.000000	21.418461
1759.000000	21.484137
1758.000000	21.549395
1757.000000	21.643936
1756.000000	21.730528
1755.000000	21.801643
1754.000000	21.870143
1753.000000	21.923165
1752.000000	21.955585
1751.000000	21.983717
1750.000000	21.998358
1749.000000	21.985809
1748.000000	21.945441
1747.000000	21.908001
1746.000000	21.870980
1745.000000	21.788466
1744.000000	21.692461
1743.000000	21.559540
1742.000000	21.416474
1741.000000	21.236700
1740.000000	21.042808
1739.000000	20.829778
1738.000000	20.615389
1737.000000	20.392319
1736.000000	20.203761
1735.000000	20.043021
1734.000000	19.903615
1733.000000	19.838671
1732.000000	19.795270
1731.000000	19.801963
1730.000000	19.882176
1729.000000	19.976089
1728.000000	20.099285
1727.000000	20.225095
1726.000000	20.340761
1725.000000	20.473787
1724.000000	20.581296
1723.000000	20.666528
1722.000000	20.722897
1721.000000	20.753330
1720.000000	20.757827
1719.000000	20.778429
1718.000000	20.784181
1717.000000	20.801751
1716.000000	20.828732
1715.000000	20.877258
1714.000000	20.916789
1713.000000	20.954438
1712.000000	21.006833
1711.000000	21.049292
1710.000000	21.083804
1709.000000	21.086314
1708.000000	21.081398
1707.000000	21.066966
1706.000000	21.011225
1705.000000	20.958935
1704.000000	20.883951
1703.000000	20.814196
1702.000000	20.715577
1701.000000	20.602630
1700.000000	20.466676
1699.000000	20.323610
1698.000000	20.145928
1697.000000	19.971592
1696.000000	19.824657
1695.000000	19.732731
1694.000000	19.688912
1693.000000	19.699056
1692.000000	19.783871
1691.000000	19.933630
1690.000000	20.089350
1689.000000	20.265149
1688.000000	20.426621
1687.000000	20.582237
1686.000000	20.645822
1685.000000	20.698112
1684.000000	20.720283
1683.000000	20.772991
1682.000000	20.942411
1681.000000	21.154395
1680.000000	21.513106
1679.000000	21.986227
1678.000000	22.513312
1677.000000	23.084216
1676.000000	23.648740
1675.000000	24.160660
1674.000000	24.602930
1673.000000	25.037148
1672.000000	25.373269
1671.000000	25.654799
1670.000000	25.900040
1669.000000	26.135450
1668.000000	26.303197
1667.000000	26.473349
1666.000000	26.580439
1665.000000	26.675398
1664.000000	26.766592
1663.000000	26.851616
1662.000000	26.926077
1661.000000	26.977844
1660.000000	27.005349
1659.000000	27.069875
1658.000000	27.079705
1657.000000	27.082111
1656.000000	27.096334
1655.000000	27.105641
1654.000000	27.062972
1653.000000	27.070084
1652.000000	27.051678
1651.000000	27.037037
1650.000000	27.003362
1649.000000	26.957137
1648.000000	26.914155
1647.000000	26.887173
1646.000000	26.816581
1645.000000	26.781756
1644.000000	26.723296
1643.000000	26.663580
1642.000000	26.592466
1641.000000	26.511521
1640.000000	26.455152
1639.000000	26.392404
1638.000000	26.310517
1637.000000	26.238880
1636.000000	26.179060
1635.000000	26.085565
1634.000000	26.016333
1633.000000	25.926812
1632.000000	25.845763
1631.000000	25.757601
1630.000000	25.683768
1629.000000	25.605437
1628.000000	25.501798
1627.000000	25.401924
1626.000000	25.312821
1625.000000	25.223824
1624.000000	25.110354
1623.000000	25.029095
1622.000000	24.922109
1621.000000	24.849740
1620.000000	24.783018
1619.000000	24.691824
1618.000000	24.604395
1617.000000	24.533175
1616.000000	24.439158
1615.000000	24.361873
1614.000000	24.278941
1613.000000	24.187747
1612.000000	24.109311
1611.000000	24.026275
1610.000000	23.950872
