PE UV       SUBTECH     SPECTRUM    ASCII       PEDS        4.00        
   -1
CICIMAUCR0238-1.Sample.ASC
24/06/20
10:47:30.00
24/06/20
10:47:30.00
Vinicio Soto Monge
C. cupreomarginata. Sex M. Dorsal.
250,000000
1
Lambda 1050
1050L1511233
PerkinElmer UV WinLab 6.3.2.0749 / 2.02.05 Lambda 900 UV/VIS/NIR, Aug  7 2015 09:38:08

0
0
3350/servo 860,8/2
0
0
UV/VIS
1
1
1
DoubleDePol,CommonBeamDepol,RBeamAtt,SBeamAtt,60mm sphere, WB InGaAs Detector
0
0
0
0
Program
Program
3350/servo 860,8/2
3350/0,2 860,8/0,2
3350/0,2 860,8/0,2
0
15.00
 
 
 
0
 
860,8
319,2
860,8
Front
100
on
S:100 R:100
0
0
0
0
 
0
 
 
 
0
 
 
0
0
0
0
0
 
 
 
 
0
0


0
0
#HDR
-1
-1
#GR
nm
%R
1.0
0.0
2500,000000
-1,000000
2251
8
74,661300
4,827400
#DATA
2500.000000	11.200888
2499.000000	11.091271
2498.000000	11.093455
2497.000000	11.043669
2496.000000	11.094765
2495.000000	11.069217
2494.000000	11.082210
2493.000000	11.025763
2492.000000	10.966370
2491.000000	11.025218
2490.000000	10.972265
2489.000000	10.906430
2488.000000	10.882956
2487.000000	10.895621
2486.000000	10.919531
2485.000000	10.853259
2484.000000	10.825527
2483.000000	10.888743
2482.000000	10.910142
2481.000000	10.934489
2480.000000	10.869854
2479.000000	10.871601
2478.000000	10.933725
2477.000000	10.864832
2476.000000	10.921060
2475.000000	10.917675
2474.000000	10.974886
2473.000000	10.962548
2472.000000	10.989407
2471.000000	10.958181
2470.000000	10.950320
2469.000000	10.969972
2468.000000	10.981218
2467.000000	11.002836
2466.000000	11.024672
2465.000000	11.084612
2464.000000	11.087778
2463.000000	11.104264
2462.000000	11.112562
2461.000000	11.146517
2460.000000	11.225345
2459.000000	11.270218
2458.000000	11.283647
2457.000000	11.364767
2456.000000	11.398067
2455.000000	11.479952
2454.000000	11.518820
2453.000000	11.616973
2452.000000	11.685102
2451.000000	11.773101
2450.000000	11.818192
2449.000000	11.898439
2448.000000	11.992989
2447.000000	12.047798
2446.000000	12.117891
2445.000000	12.215826
2444.000000	12.304480
2443.000000	12.396082
2442.000000	12.458205
2441.000000	12.501768
2440.000000	12.588676
2439.000000	12.670561
2438.000000	12.740327
2437.000000	12.809219
2436.000000	12.883025
2435.000000	12.942528
2434.000000	13.004542
2433.000000	13.091013
2432.000000	13.164928
2431.000000	13.199101
2430.000000	13.258604
2429.000000	13.315596
2428.000000	13.373025
2427.000000	13.428816
2426.000000	13.480021
2425.000000	13.530899
2424.000000	13.574462
2423.000000	13.599901
2422.000000	13.642700
2421.000000	13.699582
2420.000000	13.734520
2419.000000	13.766946
2418.000000	13.794787
2417.000000	13.836603
2416.000000	13.883442
2415.000000	13.905496
2414.000000	13.940433
2413.000000	13.984433
2412.000000	14.016641
2411.000000	14.047867
2410.000000	14.059440
2409.000000	14.091757
2408.000000	14.129752
2407.000000	14.146347
2406.000000	14.166436
2405.000000	14.197552
2404.000000	14.255964
2403.000000	14.332281
2402.000000	14.382940
2401.000000	14.433818
2400.000000	14.463406
2399.000000	14.488408
2398.000000	14.516249
2397.000000	14.527495
2396.000000	14.573787
2395.000000	14.608288
2394.000000	14.633836
2393.000000	14.681548
2392.000000	14.706331
2391.000000	14.715830
2390.000000	14.738976
2389.000000	14.756554
2388.000000	14.781666
2387.000000	14.807432
2386.000000	14.811363
2385.000000	14.821298
2384.000000	14.828176
2383.000000	14.823700
2382.000000	14.831015
2381.000000	14.834836
2380.000000	14.833744
2379.000000	14.818132
2378.000000	14.815839
2377.000000	14.821080
2376.000000	14.817258
2375.000000	14.807541
2374.000000	14.796405
2373.000000	14.780137
2372.000000	14.751859
2371.000000	14.740177
2370.000000	14.741160
2369.000000	14.704912
2368.000000	14.668664
2367.000000	14.654362
2366.000000	14.617896
2365.000000	14.575643
2364.000000	14.536338
2363.000000	14.505222
2362.000000	14.471158
2361.000000	14.415039
2360.000000	14.386543
2359.000000	14.347457
2358.000000	14.302474
2357.000000	14.267864
2356.000000	14.226048
2355.000000	14.193731
2354.000000	14.173205
2353.000000	14.162615
2352.000000	14.154972
2351.000000	14.142744
2350.000000	14.139578
2349.000000	14.146565
2348.000000	14.173642
2347.000000	14.194495
2346.000000	14.214585
2345.000000	14.241989
2344.000000	14.267646
2343.000000	14.315030
2342.000000	14.355427
2341.000000	14.384796
2340.000000	14.415585
2339.000000	14.434146
2338.000000	14.453907
2337.000000	14.457728
2336.000000	14.470066
2335.000000	14.487862
2334.000000	14.480329
2333.000000	14.463187
2332.000000	14.461441
2331.000000	14.428032
2330.000000	14.398444
2329.000000	14.377263
2328.000000	14.342762
2327.000000	14.310226
2326.000000	14.261204
2325.000000	14.201810
2324.000000	14.152243
2323.000000	14.098308
2322.000000	14.021773
2321.000000	13.948294
2320.000000	13.874925
2319.000000	13.784197
2318.000000	13.695761
2317.000000	13.602085
2316.000000	13.511465
2315.000000	13.414732
2314.000000	13.314286
2313.000000	13.229344
2312.000000	13.127042
2311.000000	13.054328
2310.000000	12.979213
2309.000000	12.908246
2308.000000	12.848852
2307.000000	12.811512
2306.000000	12.772971
2305.000000	12.750371
2304.000000	12.767840
2303.000000	12.794043
2302.000000	12.815006
2301.000000	12.871452
2300.000000	12.920692
2299.000000	12.984999
2298.000000	13.071906
2297.000000	13.149861
2296.000000	13.219627
2295.000000	13.293869
2294.000000	13.366802
2293.000000	13.433729
2292.000000	13.510264
2291.000000	13.554482
2290.000000	13.600229
2289.000000	13.637459
2288.000000	13.647613
2287.000000	13.666064
2286.000000	13.677965
2285.000000	13.678292
2284.000000	13.661151
2283.000000	13.644010
2282.000000	13.606233
2281.000000	13.578829
2280.000000	13.559941
2279.000000	13.538651
2278.000000	13.484934
2277.000000	13.444538
2276.000000	13.400211
2275.000000	13.379685
2274.000000	13.366037
2273.000000	13.355993
2272.000000	13.343437
2271.000000	13.333283
2270.000000	13.358395
2269.000000	13.363635
2268.000000	13.420081
2267.000000	13.476200
2266.000000	13.547495
2265.000000	13.646521
2264.000000	13.768366
2263.000000	13.901347
2262.000000	14.056601
2261.000000	14.224957
2260.000000	14.393858
2259.000000	14.586779
2258.000000	14.815621
2257.000000	15.009088
2256.000000	15.212818
2255.000000	15.442314
2254.000000	15.681855
2253.000000	15.896940
2252.000000	16.104382
2251.000000	16.291407
2250.000000	16.470571
2249.000000	16.691770
2248.000000	16.850627
2247.000000	17.006536
2246.000000	17.164301
2245.000000	17.310384
2244.000000	17.456030
2243.000000	17.537042
2242.000000	17.641309
2241.000000	17.760533
2240.000000	17.871351
2239.000000	17.952581
2238.000000	18.004660
2237.000000	18.074099
2236.000000	18.148450
2235.000000	18.216251
2234.000000	18.253372
2233.000000	18.293441
2232.000000	18.331873
2231.000000	18.346721
2230.000000	18.364299
2229.000000	18.392467
2228.000000	18.389738
2227.000000	18.406443
2226.000000	18.391594
2225.000000	18.370086
2224.000000	18.362880
2223.000000	18.340279
2222.000000	18.299555
2221.000000	18.282742
2220.000000	18.224876
2219.000000	18.212320
2218.000000	18.171160
2217.000000	18.120063
2216.000000	18.077046
2215.000000	18.058377
2214.000000	18.037960
2213.000000	17.967976
2212.000000	17.936095
2211.000000	17.882706
2210.000000	17.870805
2209.000000	17.843401
2208.000000	17.817744
2207.000000	17.789794
2206.000000	17.761407
2205.000000	17.748960
2204.000000	17.721338
2203.000000	17.683343
2202.000000	17.675701
2201.000000	17.659870
2200.000000	17.639890
2199.000000	17.599493
2198.000000	17.594689
2197.000000	17.595672
2196.000000	17.558332
2195.000000	17.583116
2194.000000	17.583880
2193.000000	17.556585
2192.000000	17.540536
2191.000000	17.545340
2190.000000	17.532784
2189.000000	17.529399
2188.000000	17.524486
2187.000000	17.505816
2186.000000	17.491405
2185.000000	17.501449
2184.000000	17.475355
2183.000000	17.472517
2182.000000	17.445658
2181.000000	17.446968
2180.000000	17.437033
2179.000000	17.432775
2178.000000	17.418363
2177.000000	17.394780
2176.000000	17.398820
2175.000000	17.401659
2174.000000	17.404497
2173.000000	17.409301
2172.000000	17.419128
2171.000000	17.434194
2170.000000	17.437688
2169.000000	17.453083
2168.000000	17.456576
2167.000000	17.491951
2166.000000	17.518045
2165.000000	17.545776
2164.000000	17.536933
2163.000000	17.578312
2162.000000	17.625150
2161.000000	17.654956
2160.000000	17.692187
2159.000000	17.730291
2158.000000	17.770360
2157.000000	17.798965
2156.000000	17.854647
2155.000000	17.883579
2154.000000	17.927797
2153.000000	17.991777
2152.000000	18.051607
2151.000000	18.114058
2150.000000	18.169849
2149.000000	18.218107
2148.000000	18.276955
2147.000000	18.316151
2146.000000	18.364736
2145.000000	18.429370
2144.000000	18.478283
2143.000000	18.517915
2142.000000	18.561915
2141.000000	18.603622
2140.000000	18.663343
2139.000000	18.720553
2138.000000	18.749705
2137.000000	18.775908
2136.000000	18.821982
2135.000000	18.842944
2134.000000	18.876026
2133.000000	18.914785
2132.000000	18.933455
2131.000000	18.955291
2130.000000	18.970248
2129.000000	18.986625
2128.000000	18.996342
2127.000000	19.023637
2126.000000	19.035756
2125.000000	19.034009
2124.000000	19.041215
2123.000000	19.035647
2122.000000	19.032918
2121.000000	19.028114
2120.000000	19.018178
2119.000000	19.003876
2118.000000	18.992739
2117.000000	18.969702
2116.000000	18.965990
2115.000000	18.951251
2114.000000	18.937057
2113.000000	18.927013
2112.000000	18.894150
2111.000000	18.867182
2110.000000	18.849168
2109.000000	18.828642
2108.000000	18.791084
2107.000000	18.766846
2106.000000	18.766300
2105.000000	18.739988
2104.000000	18.702757
2103.000000	18.672514
2102.000000	18.645765
2101.000000	18.624912
2100.000000	18.594451
2099.000000	18.582550
2098.000000	18.561260
2097.000000	18.529379
2096.000000	18.507543
2095.000000	18.490293
2094.000000	18.484288
2093.000000	18.483087
2092.000000	18.456884
2091.000000	18.427951
2090.000000	18.430462
2089.000000	18.414304
2088.000000	18.394105
2087.000000	18.391267
2086.000000	18.369212
2085.000000	18.337550
2084.000000	18.315059
2083.000000	18.289947
2082.000000	18.265600
2081.000000	18.250424
2080.000000	18.207407
2079.000000	18.156966
2078.000000	18.129671
2077.000000	18.095061
2076.000000	18.057176
2075.000000	18.011538
2074.000000	17.961097
2073.000000	17.900393
2072.000000	17.840235
2071.000000	17.793615
2070.000000	17.729090
2069.000000	17.672098
2068.000000	17.622421
2067.000000	17.559861
2066.000000	17.500903
2065.000000	17.453083
2064.000000	17.399584
2063.000000	17.330910
2062.000000	17.288985
2061.000000	17.256449
2060.000000	17.224350
2059.000000	17.188212
2058.000000	17.154257
2057.000000	17.131766
2056.000000	17.119319
2055.000000	17.126853
2054.000000	17.139627
2053.000000	17.163974
2052.000000	17.193452
2051.000000	17.225661
2050.000000	17.299357
2049.000000	17.372617
2048.000000	17.455812
2047.000000	17.546759
2046.000000	17.634431
2045.000000	17.728216
2044.000000	17.845257
2043.000000	17.949633
2042.000000	18.036868
2041.000000	18.166792
2040.000000	18.291476
2039.000000	18.384061
2038.000000	18.488000
2037.000000	18.572724
2036.000000	18.659631
2035.000000	18.733873
2034.000000	18.804840
2033.000000	18.906815
2032.000000	18.978655
2031.000000	19.042962
2030.000000	19.105631
2029.000000	19.171685
2028.000000	19.226712
2027.000000	19.274424
2026.000000	19.317877
2025.000000	19.374542
2024.000000	19.415157
2023.000000	19.449549
2022.000000	19.487216
2021.000000	19.522699
2020.000000	19.551632
2019.000000	19.581001
2018.000000	19.606331
2017.000000	19.632862
2016.000000	19.649457
2015.000000	19.650331
2014.000000	19.652405
2013.000000	19.664087
2012.000000	19.663651
2011.000000	19.658192
2010.000000	19.651204
2009.000000	19.663105
2008.000000	19.645745
2007.000000	19.619433
2006.000000	19.604147
2005.000000	19.578708
2004.000000	19.548793
2003.000000	19.518332
2002.000000	19.493876
2001.000000	19.441142
2000.000000	19.397906
1999.000000	19.350195
1998.000000	19.314274
1997.000000	19.257064
1996.000000	19.204876
1995.000000	19.144063
1994.000000	19.078009
1993.000000	19.022218
1992.000000	18.956601
1991.000000	18.887490
1990.000000	18.826349
1989.000000	18.743590
1988.000000	18.675244
1987.000000	18.605369
1986.000000	18.520972
1985.000000	18.466164
1984.000000	18.387991
1983.000000	18.315605
1982.000000	18.244201
1981.000000	18.136113
1980.000000	18.065692
1979.000000	17.985663
1978.000000	17.897227
1977.000000	17.841763
1976.000000	17.760206
1975.000000	17.689894
1974.000000	17.605389
1973.000000	17.539553
1972.000000	17.455812
1971.000000	17.367595
1970.000000	17.302960
1969.000000	17.252846
1968.000000	17.170525
1967.000000	17.109930
1966.000000	17.043657
1965.000000	16.964065
1964.000000	16.891788
1963.000000	16.818528
1962.000000	16.750618
1961.000000	16.681180
1960.000000	16.607702
1959.000000	16.532695
1958.000000	16.478978
1957.000000	16.427991
1956.000000	16.345888
1955.000000	16.266186
1954.000000	16.226336
1953.000000	16.162684
1952.000000	16.069881
1951.000000	16.005355
1950.000000	15.942904
1949.000000	15.927728
1948.000000	15.873138
1947.000000	15.825318
1946.000000	15.772365
1945.000000	15.746708
1944.000000	15.703254
1943.000000	15.680545
1942.000000	15.654997
1941.000000	15.659910
1940.000000	15.653905
1939.000000	15.639821
1938.000000	15.628903
1937.000000	15.625627
1936.000000	15.625627
1935.000000	15.624426
1934.000000	15.662530
1933.000000	15.717338
1932.000000	15.757189
1931.000000	15.845297
1930.000000	15.892791
1929.000000	15.960046
1928.000000	16.044660
1927.000000	16.097831
1926.000000	16.175785
1925.000000	16.287367
1924.000000	16.424279
1923.000000	16.555732
1922.000000	16.696574
1921.000000	16.821367
1920.000000	16.973345
1919.000000	17.086565
1918.000000	17.239636
1917.000000	17.405589
1916.000000	17.598729
1915.000000	17.781824
1914.000000	18.017325
1913.000000	18.207407
1912.000000	18.387991
1911.000000	18.603731
1910.000000	18.819580
1909.000000	19.063925
1908.000000	19.315803
1907.000000	19.573577
1906.000000	19.851549
1905.000000	20.127556
1904.000000	20.401380
1903.000000	20.677496
1902.000000	20.971736
1901.000000	21.263793
1900.000000	21.601924
1899.000000	21.924769
1898.000000	22.188439
1897.000000	22.527989
1896.000000	22.857385
1895.000000	23.156538
1894.000000	23.503294
1893.000000	23.840333
1892.000000	24.201718
1891.000000	24.562340
1890.000000	24.948619
1889.000000	25.287295
1888.000000	25.655778
1887.000000	26.041620
1886.000000	26.410103
1885.000000	26.791141
1884.000000	27.248605
1883.000000	27.672988
1882.000000	28.096934
1881.000000	28.505268
1880.000000	28.922008
1879.000000	29.312108
1878.000000	29.717493
1877.000000	30.098204
1876.000000	30.458171
1875.000000	30.803726
1874.000000	31.165657
1873.000000	31.474418
1872.000000	31.763746
1871.000000	32.015842
1870.000000	32.253855
1869.000000	32.444920
1868.000000	32.652908
1867.000000	32.783159
1866.000000	32.905004
1865.000000	33.021172
1864.000000	33.131444
1863.000000	33.240515
1862.000000	33.364871
1861.000000	33.484859
1860.000000	33.595131
1859.000000	33.659438
1858.000000	33.705621
1857.000000	33.755298
1856.000000	33.794166
1855.000000	33.820479
1854.000000	33.865024
1853.000000	33.867426
1852.000000	33.813819
1851.000000	33.861094
1850.000000	33.897560
1849.000000	33.915138
1848.000000	33.925292
1847.000000	33.865024
1846.000000	33.783904
1845.000000	33.720142
1844.000000	33.723199
1843.000000	33.745472
1842.000000	33.781065
1841.000000	33.780956
1840.000000	33.736738
1839.000000	33.709334
1838.000000	33.661513
1837.000000	33.630396
1836.000000	33.592293
1835.000000	33.521871
1834.000000	33.464224
1833.000000	33.411490
1832.000000	33.368255
1831.000000	33.330042
1830.000000	33.307442
1829.000000	33.258748
1828.000000	33.191384
1827.000000	33.124238
1826.000000	33.058293
1825.000000	33.003157
1824.000000	32.981103
1823.000000	32.971495
1822.000000	32.994314
1821.000000	33.017241
1820.000000	32.960795
1819.000000	32.909917
1818.000000	32.868211
1817.000000	32.847794
1816.000000	32.862970
1815.000000	32.871814
1814.000000	32.844955
1813.000000	32.827923
1812.000000	32.809581
1811.000000	32.772023
1810.000000	32.742435
1809.000000	32.709572
1808.000000	32.681513
1807.000000	32.660659
1806.000000	32.634565
1805.000000	32.580412
1804.000000	32.546785
1803.000000	32.523093
1802.000000	32.494487
1801.000000	32.451580
1800.000000	32.402776
1799.000000	32.354955
1798.000000	32.308663
1797.000000	32.275254
1796.000000	32.246976
1795.000000	32.213567
1794.000000	32.178848
1793.000000	32.149260
1792.000000	32.096417
1791.000000	32.056676
1790.000000	32.029162
1789.000000	31.993897
1788.000000	31.961034
1787.000000	31.915506
1786.000000	31.875327
1785.000000	31.837988
1784.000000	31.791368
1783.000000	31.743766
1782.000000	31.703369
1781.000000	31.646049
1780.000000	31.585782
1779.000000	31.528463
1778.000000	31.471798
1777.000000	31.417317
1776.000000	31.360434
1775.000000	31.285428
1774.000000	31.209875
1773.000000	31.118055
1772.000000	31.027981
1771.000000	30.949481
1770.000000	30.855368
1769.000000	30.775120
1768.000000	30.693672
1767.000000	30.613316
1766.000000	30.550428
1765.000000	30.486558
1764.000000	30.437099
1763.000000	30.428474
1762.000000	30.436990
1761.000000	30.452384
1760.000000	30.492453
1759.000000	30.537435
1758.000000	30.567351
1757.000000	30.625871
1756.000000	30.681444
1755.000000	30.719329
1754.000000	30.747935
1753.000000	30.772609
1752.000000	30.778505
1751.000000	30.784510
1750.000000	30.780907
1749.000000	30.750773
1748.000000	30.707429
1747.000000	30.660700
1746.000000	30.590606
1745.000000	30.512542
1744.000000	30.417337
1743.000000	30.301170
1742.000000	30.166223
1741.000000	30.030185
1740.000000	29.874603
1739.000000	29.698824
1738.000000	29.531778
1737.000000	29.391045
1736.000000	29.277498
1735.000000	29.167226
1734.000000	29.086651
1733.000000	29.055862
1732.000000	29.052696
1731.000000	29.074860
1730.000000	29.093639
1729.000000	29.142115
1728.000000	29.204893
1727.000000	29.263086
1726.000000	29.322589
1725.000000	29.379363
1724.000000	29.422926
1723.000000	29.456662
1722.000000	29.499352
1721.000000	29.538220
1720.000000	29.601544
1719.000000	29.669017
1718.000000	29.734962
1717.000000	29.802435
1716.000000	29.882137
1715.000000	29.966424
1714.000000	30.060974
1713.000000	30.142422
1712.000000	30.220486
1711.000000	30.270818
1710.000000	30.317765
1709.000000	30.363184
1708.000000	30.373119
1707.000000	30.381199
1706.000000	30.368097
1705.000000	30.343423
1704.000000	30.305755
1703.000000	30.242431
1702.000000	30.195593
1701.000000	30.099405
1700.000000	30.003108
1699.000000	29.880499
1698.000000	29.782674
1697.000000	29.688779
1696.000000	29.625782
1695.000000	29.599251
1694.000000	29.549793
1693.000000	29.584294
1692.000000	29.645107
1691.000000	29.715310
1690.000000	29.811607
1689.000000	29.889998
1688.000000	29.958235
1687.000000	30.020796
1686.000000	30.068616
1685.000000	30.131613
1684.000000	30.197340
1683.000000	30.321587
1682.000000	30.538200
1681.000000	30.831239
1680.000000	31.146551
1679.000000	31.504115
1678.000000	31.918017
1677.000000	32.283770
1676.000000	32.641335
1675.000000	32.951733
1674.000000	33.266609
1673.000000	33.505385
1672.000000	33.705731
1671.000000	33.909024
1670.000000	34.091027
1669.000000	34.235035
1668.000000	34.381118
1667.000000	34.481346
1666.000000	34.581245
1665.000000	34.676887
1664.000000	34.756479
1663.000000	34.836290
1662.000000	34.922651
1661.000000	34.941430
1660.000000	35.002571
1659.000000	35.044059
1658.000000	35.063603
1657.000000	35.090898
1656.000000	35.135771
1655.000000	35.110113
1654.000000	35.139701
1653.000000	35.117974
1652.000000	35.098322
1651.000000	35.086312
1650.000000	35.074848
1649.000000	35.057161
1648.000000	35.012834
1647.000000	34.967633
1646.000000	34.943177
1645.000000	34.909986
1644.000000	34.854305
1643.000000	34.819039
1642.000000	34.792181
1641.000000	34.750584
1640.000000	34.702654
1639.000000	34.640639
1638.000000	34.587796
1637.000000	34.563995
1636.000000	34.496522
1635.000000	34.433852
1634.000000	34.386359
1633.000000	34.325327
1632.000000	34.254579
1631.000000	34.219095
1630.000000	34.151294
1629.000000	34.089171
1628.000000	34.013837
1627.000000	33.961321
1626.000000	33.895486
1625.000000	33.805521
