PE UV       SUBTECH     SPECTRUM    ASCII       PEDS        4.00        
   -1
CICIMAUCR0250-3.Sample.ASC
24/05/27
16:50:50.00
24/05/27
16:50:50.00
Vinicio Soto Monge
C. resplendens, M
250,000000
1
Lambda 1050
1050L1511233
PerkinElmer UV WinLab 6.3.2.0749 / 2.02.05 Lambda 900 UV/VIS/NIR, Aug  7 2015 09:38:08

0
0
3350/servo 860,8/2
0
0
UV/VIS
1
1
1
DoubleDePol,CommonBeamDepol,RBeamAtt,SBeamAtt,60mm sphere, WB InGaAs Detector
0
0
0
0
Program
Program
3350/servo 860,8/2
3350/0,2 860,8/0,2
3350/0,2 860,8/0,2
0
15.00
 
 
 
0
 
860,8
319,2
860,8
Front
100
on
S:100 R:100
0
0
0
0
 
0
 
 
 
0
 
 
0
0
0
0
0
 
 
 
 
0
0


0
0
#HDR
-1
-1
#GR
nm
%R
1.0
0.0
2500,000000
-1,000000
2251
8
89,705100
5,547200
#DATA
2482.000000	8.552184
2481.000000	8.481011
2480.000000	8.483557
2479.000000	8.525405
2478.000000	8.529478
2477.000000	8.541798
2476.000000	8.563689
2475.000000	8.604418
2474.000000	8.603908
2473.000000	8.546380
2472.000000	8.559718
2471.000000	8.587617
2470.000000	8.600447
2469.000000	8.596577
2468.000000	8.615720
2467.000000	8.642396
2466.000000	8.643822
2465.000000	8.675386
2464.000000	8.671517
2463.000000	8.699110
2462.000000	8.715503
2461.000000	8.762442
2460.000000	8.802661
2459.000000	8.852248
2458.000000	8.890227
2457.000000	8.963945
2456.000000	9.008644
2455.000000	9.054361
2454.000000	9.112500
2453.000000	9.181534
2452.000000	9.233361
2451.000000	9.289973
2450.000000	9.382731
2449.000000	9.450442
2448.000000	9.514894
2447.000000	9.595841
2446.000000	9.692265
2445.000000	9.736862
2444.000000	9.812412
2443.000000	9.860879
2442.000000	9.946306
2441.000000	10.041813
2440.000000	10.080403
2439.000000	10.135488
2438.000000	10.222646
2437.000000	10.300437
2436.000000	10.361121
2435.000000	10.416410
2434.000000	10.496746
2433.000000	10.570260
2432.000000	10.624021
2431.000000	10.683586
2430.000000	10.758118
2429.000000	10.800781
2428.000000	10.840084
2427.000000	10.882034
2426.000000	10.935387
2425.000000	10.998516
2424.000000	11.034866
2423.000000	11.070401
2422.000000	11.112249
2421.000000	11.151042
2420.000000	11.192280
2419.000000	11.234331
2418.000000	11.281372
2417.000000	11.308558
2416.000000	11.350814
2415.000000	11.376981
2414.000000	11.403455
2413.000000	11.435528
2412.000000	11.460270
2411.000000	11.495195
2410.000000	11.532155
2409.000000	11.568403
2408.000000	11.594164
2407.000000	11.635401
2406.000000	11.652507
2405.000000	11.683664
2404.000000	11.704639
2403.000000	11.732843
2402.000000	11.756364
2401.000000	11.778560
2400.000000	11.798212
2399.000000	11.816641
2398.000000	11.840976
2397.000000	11.871420
2396.000000	11.902781
2395.000000	11.923960
2394.000000	11.939029
2393.000000	11.973037
2392.000000	11.979757
2391.000000	11.993706
2390.000000	12.020485
2389.000000	12.046755
2388.000000	12.073126
2387.000000	12.066304
2386.000000	12.072821
2385.000000	12.072617
2384.000000	12.073330
2383.000000	12.076079
2382.000000	12.076690
2381.000000	12.088196
2380.000000	12.082901
2379.000000	12.066915
2378.000000	12.058973
2377.000000	12.050522
2376.000000	12.028122
2375.000000	12.021707
2374.000000	12.011932
2373.000000	11.978026
2372.000000	11.935771
2371.000000	11.922636
2370.000000	11.912658
2369.000000	11.875799
2368.000000	11.843929
2367.000000	11.817048
2366.000000	11.769804
2365.000000	11.724799
2364.000000	11.672871
2363.000000	11.623081
2362.000000	11.575735
2361.000000	11.512402
2360.000000	11.459150
2359.000000	11.418117
2358.000000	11.378102
2357.000000	11.322304
2356.000000	11.265081
2355.000000	11.224048
2354.000000	11.193807
2353.000000	11.177618
2352.000000	11.161326
2351.000000	11.144424
2350.000000	11.139842
2349.000000	11.142795
2348.000000	11.149515
2347.000000	11.174563
2346.000000	11.203480
2345.000000	11.217429
2344.000000	11.246753
2343.000000	11.267016
2342.000000	11.290231
2341.000000	11.313955
2340.000000	11.344297
2339.000000	11.371585
2338.000000	11.356719
2337.000000	11.368021
2336.000000	11.374538
2335.000000	11.359367
2334.000000	11.348777
2333.000000	11.326071
2332.000000	11.304180
2331.000000	11.268136
2330.000000	11.220891
2329.000000	11.182505
2328.000000	11.148192
2327.000000	11.075594
2326.000000	11.011752
2325.000000	10.969904
2324.000000	10.904943
2323.000000	10.811472
2322.000000	10.714947
2321.000000	10.644385
2320.000000	10.556209
2319.000000	10.444003
2318.000000	10.340452
2317.000000	10.244741
2316.000000	10.162267
2315.000000	10.068897
2314.000000	9.967077
2313.000000	9.843060
2312.000000	9.739916
2311.000000	9.658053
2310.000000	9.574459
2309.000000	9.500537
2308.000000	9.444841
2307.000000	9.401466
2306.000000	9.369189
2305.000000	9.377946
2304.000000	9.369291
2303.000000	9.380593
2302.000000	9.424885
2301.000000	9.464595
2300.000000	9.512348
2299.000000	9.575273
2298.000000	9.660598
2297.000000	9.728818
2296.000000	9.784921
2295.000000	9.870653
2294.000000	9.945186
2293.000000	10.012794
2292.000000	10.063297
2291.000000	10.099443
2290.000000	10.135284
2289.000000	10.183038
2288.000000	10.188842
2287.000000	10.194034
2286.000000	10.196071
2285.000000	10.193933
2284.000000	10.183954
2283.000000	10.145873
2282.000000	10.088141
2281.000000	10.057595
2280.000000	9.992940
2279.000000	9.948546
2278.000000	9.906087
2277.000000	9.856500
2276.000000	9.815263
2275.000000	9.764251
2274.000000	9.749080
2273.000000	9.725254
2272.000000	9.711814
2271.000000	9.676482
2270.000000	9.684221
2269.000000	9.696643
2268.000000	9.745924
2267.000000	9.782783
2266.000000	9.867599
2265.000000	9.945186
2264.000000	10.039777
2263.000000	10.178965
2262.000000	10.318764
2261.000000	10.475771
2260.000000	10.664546
2259.000000	10.864215
2258.000000	11.060932
2257.000000	11.243699
2256.000000	11.488271
2255.000000	11.720319
2254.000000	11.941982
2253.000000	12.177797
2252.000000	12.399154
2251.000000	12.607988
2250.000000	12.821403
2249.000000	13.005697
2248.000000	13.206792
2247.000000	13.373370
2246.000000	13.554101
2245.000000	13.705304
2244.000000	13.855489
2243.000000	13.974618
2242.000000	14.092933
2241.000000	14.223772
2240.000000	14.322945
2239.000000	14.413565
2238.000000	14.501640
2237.000000	14.593889
2236.000000	14.664247
2235.000000	14.732772
2234.000000	14.777878
2233.000000	14.832250
2232.000000	14.860454
2231.000000	14.919815
2230.000000	14.952601
2229.000000	14.981009
2228.000000	14.988544
2227.000000	15.010435
2226.000000	15.009112
2225.000000	15.008195
2224.000000	15.023061
2223.000000	15.006362
2222.000000	14.976835
2221.000000	14.967874
2220.000000	14.921750
2219.000000	14.922972
2218.000000	14.882345
2217.000000	14.851188
2216.000000	14.820541
2215.000000	14.791725
2214.000000	14.763012
2213.000000	14.711491
2212.000000	14.676770
2211.000000	14.670763
2210.000000	14.638791
2209.000000	14.598573
2208.000000	14.586761
2207.000000	14.561408
2206.000000	14.523327
2205.000000	14.519662
2204.000000	14.478934
2203.000000	14.476592
2202.000000	14.441260
2201.000000	14.402976
2200.000000	14.407863
2199.000000	14.375383
2198.000000	14.351353
2197.000000	14.351455
2196.000000	14.336996
2195.000000	14.314698
2194.000000	14.297796
2193.000000	14.278653
2192.000000	14.272239
2191.000000	14.245969
2190.000000	14.245766
2189.000000	14.245969
2188.000000	14.205343
2187.000000	14.211554
2186.000000	14.185284
2185.000000	14.159015
2184.000000	14.162171
2183.000000	14.140585
2182.000000	14.143538
2181.000000	14.122054
2180.000000	14.079493
2179.000000	14.091610
2178.000000	14.079188
2177.000000	14.041005
2176.000000	14.051798
2175.000000	14.053936
2174.000000	14.036729
2173.000000	14.031129
2172.000000	14.030314
2171.000000	14.058925
2170.000000	14.055565
2169.000000	14.055871
2168.000000	14.053224
2167.000000	14.088453
2166.000000	14.109225
2165.000000	14.115028
2164.000000	14.121647
2163.000000	14.161255
2162.000000	14.191394
2161.000000	14.200557
2160.000000	14.228863
2159.000000	14.256457
2158.000000	14.303599
2157.000000	14.350437
2156.000000	14.366626
2155.000000	14.387601
2154.000000	14.442584
2153.000000	14.495123
2152.000000	14.544506
2151.000000	14.588289
2150.000000	14.635330
2149.000000	14.673818
2148.000000	14.711695
2147.000000	14.758430
2146.000000	14.807711
2145.000000	14.853225
2144.000000	14.888149
2143.000000	14.930914
2142.000000	14.968485
2141.000000	15.020923
2140.000000	15.051265
2139.000000	15.092299
2138.000000	15.116735
2137.000000	15.146467
2136.000000	15.169886
2135.000000	15.209086
2134.000000	15.224461
2133.000000	15.249305
2132.000000	15.269466
2131.000000	15.281277
2130.000000	15.282091
2129.000000	15.310194
2128.000000	15.322310
2127.000000	15.316507
2126.000000	15.321801
2125.000000	15.325874
2124.000000	15.324551
2123.000000	15.297161
2122.000000	15.291968
2121.000000	15.292070
2120.000000	15.281379
2119.000000	15.269364
2118.000000	15.253684
2117.000000	15.244011
2116.000000	15.215196
2115.000000	15.191675
2114.000000	15.149216
2113.000000	15.116125
2112.000000	15.100750
2111.000000	15.083542
2110.000000	15.041999
2109.000000	15.006057
2108.000000	14.978362
2107.000000	14.963191
2106.000000	14.937023
2105.000000	14.899553
2104.000000	14.862694
2103.000000	14.833981
2102.000000	14.808424
2101.000000	14.760976
2100.000000	14.724931
2099.000000	14.703244
2098.000000	14.677890
2097.000000	14.658545
2096.000000	14.631664
2095.000000	14.604885
2094.000000	14.576987
2093.000000	14.551532
2092.000000	14.536259
2091.000000	14.523836
2090.000000	14.501538
2089.000000	14.475166
2088.000000	14.458672
2087.000000	14.435660
2086.000000	14.422118
2085.000000	14.403078
2084.000000	14.377114
2083.000000	14.367033
2082.000000	14.349826
2081.000000	14.312560
2080.000000	14.268471
2079.000000	14.238638
2078.000000	14.203816
2077.000000	14.155451
2076.000000	14.119814
2075.000000	14.072977
2074.000000	14.023187
2073.000000	13.984495
2072.000000	13.948043
2071.000000	13.896726
2070.000000	13.847343
2069.000000	13.804171
2068.000000	13.751734
2067.000000	13.712228
2066.000000	13.669056
2065.000000	13.609797
2064.000000	13.554814
2063.000000	13.516122
2062.000000	13.481707
2061.000000	13.437822
2060.000000	13.399742
2059.000000	13.375916
2058.000000	13.343537
2057.000000	13.320729
2056.000000	13.305354
2055.000000	13.292016
2054.000000	13.297819
2053.000000	13.296190
2052.000000	13.322460
2051.000000	13.360439
2050.000000	13.403713
2049.000000	13.451364
2048.000000	13.509504
2047.000000	13.574160
2046.000000	13.645943
2045.000000	13.725872
2044.000000	13.801829
2043.000000	13.883998
2042.000000	13.984699
2041.000000	14.084075
2040.000000	14.166753
2039.000000	14.239249
2038.000000	14.325185
2037.000000	14.406540
2036.000000	14.476185
2035.000000	14.540128
2034.000000	14.608245
2033.000000	14.674225
2032.000000	14.742546
2031.000000	14.791216
2030.000000	14.855770
2029.000000	14.903015
2028.000000	14.935597
2027.000000	14.972151
2026.000000	15.010537
2025.000000	15.036908
2024.000000	15.078858
2023.000000	15.111135
2022.000000	15.138118
2021.000000	15.147791
2020.000000	15.187093
2019.000000	15.206948
2018.000000	15.215297
2017.000000	15.214687
2016.000000	15.223443
2015.000000	15.215603
2014.000000	15.211428
2013.000000	15.222730
2012.000000	15.218556
2011.000000	15.202264
2010.000000	15.180068
2009.000000	15.161129
2008.000000	15.137100
2007.000000	15.095862
2006.000000	15.067760
2005.000000	15.048516
2004.000000	15.000355
2003.000000	14.951787
2002.000000	14.911364
2001.000000	14.849356
2000.000000	14.800176
1999.000000	14.736844
1998.000000	14.682574
1997.000000	14.626471
1996.000000	14.557641
1995.000000	14.496141
1994.000000	14.422424
1993.000000	14.351048
1992.000000	14.266639
1991.000000	14.189764
1990.000000	14.127043
1989.000000	14.039987
1988.000000	13.947738
1987.000000	13.892755
1986.000000	13.810484
1985.000000	13.713348
1984.000000	13.611120
1983.000000	13.558683
1982.000000	13.451975
1981.000000	13.370723
1980.000000	13.283157
1979.000000	13.210356
1978.000000	13.085423
1977.000000	13.001319
1976.000000	12.910190
1975.000000	12.842480
1974.000000	12.755729
1973.000000	12.668774
1972.000000	12.592715
1971.000000	12.510953
1970.000000	12.455563
1969.000000	12.370441
1968.000000	12.264446
1967.000000	12.177696
1966.000000	12.112632
1965.000000	12.047366
1964.000000	11.977313
1963.000000	11.884861
1962.000000	11.817252
1961.000000	11.732945
1960.000000	11.673584
1959.000000	11.593553
1958.000000	11.522075
1957.000000	11.463834
1956.000000	11.395716
1955.000000	11.317315
1954.000000	11.252455
1953.000000	11.188716
1952.000000	11.133835
1951.000000	11.066939
1950.000000	11.000552
1949.000000	10.936100
1948.000000	10.890994
1947.000000	10.841000
1946.000000	10.785203
1945.000000	10.745085
1944.000000	10.694379
1943.000000	10.669738
1942.000000	10.639396
1941.000000	10.597242
1940.000000	10.587060
1939.000000	10.587366
1938.000000	10.559671
1937.000000	10.574537
1936.000000	10.585940
1935.000000	10.563234
1934.000000	10.571787
1933.000000	10.595104
1932.000000	10.620661
1931.000000	10.668618
1930.000000	10.684095
1929.000000	10.768097
1928.000000	10.830411
1927.000000	10.903008
1926.000000	10.976319
1925.000000	11.063884
1924.000000	11.131595
1923.000000	11.221197
1922.000000	11.329431
1921.000000	11.459150
1920.000000	11.586120
1919.000000	11.740276
1918.000000	11.857369
1917.000000	12.014376
1916.000000	12.130655
1915.000000	12.257828
1914.000000	12.426748
1913.000000	12.630490
1912.000000	12.837287
1911.000000	13.075444
1910.000000	13.246909
1909.000000	13.402796
1908.000000	13.578640
1907.000000	13.794600
1906.000000	14.035914
1905.000000	14.329665
1904.000000	14.637264
1903.000000	14.917270
1902.000000	15.168257
1901.000000	15.441847
1900.000000	15.740588
1899.000000	16.058165
1898.000000	16.395088
1897.000000	16.722440
1896.000000	17.039610
1895.000000	17.328474
1894.000000	17.635767
1893.000000	17.941635
1892.000000	18.302791
1891.000000	18.721883
1890.000000	19.179667
1889.000000	19.583893
1888.000000	19.967653
1887.000000	20.386236
1886.000000	20.805430
1885.000000	21.256290
1884.000000	21.720793
1883.000000	22.251073
1882.000000	22.784916
1881.000000	23.276606
1880.000000	23.786929
1879.000000	24.246138
1878.000000	24.701682
1877.000000	25.167305
1876.000000	25.629264
1875.000000	26.063628
1874.000000	26.478444
1873.000000	26.860982
1872.000000	27.256147
1871.000000	27.599688
1870.000000	27.915738
1869.000000	28.196252
1868.000000	28.460476
1867.000000	28.691608
1866.000000	28.856251
1865.000000	28.999716
1864.000000	29.148271
1863.000000	29.255081
1862.000000	29.375839
1861.000000	29.503624
1860.000000	29.639146
1859.000000	29.740967
1858.000000	29.839020
1857.000000	29.919457
1856.000000	29.964666
1855.000000	29.995924
1854.000000	30.038282
1853.000000	30.064551
1852.000000	30.058646
1851.000000	30.043271
1850.000000	30.056202
1849.000000	30.085221
1848.000000	30.079417
1847.000000	30.075446
1846.000000	30.054267
1845.000000	30.011910
1844.000000	29.952244
1843.000000	29.918643
1842.000000	29.908665
1841.000000	29.918847
1840.000000	29.920679
1839.000000	29.899806
1838.000000	29.870177
1837.000000	29.827412
1836.000000	29.804706
1835.000000	29.753389
1834.000000	29.690769
1833.000000	29.629270
1832.000000	29.555043
1831.000000	29.495885
1830.000000	29.454852
1829.000000	29.403331
1828.000000	29.358734
1827.000000	29.287867
1826.000000	29.221684
1825.000000	29.172810
1824.000000	29.113449
1823.000000	29.060604
1822.000000	29.039018
1821.000000	29.057142
1820.000000	29.042073
1819.000000	29.005214
1818.000000	28.964282
1817.000000	28.925998
1816.000000	28.916427
1815.000000	28.910827
1814.000000	28.886390
1813.000000	28.861749
1812.000000	28.843320
1811.000000	28.823567
1810.000000	28.787930
1809.000000	28.739260
1808.000000	28.703215
1807.000000	28.666560
1806.000000	28.629497
1805.000000	28.585409
1804.000000	28.536943
1803.000000	28.484404
1802.000000	28.448461
1801.000000	28.407631
1800.000000	28.357434
1799.000000	28.288807
1798.000000	28.236370
1797.000000	28.188820
1796.000000	28.138317
1795.000000	28.106854
1794.000000	28.056453
1793.000000	27.993834
1792.000000	27.945775
1791.000000	27.903316
1790.000000	27.848842
1789.000000	27.799765
1788.000000	27.756287
1787.000000	27.704155
1786.000000	27.653347
1785.000000	27.598772
1784.000000	27.533301
1783.000000	27.472616
1782.000000	27.405619
1781.000000	27.331697
1780.000000	27.266227
1779.000000	27.207375
1778.000000	27.142515
1777.000000	27.075008
1776.000000	26.993043
1775.000000	26.907209
1774.000000	26.825447
1773.000000	26.735234
1772.000000	26.626389
1771.000000	26.517747
1770.000000	26.419388
1769.000000	26.316753
1768.000000	26.210351
1767.000000	26.116575
1766.000000	26.031759
1765.000000	25.966797
1764.000000	25.910185
1763.000000	25.868745
1762.000000	25.837486
1761.000000	25.837689
1760.000000	25.885138
1759.000000	25.941750
1758.000000	25.985634
1757.000000	26.048559
1756.000000	26.109549
1755.000000	26.138568
1754.000000	26.185202
1753.000000	26.243341
1752.000000	26.268898
1751.000000	26.268491
1750.000000	26.260651
1749.000000	26.247516
1748.000000	26.212388
1747.000000	26.158627
1746.000000	26.101098
1745.000000	26.017402
1744.000000	25.907029
1743.000000	25.785354
1742.000000	25.635882
1741.000000	25.486919
1740.000000	25.297737
1739.000000	25.106010
1738.000000	24.903489
1737.000000	24.722656
1736.000000	24.570333
1735.000000	24.429211
1734.000000	24.320365
1733.000000	24.254894
1732.000000	24.230763
1731.000000	24.238196
1730.000000	24.279331
1729.000000	24.346736
1728.000000	24.420556
1727.000000	24.501198
1726.000000	24.572268
1725.000000	24.649142
1724.000000	24.706060
1723.000000	24.761043
1722.000000	24.810629
1721.000000	24.859910
1720.000000	24.908682
1719.000000	24.963869
1718.000000	25.033310
1717.000000	25.107537
1716.000000	25.204062
1715.000000	25.287860
1714.000000	25.377360
1713.000000	25.482948
1712.000000	25.571939
1711.000000	25.653089
1710.000000	25.713571
1709.000000	25.742691
1708.000000	25.758270
1707.000000	25.777310
1706.000000	25.763870
1705.000000	25.740553
1704.000000	25.707461
1703.000000	25.657875
1702.000000	25.572448
1701.000000	25.495777
1700.000000	25.395383
1699.000000	25.255889
1698.000000	25.120570
1697.000000	25.006735
1696.000000	24.875285
1695.000000	24.808491
1694.000000	24.777639
1693.000000	24.765625
1692.000000	24.838731
1691.000000	24.907766
1690.000000	25.028321
1689.000000	25.122301
1688.000000	25.203553
1687.000000	25.282260
1686.000000	25.315657
1685.000000	25.346407
1684.000000	25.400066
1683.000000	25.540476
1682.000000	25.675694
1681.000000	25.950710
1680.000000	26.287022
1679.000000	26.702957
1678.000000	27.141090
1677.000000	27.578815
1676.000000	27.997703
1675.000000	28.378002
1674.000000	28.729790
1673.000000	29.005418
1672.000000	29.271066
1671.000000	29.496496
1670.000000	29.720806
1669.000000	29.874351
1668.000000	30.037467
1667.000000	30.177572
1666.000000	30.281734
1665.000000	30.395467
1664.000000	30.514291
1663.000000	30.593405
1662.000000	30.680665
1661.000000	30.737074
1660.000000	30.824537
1659.000000	30.869134
1658.000000	30.951609
1657.000000	30.959754
1656.000000	30.971260
1655.000000	31.001704
1654.000000	31.021254
1653.000000	31.008221
1652.000000	31.013312
1651.000000	31.006184
1650.000000	31.006083
1649.000000	31.003232
1648.000000	30.963115
1647.000000	30.929717
1646.000000	30.896015
1645.000000	30.850196
1644.000000	30.815475
1643.000000	30.768536
1642.000000	30.734325
1641.000000	30.671909
1640.000000	30.632301
1639.000000	30.586176
1638.000000	30.536793
1637.000000	30.472443
1636.000000	30.446479
1635.000000	30.360237
1634.000000	30.312483
1633.000000	30.263406
1632.000000	30.202823
1631.000000	30.121367
1630.000000	30.060377
1629.000000	29.982891
1628.000000	29.895632
1627.000000	29.838816
1626.000000	29.784851
1625.000000	29.700239
1624.000000	29.644543
1623.000000	29.561356
1622.000000	29.495987
1621.000000	29.419011
1620.000000	29.346210
1619.000000	29.292856
1618.000000	29.226877
1617.000000	29.160286
1616.000000	29.096547
1615.000000	29.025374
1614.000000	28.964893
1613.000000	28.918565
1612.000000	28.839654
1611.000000	28.779071
1610.000000	28.704132
1609.000000	28.642225
1608.000000	28.591824
1607.000000	28.531852
1606.000000	28.469232
1605.000000	28.392562
1604.000000	28.329128
1603.000000	28.260806
