PE UV       SUBTECH     SPECTRUM    ASCII       PEDS        4.00        
   -1
CICIMAUCR0252-3.ASC
24/06/26
10:58:31.00
24/06/26
10:58:31.00
Vinicio Soto Monge
C. resplendens. Sex F.Dorsal.
250,000000
1
Lambda 1050
1050L1511233
PerkinElmer UV WinLab 6.3.2.0749 / 2.02.05 Lambda 900 UV/VIS/NIR, Aug  7 2015 09:38:08

0
0
3350/servo 860,8/2
0
0
UV/VIS
1
1
1
DoubleDePol,CommonBeamDepol,RBeamAtt,SBeamAtt,60mm sphere, WB InGaAs Detector
0
0
0
0
Program
Program
3350/servo 860,8/2
3350/0,2 860,8/0,2
3350/0,2 860,8/0,2
0
15.00
 
 
 
0
 
860,8
319,2
860,8
Front
100
on
S:100 R:100
0
0
0
0
 
0
 
 
 
0
 
 
0
0
0
0
0
 
 
 
 
0
0


0
0
#HDR
-1
-1
#GR
nm
%R
1.0
0.0
2500,000000
-1,000000
2251
8
89,717500
5,501300
#DATA
2482.000000	7.847227
2481.000000	7.891329
2480.000000	7.826082
2479.000000	7.832627
2478.000000	7.852060
2477.000000	7.866660
2476.000000	7.858504
2475.000000	7.823565
2474.000000	7.835245
2473.000000	7.860115
2472.000000	7.921334
2471.000000	7.917608
2470.000000	7.855483
2469.000000	7.917709
2468.000000	7.913581
2467.000000	7.950333
2466.000000	7.965033
2465.000000	8.002288
2464.000000	8.023534
2463.000000	8.049008
2462.000000	8.060789
2461.000000	8.108918
2460.000000	8.123720
2459.000000	8.167519
2458.000000	8.200546
2457.000000	8.219979
2456.000000	8.324998
2455.000000	8.336778
2454.000000	8.387526
2453.000000	8.415215
2452.000000	8.462539
2451.000000	8.542789
2450.000000	8.611862
2449.000000	8.655561
2448.000000	8.710034
2447.000000	8.773569
2446.000000	8.827136
2445.000000	8.900135
2444.000000	8.938599
2443.000000	8.998408
2442.000000	9.081074
2441.000000	9.123263
2440.000000	9.199183
2439.000000	9.254260
2438.000000	9.308129
2437.000000	9.366730
2436.000000	9.448792
2435.000000	9.501251
2434.000000	9.559248
2433.000000	9.587038
2432.000000	9.646244
2431.000000	9.707463
2430.000000	9.751464
2429.000000	9.808052
2428.000000	9.861518
2427.000000	9.902196
2426.000000	9.958784
2425.000000	10.008927
2424.000000	10.048397
2423.000000	10.095721
2422.000000	10.155329
2421.000000	10.190973
2420.000000	10.241117
2419.000000	10.273438
2418.000000	10.307169
2417.000000	10.348653
2416.000000	10.389029
2415.000000	10.438166
2414.000000	10.456290
2413.000000	10.488208
2412.000000	10.534324
2411.000000	10.563020
2410.000000	10.587387
2409.000000	10.614070
2408.000000	10.643773
2407.000000	10.693010
2406.000000	10.723922
2405.000000	10.748692
2404.000000	10.785745
2403.000000	10.805883
2402.000000	10.832264
2401.000000	10.863075
2400.000000	10.875661
2399.000000	10.884924
2398.000000	10.902746
2397.000000	10.925905
2396.000000	10.947755
2395.000000	10.959737
2394.000000	10.985312
2393.000000	11.018338
2392.000000	11.033945
2391.000000	11.057204
2390.000000	11.074220
2389.000000	11.088418
2388.000000	11.090230
2387.000000	11.114395
2386.000000	11.137252
2385.000000	11.146918
2384.000000	11.152657
2383.000000	11.170782
2382.000000	11.178736
2381.000000	11.180146
2380.000000	11.181455
2379.000000	11.164740
2378.000000	11.151248
2377.000000	11.161518
2376.000000	11.160411
2375.000000	11.153564
2374.000000	11.158397
2373.000000	11.148227
2372.000000	11.126982
2371.000000	11.118624
2370.000000	11.124464
2369.000000	11.108052
2368.000000	11.099493
2367.000000	11.097580
2366.000000	11.077442
2365.000000	11.055291
2364.000000	11.028105
2363.000000	11.012397
2362.000000	10.990850
2361.000000	10.957521
2360.000000	10.928523
2359.000000	10.905465
2358.000000	10.883313
2357.000000	10.858947
2356.000000	10.833573
2355.000000	10.828840
2354.000000	10.811119
2353.000000	10.779905
2352.000000	10.777590
2351.000000	10.774670
2350.000000	10.774166
2349.000000	10.790176
2348.000000	10.799137
2347.000000	10.808703
2346.000000	10.825014
2345.000000	10.846360
2344.000000	10.873647
2343.000000	10.891369
2342.000000	10.926106
2341.000000	10.938995
2340.000000	10.955508
2339.000000	10.994273
2338.000000	11.032233
2337.000000	11.043208
2336.000000	11.048041
2335.000000	11.071502
2334.000000	11.082880
2333.000000	11.075932
2332.000000	11.072408
2331.000000	11.061232
2330.000000	11.053680
2329.000000	11.041698
2328.000000	11.021258
2327.000000	11.010585
2326.000000	11.002630
2325.000000	10.977055
2324.000000	10.929026
2323.000000	10.889657
2322.000000	10.857940
2321.000000	10.794606
2320.000000	10.742348
2319.000000	10.689889
2318.000000	10.623132
2317.000000	10.553656
2316.000000	10.478341
2315.000000	10.424472
2314.000000	10.344525
2313.000000	10.271625
2312.000000	10.208392
2311.000000	10.146066
2310.000000	10.095218
2309.000000	10.048901
2308.000000	10.025037
2307.000000	9.979425
2306.000000	9.960395
2305.000000	9.962509
2304.000000	9.951333
2303.000000	9.952843
2302.000000	9.985265
2301.000000	10.000268
2300.000000	10.041047
2299.000000	10.076288
2298.000000	10.145160
2297.000000	10.182415
2296.000000	10.254408
2295.000000	10.310995
2294.000000	10.370402
2293.000000	10.425680
2292.000000	10.463640
2291.000000	10.519221
2290.000000	10.567652
2289.000000	10.606015
2288.000000	10.640753
2287.000000	10.665019
2286.000000	10.679619
2285.000000	10.697743
2284.000000	10.708819
2283.000000	10.710027
2282.000000	10.708919
2281.000000	10.690191
2280.000000	10.666328
2279.000000	10.668845
2278.000000	10.652433
2277.000000	10.610747
2276.000000	10.600880
2275.000000	10.613567
2274.000000	10.581849
2273.000000	10.567451
2272.000000	10.549729
2271.000000	10.549830
2270.000000	10.570371
2269.000000	10.584568
2268.000000	10.610042
2267.000000	10.679015
2266.000000	10.731172
2265.000000	10.786148
2264.000000	10.865491
2263.000000	10.977055
2262.000000	11.097580
2261.000000	11.216394
2260.000000	11.359675
2259.000000	11.489061
2258.000000	11.627710
2257.000000	11.827478
2256.000000	11.974887
2255.000000	12.155624
2254.000000	12.291857
2253.000000	12.511561
2252.000000	12.646988
2251.000000	12.805474
2250.000000	12.973423
2249.000000	13.134325
2248.000000	13.275592
2247.000000	13.411825
2246.000000	13.523288
2245.000000	13.654486
2244.000000	13.756988
2243.000000	13.885166
2242.000000	13.966120
2241.000000	14.041637
2240.000000	14.119772
2239.000000	14.201834
2238.000000	14.282083
2237.000000	14.341389
2236.000000	14.367468
2235.000000	14.423350
2234.000000	14.468258
2233.000000	14.517898
2232.000000	14.542567
2231.000000	14.530987
2230.000000	14.556059
2229.000000	14.584756
2228.000000	14.595932
2227.000000	14.595227
2226.000000	14.573982
2225.000000	14.581433
2224.000000	14.545688
2223.000000	14.527665
2222.000000	14.491316
2221.000000	14.461713
2220.000000	14.430600
2219.000000	14.374617
2218.000000	14.352566
2217.000000	14.337060
2216.000000	14.279566
2215.000000	14.226805
2214.000000	14.195289
2213.000000	14.158135
2212.000000	14.118060
2211.000000	14.082316
2210.000000	14.052411
2209.000000	14.035294
2208.000000	13.985150
2207.000000	13.969644
2206.000000	13.960985
2205.000000	13.928362
2204.000000	13.890301
2203.000000	13.884562
2202.000000	13.859490
2201.000000	13.840359
2200.000000	13.812468
2199.000000	13.798774
2198.000000	13.780550
2197.000000	13.764641
2196.000000	13.740576
2195.000000	13.725774
2194.000000	13.706644
2193.000000	13.710067
2192.000000	13.697179
2191.000000	13.663347
2190.000000	13.666267
2189.000000	13.629113
2188.000000	13.622165
2187.000000	13.594677
2186.000000	13.580580
2185.000000	13.558026
2184.000000	13.541312
2183.000000	13.536881
2182.000000	13.504157
2181.000000	13.490262
2180.000000	13.484221
2179.000000	13.468614
2178.000000	13.450188
2177.000000	13.437803
2176.000000	13.428640
2175.000000	13.412631
2174.000000	13.418068
2173.000000	13.403871
2172.000000	13.403166
2171.000000	13.420585
2170.000000	13.430855
2169.000000	13.421693
2168.000000	13.426022
2167.000000	13.453712
2166.000000	13.460659
2165.000000	13.485932
2164.000000	13.483617
2163.000000	13.509594
2162.000000	13.535673
2161.000000	13.567289
2160.000000	13.602128
2159.000000	13.629113
2158.000000	13.655493
2157.000000	13.701005
2156.000000	13.735642
2155.000000	13.756082
2154.000000	13.816798
2153.000000	13.879326
2152.000000	13.933497
2151.000000	13.965012
2150.000000	14.020291
2149.000000	14.084732
2148.000000	14.114133
2147.000000	14.168908
2146.000000	14.221267
2145.000000	14.254897
2144.000000	14.313096
2143.000000	14.368072
2142.000000	14.407442
2141.000000	14.437850
2140.000000	14.484167
2139.000000	14.542365
2138.000000	14.596033
2137.000000	14.629462
2136.000000	14.648693
2135.000000	14.688063
2134.000000	14.718974
2133.000000	14.771434
2132.000000	14.782006
2131.000000	14.805668
2130.000000	14.846145
2129.000000	14.889140
2128.000000	14.902229
2127.000000	14.916225
2126.000000	14.941196
2125.000000	14.952171
2124.000000	14.966066
2123.000000	14.977948
2122.000000	14.986708
2121.000000	14.997280
2120.000000	15.011578
2119.000000	15.001710
2118.000000	14.995367
2117.000000	14.986204
2116.000000	14.996374
2115.000000	14.991742
2114.000000	14.985298
2113.000000	14.979861
2112.000000	14.980968
2111.000000	14.973215
2110.000000	14.967073
2109.000000	14.942706
2108.000000	14.932235
2107.000000	14.928912
2106.000000	14.922468
2105.000000	14.893973
2104.000000	14.871116
2103.000000	14.858329
2102.000000	14.850777
2101.000000	14.822987
2100.000000	14.803956
2099.000000	14.799425
2098.000000	14.775562
2097.000000	14.761868
2096.000000	14.754719
2095.000000	14.752303
2094.000000	14.733272
2093.000000	14.713839
2092.000000	14.708100
2091.000000	14.704979
2090.000000	14.684438
2089.000000	14.673866
2088.000000	14.663897
2087.000000	14.661783
2086.000000	14.653728
2085.000000	14.635402
2084.000000	14.614056
2083.000000	14.574787
2082.000000	14.544983
2081.000000	14.538036
2080.000000	14.518200
2079.000000	14.477622
2078.000000	14.427277
2077.000000	14.386700
2076.000000	14.354982
2075.000000	14.304638
2074.000000	14.248554
2073.000000	14.200827
2072.000000	14.133768
2071.000000	14.073052
2070.000000	14.029454
2069.000000	13.969745
2068.000000	13.910942
2067.000000	13.847810
2066.000000	13.773501
2065.000000	13.704126
2064.000000	13.643209
2063.000000	13.585816
2062.000000	13.517650
2061.000000	13.453108
2060.000000	13.398836
2059.000000	13.342752
2058.000000	13.303181
2057.000000	13.265624
2056.000000	13.219710
2055.000000	13.203197
2054.000000	13.186684
2053.000000	13.172386
2052.000000	13.185375
2051.000000	13.202089
2050.000000	13.228772
2049.000000	13.256059
2048.000000	13.297744
2047.000000	13.334798
2046.000000	13.391989
2045.000000	13.455424
2044.000000	13.505970
2043.000000	13.582997
2042.000000	13.653882
2041.000000	13.719431
2040.000000	13.789410
2039.000000	13.854959
2038.000000	13.921917
2037.000000	13.975484
2036.000000	14.034589
2035.000000	14.082013
2034.000000	14.125511
2033.000000	14.164075
2032.000000	14.190859
2031.000000	14.228718
2030.000000	14.264261
2029.000000	14.302523
2028.000000	14.338570
2027.000000	14.357802
2026.000000	14.354882
2025.000000	14.360923
2024.000000	14.383981
2023.000000	14.395057
2022.000000	14.386297
2021.000000	14.373509
2020.000000	14.388109
2019.000000	14.386397
2018.000000	14.386800
2017.000000	14.372100
2016.000000	14.376530
2015.000000	14.346927
2014.000000	14.324574
2013.000000	14.307054
2012.000000	14.295072
2011.000000	14.280875
2010.000000	14.260939
2009.000000	14.237478
2008.000000	14.202438
2007.000000	14.179279
2006.000000	14.137091
2005.000000	14.110106
2004.000000	14.054525
2003.000000	14.037811
2002.000000	13.996528
2001.000000	13.927254
2000.000000	13.883857
1999.000000	13.843480
1998.000000	13.784074
1997.000000	13.721042
1996.000000	13.666267
1995.000000	13.588434
1994.000000	13.558731
1993.000000	13.492779
1992.000000	13.410415
1991.000000	13.366716
1990.000000	13.297845
1989.000000	13.219508
1988.000000	13.142380
1987.000000	13.081665
1986.000000	12.998495
1985.000000	12.922575
1984.000000	12.857228
1983.000000	12.771642
1982.000000	12.683237
1981.000000	12.619400
1980.000000	12.561100
1979.000000	12.470279
1978.000000	12.400199
1977.000000	12.323171
1976.000000	12.241009
1975.000000	12.154013
1974.000000	12.091385
1973.000000	12.025433
1972.000000	11.966530
1971.000000	11.909741
1970.000000	11.829089
1969.000000	11.772501
1968.000000	11.683794
1967.000000	11.621769
1966.000000	11.545950
1965.000000	11.495203
1964.000000	11.441032
1963.000000	11.356755
1962.000000	11.310438
1961.000000	11.246701
1960.000000	11.190919
1959.000000	11.126277
1958.000000	11.064756
1957.000000	10.989742
1956.000000	10.922079
1955.000000	10.857033
1954.000000	10.810817
1953.000000	10.772354
1952.000000	10.714961
1951.000000	10.667637
1950.000000	10.627462
1949.000000	10.588193
1948.000000	10.552750
1947.000000	10.499183
1946.000000	10.476931
1945.000000	10.413899
1944.000000	10.422357
1943.000000	10.364662
1942.000000	10.368891
1941.000000	10.312203
1940.000000	10.337074
1939.000000	10.309585
1938.000000	10.326501
1937.000000	10.348955
1936.000000	10.360736
1935.000000	10.353184
1934.000000	10.358923
1933.000000	10.408664
1932.000000	10.433333
1931.000000	10.468070
1930.000000	10.508548
1929.000000	10.559899
1928.000000	10.643069
1927.000000	10.725734
1926.000000	10.818469
1925.000000	10.896101
1924.000000	10.978767
1923.000000	11.057003
1922.000000	11.136346
1921.000000	11.276707
1920.000000	11.454222
1919.000000	11.624286
1918.000000	11.771796
1917.000000	11.891717
1916.000000	12.032884
1915.000000	12.145052
1914.000000	12.296287
1913.000000	12.532303
1912.000000	12.789967
1911.000000	12.978760
1910.000000	13.175004
1909.000000	13.344665
1908.000000	13.532451
1907.000000	13.729198
1906.000000	13.998341
1905.000000	14.313297
1904.000000	14.626038
1903.000000	14.902431
1902.000000	15.196645
1901.000000	15.479783
1900.000000	15.807527
1899.000000	16.232638
1898.000000	16.620695
1897.000000	16.999690
1896.000000	17.356231
1895.000000	17.645411
1894.000000	17.973658
1893.000000	18.361111
1892.000000	18.763868
1891.000000	19.230362
1890.000000	19.696655
1889.000000	20.119550
1888.000000	20.563993
1887.000000	20.969972
1886.000000	21.400923
1885.000000	21.825429
1884.000000	22.313169
1883.000000	22.774527
1882.000000	23.213130
1881.000000	23.643275
1880.000000	24.058116
1879.000000	24.392304
1878.000000	24.788516
1877.000000	25.170230
1876.000000	25.519723
1875.000000	25.859046
1874.000000	26.183970
1873.000000	26.523092
1872.000000	26.831202
1871.000000	27.114743
1870.000000	27.418019
1869.000000	27.673468
1868.000000	27.928313
1867.000000	28.119623
1866.000000	28.287170
1865.000000	28.444145
1864.000000	28.581485
1863.000000	28.726176
1862.000000	28.869860
1861.000000	28.998641
1860.000000	29.149373
1859.000000	29.256809
1858.000000	29.345315
1857.000000	29.433015
1856.000000	29.514876
1855.000000	29.564918
1854.000000	29.625936
1853.000000	29.683631
1852.000000	29.704574
1851.000000	29.760155
1850.000000	29.806774
1849.000000	29.831242
1848.000000	29.841915
1847.000000	29.852386
1846.000000	29.844533
1845.000000	29.806774
1844.000000	29.812513
1843.000000	29.842519
1842.000000	29.881687
1841.000000	29.909880
1840.000000	29.869000
1839.000000	29.846647
1838.000000	29.815534
1837.000000	29.805868
1836.000000	29.778178
1835.000000	29.756429
1834.000000	29.735184
1833.000000	29.698432
1832.000000	29.671448
1831.000000	29.651713
1830.000000	29.626842
1829.000000	29.594622
1828.000000	29.554044
1827.000000	29.492623
1826.000000	29.463121
1825.000000	29.445501
1824.000000	29.419321
1823.000000	29.416401
1822.000000	29.414488
1821.000000	29.430297
1820.000000	29.394955
1819.000000	29.354175
1818.000000	29.330211
1817.000000	29.303529
1816.000000	29.288627
1815.000000	29.296078
1814.000000	29.291547
1813.000000	29.280773
1812.000000	29.268489
1811.000000	29.249156
1810.000000	29.223581
1809.000000	29.187535
1808.000000	29.161355
1807.000000	29.149273
1806.000000	29.139204
1805.000000	29.116750
1804.000000	29.082314
1803.000000	29.049691
1802.000000	29.016061
1801.000000	28.987867
1800.000000	28.962695
1799.000000	28.919701
1798.000000	28.886876
1797.000000	28.862409
1796.000000	28.828980
1795.000000	28.805016
1794.000000	28.799075
1793.000000	28.776520
1792.000000	28.747723
1791.000000	28.713992
1790.000000	28.688619
1789.000000	28.663950
1788.000000	28.627299
1787.000000	28.610182
1786.000000	28.588634
1785.000000	28.558528
1784.000000	28.519058
1783.000000	28.483212
1782.000000	28.453006
1781.000000	28.416254
1780.000000	28.386853
1779.000000	28.349900
1778.000000	28.305194
1777.000000	28.253238
1776.000000	28.192321
1775.000000	28.145702
1774.000000	28.107238
1773.000000	28.056894
1772.000000	27.989432
1771.000000	27.923279
1770.000000	27.866389
1769.000000	27.805674
1768.000000	27.742239
1767.000000	27.672562
1766.000000	27.615874
1765.000000	27.567442
1764.000000	27.528677
1763.000000	27.513171
1762.000000	27.502498
1761.000000	27.510654
1760.000000	27.532403
1759.000000	27.563516
1758.000000	27.613256
1757.000000	27.654136
1756.000000	27.695519
1755.000000	27.739219
1754.000000	27.774460
1753.000000	27.805875
1752.000000	27.833262
1751.000000	27.845949
1750.000000	27.863066
1749.000000	27.865382
1748.000000	27.844640
1747.000000	27.829738
1746.000000	27.814736
1745.000000	27.752812
1744.000000	27.689780
1743.000000	27.622520
1742.000000	27.551332
1741.000000	27.467357
1740.000000	27.361533
1739.000000	27.233154
1738.000000	27.105983
1737.000000	26.985256
1736.000000	26.868960
1735.000000	26.759108
1734.000000	26.674730
1733.000000	26.618646
1732.000000	26.562059
1731.000000	26.532557
1730.000000	26.547660
1729.000000	26.568705
1728.000000	26.599113
1727.000000	26.648853
1726.000000	26.690136
1725.000000	26.742595
1724.000000	26.771694
1723.000000	26.839861
1722.000000	26.881748
1721.000000	26.944981
1720.000000	27.008616
1719.000000	27.102056
1718.000000	27.179990
1717.000000	27.269100
1716.000000	27.341898
1715.000000	27.440876
1714.000000	27.539350
1713.000000	27.663097
1712.000000	27.736903
1711.000000	27.806982
1710.000000	27.884916
1709.000000	27.951069
1708.000000	27.990640
1707.000000	28.019638
1706.000000	28.042394
1705.000000	28.065150
1704.000000	28.065251
1703.000000	28.063237
1702.000000	28.014201
1701.000000	27.992251
1700.000000	27.954895
1699.000000	27.907370
1698.000000	27.848064
1697.000000	27.805674
1696.000000	27.769325
1695.000000	27.731566
1694.000000	27.715053
1693.000000	27.727438
1692.000000	27.759457
1691.000000	27.829738
1690.000000	27.873437
1689.000000	27.945229
1688.000000	27.993862
1687.000000	28.056591
1686.000000	28.108849
1685.000000	28.174599
1684.000000	28.265421
1683.000000	28.372756
1682.000000	28.523287
1681.000000	28.669387
1680.000000	28.909531
1679.000000	29.173941
1678.000000	29.407037
1677.000000	29.658358
1676.000000	29.905752
1675.000000	30.165027
1674.000000	30.360163
1673.000000	30.554695
1672.000000	30.733620
1671.000000	30.876095
1670.000000	31.031660
1669.000000	31.147957
1668.000000	31.271100
1667.000000	31.371789
1666.000000	31.447810
1665.000000	31.540847
1664.000000	31.601160
1663.000000	31.662681
1662.000000	31.726719
1661.000000	31.788039
1660.000000	31.834457
1659.000000	31.881579
1658.000000	31.914001
1657.000000	31.958506
1656.000000	31.971092
1655.000000	31.986800
1654.000000	32.009556
1653.000000	31.990324
1652.000000	32.014087
1651.000000	32.009858
1650.000000	32.001803
1649.000000	31.977335
1648.000000	31.956492
1647.000000	31.947430
1646.000000	31.907658
1645.000000	31.897086
1644.000000	31.868993
1643.000000	31.818649
1642.000000	31.802035
1641.000000	31.754509
1640.000000	31.736889
1639.000000	31.688659
1638.000000	31.657244
1637.000000	31.625929
1636.000000	31.586962
1635.000000	31.530073
1634.000000	31.499363
1633.000000	31.444990
1632.000000	31.372393
1631.000000	31.319229
1630.000000	31.299696
1629.000000	31.240188
1628.000000	31.209478
1627.000000	31.125302
1626.000000	31.075964
1625.000000	31.017262
1624.000000	30.954935
1623.000000	30.883748
1622.000000	30.840049
1621.000000	30.782656
1620.000000	30.754563
1619.000000	30.709454
1618.000000	30.643805
1617.000000	30.590943
1616.000000	30.524387
1615.000000	30.492469
1614.000000	30.456422
1613.000000	30.396915
1612.000000	30.333883
1611.000000	30.269845
1610.000000	30.233395
1609.000000	30.202383
1608.000000	30.138646
1607.000000	30.087395
1606.000000	30.030405
1605.000000	29.969085
1604.000000	29.911491
