PE UV       SUBTECH     SPECTRUM    ASCII       PEDS        4.00        
   -1
CICIMAUCR0239-3.Sample.ASC
24/06/20
12:23:16.00
24/06/20
12:23:16.00
Vinicio Soto Monge
C. cupreomarginata. Sex M. Dorsal.
250,000000
1
Lambda 1050
1050L1511233
PerkinElmer UV WinLab 6.3.2.0749 / 2.02.05 Lambda 900 UV/VIS/NIR, Aug  7 2015 09:38:08

0
0
3350/servo 860,8/2
0
0
UV/VIS
1
1
1
DoubleDePol,CommonBeamDepol,RBeamAtt,SBeamAtt,60mm sphere, WB InGaAs Detector
0
0
0
0
Program
Program
3350/servo 860,8/2
3350/0,2 860,8/0,2
3350/0,2 860,8/0,2
0
15.00
 
 
 
0
 
860,8
319,2
860,8
Front
100
on
S:100 R:100
0
0
0
0
 
0
 
 
 
0
 
 
0
0
0
0
0
 
 
 
 
0
0


0
0
#HDR
-1
-1
#GR
nm
%R
1.0
0.0
2500,000000
-1,000000
2251
8
71,550600
5,249000
#DATA
2500.000000	8.851769
2499.000000	8.768141
2498.000000	8.862135
2497.000000	8.853380
2496.000000	8.931574
2495.000000	8.855392
2494.000000	8.854285
2493.000000	8.785651
2492.000000	8.802860
2491.000000	8.800646
2490.000000	8.768845
2489.000000	8.731710
2488.000000	8.806684
2487.000000	8.749825
2486.000000	8.795916
2485.000000	8.719533
2484.000000	8.821377
2483.000000	8.789274
2482.000000	8.706652
2481.000000	8.756769
2480.000000	8.789475
2479.000000	8.839894
2478.000000	8.773273
2477.000000	8.770455
2476.000000	8.831240
2475.000000	8.778909
2474.000000	8.783538
2473.000000	8.838787
2472.000000	8.853782
2471.000000	8.802860
2470.000000	8.805577
2469.000000	8.875117
2468.000000	8.864852
2467.000000	8.867871
2466.000000	8.887596
2465.000000	8.907220
2464.000000	8.900377
2463.000000	8.920504
2462.000000	8.961664
2461.000000	9.028688
2460.000000	9.081925
2459.000000	9.086554
2458.000000	9.133652
2457.000000	9.192826
2456.000000	9.209230
2455.000000	9.284707
2454.000000	9.346196
2453.000000	9.408389
2452.000000	9.457600
2451.000000	9.519693
2450.000000	9.589333
2449.000000	9.657162
2448.000000	9.703253
2447.000000	9.796946
2446.000000	9.868297
2445.000000	9.944478
2444.000000	9.998218
2443.000000	10.050348
2442.000000	10.120491
2441.000000	10.182383
2440.000000	10.263898
2439.000000	10.337765
2438.000000	10.379630
2437.000000	10.453497
2436.000000	10.519112
2435.000000	10.581003
2434.000000	10.644807
2433.000000	10.703679
2432.000000	10.757318
2431.000000	10.815385
2430.000000	10.837022
2429.000000	10.904146
2428.000000	10.948728
2427.000000	10.993511
2426.000000	11.046346
2425.000000	11.091129
2424.000000	11.128867
2423.000000	11.180695
2422.000000	11.208269
2421.000000	11.246008
2420.000000	11.295521
2419.000000	11.324706
2418.000000	11.364658
2417.000000	11.401290
2416.000000	11.437519
2415.000000	11.460967
2414.000000	11.494580
2413.000000	11.518028
2412.000000	11.553251
2411.000000	11.582938
2410.000000	11.614236
2409.000000	11.642918
2408.000000	11.667574
2407.000000	11.699978
2406.000000	11.724534
2405.000000	11.751001
2404.000000	11.785821
2403.000000	11.806049
2402.000000	11.833523
2401.000000	11.877501
2400.000000	11.903767
2399.000000	11.933757
2398.000000	11.961532
2397.000000	11.999170
2396.000000	12.026141
2395.000000	12.040431
2394.000000	12.074346
2393.000000	12.105744
2392.000000	12.127482
2391.000000	12.157974
2390.000000	12.179309
2389.000000	12.190681
2388.000000	12.212620
2387.000000	12.246031
2386.000000	12.258309
2385.000000	12.267064
2384.000000	12.267970
2383.000000	12.276121
2382.000000	12.288500
2381.000000	12.297456
2380.000000	12.317080
2379.000000	12.306212
2378.000000	12.285883
2377.000000	12.282461
2376.000000	12.279140
2375.000000	12.281455
2374.000000	12.273102
2373.000000	12.252472
2372.000000	12.242106
2371.000000	12.225904
2370.000000	12.196417
2369.000000	12.173170
2368.000000	12.151735
2367.000000	12.113795
2366.000000	12.070320
2365.000000	12.044658
2364.000000	12.010743
2363.000000	11.957607
2362.000000	11.916548
2361.000000	11.874985
2360.000000	11.828994
2359.000000	11.778978
2358.000000	11.734195
2357.000000	11.694947
2356.000000	11.647245
2355.000000	11.614639
2354.000000	11.578913
2353.000000	11.546508
2352.000000	11.551137
2351.000000	11.571164
2350.000000	11.577001
2349.000000	11.591794
2348.000000	11.618262
2347.000000	11.633055
2346.000000	11.662642
2345.000000	11.695550
2344.000000	11.735503
2343.000000	11.774449
2342.000000	11.811282
2341.000000	11.843586
2340.000000	11.879614
2339.000000	11.912220
2338.000000	11.931140
2337.000000	11.940097
2336.000000	11.943921
2335.000000	11.951569
2334.000000	11.935769
2333.000000	11.920070
2332.000000	11.906987
2331.000000	11.880419
2330.000000	11.829497
2329.000000	11.787331
2328.000000	11.755731
2327.000000	11.706922
2326.000000	11.636578
2325.000000	11.565126
2324.000000	11.488843
2323.000000	11.420813
2322.000000	11.329737
2321.000000	11.253153
2320.000000	11.153523
2319.000000	11.061038
2318.000000	10.965937
2317.000000	10.844067
2316.000000	10.741518
2315.000000	10.639070
2314.000000	10.532798
2313.000000	10.445647
2312.000000	10.345514
2311.000000	10.256049
2310.000000	10.182181
2309.000000	10.108717
2308.000000	10.060613
2307.000000	10.022472
2306.000000	9.998319
2305.000000	9.968229
2304.000000	9.969839
2303.000000	10.002244
2302.000000	10.039882
2301.000000	10.085269
2300.000000	10.152292
2299.000000	10.232701
2298.000000	10.312505
2297.000000	10.368560
2296.000000	10.448465
2295.000000	10.537327
2294.000000	10.602137
2293.000000	10.661009
2292.000000	10.745141
2291.000000	10.795157
2290.000000	10.827864
2289.000000	10.844368
2288.000000	10.856344
2287.000000	10.852319
2286.000000	10.852117
2285.000000	10.846784
2284.000000	10.820316
2283.000000	10.778854
2282.000000	10.728536
2281.000000	10.692307
2280.000000	10.617635
2279.000000	10.572852
2278.000000	10.531691
2277.000000	10.481776
2276.000000	10.424111
2275.000000	10.365541
2274.000000	10.325789
2273.000000	10.327198
2272.000000	10.269634
2271.000000	10.248400
2270.000000	10.263697
2269.000000	10.298517
2268.000000	10.294995
2267.000000	10.344105
2266.000000	10.394323
2265.000000	10.497274
2264.000000	10.605659
2263.000000	10.703377
2262.000000	10.835613
2261.000000	10.999751
2260.000000	11.177173
2259.000000	11.355400
2258.000000	11.532520
2257.000000	11.732685
2256.000000	11.960325
2255.000000	12.171158
2254.000000	12.377865
2253.000000	12.590509
2252.000000	12.772862
2251.000000	12.963266
2250.000000	13.161117
2249.000000	13.339747
2248.000000	13.493318
2247.000000	13.663896
2246.000000	13.824814
2245.000000	13.931790
2244.000000	14.064026
2243.000000	14.162247
2242.000000	14.269526
2241.000000	14.369256
2240.000000	14.456810
2239.000000	14.544464
2238.000000	14.630508
2237.000000	14.710916
2236.000000	14.757410
2235.000000	14.824736
2234.000000	14.875256
2233.000000	14.930505
2232.000000	14.996623
2231.000000	14.999441
2230.000000	15.026613
2229.000000	15.058917
2228.000000	15.062037
2227.000000	15.079749
2226.000000	15.087799
2225.000000	15.101285
2224.000000	15.107927
2223.000000	15.090416
2222.000000	15.068276
2221.000000	15.063345
2220.000000	15.036374
2219.000000	15.014939
2218.000000	15.014033
2217.000000	14.975288
2216.000000	14.956771
2215.000000	14.922655
2214.000000	14.906050
2213.000000	14.894175
2212.000000	14.857745
2211.000000	14.840234
2210.000000	14.819000
2209.000000	14.791023
2208.000000	14.758517
2207.000000	14.727018
2206.000000	14.731949
2205.000000	14.707294
2204.000000	14.674587
2203.000000	14.665831
2202.000000	14.649126
2201.000000	14.655868
2200.000000	14.636848
2199.000000	14.622558
2198.000000	14.582203
2197.000000	14.578077
2196.000000	14.562981
2195.000000	14.547584
2194.000000	14.533897
2193.000000	14.529167
2192.000000	14.508537
2191.000000	14.504612
2190.000000	14.497165
2189.000000	14.473918
2188.000000	14.476534
2187.000000	14.466270
2186.000000	14.447551
2185.000000	14.431550
2184.000000	14.418065
2183.000000	14.392201
2182.000000	14.399346
2181.000000	14.400051
2180.000000	14.383245
2179.000000	14.368250
2178.000000	14.365130
2177.000000	14.370464
2176.000000	14.360098
2175.000000	14.341581
2174.000000	14.333530
2173.000000	14.366438
2172.000000	14.359696
2171.000000	14.357582
2170.000000	14.363117
2169.000000	14.372879
2168.000000	14.393912
2167.000000	14.406592
2166.000000	14.405888
2165.000000	14.426921
2164.000000	14.445337
2163.000000	14.468182
2162.000000	14.483780
2161.000000	14.502901
2160.000000	14.536212
2159.000000	14.574856
2158.000000	14.596594
2157.000000	14.637553
2156.000000	14.653856
2155.000000	14.688173
2154.000000	14.714137
2153.000000	14.745938
2152.000000	14.785488
2151.000000	14.837718
2150.000000	14.881294
2149.000000	14.905950
2148.000000	14.943789
2147.000000	14.980219
2146.000000	15.023493
2145.000000	15.060024
2144.000000	15.074515
2143.000000	15.100480
2142.000000	15.127450
2141.000000	15.149389
2140.000000	15.182700
2139.000000	15.196185
2138.000000	15.227684
2137.000000	15.263611
2136.000000	15.283336
2135.000000	15.290783
2134.000000	15.294607
2133.000000	15.299035
2132.000000	15.307187
2131.000000	15.308998
2130.000000	15.320370
2129.000000	15.327012
2128.000000	15.325201
2127.000000	15.327213
2126.000000	15.322685
2125.000000	15.317955
2124.000000	15.302759
2123.000000	15.288166
2122.000000	15.266429
2121.000000	15.244691
2120.000000	15.234930
2119.000000	15.214802
2118.000000	15.195581
2117.000000	15.167000
2116.000000	15.148383
2115.000000	15.123324
2114.000000	15.082164
2113.000000	15.052375
2112.000000	15.022084
2111.000000	14.999642
2110.000000	14.974684
2109.000000	14.954960
2108.000000	14.921347
2107.000000	14.878476
2106.000000	14.859053
2105.000000	14.834699
2104.000000	14.790922
2103.000000	14.753888
2102.000000	14.735774
2101.000000	14.703369
2100.000000	14.674486
2099.000000	14.634936
2098.000000	14.600518
2097.000000	14.588845
2096.000000	14.558050
2095.000000	14.528865
2094.000000	14.510449
2093.000000	14.481969
2092.000000	14.451073
2091.000000	14.430141
2090.000000	14.414945
2089.000000	14.383245
2088.000000	14.354261
2087.000000	14.326385
2086.000000	14.308170
2085.000000	14.291967
2084.000000	14.262984
2083.000000	14.238731
2082.000000	14.212364
2081.000000	14.170701
2080.000000	14.132056
2079.000000	14.105086
2078.000000	14.062013
2077.000000	14.024275
2076.000000	14.012098
2075.000000	13.974460
2074.000000	13.928972
2073.000000	13.895863
2072.000000	13.861445
2071.000000	13.825820
2070.000000	13.791100
2069.000000	13.735046
2068.000000	13.681709
2067.000000	13.647895
2066.000000	13.609452
2065.000000	13.573726
2064.000000	13.543334
2063.000000	13.510728
2062.000000	13.482348
2061.000000	13.457189
2060.000000	13.429212
2059.000000	13.391373
2058.000000	13.364101
2057.000000	13.360880
2056.000000	13.352729
2055.000000	13.344678
2054.000000	13.345986
2053.000000	13.356251
2052.000000	13.385435
2051.000000	13.411198
2050.000000	13.428307
2049.000000	13.453969
2048.000000	13.493116
2047.000000	13.534377
2046.000000	13.599086
2045.000000	13.666815
2044.000000	13.709484
2043.000000	13.768155
2042.000000	13.818675
2041.000000	13.871006
2040.000000	13.920318
2039.000000	13.974057
2038.000000	14.030917
2037.000000	14.086770
2036.000000	14.134774
2035.000000	14.168789
2034.000000	14.204213
2033.000000	14.243964
2032.000000	14.275664
2031.000000	14.302333
2030.000000	14.326184
2029.000000	14.355670
2028.000000	14.350739
2027.000000	14.370464
2026.000000	14.385861
2025.000000	14.406793
2024.000000	14.401963
2023.000000	14.400856
2022.000000	14.417360
2021.000000	14.420983
2020.000000	14.403875
2019.000000	14.410718
2018.000000	14.391899
2017.000000	14.382842
2016.000000	14.382641
2015.000000	14.368250
2014.000000	14.348626
2013.000000	14.327593
2012.000000	14.311592
2011.000000	14.278583
2010.000000	14.241045
2009.000000	14.206427
2008.000000	14.180261
2007.000000	14.134170
2006.000000	14.113338
2005.000000	14.075197
2004.000000	14.021256
2003.000000	13.980397
2002.000000	13.931790
2001.000000	13.866477
2000.000000	13.816461
1999.000000	13.760809
1998.000000	13.721259
1997.000000	13.627063
1996.000000	13.570506
1995.000000	13.511432
1994.000000	13.443805
1993.000000	13.382014
1992.000000	13.295064
1991.000000	13.242331
1990.000000	13.160916
1989.000000	13.087049
1988.000000	13.023950
1987.000000	12.931868
1986.000000	12.847937
1985.000000	12.782926
1984.000000	12.716707
1983.000000	12.623317
1982.000000	12.528719
1981.000000	12.462500
1980.000000	12.390042
1979.000000	12.311445
1978.000000	12.228621
1977.000000	12.170051
1976.000000	12.063779
1975.000000	12.001686
1974.000000	11.906384
1973.000000	11.850832
1972.000000	11.780991
1971.000000	11.681059
1970.000000	11.622690
1969.000000	11.552747
1968.000000	11.471131
1967.000000	11.403705
1966.000000	11.330140
1965.000000	11.261808
1964.000000	11.213301
1963.000000	11.143761
1962.000000	11.081266
1961.000000	10.984756
1960.000000	10.918839
1959.000000	10.865301
1958.000000	10.801799
1957.000000	10.743430
1956.000000	10.681841
1955.000000	10.628504
1954.000000	10.564096
1953.000000	10.508344
1952.000000	10.448566
1951.000000	10.406097
1950.000000	10.356484
1949.000000	10.300027
1948.000000	10.250715
1947.000000	10.204020
1946.000000	10.170810
1945.000000	10.141222
1944.000000	10.099660
1943.000000	10.044209
1942.000000	10.017037
1941.000000	10.010697
1940.000000	9.998721
1939.000000	9.996910
1938.000000	9.971650
1937.000000	10.008584
1936.000000	10.003653
1935.000000	9.978594
1934.000000	9.973764
1933.000000	10.006672
1932.000000	10.020157
1931.000000	10.050750
1930.000000	10.084967
1929.000000	10.131863
1928.000000	10.195767
1927.000000	10.267320
1926.000000	10.320858
1925.000000	10.389794
1924.000000	10.457623
1923.000000	10.505224
1922.000000	10.607772
1921.000000	10.719277
1920.000000	10.825046
1919.000000	10.955270
1918.000000	11.086198
1917.000000	11.170028
1916.000000	11.261607
1915.000000	11.354695
1914.000000	11.494378
1913.000000	11.663749
1912.000000	11.869752
1911.000000	12.065288
1910.000000	12.201550
1909.000000	12.325534
1908.000000	12.457569
1907.000000	12.609831
1906.000000	12.794499
1905.000000	13.048606
1904.000000	13.334111
1903.000000	13.539610
1902.000000	13.758494
1901.000000	13.983215
1900.000000	14.196564
1899.000000	14.478044
1898.000000	14.780154
1897.000000	15.063244
1896.000000	15.299136
1895.000000	15.543179
1894.000000	15.756729
1893.000000	16.017176
1892.000000	16.329551
1891.000000	16.730687
1890.000000	17.121358
1889.000000	17.471270
1888.000000	17.839297
1887.000000	18.196254
1886.000000	18.575552
1885.000000	18.988161
1884.000000	19.461555
1883.000000	19.953867
1882.000000	20.484925
1881.000000	20.951676
1880.000000	21.426982
1879.000000	21.862033
1878.000000	22.309059
1877.000000	22.770376
1876.000000	23.210660
1875.000000	23.657485
1874.000000	24.088712
1873.000000	24.523763
1872.000000	24.943919
1871.000000	25.309531
1870.000000	25.674740
1869.000000	26.007142
1868.000000	26.307541
1867.000000	26.539005
1866.000000	26.729711
1865.000000	26.880866
1864.000000	27.022261
1863.000000	27.132256
1862.000000	27.250504
1861.000000	27.401358
1860.000000	27.555230
1859.000000	27.700449
1858.000000	27.832685
1857.000000	27.936541
1856.000000	27.998735
1855.000000	28.050562
1854.000000	28.105309
1853.000000	28.156935
1852.000000	28.179176
1851.000000	28.189441
1850.000000	28.196485
1849.000000	28.191856
1848.000000	28.208461
1847.000000	28.261094
1846.000000	28.286253
1845.000000	28.256565
1844.000000	28.194372
1843.000000	28.142544
1842.000000	28.131273
1841.000000	28.177968
1840.000000	28.193466
1839.000000	28.197290
1838.000000	28.183402
1837.000000	28.154419
1836.000000	28.133386
1835.000000	28.125335
1834.000000	28.077231
1833.000000	28.014736
1832.000000	27.950228
1831.000000	27.887632
1830.000000	27.834094
1829.000000	27.818294
1828.000000	27.783977
1827.000000	27.722387
1826.000000	27.669553
1825.000000	27.635740
1824.000000	27.578981
1823.000000	27.522725
1822.000000	27.501088
1821.000000	27.501893
1820.000000	27.511051
1819.000000	27.508133
1818.000000	27.473312
1817.000000	27.449864
1816.000000	27.423799
1815.000000	27.410214
1814.000000	27.403169
1813.000000	27.399848
1812.000000	27.398942
1811.000000	27.384753
1810.000000	27.368047
1809.000000	27.345404
1808.000000	27.316722
1807.000000	27.280091
1806.000000	27.260265
1805.000000	27.230175
1804.000000	27.186600
1803.000000	27.149364
1802.000000	27.113034
1801.000000	27.093712
1800.000000	27.061408
1799.000000	27.010184
1798.000000	26.969125
1797.000000	26.936820
1796.000000	26.891936
1795.000000	26.850877
1794.000000	26.825416
1793.000000	26.798143
1792.000000	26.764330
1791.000000	26.719848
1790.000000	26.680298
1789.000000	26.634307
1788.000000	26.589424
1787.000000	26.550477
1786.000000	26.496436
1785.000000	26.449640
1784.000000	26.409083
1783.000000	26.357256
1782.000000	26.306535
1781.000000	26.248971
1780.000000	26.204892
1779.000000	26.143102
1778.000000	26.073461
1777.000000	26.025558
1776.000000	25.970309
1775.000000	25.884164
1774.000000	25.803052
1773.000000	25.722844
1772.000000	25.646361
1771.000000	25.570884
1770.000000	25.481921
1769.000000	25.390543
1768.000000	25.297354
1767.000000	25.221575
1766.000000	25.133719
1765.000000	25.072231
1764.000000	25.033083
1763.000000	24.992325
1762.000000	24.978136
1761.000000	24.986388
1760.000000	25.021711
1759.000000	25.072532
1758.000000	25.118825
1757.000000	25.196013
1756.000000	25.262333
1755.000000	25.322312
1754.000000	25.367196
1753.000000	25.404834
1752.000000	25.427477
1751.000000	25.437238
1750.000000	25.437238
1749.000000	25.427175
1748.000000	25.409765
1747.000000	25.369108
1746.000000	25.327545
1745.000000	25.267566
1744.000000	25.186755
1743.000000	25.076055
1742.000000	24.945529
1741.000000	24.792965
1740.000000	24.644325
1739.000000	24.470526
1738.000000	24.295419
1737.000000	24.109342
1736.000000	23.978817
1735.000000	23.857852
1734.000000	23.749064
1733.000000	23.678317
1732.000000	23.663121
1731.000000	23.664228
1730.000000	23.701866
1729.000000	23.779658
1728.000000	23.856141
1727.000000	23.935141
1726.000000	24.020178
1725.000000	24.085793
1724.000000	24.154427
1723.000000	24.219438
1722.000000	24.263416
1721.000000	24.300451
1720.000000	24.331145
1719.000000	24.350467
1718.000000	24.385790
1717.000000	24.434599
1716.000000	24.485420
1715.000000	24.525373
1714.000000	24.606284
1713.000000	24.665157
1712.000000	24.718595
1711.000000	24.781190
1710.000000	24.837647
1709.000000	24.858177
1708.000000	24.846805
1707.000000	24.840264
1706.000000	24.826678
1705.000000	24.774649
1704.000000	24.731979
1703.000000	24.662741
1702.000000	24.585755
1701.000000	24.498000
1700.000000	24.388507
1699.000000	24.264825
1698.000000	24.116890
1697.000000	23.987270
1696.000000	23.870130
1695.000000	23.796866
1694.000000	23.754499
1693.000000	23.764965
1692.000000	23.843461
1691.000000	23.939468
1690.000000	24.059527
1689.000000	24.199512
1688.000000	24.300350
1687.000000	24.370393
1686.000000	24.414572
1685.000000	24.466199
1684.000000	24.501824
1683.000000	24.596019
1682.000000	24.749188
1681.000000	24.962134
1680.000000	25.264547
1679.000000	25.651091
1678.000000	26.074971
1677.000000	26.503983
1676.000000	26.894050
1675.000000	27.285525
1674.000000	27.615411
1673.000000	27.936441
1672.000000	28.176458
1671.000000	28.367869
1670.000000	28.568839
1669.000000	28.733782
1668.000000	28.861993
1667.000000	28.979536
1666.000000	29.064675
1665.000000	29.165713
1664.000000	29.254173
1663.000000	29.311837
1662.000000	29.381679
1661.000000	29.432802
1660.000000	29.500128
1659.000000	29.532633
1658.000000	29.566347
1657.000000	29.560308
1656.000000	29.586273
1655.000000	29.606501
1654.000000	29.595028
1653.000000	29.600664
1652.000000	29.570171
1651.000000	29.546723
1650.000000	29.526998
1649.000000	29.494090
1648.000000	29.463496
1647.000000	29.444476
1646.000000	29.404121
1645.000000	29.345047
1644.000000	29.310932
1643.000000	29.256991
1642.000000	29.220258
1641.000000	29.167726
1640.000000	29.120729
1639.000000	29.073832
1638.000000	29.016570
1637.000000	28.960214
1636.000000	28.916135
1635.000000	28.848206
1634.000000	28.792151
1633.000000	28.733581
1632.000000	28.659110
1631.000000	28.603660
1630.000000	28.520131
1629.000000	28.463775
1628.000000	28.386386
1627.000000	28.314833
1626.000000	28.261194
1625.000000	28.178974
1624.000000	28.129763
1623.000000	28.051871
1622.000000	27.992898
