PE UV       SUBTECH     SPECTRUM    ASCII       PEDS        4.00        
   -1
CICIMAUCR0205-3.Sample.ASC
24/05/31
16:47:51.00
24/05/31
16:47:51.00
Vinicio Soto Monge
C. cupreomarginata. Sex F. Dorsal
250,000000
1
Lambda 1050
1050L1511233
PerkinElmer UV WinLab 6.3.2.0749 / 2.02.05 Lambda 900 UV/VIS/NIR, Aug  7 2015 09:38:08

0
0
3350/servo 860,8/2
0
0
UV/VIS
1
1
1
DoubleDePol,CommonBeamDepol,RBeamAtt,SBeamAtt,60mm sphere, WB InGaAs Detector
0
0
0
0
Program
Program
3350/servo 860,8/2
3350/0,2 860,8/0,2
3350/0,2 860,8/0,2
0
15.00
 
 
 
0
 
860,8
319,2
860,8
Front
100
on
S:100 R:100
0
0
0
0
 
0
 
 
 
0
 
 
0
0
0
0
0
 
 
 
 
0
0


0
0
#HDR
-1
-1
#GR
nm
%R
1.0
0.0
2500,000000
-1,000000
2251
8
69,495500
5,503700
#DATA
2500.000000	9.547887
2499.000000	9.608666
2498.000000	9.398230
2497.000000	9.403329
2496.000000	9.476701
2495.000000	9.378664
2494.000000	9.474619
2493.000000	9.335682
2492.000000	9.339636
2491.000000	9.283021
2490.000000	9.346609
2489.000000	9.332976
2488.000000	9.303627
2487.000000	9.370962
2486.000000	9.371795
2485.000000	9.383035
2484.000000	9.268034
2483.000000	9.327772
2482.000000	9.320799
2481.000000	9.303211
2480.000000	9.303627
2479.000000	9.357953
2478.000000	9.336098
2477.000000	9.345985
2476.000000	9.340781
2475.000000	9.401768
2474.000000	9.353790
2473.000000	9.368465
2472.000000	9.397397
2471.000000	9.462235
2470.000000	9.399374
2469.000000	9.409053
2468.000000	9.385012
2467.000000	9.447769
2466.000000	9.500950
2465.000000	9.520724
2464.000000	9.523742
2463.000000	9.554027
2462.000000	9.559335
2461.000000	9.618969
2460.000000	9.677250
2459.000000	9.735531
2458.000000	9.778305
2457.000000	9.835233
2456.000000	9.898093
2455.000000	9.982289
2454.000000	10.031099
2453.000000	10.090421
2452.000000	10.211874
2451.000000	10.258499
2450.000000	10.351541
2449.000000	10.406179
2448.000000	10.492560
2447.000000	10.570719
2446.000000	10.655955
2445.000000	10.747539
2444.000000	10.832463
2443.000000	10.892097
2442.000000	10.949129
2441.000000	11.047790
2440.000000	11.134171
2439.000000	11.213059
2438.000000	11.294756
2437.000000	11.380513
2436.000000	11.464708
2435.000000	11.530170
2434.000000	11.609682
2433.000000	11.646524
2432.000000	11.718855
2431.000000	11.792435
2430.000000	11.845720
2429.000000	11.926585
2428.000000	11.993816
2427.000000	12.036590
2426.000000	12.079468
2425.000000	12.152112
2424.000000	12.194678
2423.000000	12.246194
2422.000000	12.288552
2421.000000	12.343398
2420.000000	12.383466
2419.000000	12.409277
2418.000000	12.466621
2417.000000	12.513870
2416.000000	12.542698
2415.000000	12.594527
2414.000000	12.634491
2413.000000	12.672374
2412.000000	12.699016
2411.000000	12.739501
2410.000000	12.772908
2409.000000	12.815995
2408.000000	12.842638
2407.000000	12.871674
2406.000000	12.895923
2405.000000	12.919964
2404.000000	12.954204
2403.000000	12.981888
2402.000000	13.012069
2401.000000	13.047870
2400.000000	13.085544
2399.000000	13.136124
2398.000000	13.170364
2397.000000	13.196695
2396.000000	13.238220
2395.000000	13.257265
2394.000000	13.280682
2393.000000	13.308990
2392.000000	13.337090
2391.000000	13.355406
2390.000000	13.375076
2389.000000	13.406923
2388.000000	13.421701
2387.000000	13.431484
2386.000000	13.448760
2385.000000	13.472072
2384.000000	13.481751
2383.000000	13.475715
2382.000000	13.466244
2381.000000	13.464683
2380.000000	13.461769
2379.000000	13.466244
2378.000000	13.455629
2377.000000	13.447199
2376.000000	13.441683
2375.000000	13.435231
2374.000000	13.427113
2373.000000	13.415561
2372.000000	13.389646
2371.000000	13.360194
2370.000000	13.329908
2369.000000	13.291922
2368.000000	13.274541
2367.000000	13.256121
2366.000000	13.219383
2365.000000	13.166097
2364.000000	13.122490
2363.000000	13.081173
2362.000000	13.033092
2361.000000	12.983657
2360.000000	12.922774
2359.000000	12.872819
2358.000000	12.831085
2357.000000	12.804755
2356.000000	12.768329
2355.000000	12.721080
2354.000000	12.691835
2353.000000	12.674871
2352.000000	12.664360
2351.000000	12.654577
2350.000000	12.662279
2349.000000	12.671541
2348.000000	12.655098
2347.000000	12.678410
2346.000000	12.718374
2345.000000	12.749596
2344.000000	12.797053
2343.000000	12.827651
2342.000000	12.860746
2341.000000	12.883746
2340.000000	12.908308
2339.000000	12.937240
2338.000000	12.958575
2337.000000	12.981367
2336.000000	12.984698
2335.000000	12.984593
2334.000000	12.968150
2333.000000	12.950874
2332.000000	12.934951
2331.000000	12.912471
2330.000000	12.883018
2329.000000	12.842429
2328.000000	12.784981
2327.000000	12.743976
2326.000000	12.683926
2325.000000	12.618776
2324.000000	12.550816
2323.000000	12.472033
2322.000000	12.389919
2321.000000	12.310719
2320.000000	12.229022
2319.000000	12.120161
2318.000000	12.017753
2317.000000	11.906499
2316.000000	11.791706
2315.000000	11.681388
2314.000000	11.565971
2313.000000	11.456174
2312.000000	11.361571
2311.000000	11.246987
2310.000000	11.174239
2309.000000	11.101909
2308.000000	11.044981
2307.000000	10.970256
2306.000000	10.929667
2305.000000	10.928418
2304.000000	10.943509
2303.000000	10.966197
2302.000000	10.986075
2301.000000	11.027912
2300.000000	11.107424
2299.000000	11.184647
2298.000000	11.270195
2297.000000	11.341069
2296.000000	11.430988
2295.000000	11.506962
2294.000000	11.590220
2293.000000	11.680139
2292.000000	11.721040
2291.000000	11.787127
2290.000000	11.830421
2289.000000	11.887974
2288.000000	11.910974
2287.000000	11.904209
2286.000000	11.902336
2285.000000	11.876005
2284.000000	11.870385
2283.000000	11.838851
2282.000000	11.805236
2281.000000	11.763710
2280.000000	11.700850
2279.000000	11.640904
2278.000000	11.610202
2277.000000	11.566179
2276.000000	11.503631
2275.000000	11.458880
2274.000000	11.422662
2273.000000	11.402472
2272.000000	11.363965
2271.000000	11.376350
2270.000000	11.368648
2269.000000	11.399142
2268.000000	11.436400
2267.000000	11.484066
2266.000000	11.552442
2265.000000	11.665257
2264.000000	11.781923
2263.000000	11.909413
2262.000000	12.087690
2261.000000	12.274085
2260.000000	12.472345
2259.000000	12.672998
2258.000000	12.908100
2257.000000	13.137581
2256.000000	13.371226
2255.000000	13.607576
2254.000000	13.857248
2253.000000	14.093494
2252.000000	14.336505
2251.000000	14.549126
2250.000000	14.772051
2249.000000	14.974682
2248.000000	15.142864
2247.000000	15.350178
2246.000000	15.534076
2245.000000	15.702570
2244.000000	15.810182
2243.000000	15.962441
2242.000000	16.103148
2241.000000	16.208470
2240.000000	16.304946
2239.000000	16.406938
2238.000000	16.509554
2237.000000	16.604261
2236.000000	16.663374
2235.000000	16.727692
2234.000000	16.775565
2233.000000	16.822814
2232.000000	16.890982
2231.000000	16.925118
2230.000000	16.937191
2229.000000	16.983399
2228.000000	17.007024
2227.000000	16.979861
2226.000000	16.989644
2225.000000	16.989332
2224.000000	16.992870
2223.000000	16.953635
2222.000000	16.938336
2221.000000	16.915336
2220.000000	16.884218
2219.000000	16.839258
2218.000000	16.820525
2217.000000	16.760891
2216.000000	16.727171
2215.000000	16.704587
2214.000000	16.674510
2213.000000	16.632777
2212.000000	16.586464
2211.000000	16.569708
2210.000000	16.532866
2209.000000	16.509034
2208.000000	16.487074
2207.000000	16.447526
2206.000000	16.410789
2205.000000	16.377797
2204.000000	16.381752
2203.000000	16.355109
2202.000000	16.337833
2201.000000	16.311294
2200.000000	16.315978
2199.000000	16.291312
2198.000000	16.266751
2197.000000	16.244896
2196.000000	16.230013
2195.000000	16.229493
2194.000000	16.216796
2193.000000	16.171004
2192.000000	16.159452
2191.000000	16.176936
2190.000000	16.136764
2189.000000	16.130207
2188.000000	16.128126
2187.000000	16.084311
2186.000000	16.076817
2185.000000	16.088578
2184.000000	16.065786
2183.000000	16.042057
2182.000000	16.038831
2181.000000	16.033939
2180.000000	16.033731
2179.000000	16.003238
2178.000000	16.000532
2177.000000	15.976699
2176.000000	15.956509
2175.000000	15.954844
2174.000000	15.980758
2173.000000	15.959215
2172.000000	15.975346
2171.000000	15.984088
2170.000000	15.987210
2169.000000	15.993143
2168.000000	16.019889
2167.000000	16.038102
2166.000000	16.052152
2165.000000	16.068179
2164.000000	16.106999
2163.000000	16.131872
2162.000000	16.159660
2161.000000	16.180787
2160.000000	16.225122
2159.000000	16.264045
2158.000000	16.304634
2157.000000	16.360521
2156.000000	16.399965
2155.000000	16.438264
2154.000000	16.495816
2153.000000	16.550455
2152.000000	16.609672
2151.000000	16.658275
2150.000000	16.709895
2149.000000	16.768696
2148.000000	16.818339
2147.000000	16.872666
2146.000000	16.917833
2145.000000	16.968101
2144.000000	17.022531
2143.000000	17.078731
2142.000000	17.129206
2141.000000	17.175102
2140.000000	17.203514
2139.000000	17.251700
2138.000000	17.287606
2137.000000	17.327986
2136.000000	17.369511
2135.000000	17.412493
2134.000000	17.434869
2133.000000	17.446109
2132.000000	17.463073
2131.000000	17.503037
2130.000000	17.512508
2129.000000	17.516254
2128.000000	17.526454
2127.000000	17.537381
2126.000000	17.552472
2125.000000	17.551743
2124.000000	17.538942
2123.000000	17.541024
2122.000000	17.530929
2121.000000	17.523331
2120.000000	17.512820
2119.000000	17.491589
2118.000000	17.470358
2117.000000	17.454331
2116.000000	17.424982
2115.000000	17.398444
2114.000000	17.372946
2113.000000	17.341515
2112.000000	17.307588
2111.000000	17.293850
2110.000000	17.265126
2109.000000	17.235569
2108.000000	17.190817
2107.000000	17.154912
2106.000000	17.124731
2105.000000	17.099961
2104.000000	17.057812
2103.000000	17.024404
2102.000000	16.989123
2101.000000	16.945309
2100.000000	16.916168
2099.000000	16.880367
2098.000000	16.846335
2097.000000	16.815425
2096.000000	16.777126
2095.000000	16.747570
2094.000000	16.717284
2093.000000	16.690121
2092.000000	16.672637
2091.000000	16.659419
2090.000000	16.621849
2089.000000	16.593541
2088.000000	16.588233
2087.000000	16.552120
2086.000000	16.524332
2085.000000	16.497794
2084.000000	16.458870
2083.000000	16.422653
2082.000000	16.389974
2081.000000	16.351779
2080.000000	16.314104
2079.000000	16.279760
2078.000000	16.228556
2077.000000	16.169963
2076.000000	16.120945
2075.000000	16.064016
2074.000000	16.006568
2073.000000	15.962025
2072.000000	15.909364
2071.000000	15.838178
2070.000000	15.774277
2069.000000	15.710896
2068.000000	15.639085
2067.000000	15.576329
2066.000000	15.509306
2065.000000	15.446446
2064.000000	15.383586
2063.000000	15.332902
2062.000000	15.273476
2061.000000	15.217901
2060.000000	15.163367
2059.000000	15.109977
2058.000000	15.064809
2057.000000	15.028280
2056.000000	15.011940
2055.000000	15.002990
2054.000000	14.988315
2053.000000	14.992791
2052.000000	14.996121
2051.000000	15.024845
2050.000000	15.065850
2049.000000	15.119760
2048.000000	15.179602
2047.000000	15.242462
2046.000000	15.316354
2045.000000	15.382233
2044.000000	15.458206
2043.000000	15.548438
2042.000000	15.629407
2041.000000	15.710584
2040.000000	15.789263
2039.000000	15.880535
2038.000000	15.968789
2037.000000	16.041849
2036.000000	16.101171
2035.000000	16.165488
2034.000000	16.233968
2033.000000	16.301824
2032.000000	16.345535
2031.000000	16.401006
2030.000000	16.443259
2029.000000	16.497482
2028.000000	16.519545
2027.000000	16.540880
2026.000000	16.587297
2025.000000	16.608111
2024.000000	16.621953
2023.000000	16.645890
2022.000000	16.668370
2021.000000	16.696782
2020.000000	16.701777
2019.000000	16.722176
2018.000000	16.699384
2017.000000	16.692203
2016.000000	16.695429
2015.000000	16.701465
2014.000000	16.704483
2013.000000	16.694908
2012.000000	16.664311
2011.000000	16.638293
2010.000000	16.623202
2009.000000	16.613627
2008.000000	16.556387
2007.000000	16.518712
2006.000000	16.479269
2005.000000	16.433268
2004.000000	16.384770
2003.000000	16.357087
2002.000000	16.309005
2001.000000	16.238339
2000.000000	16.195669
1999.000000	16.108560
1998.000000	16.037166
1997.000000	15.973681
1996.000000	15.914359
1995.000000	15.835368
1994.000000	15.755543
1993.000000	15.687375
1992.000000	15.615565
1991.000000	15.515342
1990.000000	15.430315
1989.000000	15.338210
1988.000000	15.270978
1987.000000	15.171588
1986.000000	15.088330
1985.000000	15.016936
1984.000000	14.908387
1983.000000	14.828667
1982.000000	14.716788
1981.000000	14.623331
1980.000000	14.539760
1979.000000	14.456085
1978.000000	14.361899
1977.000000	14.269378
1976.000000	14.174046
1975.000000	14.083191
1974.000000	13.991294
1973.000000	13.905121
1972.000000	13.827795
1971.000000	13.744744
1970.000000	13.643585
1969.000000	13.572087
1968.000000	13.481751
1967.000000	13.409212
1966.000000	13.323456
1965.000000	13.258826
1964.000000	13.158084
1963.000000	13.102508
1962.000000	12.997186
1961.000000	12.926208
1960.000000	12.849298
1959.000000	12.779881
1958.000000	12.701722
1957.000000	12.642921
1956.000000	12.583079
1955.000000	12.518762
1954.000000	12.442580
1953.000000	12.358801
1952.000000	12.288760
1951.000000	12.237244
1950.000000	12.165745
1949.000000	12.108505
1948.000000	12.084672
1947.000000	12.000789
1946.000000	11.962698
1945.000000	11.915137
1944.000000	11.888598
1943.000000	11.852277
1942.000000	11.815122
1941.000000	11.793683
1940.000000	11.794932
1939.000000	11.748724
1938.000000	11.793996
1937.000000	11.774430
1936.000000	11.807005
1935.000000	11.786086
1934.000000	11.800552
1933.000000	11.871322
1932.000000	11.886829
1931.000000	11.896091
1930.000000	11.948024
1929.000000	12.054491
1928.000000	12.133066
1927.000000	12.216741
1926.000000	12.314570
1925.000000	12.403761
1924.000000	12.507522
1923.000000	12.582559
1922.000000	12.711089
1921.000000	12.892905
1920.000000	13.072327
1919.000000	13.225835
1918.000000	13.400678
1917.000000	13.563241
1916.000000	13.703115
1915.000000	13.839035
1914.000000	14.009611
1913.000000	14.275518
1912.000000	14.537366
1911.000000	14.772780
1910.000000	14.988940
1909.000000	15.174294
1908.000000	15.386604
1907.000000	15.604533
1906.000000	15.877621
1905.000000	16.206597
1904.000000	16.550351
1903.000000	16.869960
1902.000000	17.158763
1901.000000	17.458077
1900.000000	17.797668
1899.000000	18.174934
1898.000000	18.555738
1897.000000	18.923949
1896.000000	19.299653
1895.000000	19.594285
1894.000000	19.919410
1893.000000	20.283562
1892.000000	20.681330
1891.000000	21.161107
1890.000000	21.631310
1889.000000	22.046250
1888.000000	22.484190
1887.000000	22.924941
1886.000000	23.356845
1885.000000	23.831627
1884.000000	24.340233
1883.000000	24.893694
1882.000000	25.400947
1881.000000	25.918607
1880.000000	26.404942
1879.000000	26.841321
1878.000000	27.328904
1877.000000	27.792342
1876.000000	28.228825
1875.000000	28.640122
1874.000000	29.077334
1873.000000	29.471876
1872.000000	29.874951
1871.000000	30.231090
1870.000000	30.576925
1869.000000	30.901322
1868.000000	31.190021
1867.000000	31.393068
1866.000000	31.576445
1865.000000	31.711844
1864.000000	31.875031
1863.000000	31.986806
1862.000000	32.101494
1861.000000	32.245011
1860.000000	32.384365
1859.000000	32.497597
1858.000000	32.605937
1857.000000	32.709906
1856.000000	32.781197
1855.000000	32.816894
1854.000000	32.873301
1853.000000	32.913994
1852.000000	32.919198
1851.000000	32.918885
1850.000000	32.939076
1849.000000	32.944696
1848.000000	32.968424
1847.000000	32.996524
1846.000000	33.003081
1845.000000	32.955207
1844.000000	32.892867
1843.000000	32.829278
1842.000000	32.835107
1841.000000	32.869763
1840.000000	32.877777
1839.000000	32.880482
1838.000000	32.839790
1837.000000	32.809296
1836.000000	32.776826
1835.000000	32.764129
1834.000000	32.724477
1833.000000	32.639241
1832.000000	32.563579
1831.000000	32.511959
1830.000000	32.475533
1829.000000	32.444520
1828.000000	32.388840
1827.000000	32.327958
1826.000000	32.267491
1825.000000	32.219930
1824.000000	32.154676
1823.000000	32.107531
1822.000000	32.099101
1821.000000	32.104304
1820.000000	32.095042
1819.000000	32.085987
1818.000000	32.041964
1817.000000	31.998774
1816.000000	31.965158
1815.000000	31.960787
1814.000000	31.957561
1813.000000	31.939660
1812.000000	31.920927
1811.000000	31.904171
1810.000000	31.876280
1809.000000	31.834546
1808.000000	31.786673
1807.000000	31.744211
1806.000000	31.711948
1805.000000	31.657102
1804.000000	31.610789
1803.000000	31.569888
1802.000000	31.515458
1801.000000	31.487774
1800.000000	31.445000
1799.000000	31.374543
1798.000000	31.329791
1797.000000	31.282542
1796.000000	31.233315
1795.000000	31.194912
1794.000000	31.150785
1793.000000	31.104889
1792.000000	31.064092
1791.000000	31.012888
1790.000000	30.949924
1789.000000	30.887896
1788.000000	30.847308
1787.000000	30.813796
1786.000000	30.766755
1785.000000	30.711284
1784.000000	30.637392
1783.000000	30.582129
1782.000000	30.531341
1781.000000	30.469106
1780.000000	30.423001
1779.000000	30.341408
1778.000000	30.267620
1777.000000	30.205696
1776.000000	30.123270
1775.000000	30.036473
1774.000000	29.963101
1773.000000	29.871517
1772.000000	29.770878
1771.000000	29.686683
1770.000000	29.577198
1769.000000	29.477496
1768.000000	29.386536
1767.000000	29.290372
1766.000000	29.211589
1765.000000	29.152995
1764.000000	29.080248
1763.000000	29.044967
1762.000000	29.032270
1761.000000	29.041533
1760.000000	29.058809
1759.000000	29.091800
1758.000000	29.151226
1757.000000	29.211276
1756.000000	29.276218
1755.000000	29.320033
1754.000000	29.358852
1753.000000	29.394966
1752.000000	29.406101
1751.000000	29.415364
1750.000000	29.419943
1749.000000	29.396215
1748.000000	29.357291
1747.000000	29.314309
1746.000000	29.264250
1745.000000	29.190045
1744.000000	29.084203
1743.000000	28.967329
1742.000000	28.834531
1741.000000	28.687788
1740.000000	28.530221
1739.000000	28.348926
1738.000000	28.177101
1737.000000	27.999239
1736.000000	27.857596
1735.000000	27.723445
1734.000000	27.639771
1733.000000	27.586901
1732.000000	27.550372
1731.000000	27.560883
1730.000000	27.601992
1729.000000	27.647368
1728.000000	27.725111
1727.000000	27.805663
1726.000000	27.872166
1725.000000	27.939397
1724.000000	27.988208
1723.000000	28.048570
1722.000000	28.111118
1721.000000	28.161281
1720.000000	28.213526
1719.000000	28.303550
1718.000000	28.365265
1717.000000	28.445193
1716.000000	28.544271
1715.000000	28.644285
1714.000000	28.754187
1713.000000	28.854721
1712.000000	28.950261
1711.000000	29.023008
1710.000000	29.098669
1709.000000	29.136864
1708.000000	29.153932
1707.000000	29.205240
1706.000000	29.220539
1705.000000	29.175891
1704.000000	29.147792
1703.000000	29.122814
1702.000000	29.065886
1701.000000	28.985437
1700.000000	28.897704
1699.000000	28.777083
1698.000000	28.663747
1697.000000	28.548954
1696.000000	28.469026
1695.000000	28.399089
1694.000000	28.391491
1693.000000	28.406686
1692.000000	28.465279
1691.000000	28.568520
1690.000000	28.680607
1689.000000	28.793318
1688.000000	28.886672
1687.000000	28.947555
1686.000000	28.996053
1685.000000	29.047465
1684.000000	29.130932
1683.000000	29.250720
1682.000000	29.444505
1681.000000	29.717697
1680.000000	30.053333
1679.000000	30.455264
1678.000000	30.873430
1677.000000	31.307832
1676.000000	31.726414
1675.000000	32.090463
1674.000000	32.431302
1673.000000	32.701060
1672.000000	32.970506
1671.000000	33.204150
1670.000000	33.399808
1669.000000	33.598900
1668.000000	33.733675
1667.000000	33.887183
1666.000000	34.010093
1665.000000	34.119058
1664.000000	34.234475
1663.000000	34.293797
1662.000000	34.395685
1661.000000	34.482066
1660.000000	34.540971
1659.000000	34.611324
1658.000000	34.658262
1657.000000	34.696040
1656.000000	34.722683
1655.000000	34.730905
1654.000000	34.770244
1653.000000	34.750991
1652.000000	34.760357
1651.000000	34.766290
1650.000000	34.736421
1649.000000	34.726221
1648.000000	34.693542
1647.000000	34.681678
1646.000000	34.636302
1645.000000	34.609139
1644.000000	34.561473
1643.000000	34.541075
1642.000000	34.490912
1641.000000	34.444287
1640.000000	34.403698
1639.000000	34.360300
1638.000000	34.305974
1637.000000	34.269444
1636.000000	34.200651
1635.000000	34.145909
1634.000000	34.084506
1633.000000	34.025392
1632.000000	33.967840
1631.000000	33.923192
1630.000000	33.849508
1629.000000	33.756259
1628.000000	33.701100
1627.000000	33.632412
1626.000000	33.541452
1625.000000	33.471723
1624.000000	33.392107
1623.000000	33.337156
