PE UV       SUBTECH     SPECTRUM    ASCII       PEDS        4.00        
   -1
CICIMAUCR0238-2.Sample.ASC
24/06/20
11:29:16.00
24/06/20
11:29:16.00
Vinicio Soto Monge
C. cupreomarginata. Sex M. Dorsal.
250,000000
1
Lambda 1050
1050L1511233
PerkinElmer UV WinLab 6.3.2.0749 / 2.02.05 Lambda 900 UV/VIS/NIR, Aug  7 2015 09:38:08

0
0
3350/servo 860,8/2
0
0
UV/VIS
1
1
1
DoubleDePol,CommonBeamDepol,RBeamAtt,SBeamAtt,60mm sphere, WB InGaAs Detector
0
0
0
0
Program
Program
3350/servo 860,8/2
3350/0,2 860,8/0,2
3350/0,2 860,8/0,2
0
15.00
 
 
 
0
 
860,8
319,2
860,8
Front
100
on
S:100 R:100
0
0
0
0
 
0
 
 
 
0
 
 
0
0
0
0
0
 
 
 
 
0
0


0
0
#HDR
-1
-1
#GR
nm
%R
1.0
0.0
2500,000000
-1,000000
2251
8
74,180200
5,383200
#DATA
2500.000000	12.069747
2499.000000	12.055492
2498.000000	12.016316
2497.000000	12.030058
2496.000000	11.970474
2495.000000	11.970577
2494.000000	11.937862
2493.000000	11.974064
2492.000000	11.861869
2491.000000	11.786286
2490.000000	11.773057
2489.000000	11.814386
2488.000000	11.827923
2487.000000	11.766903
2486.000000	11.756545
2485.000000	11.744444
2484.000000	11.760340
2483.000000	11.760955
2482.000000	11.742598
2481.000000	11.833769
2480.000000	11.738701
2479.000000	11.739624
2478.000000	11.763827
2477.000000	11.821770
2476.000000	11.783107
2475.000000	11.836846
2474.000000	11.812130
2473.000000	11.771929
2472.000000	11.766288
2471.000000	11.821052
2470.000000	11.876432
2469.000000	11.888225
2468.000000	11.851614
2467.000000	11.901352
2466.000000	11.921043
2465.000000	11.944425
2464.000000	12.018367
2463.000000	12.040622
2462.000000	12.052620
2461.000000	12.115897
2460.000000	12.159585
2459.000000	12.179070
2458.000000	12.253320
2457.000000	12.299982
2456.000000	12.373206
2455.000000	12.451660
2454.000000	12.518013
2453.000000	12.596467
2452.000000	12.634002
2451.000000	12.713790
2450.000000	12.809063
2449.000000	12.893875
2448.000000	12.951203
2447.000000	13.046579
2446.000000	13.120008
2445.000000	13.223178
2444.000000	13.302453
2443.000000	13.365626
2442.000000	13.451567
2441.000000	13.511356
2440.000000	13.616270
2439.000000	13.695544
2438.000000	13.757590
2437.000000	13.855529
2436.000000	13.937676
2435.000000	14.002900
2434.000000	14.059305
2433.000000	14.137554
2432.000000	14.191601
2431.000000	14.236519
2430.000000	14.309846
2429.000000	14.369225
2428.000000	14.431681
2427.000000	14.486547
2426.000000	14.541619
2425.000000	14.584590
2424.000000	14.644584
2423.000000	14.680581
2422.000000	14.734832
2421.000000	14.797698
2420.000000	14.843335
2419.000000	14.869896
2418.000000	14.911636
2417.000000	14.945069
2416.000000	14.986193
2415.000000	15.025882
2414.000000	15.058802
2413.000000	15.090901
2412.000000	15.121052
2411.000000	15.151511
2410.000000	15.199814
2409.000000	15.222274
2408.000000	15.239503
2407.000000	15.263706
2406.000000	15.308932
2405.000000	15.336622
2404.000000	15.356620
2403.000000	15.379387
2402.000000	15.411589
2401.000000	15.422870
2400.000000	15.454560
2399.000000	15.471481
2398.000000	15.495069
2397.000000	15.527579
2396.000000	15.554550
2395.000000	15.565216
2394.000000	15.585522
2393.000000	15.604597
2392.000000	15.625108
2391.000000	15.640491
2390.000000	15.650644
2389.000000	15.669206
2388.000000	15.668078
2387.000000	15.666540
2386.000000	15.686641
2385.000000	15.683154
2384.000000	15.678026
2383.000000	15.681513
2382.000000	15.676078
2381.000000	15.673309
2380.000000	15.677001
2379.000000	15.657105
2378.000000	15.627364
2377.000000	15.623877
2376.000000	15.611878
2375.000000	15.589829
2374.000000	15.567780
2373.000000	15.558858
2372.000000	15.532911
2371.000000	15.501222
2370.000000	15.488916
2369.000000	15.455483
2368.000000	15.417025
2367.000000	15.386566
2366.000000	15.346262
2365.000000	15.305651
2364.000000	15.274679
2363.000000	15.227914
2362.000000	15.182380
2361.000000	15.138282
2360.000000	15.083825
2359.000000	15.035624
2358.000000	14.998602
2357.000000	14.961067
2356.000000	14.907329
2355.000000	14.876255
2354.000000	14.854205
2353.000000	14.846001
2352.000000	14.836566
2351.000000	14.811235
2350.000000	14.804364
2349.000000	14.805390
2348.000000	14.824875
2347.000000	14.850514
2346.000000	14.870512
2345.000000	14.894817
2344.000000	14.935121
2343.000000	14.965067
2342.000000	15.000038
2341.000000	15.039624
2340.000000	15.066288
2339.000000	15.081466
2338.000000	15.115309
2337.000000	15.137769
2336.000000	15.139512
2335.000000	15.140948
2334.000000	15.141051
2333.000000	15.133667
2332.000000	15.124949
2331.000000	15.115617
2330.000000	15.085569
2329.000000	15.044957
2328.000000	15.015114
2327.000000	14.975835
2326.000000	14.930609
2325.000000	14.893894
2324.000000	14.835848
2323.000000	14.776264
2322.000000	14.691041
2321.000000	14.612587
2320.000000	14.529313
2319.000000	14.445936
2318.000000	14.344612
2317.000000	14.252518
2316.000000	14.153963
2315.000000	14.048229
2314.000000	13.936240
2313.000000	13.838505
2312.000000	13.743027
2311.000000	13.655445
2310.000000	13.571248
2309.000000	13.510433
2308.000000	13.457310
2307.000000	13.422954
2306.000000	13.385009
2305.000000	13.376394
2304.000000	13.399469
2303.000000	13.418750
2302.000000	13.478949
2301.000000	13.517817
2300.000000	13.563044
2299.000000	13.635857
2298.000000	13.726105
2297.000000	13.817994
2296.000000	13.915934
2295.000000	13.990389
2294.000000	14.071099
2293.000000	14.118479
2292.000000	14.193857
2291.000000	14.257441
2290.000000	14.312615
2289.000000	14.351688
2288.000000	14.375481
2287.000000	14.395582
2286.000000	14.408401
2285.000000	14.407375
2284.000000	14.393941
2283.000000	14.381532
2282.000000	14.378558
2281.000000	14.358149
2280.000000	14.338254
2279.000000	14.302257
2278.000000	14.303385
2277.000000	14.282464
2276.000000	14.225341
2275.000000	14.223187
2274.000000	14.213240
2273.000000	14.219598
2272.000000	14.220213
2271.000000	14.247288
2270.000000	14.264312
2269.000000	14.311795
2268.000000	14.375994
2267.000000	14.453115
2266.000000	14.532287
2265.000000	14.644174
2264.000000	14.772264
2263.000000	14.922404
2262.000000	15.073159
2261.000000	15.259809
2260.000000	15.439689
2259.000000	15.648901
2258.000000	15.837806
2257.000000	16.050709
2256.000000	16.299917
2255.000000	16.509231
2254.000000	16.724595
2253.000000	16.949190
2252.000000	17.168964
2251.000000	17.369561
2250.000000	17.558774
2249.000000	17.742347
2248.000000	17.924894
2247.000000	18.112671
2246.000000	18.256863
2245.000000	18.394901
2244.000000	18.541247
2243.000000	18.669337
2242.000000	18.785839
2241.000000	18.903879
2240.000000	18.977924
2239.000000	19.071659
2238.000000	19.183751
2237.000000	19.236874
2236.000000	19.314610
2235.000000	19.383219
2234.000000	19.429779
2233.000000	19.463725
2232.000000	19.518796
2231.000000	19.530077
2230.000000	19.568228
2229.000000	19.579611
2228.000000	19.593661
2227.000000	19.609044
2226.000000	19.583201
2225.000000	19.591405
2224.000000	19.569561
2223.000000	19.556434
2222.000000	19.528539
2221.000000	19.502798
2220.000000	19.458802
2219.000000	19.431010
2218.000000	19.373169
2217.000000	19.347428
2216.000000	19.294202
2215.000000	19.251847
2214.000000	19.240566
2213.000000	19.216876
2212.000000	19.180264
2211.000000	19.120782
2210.000000	19.105399
2209.000000	19.054840
2208.000000	19.048892
2207.000000	19.005101
2206.000000	18.995461
2205.000000	18.979052
2204.000000	18.944081
2203.000000	18.922134
2202.000000	18.917519
2201.000000	18.913314
2200.000000	18.879779
2199.000000	18.867473
2198.000000	18.846346
2197.000000	18.835373
2196.000000	18.857320
2195.000000	18.852807
2194.000000	18.828092
2193.000000	18.813324
2192.000000	18.794761
2191.000000	18.779173
2190.000000	18.778763
2189.000000	18.753637
2188.000000	18.729024
2187.000000	18.724306
2186.000000	18.726973
2185.000000	18.708513
2184.000000	18.693950
2183.000000	18.695181
2182.000000	18.665748
2181.000000	18.642263
2180.000000	18.648621
2179.000000	18.644109
2178.000000	18.617752
2177.000000	18.601959
2176.000000	18.604215
2175.000000	18.586063
2174.000000	18.583396
2173.000000	18.602266
2172.000000	18.601651
2171.000000	18.609548
2170.000000	18.647288
2169.000000	18.654057
2168.000000	18.668619
2167.000000	18.684105
2166.000000	18.715487
2165.000000	18.718974
2164.000000	18.755688
2163.000000	18.781839
2162.000000	18.815580
2161.000000	18.858653
2160.000000	18.870959
2159.000000	18.901110
2158.000000	18.953516
2157.000000	19.016587
2156.000000	19.051866
2155.000000	19.119757
2154.000000	19.177290
2153.000000	19.239540
2152.000000	19.298202
2151.000000	19.328045
2150.000000	19.383014
2149.000000	19.460545
2148.000000	19.521258
2147.000000	19.561357
2146.000000	19.608429
2145.000000	19.672013
2144.000000	19.729854
2143.000000	19.772722
2142.000000	19.811282
2141.000000	19.874558
2140.000000	19.912401
2139.000000	19.969524
2138.000000	20.014443
2137.000000	20.052593
2136.000000	20.100076
2135.000000	20.137303
2134.000000	20.170838
2133.000000	20.220577
2132.000000	20.251651
2131.000000	20.273700
2130.000000	20.277290
2129.000000	20.299749
2128.000000	20.318722
2127.000000	20.339848
2126.000000	20.356359
2125.000000	20.365179
2124.000000	20.363641
2123.000000	20.370307
2122.000000	20.377075
2121.000000	20.368051
2120.000000	20.376152
2119.000000	20.370717
2118.000000	20.349078
2117.000000	20.338310
2116.000000	20.333285
2115.000000	20.308364
2114.000000	20.290930
2113.000000	20.286007
2112.000000	20.278008
2111.000000	20.248062
2110.000000	20.229705
2109.000000	20.205091
2108.000000	20.170120
2107.000000	20.150122
2106.000000	20.134944
2105.000000	20.117510
2104.000000	20.091461
2103.000000	20.063669
2102.000000	20.046132
2101.000000	20.025929
2100.000000	20.008187
2099.000000	19.987881
2098.000000	19.955269
2097.000000	19.935065
2096.000000	19.925220
2095.000000	19.903068
2094.000000	19.881327
2093.000000	19.868610
2092.000000	19.850971
2091.000000	19.837741
2090.000000	19.823486
2089.000000	19.802873
2088.000000	19.790874
2087.000000	19.771901
2086.000000	19.748826
2085.000000	19.734366
2084.000000	19.717137
2083.000000	19.695498
2082.000000	19.666578
2081.000000	19.626274
2080.000000	19.591815
2079.000000	19.561562
2078.000000	19.525975
2077.000000	19.478698
2076.000000	19.428651
2075.000000	19.384553
2074.000000	19.338608
2073.000000	19.288869
2072.000000	19.226516
2071.000000	19.160984
2070.000000	19.112168
2069.000000	19.055660
2068.000000	18.991564
2067.000000	18.943158
2066.000000	18.881728
2065.000000	18.808504
2064.000000	18.747894
2063.000000	18.684413
2062.000000	18.626777
2061.000000	18.570577
2060.000000	18.524838
2059.000000	18.482996
2058.000000	18.434795
2057.000000	18.411823
2056.000000	18.392542
2055.000000	18.380749
2054.000000	18.369878
2053.000000	18.363827
2052.000000	18.380749
2051.000000	18.417463
2050.000000	18.453767
2049.000000	18.503199
2048.000000	18.568834
2047.000000	18.644622
2046.000000	18.734357
2045.000000	18.806658
2044.000000	18.900700
2043.000000	19.016689
2042.000000	19.118629
2041.000000	19.224875
2040.000000	19.332557
2039.000000	19.429266
2038.000000	19.539307
2037.000000	19.637042
2036.000000	19.739289
2035.000000	19.824922
2034.000000	19.906760
2033.000000	19.983369
2032.000000	20.064284
2031.000000	20.123355
2030.000000	20.179555
2029.000000	20.242114
2028.000000	20.297698
2027.000000	20.346412
2026.000000	20.402509
2025.000000	20.420866
2024.000000	20.462503
2023.000000	20.505474
2022.000000	20.536753
2021.000000	20.573160
2020.000000	20.600132
2019.000000	20.630078
2018.000000	20.645563
2017.000000	20.648537
2016.000000	20.660844
2015.000000	20.674689
2014.000000	20.685457
2013.000000	20.685662
2012.000000	20.688226
2011.000000	20.682791
2010.000000	20.664946
2009.000000	20.652434
2008.000000	20.638590
2007.000000	20.633872
2006.000000	20.607003
2005.000000	20.588645
2004.000000	20.572852
2003.000000	20.542906
2002.000000	20.519421
2001.000000	20.484040
2000.000000	20.429994
1999.000000	20.390305
1998.000000	20.354821
1997.000000	20.301903
1996.000000	20.247959
1995.000000	20.175351
1994.000000	20.129509
1993.000000	20.073411
1992.000000	19.999675
1991.000000	19.948090
1990.000000	19.880814
1989.000000	19.809539
1988.000000	19.742365
1987.000000	19.675602
1986.000000	19.607814
1985.000000	19.523719
1984.000000	19.454085
1983.000000	19.366708
1982.000000	19.300560
1981.000000	19.216363
1980.000000	19.157907
1979.000000	19.079966
1978.000000	18.985513
1977.000000	18.904290
1976.000000	18.835065
1975.000000	18.756611
1974.000000	18.682874
1973.000000	18.603395
1972.000000	18.536016
1971.000000	18.454485
1970.000000	18.398491
1969.000000	18.332240
1968.000000	18.253478
1967.000000	18.182511
1966.000000	18.107441
1965.000000	18.034627
1964.000000	17.974838
1963.000000	17.900793
1962.000000	17.829826
1961.000000	17.776087
1960.000000	17.707786
1959.000000	17.619486
1958.000000	17.578054
1957.000000	17.489037
1956.000000	17.453348
1955.000000	17.368638
1954.000000	17.303208
1953.000000	17.248239
1952.000000	17.173169
1951.000000	17.134198
1950.000000	17.072563
1949.000000	17.036669
1948.000000	16.994929
1947.000000	16.959343
1946.000000	16.879453
1945.000000	16.863146
1944.000000	16.810228
1943.000000	16.794127
1942.000000	16.761207
1941.000000	16.765412
1940.000000	16.765617
1939.000000	16.750131
1938.000000	16.754951
1937.000000	16.736287
1936.000000	16.749721
1935.000000	16.767155
1934.000000	16.811664
1933.000000	16.850122
1932.000000	16.906322
1931.000000	16.927961
1930.000000	17.017799
1929.000000	17.093176
1928.000000	17.169579
1927.000000	17.241675
1926.000000	17.334795
1925.000000	17.451194
1924.000000	17.554056
1923.000000	17.680301
1922.000000	17.805520
1921.000000	17.941200
1920.000000	18.108671
1919.000000	18.266298
1918.000000	18.416335
1917.000000	18.604318
1916.000000	18.806350
1915.000000	18.962848
1914.000000	19.148575
1913.000000	19.392757
1912.000000	19.592226
1911.000000	19.804206
1910.000000	20.035774
1909.000000	20.262625
1908.000000	20.478194
1907.000000	20.732632
1906.000000	20.996710
1905.000000	21.286529
1904.000000	21.595731
1903.000000	21.862988
1902.000000	22.147885
1901.000000	22.444575
1900.000000	22.753059
1899.000000	23.097745
1898.000000	23.446533
1897.000000	23.763119
1896.000000	24.085345
1895.000000	24.392188
1894.000000	24.714415
1893.000000	25.047204
1892.000000	25.371584
1891.000000	25.781803
1890.000000	26.152230
1889.000000	26.508914
1888.000000	26.899339
1887.000000	27.288431
1886.000000	27.668806
1885.000000	28.042618
1884.000000	28.509241
1883.000000	28.958122
1882.000000	29.397773
1881.000000	29.851885
1880.000000	30.287229
1879.000000	30.660322
1878.000000	31.094231
1877.000000	31.503321
1876.000000	31.896617
1875.000000	32.266121
1874.000000	32.615935
1873.000000	32.967184
1872.000000	33.304794
1871.000000	33.599536
1870.000000	33.866793
1869.000000	34.089746
1868.000000	34.320186
1867.000000	34.474223
1866.000000	34.614210
1865.000000	34.707022
1864.000000	34.799424
1863.000000	34.922182
1862.000000	35.041452
1861.000000	35.151494
1860.000000	35.257945
1859.000000	35.366858
1858.000000	35.426442
1857.000000	35.499359
1856.000000	35.533407
1855.000000	35.552174
1854.000000	35.582633
1853.000000	35.608066
1852.000000	35.573916
1851.000000	35.573711
1850.000000	35.583761
1849.000000	35.608169
1848.000000	35.612476
1847.000000	35.596580
1846.000000	35.548174
1845.000000	35.469002
1844.000000	35.427365
1843.000000	35.385215
1842.000000	35.407367
1841.000000	35.444800
1840.000000	35.406342
1839.000000	35.377934
1838.000000	35.330144
1837.000000	35.299890
1836.000000	35.258560
1835.000000	35.193028
1834.000000	35.130675
1833.000000	35.063399
1832.000000	34.981868
1831.000000	34.926079
1830.000000	34.895722
1829.000000	34.844343
1828.000000	34.772144
1827.000000	34.698202
1826.000000	34.626619
1825.000000	34.563856
1824.000000	34.496990
1823.000000	34.457199
1822.000000	34.454943
1821.000000	34.469813
1820.000000	34.446534
1819.000000	34.404281
1818.000000	34.346543
1817.000000	34.311572
1816.000000	34.292189
1815.000000	34.274037
1814.000000	34.251270
1813.000000	34.231374
1812.000000	34.227169
1811.000000	34.196916
1810.000000	34.163483
1809.000000	34.120513
1808.000000	34.092618
1807.000000	34.066466
1806.000000	34.023701
1805.000000	33.973962
1804.000000	33.927300
1803.000000	33.890688
1802.000000	33.860639
1801.000000	33.830694
1800.000000	33.784236
1799.000000	33.716550
1798.000000	33.665888
1797.000000	33.628353
1796.000000	33.593177
1795.000000	33.561795
1794.000000	33.524876
1793.000000	33.483444
1792.000000	33.446114
1791.000000	33.406323
1790.000000	33.364788
1789.000000	33.327663
1788.000000	33.291359
1787.000000	33.246133
1786.000000	33.208598
1785.000000	33.182036
1784.000000	33.135271
1783.000000	33.074969
1782.000000	33.031896
1781.000000	32.973543
1780.000000	32.913958
1779.000000	32.863296
1778.000000	32.803507
1777.000000	32.739821
1776.000000	32.661982
1775.000000	32.581682
1774.000000	32.511740
1773.000000	32.423132
1772.000000	32.319552
1771.000000	32.232996
1770.000000	32.147568
1769.000000	32.040091
1768.000000	31.938049
1767.000000	31.851493
1766.000000	31.767809
1765.000000	31.691611
1764.000000	31.633770
1763.000000	31.601055
1762.000000	31.605773
1761.000000	31.612131
1760.000000	31.635719
1759.000000	31.688637
1758.000000	31.748323
1757.000000	31.801037
1756.000000	31.853852
1755.000000	31.911693
1754.000000	31.958560
1753.000000	31.991070
1752.000000	32.012401
1751.000000	32.031271
1750.000000	32.035989
1749.000000	32.031682
1748.000000	32.004710
1747.000000	31.963380
1746.000000	31.907078
1745.000000	31.843392
1744.000000	31.765758
1743.000000	31.654281
1742.000000	31.511628
1741.000000	31.367744
1740.000000	31.221501
1739.000000	31.056080
1738.000000	30.881943
1737.000000	30.727496
1736.000000	30.588124
1735.000000	30.449265
1734.000000	30.354094
1733.000000	30.285075
1732.000000	30.263231
1731.000000	30.266923
1730.000000	30.311227
1729.000000	30.360658
1728.000000	30.445573
1727.000000	30.512849
1726.000000	30.583099
1725.000000	30.652938
1724.000000	30.727906
1723.000000	30.764415
1722.000000	30.838049
1721.000000	30.907479
1720.000000	30.953526
1719.000000	31.012700
1718.000000	31.084283
1717.000000	31.164275
1716.000000	31.256267
1715.000000	31.341900
1714.000000	31.432353
1713.000000	31.535318
1712.000000	31.618489
1711.000000	31.708737
1710.000000	31.755297
1709.000000	31.800729
1708.000000	31.837443
1707.000000	31.867389
1706.000000	31.855698
1705.000000	31.869030
1704.000000	31.849852
1703.000000	31.827393
1702.000000	31.787397
1701.000000	31.734991
1700.000000	31.648948
1699.000000	31.568443
1698.000000	31.470503
1697.000000	31.392562
1696.000000	31.348156
1695.000000	31.325594
1694.000000	31.330516
1693.000000	31.366718
1692.000000	31.447326
1691.000000	31.545573
1690.000000	31.666177
1689.000000	31.748939
1688.000000	31.852929
1687.000000	31.923282
1686.000000	31.993839
1685.000000	32.055269
1684.000000	32.104393
1683.000000	32.242739
1682.000000	32.423235
1681.000000	32.669571
1680.000000	33.003489
1679.000000	33.362122
1678.000000	33.766905
1677.000000	34.188609
1676.000000	34.529295
1675.000000	34.854085
1674.000000	35.177645
1673.000000	35.455670
1672.000000	35.671035
1671.000000	35.863632
1670.000000	36.044231
1669.000000	36.208421
1668.000000	36.320000
1667.000000	36.437835
1666.000000	36.541005
1665.000000	36.632279
1664.000000	36.712579
1663.000000	36.791136
1662.000000	36.849592
1661.000000	36.890921
1660.000000	36.962709
1659.000000	36.996757
1658.000000	37.025370
1657.000000	37.049368
1656.000000	37.082801
1655.000000	37.058188
1654.000000	37.062803
1653.000000	37.065879
1652.000000	37.048035
1651.000000	37.031934
1650.000000	37.009269
1649.000000	36.971632
1648.000000	36.938814
1647.000000	36.897895
1646.000000	36.867129
1645.000000	36.819338
1644.000000	36.783547
1643.000000	36.714015
1642.000000	36.658840
1641.000000	36.612793
1640.000000	36.561311
1639.000000	36.517520
1638.000000	36.478139
1637.000000	36.407582
1636.000000	36.347792
1635.000000	36.267492
1634.000000	36.220214
1633.000000	36.149349
1632.000000	36.076125
1631.000000	36.013772
1630.000000	35.940958
1629.000000	35.875529
1628.000000	35.791536
1627.000000	35.712159
1626.000000	35.646627
1625.000000	35.552892
