PE UV       SUBTECH     SPECTRUM    ASCII       PEDS        4.00        
   -1
CICIMAUCR0235-2.ASC
24/06/14
16:23:07.00
24/06/14
16:23:07.00
Vinicio Soto Monge
C. resplendens. Sex M. Dorsal.
250,000000
1
Lambda 1050
1050L1511233
PerkinElmer UV WinLab 6.3.2.0749 / 2.02.05 Lambda 900 UV/VIS/NIR, Aug  7 2015 09:38:08

0
0
3350/servo 860,8/2
0
0
UV/VIS
1
1
1
DoubleDePol,CommonBeamDepol,RBeamAtt,SBeamAtt,60mm sphere, WB InGaAs Detector
0
0
0
0
Program
Program
3350/servo 860,8/2
3350/0,2 860,8/0,2
3350/0,2 860,8/0,2
0
15.00
 
 
 
0
 
860,8
319,2
860,8
Front
100
on
S:100 R:100
0
0
0
0
 
0
 
 
 
0
 
 
0
0
0
0
0
 
 
 
 
0
0


0
0
#HDR
-1
-1
#GR
nm
%R
1.0
0.0
2500,000000
-1,000000
2251
8
91,556100
5,714300
#DATA
2500.000000	8.889417
2499.000000	8.845003
2498.000000	8.760905
2497.000000	8.769335
2496.000000	8.748773
2495.000000	8.792467
2494.000000	8.629926
2493.000000	8.785579
2492.000000	8.700864
2491.000000	8.701276
2490.000000	8.677424
2489.000000	8.664367
2488.000000	8.702920
2487.000000	8.700761
2486.000000	8.611523
2485.000000	8.739623
2484.000000	8.746100
2483.000000	8.659021
2482.000000	8.703537
2481.000000	8.694182
2480.000000	8.579446
2479.000000	8.696135
2478.000000	8.693668
2477.000000	8.735614
2476.000000	8.706930
2475.000000	8.705182
2474.000000	8.700145
2473.000000	8.755456
2472.000000	8.719678
2471.000000	8.736436
2470.000000	8.778794
2469.000000	8.758026
2468.000000	8.779513
2467.000000	8.777149
2466.000000	8.834722
2465.000000	8.835956
2464.000000	8.817861
2463.000000	8.839246
2462.000000	8.904633
2461.000000	8.932802
2460.000000	8.959224
2459.000000	8.975982
2458.000000	9.025434
2457.000000	9.062753
2456.000000	9.139963
2455.000000	9.162581
2454.000000	9.206173
2453.000000	9.244006
2452.000000	9.325123
2451.000000	9.394211
2450.000000	9.439344
2449.000000	9.512442
2448.000000	9.562202
2447.000000	9.640748
2446.000000	9.660385
2445.000000	9.746333
2444.000000	9.805654
2443.000000	9.888827
2442.000000	9.935811
2441.000000	9.999964
2440.000000	10.060005
2439.000000	10.118401
2438.000000	10.182040
2437.000000	10.239099
2436.000000	10.312608
2435.000000	10.374807
2434.000000	10.418398
2433.000000	10.491804
2432.000000	10.533339
2431.000000	10.578884
2430.000000	10.617232
2429.000000	10.659898
2428.000000	10.711919
2427.000000	10.760754
2426.000000	10.812056
2425.000000	10.844235
2424.000000	10.893584
2423.000000	10.937689
2422.000000	10.975626
2421.000000	10.995159
2420.000000	11.035255
2419.000000	11.079257
2418.000000	11.111437
2417.000000	11.131485
2416.000000	11.169421
2415.000000	11.211676
2414.000000	11.245706
2413.000000	11.275829
2412.000000	11.300092
2411.000000	11.332786
2410.000000	11.363217
2409.000000	11.383985
2408.000000	11.425931
2407.000000	11.454717
2406.000000	11.473326
2405.000000	11.495122
2404.000000	11.520413
2403.000000	11.545601
2402.000000	11.567705
2401.000000	11.606361
2400.000000	11.636382
2399.000000	11.677608
2398.000000	11.708143
2397.000000	11.743098
2396.000000	11.772707
2395.000000	11.798101
2394.000000	11.814036
2393.000000	11.833776
2392.000000	11.853310
2391.000000	11.896695
2390.000000	11.932473
2389.000000	11.941726
2388.000000	11.951493
2387.000000	11.987579
2386.000000	12.013487
2385.000000	12.023973
2384.000000	12.029936
2383.000000	12.044946
2382.000000	12.044432
2381.000000	12.045872
2380.000000	12.051937
2379.000000	12.053480
2378.000000	12.054199
2377.000000	12.045563
2376.000000	12.049984
2375.000000	12.049881
2374.000000	12.041965
2373.000000	12.023973
2372.000000	12.014206
2371.000000	12.005776
2370.000000	11.973185
2369.000000	11.959615
2368.000000	11.963110
2367.000000	11.932473
2366.000000	11.899163
2365.000000	11.866058
2364.000000	11.831822
2363.000000	11.811775
2362.000000	11.764071
2361.000000	11.718526
2360.000000	11.688300
2359.000000	11.641214
2358.000000	11.598651
2357.000000	11.569864
2356.000000	11.534498
2355.000000	11.498514
2354.000000	11.478878
2353.000000	11.462120
2352.000000	11.457391
2351.000000	11.447007
2350.000000	11.440016
2349.000000	11.461092
2348.000000	11.494505
2347.000000	11.516712
2346.000000	11.542414
2345.000000	11.580865
2344.000000	11.613044
2343.000000	11.656738
2342.000000	11.714620
2341.000000	11.756155
2340.000000	11.782577
2339.000000	11.819280
2338.000000	11.837888
2337.000000	11.856805
2336.000000	11.869451
2335.000000	11.884461
2334.000000	11.898443
2333.000000	11.888573
2332.000000	11.890835
2331.000000	11.874283
2330.000000	11.848992
2329.000000	11.836860
2328.000000	11.816709
2327.000000	11.772501
2326.000000	11.709685
2325.000000	11.656841
2324.000000	11.611502
2323.000000	11.550844
2322.000000	11.484018
2321.000000	11.416061
2320.000000	11.331449
2319.000000	11.249407
2318.000000	11.171066
2317.000000	11.079566
2316.000000	10.986421
2315.000000	10.895023
2314.000000	10.809383
2313.000000	10.721069
2312.000000	10.632756
2311.000000	10.556677
2310.000000	10.478953
2309.000000	10.396603
2308.000000	10.331319
2307.000000	10.277138
2306.000000	10.257810
2305.000000	10.246193
2304.000000	10.254829
2303.000000	10.260689
2302.000000	10.303458
2301.000000	10.344067
2300.000000	10.408734
2299.000000	10.487281
2298.000000	10.563051
2297.000000	10.626074
2296.000000	10.713256
2295.000000	10.789643
2294.000000	10.885770
2293.000000	10.966270
2292.000000	11.054172
2291.000000	11.107941
2290.000000	11.152663
2289.000000	11.215583
2288.000000	11.243547
2287.000000	11.254342
2286.000000	11.257323
2285.000000	11.241696
2284.000000	11.234911
2283.000000	11.232135
2282.000000	11.198722
2281.000000	11.160991
2280.000000	11.120073
2279.000000	11.063836
2278.000000	11.016955
2277.000000	10.968840
2276.000000	10.926483
2275.000000	10.880013
2274.000000	10.827374
2273.000000	10.805682
2272.000000	10.790569
2271.000000	10.764763
2270.000000	10.759726
2269.000000	10.768670
2268.000000	10.774119
2267.000000	10.821925
2266.000000	10.891013
2265.000000	10.975420
2264.000000	11.073603
2263.000000	11.185974
2262.000000	11.312429
2261.000000	11.492654
2260.000000	11.666505
2259.000000	11.860301
2258.000000	12.043404
2257.000000	12.268043
2256.000000	12.483840
2255.000000	12.715264
2254.000000	12.915639
2253.000000	13.154157
2252.000000	13.406554
2251.000000	13.601995
2250.000000	13.800520
2249.000000	13.979306
2248.000000	14.150895
2247.000000	14.376458
2246.000000	14.520083
2245.000000	14.672550
2244.000000	14.791706
2243.000000	14.948593
2242.000000	15.068469
2241.000000	15.170970
2240.000000	15.262676
2239.000000	15.360139
2238.000000	15.472818
2237.000000	15.546430
2236.000000	15.612125
2235.000000	15.668053
2234.000000	15.732926
2233.000000	15.774050
2232.000000	15.829464
2231.000000	15.872027
2230.000000	15.898141
2229.000000	15.921376
2228.000000	15.937106
2227.000000	15.953555
2226.000000	15.961574
2225.000000	15.963013
2224.000000	15.929909
2223.000000	15.932788
2222.000000	15.914179
2221.000000	15.904206
2220.000000	15.899683
2219.000000	15.866373
2218.000000	15.834810
2217.000000	15.813220
2216.000000	15.774050
2215.000000	15.763666
2214.000000	15.703625
2213.000000	15.700747
2212.000000	15.650164
2211.000000	15.609863
2210.000000	15.587553
2209.000000	15.562468
2208.000000	15.532345
2207.000000	15.500680
2206.000000	15.474257
2205.000000	15.477547
2204.000000	15.458836
2203.000000	15.418124
2202.000000	15.409076
2201.000000	15.383168
2200.000000	15.373401
2199.000000	15.351297
2198.000000	15.349961
2197.000000	15.332483
2196.000000	15.302155
2195.000000	15.308632
2194.000000	15.307603
2193.000000	15.274088
2192.000000	15.267508
2191.000000	15.254759
2190.000000	15.234814
2189.000000	15.205308
2188.000000	15.200373
2187.000000	15.195130
2186.000000	15.181251
2185.000000	15.169736
2184.000000	15.133341
2183.000000	15.136631
2182.000000	15.114733
2181.000000	15.122752
2180.000000	15.083993
2179.000000	15.062300
2178.000000	15.046056
2177.000000	15.034336
2176.000000	15.016961
2175.000000	15.017784
2174.000000	15.008120
2173.000000	15.003699
2172.000000	14.994960
2171.000000	14.994652
2170.000000	14.995885
2169.000000	15.015625
2168.000000	15.028167
2167.000000	15.014597
2166.000000	15.034644
2165.000000	15.047393
2164.000000	15.054075
2163.000000	15.071142
2162.000000	15.097564
2161.000000	15.099209
2160.000000	15.131799
2159.000000	15.159455
2158.000000	15.188961
2157.000000	15.199345
2156.000000	15.224019
2155.000000	15.277069
2154.000000	15.288995
2153.000000	15.331661
2152.000000	15.363943
2151.000000	15.394786
2150.000000	15.432517
2149.000000	15.498726
2148.000000	15.528027
2147.000000	15.559692
2146.000000	15.607396
2145.000000	15.639472
2144.000000	15.679876
2143.000000	15.726141
2142.000000	15.766133
2141.000000	15.785770
2140.000000	15.809827
2139.000000	15.833885
2138.000000	15.862569
2137.000000	15.895365
2136.000000	15.920450
2135.000000	15.956742
2134.000000	15.965070
2133.000000	15.993548
2132.000000	16.011025
2131.000000	16.004651
2130.000000	16.031279
2129.000000	16.062841
2128.000000	16.063870
2127.000000	16.062944
2126.000000	16.067057
2125.000000	16.078571
2124.000000	16.084431
2123.000000	16.073636
2122.000000	16.053486
2121.000000	16.050093
2120.000000	16.036419
2119.000000	16.021409
2118.000000	16.026653
2117.000000	16.015755
2116.000000	15.981725
2115.000000	15.965172
2114.000000	15.950265
2113.000000	15.922507
2112.000000	15.904412
2111.000000	15.877682
2110.000000	15.851260
2109.000000	15.836455
2108.000000	15.804379
2107.000000	15.772302
2106.000000	15.739917
2105.000000	15.722748
2104.000000	15.702597
2103.000000	15.671754
2102.000000	15.635977
2101.000000	15.610172
2100.000000	15.588582
2099.000000	15.559178
2098.000000	15.533887
2097.000000	15.503147
2096.000000	15.469323
2095.000000	15.444340
2094.000000	15.414422
2093.000000	15.381523
2092.000000	15.357363
2091.000000	15.346979
2090.000000	15.332175
2089.000000	15.304314
2088.000000	15.294649
2087.000000	15.268639
2086.000000	15.243450
2085.000000	15.222888
2084.000000	15.189167
2083.000000	15.165315
2082.000000	15.133650
2081.000000	15.109284
2080.000000	15.079161
2079.000000	15.030429
2078.000000	15.000203
2077.000000	14.962678
2076.000000	14.917442
2075.000000	14.879813
2074.000000	14.834063
2073.000000	14.793762
2072.000000	14.751404
2071.000000	14.712748
2070.000000	14.668026
2069.000000	14.613743
2068.000000	14.577657
2067.000000	14.541159
2066.000000	14.487801
2065.000000	14.436705
2064.000000	14.398254
2063.000000	14.352607
2062.000000	14.310044
2061.000000	14.253807
2060.000000	14.210318
2059.000000	14.186364
2058.000000	14.170428
2057.000000	14.146165
2056.000000	14.115220
2055.000000	14.107406
2054.000000	14.109874
2053.000000	14.120977
2052.000000	14.132080
2051.000000	14.150895
2050.000000	14.167755
2049.000000	14.193561
2048.000000	14.241675
2047.000000	14.297398
2046.000000	14.351784
2045.000000	14.393936
2044.000000	14.454491
2043.000000	14.524093
2042.000000	14.577862
2041.000000	14.636669
2040.000000	14.708739
2039.000000	14.784612
2038.000000	14.843419
2037.000000	14.888552
2036.000000	14.920218
2035.000000	14.981698
2034.000000	15.026111
2033.000000	15.066824
2032.000000	15.114939
2031.000000	15.144136
2030.000000	15.153698
2029.000000	15.190503
2028.000000	15.227926
2027.000000	15.240160
2026.000000	15.241600
2025.000000	15.263498
2024.000000	15.265349
2023.000000	15.268227
2022.000000	15.285191
2021.000000	15.283854
2020.000000	15.277891
2019.000000	15.288275
2018.000000	15.286836
2017.000000	15.279434
2016.000000	15.264732
2015.000000	15.237899
2014.000000	15.220729
2013.000000	15.210243
2012.000000	15.194513
2011.000000	15.165110
2010.000000	15.145267
2009.000000	15.114013
2008.000000	15.083582
2007.000000	15.047393
2006.000000	14.997222
2005.000000	14.950752
2004.000000	14.909525
2003.000000	14.892870
2002.000000	14.823371
2001.000000	14.770733
2000.000000	14.717683
1999.000000	14.655894
1998.000000	14.602022
1997.000000	14.534477
1996.000000	14.471249
1995.000000	14.409152
1994.000000	14.335746
1993.000000	14.257508
1992.000000	14.196439
1991.000000	14.098256
1990.000000	14.036365
1989.000000	13.966043
1988.000000	13.879786
1987.000000	13.808539
1986.000000	13.720432
1985.000000	13.629445
1984.000000	13.552030
1983.000000	13.467932
1982.000000	13.381880
1981.000000	13.306110
1980.000000	13.236919
1979.000000	13.141717
1978.000000	13.058442
1977.000000	12.967764
1976.000000	12.900835
1975.000000	12.817765
1974.000000	12.735620
1973.000000	12.643503
1972.000000	12.580275
1971.000000	12.481578
1970.000000	12.410948
1969.000000	12.337953
1968.000000	12.256528
1967.000000	12.183739
1966.000000	12.098304
1965.000000	12.033432
1964.000000	11.960334
1963.000000	11.901219
1962.000000	11.805092
1961.000000	11.749061
1960.000000	11.691899
1959.000000	11.591248
1958.000000	11.509001
1957.000000	11.460680
1956.000000	11.398275
1955.000000	11.358282
1954.000000	11.280147
1953.000000	11.237070
1952.000000	11.158318
1951.000000	11.101156
1950.000000	11.021479
1949.000000	10.984673
1948.000000	10.940156
1947.000000	10.895948
1946.000000	10.857806
1945.000000	10.801055
1944.000000	10.751398
1943.000000	10.709246
1942.000000	10.690329
1941.000000	10.690124
1940.000000	10.651776
1939.000000	10.612811
1938.000000	10.614148
1937.000000	10.606231
1936.000000	10.615073
1935.000000	10.621036
1934.000000	10.650953
1933.000000	10.650953
1932.000000	10.663393
1931.000000	10.703900
1930.000000	10.741734
1929.000000	10.796223
1928.000000	10.849478
1927.000000	10.906435
1926.000000	10.984467
1925.000000	11.075454
1924.000000	11.129737
1923.000000	11.218564
1922.000000	11.300401
1921.000000	11.437548
1920.000000	11.560303
1919.000000	11.691899
1918.000000	11.806223
1917.000000	11.926099
1916.000000	12.085042
1915.000000	12.230106
1914.000000	12.366020
1913.000000	12.553236
1912.000000	12.753098
1911.000000	12.942575
1910.000000	13.105631
1909.000000	13.310736
1908.000000	13.486746
1907.000000	13.698842
1906.000000	13.923480
1905.000000	14.149764
1904.000000	14.419227
1903.000000	14.679335
1902.000000	14.941499
1901.000000	15.184438
1900.000000	15.477136
1899.000000	15.776414
1898.000000	16.103143
1897.000000	16.446321
1896.000000	16.772021
1895.000000	17.070168
1894.000000	17.361838
1893.000000	17.700596
1892.000000	18.057241
1891.000000	18.462002
1890.000000	18.905419
1889.000000	19.320358
1888.000000	19.721418
1887.000000	20.178200
1886.000000	20.640534
1885.000000	21.087035
1884.000000	21.575791
1883.000000	22.111942
1882.000000	22.684180
1881.000000	23.194423
1880.000000	23.741780
1879.000000	24.216143
1878.000000	24.676935
1877.000000	25.195402
1876.000000	25.687860
1875.000000	26.134258
1874.000000	26.579629
1873.000000	27.023971
1872.000000	27.446518
1871.000000	27.835754
1870.000000	28.224991
1869.000000	28.561280
1868.000000	28.933656
1867.000000	29.211447
1866.000000	29.423646
1865.000000	29.613021
1864.000000	29.819873
1863.000000	30.004108
1862.000000	30.130974
1861.000000	30.297731
1860.000000	30.484433
1859.000000	30.631451
1858.000000	30.762224
1857.000000	30.861538
1856.000000	30.955712
1855.000000	31.018939
1854.000000	31.079597
1853.000000	31.154031
1852.000000	31.183126
1851.000000	31.214380
1850.000000	31.237307
1849.000000	31.237821
1848.000000	31.268869
1847.000000	31.303002
1846.000000	31.311124
1845.000000	31.288095
1844.000000	31.248410
1843.000000	31.234325
1842.000000	31.229493
1841.000000	31.240597
1840.000000	31.245943
1839.000000	31.244298
1838.000000	31.211193
1837.000000	31.199062
1836.000000	31.176238
1835.000000	31.140049
1834.000000	31.102729
1833.000000	31.056465
1832.000000	30.988199
1831.000000	30.954992
1830.000000	30.917981
1829.000000	30.856912
1828.000000	30.800058
1827.000000	30.741251
1826.000000	30.675864
1825.000000	30.628469
1824.000000	30.583747
1823.000000	30.543549
1822.000000	30.522267
1821.000000	30.499546
1820.000000	30.494611
1819.000000	30.474152
1818.000000	30.423570
1817.000000	30.394886
1816.000000	30.363941
1815.000000	30.351089
1814.000000	30.364763
1813.000000	30.364249
1812.000000	30.352323
1811.000000	30.318396
1810.000000	30.284058
1809.000000	30.260412
1808.000000	30.233989
1807.000000	30.195230
1806.000000	30.159658
1805.000000	30.133647
1804.000000	30.090468
1803.000000	30.038446
1802.000000	30.009145
1801.000000	29.976349
1800.000000	29.927720
1799.000000	29.878680
1798.000000	29.836631
1797.000000	29.799106
1796.000000	29.754384
1795.000000	29.714082
1794.000000	29.684987
1793.000000	29.641293
1792.000000	29.592767
1791.000000	29.555550
1790.000000	29.501986
1789.000000	29.451096
1788.000000	29.413673
1787.000000	29.377998
1786.000000	29.335332
1785.000000	29.275908
1784.000000	29.236018
1783.000000	29.196642
1782.000000	29.133209
1781.000000	29.065869
1780.000000	29.014156
1779.000000	28.964190
1778.000000	28.905486
1777.000000	28.837940
1776.000000	28.771114
1775.000000	28.708606
1774.000000	28.642294
1773.000000	28.551616
1772.000000	28.470705
1771.000000	28.387429
1770.000000	28.302920
1769.000000	28.224271
1768.000000	28.134621
1767.000000	28.051859
1766.000000	27.977323
1765.000000	27.910188
1764.000000	27.855493
1763.000000	27.818996
1762.000000	27.798023
1761.000000	27.817557
1760.000000	27.839969
1759.000000	27.873485
1758.000000	27.941956
1757.000000	28.018755
1756.000000	28.090413
1755.000000	28.159398
1754.000000	28.204840
1753.000000	28.243393
1752.000000	28.268993
1751.000000	28.301789
1750.000000	28.313818
1749.000000	28.313818
1748.000000	28.298294
1747.000000	28.271769
1746.000000	28.214504
1745.000000	28.162380
1744.000000	28.106965
1743.000000	28.011969
1742.000000	27.886336
1741.000000	27.746104
1740.000000	27.597031
1739.000000	27.434695
1738.000000	27.258068
1737.000000	27.089975
1736.000000	26.939667
1735.000000	26.814034
1734.000000	26.691896
1733.000000	26.622089
1732.000000	26.600807
1731.000000	26.606770
1730.000000	26.640183
1729.000000	26.701149
1728.000000	26.770854
1727.000000	26.855055
1726.000000	26.952724
1725.000000	27.039289
1724.000000	27.114032
1723.000000	27.172839
1722.000000	27.227739
1721.000000	27.286855
1720.000000	27.331782
1719.000000	27.380514
1718.000000	27.429554
1717.000000	27.490726
1716.000000	27.545215
1715.000000	27.631986
1714.000000	27.721430
1713.000000	27.794733
1712.000000	27.872251
1711.000000	27.953985
1710.000000	27.994081
1709.000000	28.016082
1708.000000	28.052785
1707.000000	28.051654
1706.000000	28.033148
1705.000000	28.014128
1704.000000	27.998090
1703.000000	27.940825
1702.000000	27.889729
1701.000000	27.794733
1700.000000	27.693157
1699.000000	27.548402
1698.000000	27.435928
1697.000000	27.324277
1696.000000	27.216739
1695.000000	27.129145
1694.000000	27.084526
1693.000000	27.090180
1692.000000	27.144155
1691.000000	27.253853
1690.000000	27.362008
1689.000000	27.487230
1688.000000	27.615948
1687.000000	27.693363
1686.000000	27.753301
1685.000000	27.821875
1684.000000	27.870504
1683.000000	27.962929
1682.000000	28.109124
1681.000000	28.337772
1680.000000	28.642808
1679.000000	29.009426
1678.000000	29.437319
1677.000000	29.884746
1676.000000	30.285086
1675.000000	30.671855
1674.000000	31.031893
1673.000000	31.357902
1672.000000	31.624795
1671.000000	31.864341
1670.000000	32.074278
1669.000000	32.277430
1668.000000	32.413755
1667.000000	32.553473
1666.000000	32.692060
1665.000000	32.763924
1664.000000	32.877939
1663.000000	32.966870
1662.000000	33.055286
1661.000000	33.112859
1660.000000	33.168479
1659.000000	33.239829
1658.000000	33.271185
1657.000000	33.313132
1656.000000	33.320226
1655.000000	33.372967
1654.000000	33.357443
1653.000000	33.364434
1652.000000	33.391884
1651.000000	33.379444
1650.000000	33.350143
1649.000000	33.326291
1648.000000	33.307580
1647.000000	33.281055
1646.000000	33.249184
1645.000000	33.217519
1644.000000	33.186573
1643.000000	33.115429
1642.000000	33.078007
1641.000000	33.051687
1640.000000	32.972730
1639.000000	32.940139
1638.000000	32.882669
1637.000000	32.824581
1636.000000	32.776261
1635.000000	32.737091
1634.000000	32.646104
1633.000000	32.602102
1632.000000	32.515022
1631.000000	32.473693
1630.000000	32.392473
1629.000000	32.305497
1628.000000	32.237848
1627.000000	32.176162
1626.000000	32.117972
1625.000000	32.024827
1624.000000	31.948748
1623.000000	31.873286
1622.000000	31.814787
