PE UV       SUBTECH     SPECTRUM    ASCII       PEDS        4.00        
   -1
CICIMAUCR0235-3.ASC
24/06/17
14:43:29.00
24/06/17
14:43:29.00
Vinicio Soto Monge
C. resplendens. Sex M. Dorsal. 
250,000000
1
Lambda 1050
1050L1511233
PerkinElmer UV WinLab 6.3.2.0749 / 2.02.05 Lambda 900 UV/VIS/NIR, Aug  7 2015 09:38:08

0
0
3350/servo 860,8/2
0
0
UV/VIS
1
1
1
DoubleDePol,CommonBeamDepol,RBeamAtt,SBeamAtt,60mm sphere, WB InGaAs Detector
0
0
0
0
Program
Program
3350/servo 860,8/2
3350/0,2 860,8/0,2
3350/0,2 860,8/0,2
0
15.00
 
 
 
0
 
860,8
319,2
860,8
Front
100
on
S:100 R:100
0
0
0
0
 
0
 
 
 
0
 
 
0
0
0
0
0
 
 
 
 
0
0


0
0
#HDR
-1
-1
#GR
nm
%R
1.0
0.0
2500,000000
-1,000000
2251
8
87,133000
5,483900
#DATA
2482.000000	8.635034
2481.000000	8.617385
2480.000000	8.649575
2479.000000	8.556114
2478.000000	8.631123
2477.000000	8.607156
2476.000000	8.609764
2475.000000	8.621797
2474.000000	8.643859
2473.000000	8.640951
2472.000000	8.629920
2471.000000	8.653185
2470.000000	8.671135
2469.000000	8.661007
2468.000000	8.685175
2467.000000	8.729498
2466.000000	8.702423
2465.000000	8.721977
2464.000000	8.764095
2463.000000	8.777934
2462.000000	8.789667
2461.000000	8.835695
2460.000000	8.867885
2459.000000	8.955530
2458.000000	8.956734
2457.000000	8.987319
2456.000000	9.033749
2455.000000	9.074162
2454.000000	9.141851
2453.000000	9.196303
2452.000000	9.240627
2451.000000	9.286856
2450.000000	9.340105
2449.000000	9.391248
2448.000000	9.460943
2447.000000	9.518203
2446.000000	9.571552
2445.000000	9.636233
2444.000000	9.689381
2443.000000	9.741326
2442.000000	9.815133
2441.000000	9.880315
2440.000000	9.934165
2439.000000	10.001353
2438.000000	10.077466
2437.000000	10.118380
2436.000000	10.160699
2435.000000	10.230092
2434.000000	10.300188
2433.000000	10.358752
2432.000000	10.398964
2431.000000	10.449807
2430.000000	10.479490
2429.000000	10.538053
2428.000000	10.609152
2427.000000	10.652774
2426.000000	10.687270
2425.000000	10.737110
2424.000000	10.789456
2423.000000	10.819540
2422.000000	10.870382
2421.000000	10.910294
2420.000000	10.963242
2419.000000	10.992022
2418.000000	11.021906
2417.000000	11.070541
2416.000000	11.113562
2415.000000	11.152370
2414.000000	11.177541
2413.000000	11.207224
2412.000000	11.235603
2411.000000	11.272305
2410.000000	11.321944
2409.000000	11.351326
2408.000000	11.373889
2407.000000	11.406280
2406.000000	11.431851
2405.000000	11.452008
2404.000000	11.479886
2403.000000	11.530928
2402.000000	11.551987
2401.000000	11.573247
2400.000000	11.602829
2399.000000	11.622083
2398.000000	11.647554
2397.000000	11.691377
2396.000000	11.723166
2395.000000	11.739912
2394.000000	11.753049
2393.000000	11.782130
2392.000000	11.796872
2391.000000	11.820036
2390.000000	11.851925
2389.000000	11.883113
2388.000000	11.896650
2387.000000	11.908082
2386.000000	11.925130
2385.000000	11.934256
2384.000000	11.937464
2383.000000	11.938166
2382.000000	11.957019
2381.000000	11.963337
2380.000000	11.971760
2379.000000	11.991816
2378.000000	11.994524
2377.000000	11.974769
2376.000000	11.966546
2375.000000	11.981889
2374.000000	11.974368
2373.000000	11.957621
2372.000000	11.959626
2371.000000	11.949899
2370.000000	11.939771
2369.000000	11.934155
2368.000000	11.915202
2367.000000	11.899458
2366.000000	11.882511
2365.000000	11.855937
2364.000000	11.836081
2363.000000	11.818532
2362.000000	11.784236
2361.000000	11.735801
2360.000000	11.715544
2359.000000	11.702909
2358.000000	11.668312
2357.000000	11.636122
2356.000000	11.609247
2355.000000	11.588088
2354.000000	11.562015
2353.000000	11.531229
2352.000000	11.516388
2351.000000	11.523708
2350.000000	11.519496
2349.000000	11.514382
2348.000000	11.521000
2347.000000	11.539853
2346.000000	11.561815
2345.000000	11.599319
2344.000000	11.634417
2343.000000	11.659989
2342.000000	11.687867
2341.000000	11.718152
2340.000000	11.749840
2339.000000	11.775412
2338.000000	11.816025
2337.000000	11.830766
2336.000000	11.848416
2335.000000	11.871881
2334.000000	11.869675
2333.000000	11.861051
2332.000000	11.863157
2331.000000	11.858043
2330.000000	11.843101
2329.000000	11.817128
2328.000000	11.798777
2327.000000	11.779322
2326.000000	11.747333
2325.000000	11.702207
2324.000000	11.659788
2323.000000	11.611152
2322.000000	11.556099
2321.000000	11.492120
2320.000000	11.429545
2319.000000	11.364563
2318.000000	11.275815
2317.000000	11.177741
2316.000000	11.099823
2315.000000	11.009671
2314.000000	10.901669
2313.000000	10.825456
2312.000000	10.744229
2311.000000	10.660596
2310.000000	10.587191
2309.000000	10.522109
2308.000000	10.469060
2307.000000	10.416915
2306.000000	10.367075
2305.000000	10.348223
2304.000000	10.330874
2303.000000	10.343108
2302.000000	10.365270
2301.000000	10.417316
2300.000000	10.440681
2299.000000	10.504660
2298.000000	10.570043
2297.000000	10.623492
2296.000000	10.709432
2295.000000	10.771706
2294.000000	10.847318
2293.000000	10.902773
2292.000000	10.969258
2291.000000	11.006462
2290.000000	11.050586
2289.000000	11.116069
2288.000000	11.138231
2287.000000	11.166610
2286.000000	11.187970
2285.000000	11.175034
2284.000000	11.178443
2283.000000	11.181752
2282.000000	11.152270
2281.000000	11.136726
2280.000000	11.107946
2279.000000	11.084380
2278.000000	11.035544
2277.000000	10.996835
2276.000000	10.972868
2275.000000	10.936667
2274.000000	10.906082
2273.000000	10.893547
2272.000000	10.859853
2271.000000	10.849423
2270.000000	10.852231
2269.000000	10.862861
2268.000000	10.882917
2267.000000	10.930851
2266.000000	10.985404
2265.000000	11.057004
2264.000000	11.158387
2263.000000	11.261074
2262.000000	11.390736
2261.000000	11.510271
2260.000000	11.671020
2259.000000	11.865162
2258.000000	12.033834
2257.000000	12.194483
2256.000000	12.377494
2255.000000	12.579860
2254.000000	12.775005
2253.000000	12.985895
2252.000000	13.187358
2251.000000	13.369768
2250.000000	13.564412
2249.000000	13.720849
2248.000000	13.887013
2247.000000	14.051272
2246.000000	14.189860
2245.000000	14.324035
2244.000000	14.438856
2243.000000	14.568919
2242.000000	14.663383
2241.000000	14.754337
2240.000000	14.832155
2239.000000	14.929627
2238.000000	14.987589
2237.000000	15.075635
2236.000000	15.120762
2235.000000	15.183236
2234.000000	15.228663
2233.000000	15.261655
2232.000000	15.303974
2231.000000	15.332854
2230.000000	15.331751
2229.000000	15.357724
2228.000000	15.362337
2227.000000	15.373368
2226.000000	15.394727
2225.000000	15.346693
2224.000000	15.377078
2223.000000	15.344487
2222.000000	15.329044
2221.000000	15.287026
2220.000000	15.267772
2219.000000	15.236686
2218.000000	15.204395
2217.000000	15.143926
2216.000000	15.133898
2215.000000	15.107525
2214.000000	15.081753
2213.000000	15.017974
2212.000000	14.984982
2211.000000	14.963422
2210.000000	14.948781
2209.000000	14.913181
2208.000000	14.871966
2207.000000	14.848300
2206.000000	14.834762
2205.000000	14.798260
2204.000000	14.803575
2203.000000	14.781814
2202.000000	14.748321
2201.000000	14.737390
2200.000000	14.719640
2199.000000	14.701189
2198.000000	14.660475
2197.000000	14.655762
2196.000000	14.626580
2195.000000	14.608630
2194.000000	14.601911
2193.000000	14.584764
2192.000000	14.579048
2191.000000	14.567114
2190.000000	14.560696
2189.000000	14.527804
2188.000000	14.500628
2187.000000	14.511659
2186.000000	14.490600
2185.000000	14.475759
2184.000000	14.456906
2183.000000	14.420404
2182.000000	14.414889
2181.000000	14.381997
2180.000000	14.374476
2179.000000	14.356526
2178.000000	14.353818
2177.000000	14.330553
2176.000000	14.320224
2175.000000	14.325138
2174.000000	14.314408
2173.000000	14.315611
2172.000000	14.300770
2171.000000	14.320124
2170.000000	14.345896
2169.000000	14.338776
2168.000000	14.350409
2167.000000	14.359835
2166.000000	14.369161
2165.000000	14.392526
2164.000000	14.417697
2163.000000	14.422410
2162.000000	14.463725
2161.000000	14.476661
2160.000000	14.512261
2159.000000	14.541844
2158.000000	14.577443
2157.000000	14.611438
2156.000000	14.649545
2155.000000	14.679729
2154.000000	14.725056
2153.000000	14.758950
2152.000000	14.812801
2151.000000	14.867754
2150.000000	14.908569
2149.000000	14.949683
2148.000000	14.998520
2147.000000	15.039234
2146.000000	15.077541
2145.000000	15.120060
2144.000000	15.169197
2143.000000	15.198880
2142.000000	15.226658
2141.000000	15.261856
2140.000000	15.311796
2139.000000	15.345791
2138.000000	15.375273
2137.000000	15.412076
2136.000000	15.429625
2135.000000	15.451185
2134.000000	15.481971
2133.000000	15.502328
2132.000000	15.517671
2131.000000	15.532412
2130.000000	15.549460
2129.000000	15.558385
2128.000000	15.567310
2127.000000	15.555878
2126.000000	15.571822
2125.000000	15.590976
2124.000000	15.591878
2123.000000	15.579845
2122.000000	15.576937
2121.000000	15.564602
2120.000000	15.556881
2119.000000	15.547855
2118.000000	15.534017
2117.000000	15.508746
2116.000000	15.487888
2115.000000	15.480467
2114.000000	15.453391
2113.000000	15.421201
2112.000000	15.403351
2111.000000	15.390917
2110.000000	15.370259
2109.000000	15.343183
2108.000000	15.311595
2107.000000	15.270580
2106.000000	15.240897
2105.000000	15.230669
2104.000000	15.205198
2103.000000	15.156261
2102.000000	15.123870
2101.000000	15.109530
2100.000000	15.082555
2099.000000	15.044849
2098.000000	15.021584
2097.000000	15.000225
2096.000000	14.968737
2095.000000	14.952190
2094.000000	14.926118
2093.000000	14.901248
2092.000000	14.886808
2091.000000	14.869158
2090.000000	14.854016
2089.000000	14.840980
2088.000000	14.818517
2087.000000	14.799263
2086.000000	14.773190
2085.000000	14.739596
2084.000000	14.709913
2083.000000	14.688453
2082.000000	14.654458
2081.000000	14.611739
2080.000000	14.583360
2079.000000	14.554679
2078.000000	14.517074
2077.000000	14.468739
2076.000000	14.424215
2075.000000	14.375077
2074.000000	14.330453
2073.000000	14.287834
2072.000000	14.225760
2071.000000	14.168901
2070.000000	14.121569
2069.000000	14.059094
2068.000000	13.992909
2067.000000	13.939560
2066.000000	13.882300
2065.000000	13.831057
2064.000000	13.763267
2063.000000	13.683946
2062.000000	13.631599
2061.000000	13.565415
2060.000000	13.507152
2059.000000	13.462126
2058.000000	13.409078
2057.000000	13.357935
2056.000000	13.303382
2055.000000	13.274702
2054.000000	13.269287
2053.000000	13.240506
2052.000000	13.234490
2051.000000	13.237398
2050.000000	13.245721
2049.000000	13.258757
2048.000000	13.288340
2047.000000	13.324040
2046.000000	13.355628
2045.000000	13.407974
2044.000000	13.477168
2043.000000	13.533024
2042.000000	13.588680
2041.000000	13.652859
2040.000000	13.721049
2039.000000	13.783424
2038.000000	13.834266
2037.000000	13.904763
2036.000000	13.964430
2035.000000	14.008453
2034.000000	14.063106
2033.000000	14.096098
2032.000000	14.127987
2031.000000	14.151753
2030.000000	14.206406
2029.000000	14.242607
2028.000000	14.254942
2027.000000	14.269181
2026.000000	14.285527
2025.000000	14.307288
2024.000000	14.310397
2023.000000	14.313505
2022.000000	14.317216
2021.000000	14.334063
2020.000000	14.330754
2019.000000	14.314909
2018.000000	14.320625
2017.000000	14.308090
2016.000000	14.291043
2015.000000	14.265672
2014.000000	14.257449
2013.000000	14.239900
2012.000000	14.224055
2011.000000	14.190060
2010.000000	14.175319
2009.000000	14.145636
2008.000000	14.105925
2007.000000	14.084064
2006.000000	14.044353
2005.000000	14.007049
2004.000000	13.948485
2003.000000	13.934646
2002.000000	13.889520
2001.000000	13.842188
2000.000000	13.794154
1999.000000	13.745618
1998.000000	13.681339
1997.000000	13.606128
1996.000000	13.548166
1995.000000	13.495118
1994.000000	13.431641
1993.000000	13.373679
1992.000000	13.311806
1991.000000	13.245420
1990.000000	13.156572
1989.000000	13.090688
1988.000000	13.033929
1987.000000	12.953203
1986.000000	12.867063
1985.000000	12.780621
1984.000000	12.714637
1983.000000	12.647950
1982.000000	12.545564
1981.000000	12.475268
1980.000000	12.417807
1979.000000	12.317025
1978.000000	12.249838
1977.000000	12.175630
1976.000000	12.073144
1975.000000	12.007260
1974.000000	11.933152
1973.000000	11.862555
1972.000000	11.798677
1971.000000	11.712837
1970.000000	11.642941
1969.000000	11.553993
1968.000000	11.508165
1967.000000	11.415907
1966.000000	11.352028
1965.000000	11.297075
1964.000000	11.228282
1963.000000	11.144949
1962.000000	11.087088
1961.000000	11.014184
1960.000000	10.955019
1959.000000	10.885825
1958.000000	10.824955
1957.000000	10.775216
1956.000000	10.707126
1955.000000	10.645153
1954.000000	10.597018
1953.000000	10.550789
1952.000000	10.479690
1951.000000	10.420023
1950.000000	10.370084
1949.000000	10.337794
1948.000000	10.286651
1947.000000	10.242628
1946.000000	10.199407
1945.000000	10.166615
1944.000000	10.123595
1943.000000	10.088196
1942.000000	10.081477
1941.000000	10.051293
1940.000000	10.027827
1939.000000	9.992529
1938.000000	9.992027
1937.000000	10.018301
1936.000000	9.994634
1935.000000	10.000651
1934.000000	9.987314
1933.000000	10.024819
1932.000000	10.059817
1931.000000	10.063527
1930.000000	10.120486
1929.000000	10.152275
1928.000000	10.207329
1927.000000	10.257970
1926.000000	10.322350
1925.000000	10.372992
1924.000000	10.457328
1923.000000	10.532337
1922.000000	10.623191
1921.000000	10.711037
1920.000000	10.809612
1919.000000	10.957526
1918.000000	11.065628
1917.000000	11.177942
1916.000000	11.316328
1915.000000	11.427940
1914.000000	11.586684
1913.000000	11.735099
1912.000000	11.930244
1911.000000	12.089189
1910.000000	12.263576
1909.000000	12.451802
1908.000000	12.602523
1907.000000	12.806995
1906.000000	13.015377
1905.000000	13.309800
1904.000000	13.565013
1903.000000	13.827347
1902.000000	14.067117
1901.000000	14.343088
1900.000000	14.617956
1899.000000	14.969940
1898.000000	15.310291
1897.000000	15.636002
1896.000000	15.960509
1895.000000	16.292035
1894.000000	16.598793
1893.000000	16.966922
1892.000000	17.386895
1891.000000	17.844875
1890.000000	18.314187
1889.000000	18.751008
1888.000000	19.190536
1887.000000	19.676495
1886.000000	20.157339
1885.000000	20.660445
1884.000000	21.180699
1883.000000	21.746280
1882.000000	22.287492
1881.000000	22.795713
1880.000000	23.293203
1879.000000	23.750682
1878.000000	24.221197
1877.000000	24.703144
1876.000000	25.162127
1875.000000	25.592128
1874.000000	26.019222
1873.000000	26.448422
1872.000000	26.852852
1871.000000	27.220680
1870.000000	27.586302
1869.000000	27.916926
1868.000000	28.216162
1867.000000	28.493137
1866.000000	28.726689
1865.000000	28.894759
1864.000000	29.068043
1863.000000	29.234308
1862.000000	29.385430
1861.000000	29.556208
1860.000000	29.743732
1859.000000	29.894854
1858.000000	30.042266
1857.000000	30.152875
1856.000000	30.251952
1855.000000	30.320945
1854.000000	30.410395
1853.000000	30.468257
1852.000000	30.506163
1851.000000	30.538854
1850.000000	30.581574
1849.000000	30.611357
1848.000000	30.650266
1847.000000	30.690378
1846.000000	30.711437
1845.000000	30.689375
1844.000000	30.668517
1843.000000	30.639636
1842.000000	30.664806
1841.000000	30.716350
1840.000000	30.713743
1839.000000	30.689575
1838.000000	30.672127
1837.000000	30.646956
1836.000000	30.634120
1835.000000	30.623992
1834.000000	30.579067
1833.000000	30.526018
1832.000000	30.476781
1831.000000	30.448201
1830.000000	30.412301
1829.000000	30.384322
1828.000000	30.354138
1827.000000	30.285346
1826.000000	30.231495
1825.000000	30.203116
1824.000000	30.153277
1823.000000	30.117176
1822.000000	30.104841
1821.000000	30.101733
1820.000000	30.091303
1819.000000	30.071147
1818.000000	30.022611
1817.000000	29.972471
1816.000000	29.952917
1815.000000	29.939479
1814.000000	29.927345
1813.000000	29.919323
1812.000000	29.901473
1811.000000	29.880614
1810.000000	29.845316
1809.000000	29.803098
1808.000000	29.779231
1807.000000	29.740022
1806.000000	29.709637
1805.000000	29.673435
1804.000000	29.624499
1803.000000	29.583484
1802.000000	29.547885
1801.000000	29.515494
1800.000000	29.459738
1799.000000	29.392651
1798.000000	29.347224
1797.000000	29.312226
1796.000000	29.275323
1795.000000	29.243634
1794.000000	29.207433
1793.000000	29.165616
1792.000000	29.115977
1791.000000	29.074662
1790.000000	29.037157
1789.000000	29.001257
1788.000000	28.962348
1787.000000	28.919027
1786.000000	28.876007
1785.000000	28.838101
1784.000000	28.812429
1783.000000	28.751759
1782.000000	28.686276
1781.000000	28.639746
1780.000000	28.584592
1779.000000	28.540870
1778.000000	28.480802
1777.000000	28.418428
1776.000000	28.357157
1775.000000	28.289467
1774.000000	28.219873
1773.000000	28.137743
1772.000000	28.051201
1771.000000	27.973785
1770.000000	27.896168
1769.000000	27.812935
1768.000000	27.722583
1767.000000	27.625612
1766.000000	27.537967
1765.000000	27.458545
1764.000000	27.398176
1763.000000	27.375413
1762.000000	27.357462
1761.000000	27.361273
1760.000000	27.395769
1759.000000	27.418433
1758.000000	27.470779
1757.000000	27.537165
1756.000000	27.594826
1755.000000	27.649378
1754.000000	27.715864
1753.000000	27.765603
1752.000000	27.803910
1751.000000	27.839610
1750.000000	27.858162
1749.000000	27.861672
1748.000000	27.860869
1747.000000	27.846128
1746.000000	27.827877
1745.000000	27.773224
1744.000000	27.707441
1743.000000	27.634336
1742.000000	27.546190
1741.000000	27.433876
1740.000000	27.280046
1739.000000	27.143464
1738.000000	26.993345
1737.000000	26.821865
1736.000000	26.663122
1735.000000	26.536167
1734.000000	26.417335
1733.000000	26.310336
1732.000000	26.234323
1731.000000	26.207047
1730.000000	26.221889
1729.000000	26.249666
1728.000000	26.315851
1727.000000	26.378927
1726.000000	26.438394
1725.000000	26.539276
1724.000000	26.613082
1723.000000	26.676559
1722.000000	26.757486
1721.000000	26.840518
1720.000000	26.917633
1719.000000	26.995150
1718.000000	27.087608
1717.000000	27.184479
1716.000000	27.301305
1715.000000	27.417029
1714.000000	27.521220
1713.000000	27.638347
1712.000000	27.758082
1711.000000	27.843020
1710.000000	27.924146
1709.000000	27.999557
1708.000000	28.053408
1707.000000	28.087804
1706.000000	28.113977
1705.000000	28.117186
1704.000000	28.116985
1703.000000	28.104049
1702.000000	28.090311
1701.000000	28.036360
1700.000000	27.992939
1699.000000	27.921238
1698.000000	27.840813
1697.000000	27.766004
1696.000000	27.694605
1695.000000	27.659106
1694.000000	27.641256
1693.000000	27.625512
1692.000000	27.666225
1691.000000	27.730405
1690.000000	27.808022
1689.000000	27.913416
1688.000000	28.012794
1687.000000	28.070656
1686.000000	28.145866
1685.000000	28.196608
1684.000000	28.265901
1683.000000	28.390650
1682.000000	28.505371
1681.000000	28.707135
1680.000000	28.973178
1679.000000	29.255868
1678.000000	29.569645
1677.000000	29.924638
1676.000000	30.243228
1675.000000	30.542565
1674.000000	30.819840
1673.000000	31.041760
1672.000000	31.259368
1671.000000	31.452307
1670.000000	31.613458
1669.000000	31.768792
1668.000000	31.909786
1667.000000	31.994422
1666.000000	32.106235
1665.000000	32.200298
1664.000000	32.267586
1663.000000	32.344501
1662.000000	32.402162
1661.000000	32.468848
1660.000000	32.520693
1659.000000	32.531022
1658.000000	32.575747
1657.000000	32.614355
1656.000000	32.624584
1655.000000	32.636016
1654.000000	32.639124
1653.000000	32.652161
1652.000000	32.621475
1651.000000	32.613453
1650.000000	32.587079
1649.000000	32.551078
1648.000000	32.518086
1647.000000	32.511468
1646.000000	32.469450
1645.000000	32.421717
1644.000000	32.394039
1643.000000	32.344701
1642.000000	32.282829
1641.000000	32.272399
1640.000000	32.200097
1639.000000	32.162392
1638.000000	32.092396
1637.000000	32.057398
1636.000000	31.991013
1635.000000	31.940171
1634.000000	31.884114
1633.000000	31.813517
1632.000000	31.751042
1631.000000	31.700902
1630.000000	31.628700
1629.000000	31.556599
1628.000000	31.479985
1627.000000	31.425031
1626.000000	31.358244
1625.000000	31.279725
1624.000000	31.195389
1623.000000	31.131009
1622.000000	31.076156
1621.000000	31.005158
1620.000000	30.931953
1619.000000	30.872587
1618.000000	30.814525
1617.000000	30.761677
1616.000000	30.685765
1615.000000	30.621987
1614.000000	30.578264
1613.000000	30.491321
1612.000000	30.430150
1611.000000	30.369280
1610.000000	30.304700
1609.000000	30.257067
1608.000000	30.194191
1607.000000	30.148563
1606.000000	30.068239
1605.000000	30.004060
