PE UV       SUBTECH     SPECTRUM    ASCII       PEDS        4.00        
   -1
CICIMAUCR0247-3.Sample.ASC
24/06/24
17:27:09.00
24/06/24
17:27:09.00
Vinicio Soto Monge
C. resplendens. Sex M.Dorsal. 
250,000000
1
Lambda 1050
1050L1511233
PerkinElmer UV WinLab 6.3.2.0749 / 2.02.05 Lambda 900 UV/VIS/NIR, Aug  7 2015 09:38:08

0
0
3350/servo 860,8/2
0
0
UV/VIS
1
1
1
DoubleDePol,CommonBeamDepol,RBeamAtt,SBeamAtt,60mm sphere, WB InGaAs Detector
0
0
0
0
Program
Program
3350/servo 860,8/2
3350/0,2 860,8/0,2
3350/0,2 860,8/0,2
0
15.00
 
 
 
0
 
860,8
319,2
860,8
Front
100
on
S:100 R:100
0
0
0
0
 
0
 
 
 
0
 
 
0
0
0
0
0
 
 
 
 
0
0


0
0
#HDR
-1
-1
#GR
nm
%R
1.0
0.0
2500,000000
-1,000000
2251
8
89,189200
5,680200
#DATA
2482.000000	11.343362
2481.000000	11.342744
2480.000000	11.338828
2479.000000	11.386022
2478.000000	11.390969
2477.000000	11.396533
2476.000000	11.358819
2475.000000	11.411165
2474.000000	11.390041
2473.000000	11.446716
2472.000000	11.490407
2471.000000	11.481133
2470.000000	11.508749
2469.000000	11.566144
2468.000000	11.559447
2467.000000	11.572842
2466.000000	11.591803
2465.000000	11.644871
2464.000000	11.683512
2463.000000	11.712468
2462.000000	11.736271
2461.000000	11.788824
2460.000000	11.811185
2459.000000	11.892487
2458.000000	11.948337
2457.000000	12.012122
2456.000000	12.080853
2455.000000	12.114033
2454.000000	12.171223
2453.000000	12.240572
2452.000000	12.334755
2451.000000	12.373809
2450.000000	12.484066
2449.000000	12.535383
2448.000000	12.607823
2447.000000	12.685416
2446.000000	12.761050
2445.000000	12.855233
2444.000000	12.927055
2443.000000	13.018044
2442.000000	13.074512
2441.000000	13.161894
2440.000000	13.250822
2439.000000	13.347065
2438.000000	13.438157
2437.000000	13.515234
2436.000000	13.563047
2435.000000	13.659806
2434.000000	13.745848
2433.000000	13.812106
2432.000000	13.867750
2431.000000	13.939675
2430.000000	14.009849
2429.000000	14.075694
2428.000000	14.146589
2427.000000	14.219544
2426.000000	14.278177
2425.000000	14.337324
2424.000000	14.406777
2423.000000	14.486018
2422.000000	14.537849
2421.000000	14.591742
2420.000000	14.644398
2419.000000	14.688913
2418.000000	14.760735
2417.000000	14.794431
2416.000000	14.839461
2415.000000	14.901185
2414.000000	14.949925
2413.000000	14.986815
2412.000000	15.035555
2411.000000	15.072651
2410.000000	15.112736
2409.000000	15.162094
2408.000000	15.191874
2407.000000	15.220417
2406.000000	15.275546
2405.000000	15.315837
2404.000000	15.356127
2403.000000	15.394357
2402.000000	15.426506
2401.000000	15.458450
2400.000000	15.488436
2399.000000	15.517701
2398.000000	15.533055
2397.000000	15.562525
2396.000000	15.573551
2395.000000	15.585401
2394.000000	15.619303
2393.000000	15.651762
2392.000000	15.681336
2391.000000	15.701430
2390.000000	15.709982
2389.000000	15.727500
2388.000000	15.739350
2387.000000	15.760474
2386.000000	15.780465
2385.000000	15.791800
2384.000000	15.812409
2383.000000	15.803032
2382.000000	15.793655
2381.000000	15.804680
2380.000000	15.801383
2379.000000	15.806535
2378.000000	15.807360
2377.000000	15.794067
2376.000000	15.793345
2375.000000	15.791697
2374.000000	15.785308
2373.000000	15.772221
2372.000000	15.769954
2371.000000	15.762947
2370.000000	15.738835
2369.000000	15.731931
2368.000000	15.729046
2367.000000	15.710085
2366.000000	15.700502
2365.000000	15.696277
2364.000000	15.667528
2363.000000	15.642385
2362.000000	15.637748
2361.000000	15.623219
2360.000000	15.585607
2359.000000	15.557476
2358.000000	15.548099
2357.000000	15.518731
2356.000000	15.482460
2355.000000	15.472155
2354.000000	15.465354
2353.000000	15.431659
2352.000000	15.423930
2351.000000	15.436193
2350.000000	15.433926
2349.000000	15.423930
2348.000000	15.425064
2347.000000	15.418984
2346.000000	15.430319
2345.000000	15.453813
2344.000000	15.471743
2343.000000	15.483181
2342.000000	15.495649
2341.000000	15.512240
2340.000000	15.532127
2339.000000	15.555415
2338.000000	15.564895
2337.000000	15.580764
2336.000000	15.612914
2335.000000	15.614357
2334.000000	15.612296
2333.000000	15.617860
2332.000000	15.625898
2331.000000	15.635790
2330.000000	15.609411
2329.000000	15.590038
2328.000000	15.603331
2327.000000	15.593439
2326.000000	15.563659
2325.000000	15.535734
2324.000000	15.493073
2323.000000	15.460614
2322.000000	15.436399
2321.000000	15.400642
2320.000000	15.350666
2319.000000	15.307387
2318.000000	15.250197
2317.000000	15.182085
2316.000000	15.096764
2315.000000	15.038131
2314.000000	14.969091
2313.000000	14.894281
2312.000000	14.812773
2311.000000	14.744866
2310.000000	14.680772
2309.000000	14.617297
2308.000000	14.572060
2307.000000	14.494777
2306.000000	14.465821
2305.000000	14.443048
2304.000000	14.415020
2303.000000	14.421512
2302.000000	14.436144
2301.000000	14.434908
2300.000000	14.455620
2299.000000	14.510130
2298.000000	14.540529
2297.000000	14.580098
2296.000000	14.654393
2295.000000	14.699423
2294.000000	14.736210
2293.000000	14.811536
2292.000000	14.863058
2291.000000	14.922000
2290.000000	14.969194
2289.000000	15.005981
2288.000000	15.028342
2287.000000	15.052557
2286.000000	15.089035
2285.000000	15.093672
2284.000000	15.109129
2283.000000	15.119743
2282.000000	15.100267
2281.000000	15.090066
2280.000000	15.075433
2279.000000	15.045241
2278.000000	15.027827
2277.000000	15.012164
2276.000000	14.965588
2275.000000	14.967958
2274.000000	14.932923
2273.000000	14.893766
2272.000000	14.877278
2271.000000	14.868417
2270.000000	14.878721
2269.000000	14.895208
2268.000000	14.905410
2267.000000	14.965279
2266.000000	15.012576
2265.000000	15.072033
2264.000000	15.139939
2263.000000	15.247106
2262.000000	15.371481
2261.000000	15.506984
2260.000000	15.666394
2259.000000	15.814160
2258.000000	15.984184
2257.000000	16.158948
2256.000000	16.351538
2255.000000	16.552475
2254.000000	16.724972
2253.000000	16.916223
2252.000000	17.128907
2251.000000	17.330050
2250.000000	17.507390
2249.000000	17.681845
2248.000000	17.845377
2247.000000	18.021995
2246.000000	18.164403
2245.000000	18.301555
2244.000000	18.427476
2243.000000	18.540413
2242.000000	18.660872
2241.000000	18.768657
2240.000000	18.839655
2239.000000	18.921369
2238.000000	18.986081
2237.000000	19.054606
2236.000000	19.111383
2235.000000	19.164554
2234.000000	19.213089
2233.000000	19.242765
2232.000000	19.270381
2231.000000	19.265744
2230.000000	19.281407
2229.000000	19.300264
2228.000000	19.300264
2227.000000	19.269969
2226.000000	19.257501
2225.000000	19.249051
2224.000000	19.193510
2223.000000	19.167543
2222.000000	19.145491
2221.000000	19.066353
2220.000000	19.014315
2219.000000	18.981856
2218.000000	18.921678
2217.000000	18.871083
2216.000000	18.828320
2215.000000	18.761650
2214.000000	18.692816
2213.000000	18.643252
2212.000000	18.608422
2211.000000	18.545359
2210.000000	18.496413
2209.000000	18.459317
2208.000000	18.395429
2207.000000	18.389968
2206.000000	18.343598
2205.000000	18.310314
2204.000000	18.275279
2203.000000	18.265284
2202.000000	18.219738
2201.000000	18.192843
2200.000000	18.158942
2199.000000	18.133696
2198.000000	18.100618
2197.000000	18.069808
2196.000000	18.079391
2195.000000	18.053527
2194.000000	18.023953
2193.000000	18.017564
2192.000000	17.986033
2191.000000	17.971606
2190.000000	17.959756
2189.000000	17.937499
2188.000000	17.917405
2187.000000	17.915756
2186.000000	17.889789
2185.000000	17.873817
2184.000000	17.867737
2183.000000	17.837751
2182.000000	17.827653
2181.000000	17.792721
2180.000000	17.779634
2179.000000	17.765929
2178.000000	17.749133
2177.000000	17.720487
2176.000000	17.716777
2175.000000	17.706782
2174.000000	17.702454
2173.000000	17.701939
2172.000000	17.691325
2171.000000	17.706679
2170.000000	17.712449
2169.000000	17.725845
2168.000000	17.735222
2167.000000	17.733161
2166.000000	17.770051
2165.000000	17.788908
2164.000000	17.806220
2163.000000	17.843934
2162.000000	17.870417
2161.000000	17.906173
2160.000000	17.923794
2159.000000	17.963363
2158.000000	17.998913
2157.000000	18.072487
2156.000000	18.099794
2155.000000	18.166670
2154.000000	18.216234
2153.000000	18.285893
2152.000000	18.331541
2151.000000	18.380488
2150.000000	18.452104
2149.000000	18.507027
2148.000000	18.573902
2147.000000	18.641706
2146.000000	18.690446
2145.000000	18.756292
2144.000000	18.806680
2143.000000	18.863664
2142.000000	18.926109
2141.000000	18.967018
2140.000000	19.009781
2139.000000	19.076657
2138.000000	19.131683
2137.000000	19.177435
2136.000000	19.233388
2135.000000	19.272545
2134.000000	19.292536
2133.000000	19.340246
2132.000000	19.375693
2131.000000	19.399187
2130.000000	19.423197
2129.000000	19.446794
2128.000000	19.454110
2127.000000	19.466991
2126.000000	19.479047
2125.000000	19.496049
2124.000000	19.492649
2123.000000	19.501201
2122.000000	19.524386
2121.000000	19.523768
2120.000000	19.502644
2119.000000	19.500686
2118.000000	19.496873
2117.000000	19.486260
2116.000000	19.469773
2115.000000	19.436386
2114.000000	19.417426
2113.000000	19.411037
2112.000000	19.390222
2111.000000	19.355805
2110.000000	19.334063
2109.000000	19.313969
2108.000000	19.281613
2107.000000	19.249772
2106.000000	19.232152
2105.000000	19.198662
2104.000000	19.162700
2103.000000	19.146213
2102.000000	19.139721
2101.000000	19.093866
2100.000000	19.045126
2099.000000	19.025650
2098.000000	19.005350
2097.000000	18.988451
2096.000000	18.962587
2095.000000	18.938371
2094.000000	18.917453
2093.000000	18.888704
2092.000000	18.868301
2091.000000	18.860367
2090.000000	18.843364
2089.000000	18.819973
2088.000000	18.802971
2087.000000	18.783598
2086.000000	18.758249
2085.000000	18.726099
2084.000000	18.697762
2083.000000	18.673959
2082.000000	18.641912
2081.000000	18.596881
2080.000000	18.539795
2079.000000	18.487963
2078.000000	18.443345
2077.000000	18.401097
2076.000000	18.349574
2075.000000	18.281977
2074.000000	18.208300
2073.000000	18.133902
2072.000000	18.060534
2071.000000	17.984796
2070.000000	17.910398
2069.000000	17.835691
2068.000000	17.760880
2067.000000	17.683597
2066.000000	17.598585
2065.000000	17.509760
2064.000000	17.423100
2063.000000	17.345095
2062.000000	17.268842
2061.000000	17.184964
2060.000000	17.126125
2059.000000	17.076458
2058.000000	17.008654
2057.000000	16.956617
2056.000000	16.915605
2055.000000	16.882837
2054.000000	16.859136
2053.000000	16.841310
2052.000000	16.837291
2051.000000	16.857797
2050.000000	16.883043
2049.000000	16.914884
2048.000000	16.964963
2047.000000	17.028336
2046.000000	17.078312
2045.000000	17.123240
2044.000000	17.205366
2043.000000	17.289142
2042.000000	17.353854
2041.000000	17.425161
2040.000000	17.494613
2039.000000	17.556749
2038.000000	17.637227
2037.000000	17.699775
2036.000000	17.750782
2035.000000	17.800037
2034.000000	17.827653
2033.000000	17.875157
2032.000000	17.916065
2031.000000	17.946670
2030.000000	17.990361
2029.000000	18.010351
2028.000000	18.026632
2027.000000	18.040440
2026.000000	18.055691
2025.000000	18.080628
2024.000000	18.084337
2023.000000	18.095466
2022.000000	18.092478
2021.000000	18.087120
2020.000000	18.078361
2019.000000	18.071148
2018.000000	18.051569
2017.000000	18.050745
2016.000000	18.034567
2015.000000	18.012618
2014.000000	17.973770
2013.000000	17.967382
2012.000000	17.934098
2011.000000	17.894117
2010.000000	17.857845
2009.000000	17.808693
2008.000000	17.764487
2007.000000	17.721620
2006.000000	17.672365
2005.000000	17.626304
2004.000000	17.565404
2003.000000	17.502135
2002.000000	17.449685
2001.000000	17.380645
2000.000000	17.316345
1999.000000	17.243390
1998.000000	17.159305
1997.000000	17.076664
1996.000000	17.017104
1995.000000	16.930649
1994.000000	16.852026
1993.000000	16.766087
1992.000000	16.684063
1991.000000	16.578546
1990.000000	16.510124
1989.000000	16.415632
1988.000000	16.320522
1987.000000	16.228915
1986.000000	16.140915
1985.000000	16.066208
1984.000000	15.941112
1983.000000	15.839613
1982.000000	15.747388
1981.000000	15.664746
1980.000000	15.577879
1979.000000	15.477308
1978.000000	15.395181
1977.000000	15.291518
1976.000000	15.198366
1975.000000	15.114487
1974.000000	15.028548
1973.000000	14.925297
1972.000000	14.840801
1971.000000	14.759911
1970.000000	14.673147
1969.000000	14.569793
1968.000000	14.513634
1967.000000	14.433671
1966.000000	14.351854
1965.000000	14.229334
1964.000000	14.183582
1963.000000	14.116191
1962.000000	14.019638
1961.000000	13.934729
1960.000000	13.876200
1959.000000	13.789436
1958.000000	13.718129
1957.000000	13.645483
1956.000000	13.586438
1955.000000	13.512452
1954.000000	13.437435
1953.000000	13.377773
1952.000000	13.295646
1951.000000	13.236808
1950.000000	13.183636
1949.000000	13.110578
1948.000000	13.038344
1947.000000	13.000526
1946.000000	12.963121
1945.000000	12.922109
1944.000000	12.867392
1943.000000	12.836582
1942.000000	12.790830
1941.000000	12.764039
1940.000000	12.775683
1939.000000	12.746109
1938.000000	12.743636
1937.000000	12.743327
1936.000000	12.722409
1935.000000	12.741266
1934.000000	12.736423
1933.000000	12.789491
1932.000000	12.795158
1931.000000	12.796292
1930.000000	12.866053
1929.000000	12.927364
1928.000000	12.997023
1927.000000	13.074203
1926.000000	13.136339
1925.000000	13.219393
1924.000000	13.322232
1923.000000	13.394260
1922.000000	13.516883
1921.000000	13.653726
1920.000000	13.777174
1919.000000	13.936893
1918.000000	14.060340
1917.000000	14.202954
1916.000000	14.366589
1915.000000	14.523217
1914.000000	14.698805
1913.000000	14.914787
1912.000000	15.149007
1911.000000	15.358291
1910.000000	15.561186
1909.000000	15.779228
1908.000000	16.006133
1907.000000	16.259313
1906.000000	16.545881
1905.000000	16.867483
1904.000000	17.210828
1903.000000	17.525732
1902.000000	17.874229
1901.000000	18.220150
1900.000000	18.582146
1899.000000	18.990821
1898.000000	19.428658
1897.000000	19.827338
1896.000000	20.252191
1895.000000	20.653344
1894.000000	21.068717
1893.000000	21.521083
1892.000000	22.003435
1891.000000	22.583473
1890.000000	23.132392
1889.000000	23.653180
1888.000000	24.209415
1887.000000	24.769463
1886.000000	25.320545
1885.000000	25.886570
1884.000000	26.433015
1883.000000	27.038815
1882.000000	27.617308
1881.000000	28.140672
1880.000000	28.704841
1879.000000	29.202856
1878.000000	29.690463
1877.000000	30.210117
1876.000000	30.697416
1875.000000	31.159468
1874.000000	31.623169
1873.000000	32.072134
1872.000000	32.522955
1871.000000	32.936061
1870.000000	33.320623
1869.000000	33.652942
1868.000000	33.978460
1867.000000	34.255857
1866.000000	34.497909
1865.000000	34.712757
1864.000000	34.917713
1863.000000	35.112055
1862.000000	35.305263
1861.000000	35.522997
1860.000000	35.730838
1859.000000	35.919719
1858.000000	36.071400
1857.000000	36.217518
1856.000000	36.331279
1855.000000	36.432984
1854.000000	36.539120
1853.000000	36.625987
1852.000000	36.688329
1851.000000	36.748095
1850.000000	36.829912
1849.000000	36.910699
1848.000000	36.955833
1847.000000	37.001688
1846.000000	36.986952
1845.000000	36.953257
1844.000000	36.977060
1843.000000	37.000451
1842.000000	37.025594
1841.000000	37.060217
1840.000000	37.071449
1839.000000	37.082372
1838.000000	37.073716
1837.000000	37.045894
1836.000000	37.020236
1835.000000	37.000451
1834.000000	36.941613
1833.000000	36.897303
1832.000000	36.863917
1831.000000	36.832694
1830.000000	36.815692
1829.000000	36.777978
1828.000000	36.747992
1827.000000	36.704507
1826.000000	36.659992
1825.000000	36.627429
1824.000000	36.573640
1823.000000	36.558183
1822.000000	36.578998
1821.000000	36.599504
1820.000000	36.572919
1819.000000	36.530877
1818.000000	36.475851
1817.000000	36.451532
1816.000000	36.445040
1815.000000	36.434427
1814.000000	36.426802
1813.000000	36.397022
1812.000000	36.379916
1811.000000	36.362502
1810.000000	36.328703
1809.000000	36.280169
1808.000000	36.242145
1807.000000	36.210820
1806.000000	36.178464
1805.000000	36.137761
1804.000000	36.103344
1803.000000	36.063981
1802.000000	36.026988
1801.000000	35.999166
1800.000000	35.954857
1799.000000	35.898182
1798.000000	35.842229
1797.000000	35.801733
1796.000000	35.766800
1795.000000	35.729395
1794.000000	35.692917
1793.000000	35.649330
1792.000000	35.611821
1791.000000	35.577301
1790.000000	35.537217
1789.000000	35.503006
1788.000000	35.465292
1787.000000	35.429020
1786.000000	35.406659
1785.000000	35.383062
1784.000000	35.353179
1783.000000	35.317011
1782.000000	35.278060
1781.000000	35.237151
1780.000000	35.195933
1779.000000	35.155643
1778.000000	35.117310
1777.000000	35.071661
1776.000000	35.016532
1775.000000	34.957488
1774.000000	34.905038
1773.000000	34.853413
1772.000000	34.793956
1771.000000	34.729553
1770.000000	34.669993
1769.000000	34.605075
1768.000000	34.551595
1767.000000	34.496157
1766.000000	34.439173
1765.000000	34.399501
1764.000000	34.366424
1763.000000	34.331285
1762.000000	34.320363
1761.000000	34.320981
1760.000000	34.323969
1759.000000	34.356119
1758.000000	34.405581
1757.000000	34.437937
1756.000000	34.482864
1755.000000	34.520578
1754.000000	34.564475
1753.000000	34.606415
1752.000000	34.636298
1751.000000	34.647632
1750.000000	34.668035
1749.000000	34.684626
1748.000000	34.668963
1747.000000	34.639492
1746.000000	34.616719
1745.000000	34.575913
1744.000000	34.515014
1743.000000	34.425571
1742.000000	34.357356
1741.000000	34.281618
1740.000000	34.174245
1739.000000	34.044821
1738.000000	33.931163
1737.000000	33.817093
1736.000000	33.703640
1735.000000	33.615949
1734.000000	33.533514
1733.000000	33.462722
1732.000000	33.432427
1731.000000	33.409448
1730.000000	33.398010
1729.000000	33.413673
1728.000000	33.435415
1727.000000	33.462619
1726.000000	33.503528
1725.000000	33.537945
1724.000000	33.556802
1723.000000	33.593692
1722.000000	33.656034
1721.000000	33.733008
1720.000000	33.829458
1719.000000	33.938788
1718.000000	34.058217
1717.000000	34.184859
1716.000000	34.317787
1715.000000	34.469983
1714.000000	34.605693
1713.000000	34.735117
1712.000000	34.851970
1711.000000	34.989947
1710.000000	35.074340
1709.000000	35.170584
1708.000000	35.221076
1707.000000	35.264973
1706.000000	35.296402
1705.000000	35.316495
1704.000000	35.310725
1703.000000	35.284758
1702.000000	35.265591
1701.000000	35.208092
1700.000000	35.155333
1699.000000	35.094331
1698.000000	35.023642
1697.000000	34.945844
1696.000000	34.885872
1695.000000	34.814874
1694.000000	34.761188
1693.000000	34.731820
1692.000000	34.743464
1691.000000	34.760260
1690.000000	34.817862
1689.000000	34.864954
1688.000000	34.915033
1687.000000	34.994996
1686.000000	35.083821
1685.000000	35.178106
1684.000000	35.315259
1683.000000	35.422940
1682.000000	35.585442
1681.000000	35.813171
1680.000000	36.086342
1679.000000	36.356422
1678.000000	36.670708
1677.000000	36.982727
1676.000000	37.288461
1675.000000	37.581211
1674.000000	37.848818
1673.000000	38.109109
1672.000000	38.337868
1671.000000	38.540144
1670.000000	38.732838
1669.000000	38.909972
1668.000000	39.055677
1667.000000	39.174487
1666.000000	39.312876
1665.000000	39.397888
1664.000000	39.504642
1663.000000	39.613870
1662.000000	39.699912
1661.000000	39.750610
1660.000000	39.801617
1659.000000	39.899613
1658.000000	39.919912
1657.000000	39.994723
1656.000000	40.000699
1655.000000	40.025533
1654.000000	40.041093
1653.000000	40.054592
1652.000000	40.064896
1651.000000	40.050676
1650.000000	40.024297
1649.000000	39.994826
1648.000000	39.974835
1647.000000	39.946601
1646.000000	39.924755
1645.000000	39.880137
1644.000000	39.842835
1643.000000	39.799350
1642.000000	39.765345
1641.000000	39.713308
1640.000000	39.670544
1639.000000	39.629945
1638.000000	39.601195
1637.000000	39.545448
1636.000000	39.472905
1635.000000	39.427977
1634.000000	39.383462
1633.000000	39.322666
1632.000000	39.262384
1631.000000	39.177991
1630.000000	39.116679
1629.000000	39.046300
1628.000000	38.955311
1627.000000	38.897812
1626.000000	38.822384
1625.000000	38.746543
1624.000000	38.666580
1623.000000	38.606299
1622.000000	38.539629
1621.000000	38.454823
1620.000000	38.394645
1619.000000	38.333643
1618.000000	38.253783
1617.000000	38.194636
1616.000000	38.120444
1615.000000	38.039244
1614.000000	37.986176
1613.000000	37.912190
1612.000000	37.858710
1611.000000	37.778850
1610.000000	37.709398
1609.000000	37.637576
1608.000000	37.563384
1607.000000	37.483937
