PE UV       SUBTECH     SPECTRUM    ASCII       PEDS        4.00        
   -1
CICIMAUCR0257-1.Sample.ASC
24/06/26
12:59:47.00
24/06/26
12:59:47.00
Vinicio Soto Monge
C. resplendens. Sex F. Dorsal.
250,000000
1
Lambda 1050
1050L1511233
PerkinElmer UV WinLab 6.3.2.0749 / 2.02.05 Lambda 900 UV/VIS/NIR, Aug  7 2015 09:38:08

0
0
3350/servo 860,8/2
0
0
UV/VIS
1
1
1
DoubleDePol,CommonBeamDepol,RBeamAtt,SBeamAtt,60mm sphere, WB InGaAs Detector
0
0
0
0
Program
Program
3350/servo 860,8/2
3350/0,2 860,8/0,2
3350/0,2 860,8/0,2
0
15.00
 
 
 
0
 
860,8
319,2
860,8
Front
100
on
S:100 R:100
0
0
0
0
 
0
 
 
 
0
 
 
0
0
0
0
0
 
 
 
 
0
0


0
0
#HDR
-1
-1
#GR
nm
%R
1.0
0.0
2500,000000
-1,000000
2251
8
90,375200
5,738500
#DATA
2482.000000	8.253978
2481.000000	8.189264
2480.000000	8.173485
2479.000000	8.062181
2478.000000	8.118793
2477.000000	8.097150
2476.000000	8.085530
2475.000000	8.115381
2474.000000	8.125936
2473.000000	8.074762
2472.000000	8.045336
2471.000000	8.102694
2470.000000	8.119859
2469.000000	8.147898
2468.000000	8.079026
2467.000000	8.113782
2466.000000	8.160798
2465.000000	8.191076
2464.000000	8.119646
2463.000000	8.143954
2462.000000	8.222634
2461.000000	8.242890
2460.000000	8.263893
2459.000000	8.267838
2458.000000	8.327221
2457.000000	8.385539
2456.000000	8.418269
2455.000000	8.472002
2454.000000	8.526054
2453.000000	8.568273
2452.000000	8.618701
2451.000000	8.651645
2450.000000	8.727233
2449.000000	8.812630
2448.000000	8.873293
2447.000000	8.944297
2446.000000	9.013702
2445.000000	9.059653
2444.000000	9.126179
2443.000000	9.187588
2442.000000	9.240148
2441.000000	9.329916
2440.000000	9.388873
2439.000000	9.457959
2438.000000	9.497192
2437.000000	9.546874
2436.000000	9.606044
2435.000000	9.663189
2434.000000	9.721719
2433.000000	9.782275
2432.000000	9.827799
2431.000000	9.874496
2430.000000	9.907866
2429.000000	9.951044
2428.000000	10.010107
2427.000000	10.062774
2426.000000	10.068745
2425.000000	10.110110
2424.000000	10.148384
2423.000000	10.173225
2422.000000	10.206275
2421.000000	10.254891
2420.000000	10.275147
2419.000000	10.282504
2418.000000	10.322377
2417.000000	10.345299
2416.000000	10.363316
2415.000000	10.370992
2414.000000	10.385492
2413.000000	10.407028
2412.000000	10.439225
2411.000000	10.461187
2410.000000	10.483256
2409.000000	10.510016
2408.000000	10.521530
2407.000000	10.535070
2406.000000	10.557459
2405.000000	10.566947
2404.000000	10.594560
2403.000000	10.626650
2402.000000	10.648506
2401.000000	10.667590
2400.000000	10.699467
2399.000000	10.716738
2398.000000	10.716632
2397.000000	10.747549
2396.000000	10.781346
2395.000000	10.794886
2394.000000	10.803841
2393.000000	10.820153
2392.000000	10.832307
2391.000000	10.851710
2390.000000	10.864184
2389.000000	10.875485
2388.000000	10.882735
2387.000000	10.873459
2386.000000	10.881562
2385.000000	10.887746
2384.000000	10.883374
2383.000000	10.883374
2382.000000	10.882415
2381.000000	10.881242
2380.000000	10.871967
2379.000000	10.842115
2378.000000	10.812050
2377.000000	10.797977
2376.000000	10.789342
2375.000000	10.755652
2374.000000	10.719510
2373.000000	10.698721
2372.000000	10.667376
2371.000000	10.640403
2370.000000	10.611298
2369.000000	10.569186
2368.000000	10.509909
2367.000000	10.461507
2366.000000	10.429843
2365.000000	10.370886
2364.000000	10.314381
2363.000000	10.258729
2362.000000	10.193162
2361.000000	10.148598
2360.000000	10.096890
2359.000000	10.042518
2358.000000	9.988465
2357.000000	9.926416
2356.000000	9.880679
2355.000000	9.844218
2354.000000	9.816605
2353.000000	9.795922
2352.000000	9.782915
2351.000000	9.766070
2350.000000	9.741016
2349.000000	9.751464
2348.000000	9.779184
2347.000000	9.811168
2346.000000	9.837074
2345.000000	9.854772
2344.000000	9.870125
2343.000000	9.894752
2342.000000	9.920979
2341.000000	9.951897
2340.000000	9.971940
2339.000000	9.992943
2338.000000	10.010640
2337.000000	10.001578
2336.000000	9.992943
2335.000000	9.980362
2334.000000	9.957760
2333.000000	9.926949
2332.000000	9.898910
2331.000000	9.859357
2330.000000	9.821189
2329.000000	9.779290
2328.000000	9.722146
2327.000000	9.653807
2326.000000	9.600500
2325.000000	9.540797
2324.000000	9.479708
2323.000000	9.400388
2322.000000	9.312325
2321.000000	9.220851
2320.000000	9.149634
2319.000000	9.067222
2318.000000	8.970737
2317.000000	8.857941
2316.000000	8.751115
2315.000000	8.676592
2314.000000	8.605055
2313.000000	8.517525
2312.000000	8.406435
2311.000000	8.302487
2310.000000	8.253232
2309.000000	8.211333
2308.000000	8.157280
2307.000000	8.121245
2306.000000	8.092886
2305.000000	8.096191
2304.000000	8.105253
2303.000000	8.121778
2302.000000	8.155574
2301.000000	8.212932
2300.000000	8.264426
2299.000000	8.322743
2298.000000	8.388844
2297.000000	8.447587
2296.000000	8.531065
2295.000000	8.611132
2294.000000	8.675099
2293.000000	8.724888
2292.000000	8.763268
2291.000000	8.807939
2290.000000	8.841736
2289.000000	8.857941
2288.000000	8.879370
2287.000000	8.878410
2286.000000	8.877558
2285.000000	8.851757
2284.000000	8.830115
2283.000000	8.791201
2282.000000	8.764121
2281.000000	8.724994
2280.000000	8.681176
2279.000000	8.637358
2278.000000	8.601856
2277.000000	8.582026
2276.000000	8.547377
2275.000000	8.504519
2274.000000	8.484902
2273.000000	8.462513
2272.000000	8.462513
2271.000000	8.444496
2270.000000	8.460594
2269.000000	8.494817
2268.000000	8.525948
2267.000000	8.592474
2266.000000	8.658041
2265.000000	8.704631
2264.000000	8.821053
2263.000000	8.957304
2262.000000	9.089398
2261.000000	9.246972
2260.000000	9.419471
2259.000000	9.597302
2258.000000	9.811168
2257.000000	10.027699
2256.000000	10.221094
2255.000000	10.441997
2254.000000	10.677185
2253.000000	10.871540
2252.000000	11.090523
2251.000000	11.295327
2250.000000	11.480727
2249.000000	11.676469
2248.000000	11.860802
2247.000000	12.019869
2246.000000	12.189597
2245.000000	12.354527
2244.000000	12.475640
2243.000000	12.626604
2242.000000	12.748995
2241.000000	12.854862
2240.000000	12.951240
2239.000000	13.053375
2238.000000	13.142610
2237.000000	13.209244
2236.000000	13.297732
2235.000000	13.362873
2234.000000	13.419058
2233.000000	13.490275
2232.000000	13.537931
2231.000000	13.574180
2230.000000	13.599660
2229.000000	13.641986
2228.000000	13.635482
2227.000000	13.661069
2226.000000	13.669918
2225.000000	13.663735
2224.000000	13.662349
2223.000000	13.642625
2222.000000	13.642945
2221.000000	13.624395
2220.000000	13.586014
2219.000000	13.580363
2218.000000	13.564158
2217.000000	13.539850
2216.000000	13.512771
2215.000000	13.490702
2214.000000	13.427907
2213.000000	13.412555
2212.000000	13.387820
2211.000000	13.354664
2210.000000	13.321507
2209.000000	13.301677
2208.000000	13.280035
2207.000000	13.253381
2206.000000	13.239948
2205.000000	13.214574
2204.000000	13.183550
2203.000000	13.163613
2202.000000	13.149114
2201.000000	13.135148
2200.000000	13.118836
2199.000000	13.094741
2198.000000	13.097940
2197.000000	13.082694
2196.000000	13.053056
2195.000000	13.039835
2194.000000	13.039516
2193.000000	13.042927
2192.000000	13.025016
2191.000000	13.005506
2190.000000	12.999962
2189.000000	13.012009
2188.000000	12.982584
2187.000000	12.958170
2186.000000	12.955398
2185.000000	12.954652
2184.000000	12.934395
2183.000000	12.899106
2182.000000	12.886206
2181.000000	12.885247
2180.000000	12.864884
2179.000000	12.884394
2178.000000	12.871813
2177.000000	12.832153
2176.000000	12.835139
2175.000000	12.827569
2174.000000	12.839403
2173.000000	12.870747
2172.000000	12.866696
2171.000000	12.862005
2170.000000	12.861365
2169.000000	12.885886
2168.000000	12.880769
2167.000000	12.899106
2166.000000	12.914565
2165.000000	12.921388
2164.000000	12.957637
2163.000000	12.973416
2162.000000	12.993672
2161.000000	13.007105
2160.000000	13.031200
2159.000000	13.078643
2158.000000	13.118089
2157.000000	13.134934
2156.000000	13.160521
2155.000000	13.201248
2154.000000	13.253061
2153.000000	13.298052
2152.000000	13.341230
2151.000000	13.383982
2150.000000	13.421617
2149.000000	13.470659
2148.000000	13.511491
2147.000000	13.539744
2146.000000	13.589639
2145.000000	13.627166
2144.000000	13.665867
2143.000000	13.694653
2142.000000	13.737618
2141.000000	13.775145
2140.000000	13.800946
2139.000000	13.845830
2138.000000	13.888475
2137.000000	13.913742
2136.000000	13.941888
2135.000000	13.963850
2134.000000	13.991250
2133.000000	14.017050
2132.000000	14.023021
2131.000000	14.040185
2130.000000	14.046049
2129.000000	14.055111
2128.000000	14.068651
2127.000000	14.081125
2126.000000	14.084110
2125.000000	14.084536
2124.000000	14.074515
2123.000000	14.075474
2122.000000	14.071529
2121.000000	14.055324
2120.000000	14.050207
2119.000000	14.038373
2118.000000	14.023554
2117.000000	14.005856
2116.000000	13.985066
2115.000000	13.970780
2114.000000	13.958520
2113.000000	13.929521
2112.000000	13.907665
2111.000000	13.887729
2110.000000	13.865447
2109.000000	13.830158
2108.000000	13.803185
2107.000000	13.781862
2106.000000	13.758407
2105.000000	13.737831
2104.000000	13.717894
2103.000000	13.679087
2102.000000	13.653180
2101.000000	13.636868
2100.000000	13.618531
2099.000000	13.609149
2098.000000	13.580363
2097.000000	13.551045
2096.000000	13.524925
2095.000000	13.509786
2094.000000	13.500084
2093.000000	13.486864
2092.000000	13.494966
2091.000000	13.476736
2090.000000	13.459677
2089.000000	13.449336
2088.000000	13.434943
2087.000000	13.425668
2086.000000	13.415007
2085.000000	13.407864
2084.000000	13.393151
2083.000000	13.378865
2082.000000	13.366178
2081.000000	13.338458
2080.000000	13.318735
2079.000000	13.291549
2078.000000	13.269480
2077.000000	13.256793
2076.000000	13.233338
2075.000000	13.188667
2074.000000	13.161161
2073.000000	13.143570
2072.000000	13.101991
2071.000000	13.072459
2070.000000	13.059666
2069.000000	13.029814
2068.000000	12.982691
2067.000000	12.944097
2066.000000	12.915312
2065.000000	12.891004
2064.000000	12.862112
2063.000000	12.832793
2062.000000	12.815415
2061.000000	12.795265
2060.000000	12.765627
2059.000000	12.754326
2058.000000	12.749102
2057.000000	12.746543
2056.000000	12.759230
2055.000000	12.772024
2054.000000	12.783218
2053.000000	12.822665
2052.000000	12.880342
2051.000000	12.928532
2050.000000	12.995804
2049.000000	13.084080
2048.000000	13.165106
2047.000000	13.261910
2046.000000	13.364685
2045.000000	13.476629
2044.000000	13.579830
2043.000000	13.689642
2042.000000	13.821309
2041.000000	13.941888
2040.000000	14.066732
2039.000000	14.173665
2038.000000	14.281877
2037.000000	14.410452
2036.000000	14.528366
2035.000000	14.625171
2034.000000	14.729332
2033.000000	14.827309
2032.000000	14.917077
2031.000000	14.992772
2030.000000	15.081688
2029.000000	15.181158
2028.000000	15.248750
2027.000000	15.307494
2026.000000	15.384575
2025.000000	15.458778
2024.000000	15.512404
2023.000000	15.569229
2022.000000	15.625840
2021.000000	15.666460
2020.000000	15.720619
2019.000000	15.759959
2018.000000	15.796208
2017.000000	15.860815
2016.000000	15.915401
2015.000000	15.944507
2014.000000	15.973185
2013.000000	15.987685
2012.000000	16.008474
2011.000000	16.027345
2010.000000	16.043657
2009.000000	16.047495
2008.000000	16.030330
2007.000000	16.036940
2006.000000	16.035128
2005.000000	16.046429
2004.000000	16.025426
2003.000000	15.993655
2002.000000	15.960392
2001.000000	15.937257
2000.000000	15.910390
1999.000000	15.883844
1998.000000	15.834802
1997.000000	15.801752
1996.000000	15.767209
1995.000000	15.730961
1994.000000	15.662089
1993.000000	15.586713
1992.000000	15.548439
1991.000000	15.504941
1990.000000	15.414427
1989.000000	15.359308
1988.000000	15.289583
1987.000000	15.239048
1986.000000	15.143630
1985.000000	15.089150
1984.000000	15.013349
1983.000000	14.957057
1982.000000	14.881575
1981.000000	14.799483
1980.000000	14.729438
1979.000000	14.656728
1978.000000	14.562589
1977.000000	14.503739
1976.000000	14.431668
1975.000000	14.347870
1974.000000	14.285075
1973.000000	14.221747
1972.000000	14.154474
1971.000000	14.087735
1970.000000	14.015238
1969.000000	13.927709
1968.000000	13.861289
1967.000000	13.806809
1966.000000	13.745720
1965.000000	13.682179
1964.000000	13.623009
1963.000000	13.546780
1962.000000	13.507760
1961.000000	13.414687
1960.000000	13.355730
1959.000000	13.311059
1958.000000	13.241227
1957.000000	13.208710
1956.000000	13.150606
1955.000000	13.076830
1954.000000	13.028321
1953.000000	12.957424
1952.000000	12.897401
1951.000000	12.846013
1950.000000	12.801769
1949.000000	12.733003
1948.000000	12.690251
1947.000000	12.670635
1946.000000	12.622339
1945.000000	12.567753
1944.000000	12.555173
1943.000000	12.524362
1942.000000	12.502932
1941.000000	12.488753
1940.000000	12.487154
1939.000000	12.484382
1938.000000	12.494723
1937.000000	12.482036
1936.000000	12.499521
1935.000000	12.510822
1934.000000	12.541953
1933.000000	12.591741
1932.000000	12.611678
1931.000000	12.666903
1930.000000	12.756565
1929.000000	12.798677
1928.000000	12.904970
1927.000000	12.991007
1926.000000	13.080348
1925.000000	13.200181
1924.000000	13.289950
1923.000000	13.377585
1922.000000	13.504348
1921.000000	13.651581
1920.000000	13.795722
1919.000000	13.956068
1918.000000	14.089973
1917.000000	14.248614
1916.000000	14.427723
1915.000000	14.605661
1914.000000	14.793619
1913.000000	14.979126
1912.000000	15.203653
1911.000000	15.416985
1910.000000	15.612300
1909.000000	15.816784
1908.000000	16.024040
1907.000000	16.254964
1906.000000	16.520217
1905.000000	16.805940
1904.000000	17.109147
1903.000000	17.345828
1902.000000	17.601806
1901.000000	17.882731
1900.000000	18.169733
1899.000000	18.470062
1898.000000	18.805253
1897.000000	19.071679
1896.000000	19.340344
1895.000000	19.597814
1894.000000	19.877673
1893.000000	20.175123
1892.000000	20.457648
1891.000000	20.804993
1890.000000	21.142317
1889.000000	21.438807
1888.000000	21.757154
1887.000000	22.076779
1886.000000	22.450991
1885.000000	22.825842
1884.000000	23.235343
1883.000000	23.693885
1882.000000	24.172578
1881.000000	24.625363
1880.000000	25.106721
1879.000000	25.547352
1878.000000	25.964742
1877.000000	26.440556
1876.000000	26.862104
1875.000000	27.260517
1874.000000	27.640592
1873.000000	28.000411
1872.000000	28.339760
1871.000000	28.618979
1870.000000	28.872825
1869.000000	29.098738
1868.000000	29.316015
1867.000000	29.470071
1866.000000	29.569114
1865.000000	29.659629
1864.000000	29.728927
1863.000000	29.799292
1862.000000	29.875947
1861.000000	29.951429
1860.000000	30.018701
1859.000000	30.089492
1858.000000	30.115932
1857.000000	30.134483
1856.000000	30.147490
1855.000000	30.130219
1854.000000	30.086720
1853.000000	30.076059
1852.000000	30.034267
1851.000000	29.983839
1850.000000	29.939701
1849.000000	29.916459
1848.000000	29.882557
1847.000000	29.832235
1846.000000	29.758352
1845.000000	29.653765
1844.000000	29.605576
1843.000000	29.565383
1842.000000	29.553122
1841.000000	29.551843
1840.000000	29.508665
1839.000000	29.465060
1838.000000	29.407382
1837.000000	29.360259
1836.000000	29.297891
1835.000000	29.242665
1834.000000	29.154603
1833.000000	29.053747
1832.000000	28.990419
1831.000000	28.930716
1830.000000	28.851609
1829.000000	28.772609
1828.000000	28.706935
1827.000000	28.614608
1826.000000	28.537953
1825.000000	28.478144
1824.000000	28.402981
1823.000000	28.354472
1822.000000	28.345091
1821.000000	28.355645
1820.000000	28.334749
1819.000000	28.295089
1818.000000	28.243275
1817.000000	28.217901
1816.000000	28.221419
1815.000000	28.209052
1814.000000	28.193380
1813.000000	28.180907
1812.000000	28.167793
1811.000000	28.146790
1810.000000	28.106597
1809.000000	28.063526
1808.000000	28.032395
1807.000000	27.990709
1806.000000	27.941134
1805.000000	27.884842
1804.000000	27.832175
1803.000000	27.788144
1802.000000	27.740701
1801.000000	27.703707
1800.000000	27.663727
1799.000000	27.594855
1798.000000	27.522358
1797.000000	27.474489
1796.000000	27.430031
1795.000000	27.385787
1794.000000	27.336851
1793.000000	27.277148
1792.000000	27.215419
1791.000000	27.154756
1790.000000	27.107633
1789.000000	27.056566
1788.000000	26.985562
1787.000000	26.909653
1786.000000	26.847711
1785.000000	26.785023
1784.000000	26.690563
1783.000000	26.606126
1782.000000	26.530537
1781.000000	26.449725
1780.000000	26.377441
1779.000000	26.279570
1778.000000	26.180420
1777.000000	26.091185
1776.000000	25.989157
1775.000000	25.878279
1774.000000	25.754501
1773.000000	25.633602
1772.000000	25.501402
1771.000000	25.370268
1770.000000	25.230818
1769.000000	25.092221
1768.000000	24.968657
1767.000000	24.846159
1766.000000	24.743384
1765.000000	24.666302
1764.000000	24.604680
1763.000000	24.552653
1762.000000	24.542631
1761.000000	24.560009
1760.000000	24.593592
1759.000000	24.652336
1758.000000	24.716411
1757.000000	24.771530
1756.000000	24.844453
1755.000000	24.902557
1754.000000	24.926012
1753.000000	24.942217
1752.000000	24.946908
1751.000000	24.925585
1750.000000	24.900105
1749.000000	24.854261
1748.000000	24.794131
1747.000000	24.705429
1746.000000	24.621951
1745.000000	24.494549
1744.000000	24.350088
1743.000000	24.170232
1742.000000	23.980994
1741.000000	23.770647
1740.000000	23.523091
1739.000000	23.281506
1738.000000	23.040241
1737.000000	22.833412
1736.000000	22.649824
1735.000000	22.510694
1734.000000	22.426683
1733.000000	22.367940
1732.000000	22.365807
1731.000000	22.404721
1730.000000	22.465810
1729.000000	22.554512
1728.000000	22.637351
1727.000000	22.741511
1726.000000	22.854628
1725.000000	22.929683
1724.000000	22.974248
1723.000000	23.015400
1722.000000	23.055593
1721.000000	23.087684
1720.000000	23.120414
1719.000000	23.155596
1718.000000	23.189073
1717.000000	23.252401
1716.000000	23.329909
1715.000000	23.390465
1714.000000	23.461576
1713.000000	23.544840
1712.000000	23.627572
1711.000000	23.691753
1710.000000	23.734825
1709.000000	23.743354
1708.000000	23.765529
1707.000000	23.749964
1706.000000	23.720645
1705.000000	23.695165
1704.000000	23.648255
1703.000000	23.583328
1702.000000	23.505927
1701.000000	23.382575
1700.000000	23.257838
1699.000000	23.101224
1698.000000	22.924886
1697.000000	22.808464
1696.000000	22.700999
1695.000000	22.634152
1694.000000	22.608992
1693.000000	22.669654
1692.000000	22.763794
1691.000000	22.894714
1690.000000	23.057512
1689.000000	23.175000
1688.000000	23.251335
1687.000000	23.311998
1686.000000	23.366157
1685.000000	23.394196
1684.000000	23.428312
1683.000000	23.558060
1682.000000	23.775658
1681.000000	24.125028
1680.000000	24.582398
1679.000000	25.107574
1678.000000	25.666439
1677.000000	26.201530
1676.000000	26.699519
1675.000000	27.181943
1674.000000	27.563724
1673.000000	27.939108
1672.000000	28.220033
1671.000000	28.463111
1670.000000	28.702244
1669.000000	28.902463
1668.000000	29.089889
1667.000000	29.222409
1666.000000	29.371667
1665.000000	29.502055
1664.000000	29.585639
1663.000000	29.694065
1662.000000	29.781914
1661.000000	29.858142
1660.000000	29.916140
1659.000000	29.986717
1658.000000	30.030429
1657.000000	30.039597
1656.000000	30.098235
1655.000000	30.086294
1654.000000	30.121370
1653.000000	30.105164
1652.000000	30.106870
1651.000000	30.094397
1650.000000	30.062732
1649.000000	30.030109
1648.000000	30.034907
1647.000000	29.977016
1646.000000	29.941514
1645.000000	29.908144
1644.000000	29.871789
1643.000000	29.821894
1642.000000	29.750676
1641.000000	29.705259
1640.000000	29.651313
1639.000000	29.602378
1638.000000	29.540329
1637.000000	29.487769
1636.000000	29.411007
1635.000000	29.355782
1634.000000	29.262709
1633.000000	29.193517
1632.000000	29.117822
1631.000000	29.049802
1630.000000	28.980930
1629.000000	28.889563
1628.000000	28.810669
1627.000000	28.736787
1626.000000	28.643500
1625.000000	28.587315
1624.000000	28.507142
1623.000000	28.393386
1622.000000	28.313107
1621.000000	28.258947
1620.000000	28.172058
1619.000000	28.074187
1618.000000	27.998812
1617.000000	27.929620
1616.000000	27.839212
1615.000000	27.769807
1614.000000	27.702214
1613.000000	27.628758
1612.000000	27.559353
1611.000000	27.489415
1610.000000	27.401566
1609.000000	27.333227
1608.000000	27.268193
1607.000000	27.206784
1606.000000	27.118295
1605.000000	27.055073
1604.000000	26.976819
1603.000000	26.897073
1602.000000	26.831399
1601.000000	26.750373
1600.000000	26.673612
