PE UV       SUBTECH     SPECTRUM    ASCII       PEDS        4.00        
   -1
CICIMAUCR0213-2.ASC
24/06/12
16:21:19.00
24/06/12
16:21:19.00
Vinicio Soto Monge
C. resplendens. Sex M. Dorsal.
250,000000
1
Lambda 1050
1050L1511233
PerkinElmer UV WinLab 6.3.2.0749 / 2.02.05 Lambda 900 UV/VIS/NIR, Aug  7 2015 09:38:08

0
0
3350/servo 860,8/2
0
0
UV/VIS
1
1
1
DoubleDePol,CommonBeamDepol,RBeamAtt,SBeamAtt,60mm sphere, WB InGaAs Detector
0
0
0
0
Program
Program
3350/servo 860,8/2
3350/0,2 860,8/0,2
3350/0,2 860,8/0,2
0
15.00
 
 
 
0
 
860,8
319,2
860,8
Front
100
on
S:100 R:100
0
0
0
0
 
0
 
 
 
0
 
 
0
0
0
0
0
 
 
 
 
0
0


0
0
#HDR
-1
-1
#GR
nm
%R
1.0
0.0
2500,000000
-1,000000
2251
8
92,295300
4,944400
#DATA
2482.000000	8.671904
2481.000000	8.539209
2480.000000	8.573031
2479.000000	8.646382
2478.000000	8.571890
2477.000000	8.742039
2476.000000	8.728448
2475.000000	8.732390
2474.000000	8.786236
2473.000000	8.698568
2472.000000	8.766109
2471.000000	8.714442
2470.000000	8.662774
2469.000000	8.750339
2468.000000	8.741728
2467.000000	8.799412
2466.000000	8.796507
2465.000000	8.763619
2464.000000	8.841120
2463.000000	8.826491
2462.000000	8.890297
2461.000000	8.824416
2460.000000	8.875461
2459.000000	8.869236
2458.000000	8.907416
2457.000000	9.006496
2456.000000	9.032641
2455.000000	9.074452
2454.000000	9.083271
2453.000000	9.195217
2452.000000	9.285168
2451.000000	9.326149
2450.000000	9.386323
2449.000000	9.490695
2448.000000	9.591229
2447.000000	9.601292
2446.000000	9.697676
2445.000000	9.741458
2444.000000	9.833484
2443.000000	9.866580
2442.000000	9.968773
2441.000000	10.058205
2440.000000	10.109561
2439.000000	10.138093
2438.000000	10.216527
2437.000000	10.324012
2436.000000	10.413548
2435.000000	10.429006
2434.000000	10.502980
2433.000000	10.568653
2432.000000	10.646880
2431.000000	10.668979
2430.000000	10.716600
2429.000000	10.781236
2428.000000	10.825641
2427.000000	10.882184
2426.000000	10.911960
2425.000000	10.988112
2424.000000	11.027641
2423.000000	11.103171
2422.000000	11.124543
2421.000000	11.152555
2420.000000	11.211174
2419.000000	11.275499
2418.000000	11.303200
2417.000000	11.317828
2416.000000	11.366694
2415.000000	11.378729
2414.000000	11.434754
2413.000000	11.477603
2412.000000	11.526987
2411.000000	11.547737
2410.000000	11.574816
2409.000000	11.628558
2408.000000	11.655948
2407.000000	11.666427
2406.000000	11.688007
2405.000000	11.714048
2404.000000	11.735628
2403.000000	11.765508
2402.000000	11.812714
2401.000000	11.837095
2400.000000	11.870087
2399.000000	11.889385
2398.000000	11.921962
2397.000000	11.932544
2396.000000	11.972384
2395.000000	11.992408
2394.000000	12.039925
2393.000000	12.090244
2392.000000	12.107362
2391.000000	12.102382
2390.000000	12.124481
2389.000000	12.161935
2388.000000	12.190569
2387.000000	12.237983
2386.000000	12.242444
2385.000000	12.245453
2384.000000	12.265995
2383.000000	12.269834
2382.000000	12.286538
2381.000000	12.287783
2380.000000	12.265062
2379.000000	12.275229
2378.000000	12.288198
2377.000000	12.270353
2376.000000	12.251470
2375.000000	12.262157
2374.000000	12.273050
2373.000000	12.266618
2372.000000	12.251885
2371.000000	12.240577
2370.000000	12.235389
2369.000000	12.222628
2368.000000	12.223354
2367.000000	12.201463
2366.000000	12.169716
2365.000000	12.151248
2364.000000	12.131225
2363.000000	12.095016
2362.000000	12.049989
2361.000000	12.002679
2360.000000	11.959934
2359.000000	11.909097
2358.000000	11.861891
2357.000000	11.828069
2356.000000	11.787606
2355.000000	11.747351
2354.000000	11.725564
2353.000000	11.723593
2352.000000	11.720999
2351.000000	11.704814
2350.000000	11.692779
2349.000000	11.705540
2348.000000	11.713010
2347.000000	11.736769
2346.000000	11.790096
2345.000000	11.840000
2344.000000	11.865937
2343.000000	11.889696
2342.000000	11.925282
2341.000000	11.967923
2340.000000	11.999774
2339.000000	12.037850
2338.000000	12.086924
2337.000000	12.081425
2336.000000	12.094809
2335.000000	12.111616
2334.000000	12.112757
2333.000000	12.127075
2332.000000	12.112239
2331.000000	12.090451
2330.000000	12.072502
2329.000000	12.030795
2328.000000	12.027164
2327.000000	12.013573
2326.000000	11.953502
2325.000000	11.915633
2324.000000	11.854836
2323.000000	11.802546
2322.000000	11.733864
2321.000000	11.666427
2320.000000	11.600338
2319.000000	11.513604
2318.000000	11.412552
2317.000000	11.322082
2316.000000	11.246449
2315.000000	11.158469
2314.000000	11.066236
2313.000000	10.972965
2312.000000	10.878968
2311.000000	10.791818
2310.000000	10.694501
2309.000000	10.640966
2308.000000	10.587328
2307.000000	10.524871
2306.000000	10.480051
2305.000000	10.474449
2304.000000	10.455359
2303.000000	10.486691
2302.000000	10.517090
2301.000000	10.559212
2300.000000	10.606418
2299.000000	10.649266
2298.000000	10.714629
2297.000000	10.788498
2296.000000	10.878864
2295.000000	10.956988
2294.000000	11.025462
2293.000000	11.093418
2292.000000	11.149235
2291.000000	11.223209
2290.000000	11.282242
2289.000000	11.315546
2288.000000	11.337748
2287.000000	11.377899
2286.000000	11.381219
2285.000000	11.373957
2284.000000	11.347916
2283.000000	11.318347
2282.000000	11.298116
2281.000000	11.281516
2280.000000	11.243025
2279.000000	11.179219
2278.000000	11.145708
2277.000000	11.110641
2276.000000	11.063331
2275.000000	11.024010
2274.000000	10.972135
2273.000000	10.918808
2272.000000	10.904905
2271.000000	10.874403
2270.000000	10.894634
2269.000000	10.905943
2268.000000	10.929909
2267.000000	10.980124
2266.000000	11.050362
2265.000000	11.113546
2264.000000	11.206505
2263.000000	11.325298
2262.000000	11.444610
2261.000000	11.602621
2260.000000	11.777439
2259.000000	11.967612
2258.000000	12.176148
2257.000000	12.365595
2256.000000	12.565313
2255.000000	12.781008
2254.000000	12.994317
2253.000000	13.208145
2252.000000	13.419794
2251.000000	13.625010
2250.000000	13.822342
2249.000000	13.987407
2248.000000	14.179967
2247.000000	14.327913
2246.000000	14.494743
2245.000000	14.658667
2244.000000	14.793853
2243.000000	14.906421
2242.000000	15.024695
2241.000000	15.097009
2240.000000	15.214246
2239.000000	15.282409
2238.000000	15.387507
2237.000000	15.440420
2236.000000	15.517506
2235.000000	15.583075
2234.000000	15.624679
2233.000000	15.663689
2232.000000	15.718987
2231.000000	15.759346
2230.000000	15.786009
2229.000000	15.806655
2228.000000	15.797525
2227.000000	15.793687
2226.000000	15.817549
2225.000000	15.820765
2224.000000	15.809664
2223.000000	15.803335
2222.000000	15.787669
2221.000000	15.765052
2220.000000	15.731333
2219.000000	15.706641
2218.000000	15.665867
2217.000000	15.641590
2216.000000	15.599364
2215.000000	15.591479
2214.000000	15.558590
2213.000000	15.485654
2212.000000	15.482231
2211.000000	15.463660
2210.000000	15.429007
2209.000000	15.407531
2208.000000	15.361570
2207.000000	15.351195
2206.000000	15.319033
2205.000000	15.297557
2204.000000	15.292680
2203.000000	15.261452
2202.000000	15.248898
2201.000000	15.220263
2200.000000	15.206879
2199.000000	15.193911
2198.000000	15.173368
2197.000000	15.152826
2196.000000	15.153760
2195.000000	15.139338
2194.000000	15.118796
2193.000000	15.094104
2192.000000	15.084766
2191.000000	15.088294
2190.000000	15.054990
2189.000000	15.050633
2188.000000	15.030194
2187.000000	15.010585
2186.000000	15.008718
2185.000000	14.996372
2184.000000	14.969916
2183.000000	14.950411
2182.000000	14.941696
2181.000000	14.934226
2180.000000	14.923954
2179.000000	14.915966
2178.000000	14.891792
2177.000000	14.886397
2176.000000	14.852575
2175.000000	14.847076
2174.000000	14.848529
2173.000000	14.852990
2172.000000	14.853820
2171.000000	14.863261
2170.000000	14.850292
2169.000000	14.852264
2168.000000	14.868552
2167.000000	14.874881
2166.000000	14.884115
2165.000000	14.901960
2164.000000	14.918352
2163.000000	14.926963
2162.000000	14.985789
2161.000000	14.993052
2160.000000	15.021790
2159.000000	15.045341
2158.000000	15.084351
2157.000000	15.111845
2156.000000	15.151062
2155.000000	15.189761
2154.000000	15.233128
2153.000000	15.263008
2152.000000	15.308139
2151.000000	15.344866
2150.000000	15.396741
2149.000000	15.453285
2148.000000	15.481608
2147.000000	15.523004
2146.000000	15.546763
2145.000000	15.598845
2144.000000	15.653210
2143.000000	15.687551
2142.000000	15.731541
2141.000000	15.777191
2140.000000	15.817964
2139.000000	15.842034
2138.000000	15.869320
2137.000000	15.900964
2136.000000	15.933022
2135.000000	15.965703
2134.000000	16.009693
2133.000000	16.012183
2132.000000	16.021624
2131.000000	16.057418
2130.000000	16.072358
2129.000000	16.082422
2128.000000	16.089684
2127.000000	16.099125
2126.000000	16.111990
2125.000000	16.105558
2124.000000	16.102549
2123.000000	16.098607
2122.000000	16.103068
2121.000000	16.089892
2120.000000	16.079413
2119.000000	16.056796
2118.000000	16.040818
2117.000000	16.033867
2116.000000	16.024011
2115.000000	15.999422
2114.000000	15.963525
2113.000000	15.952112
2112.000000	15.923374
2111.000000	15.903246
2110.000000	15.880110
2109.000000	15.847533
2108.000000	15.818172
2107.000000	15.785698
2106.000000	15.763496
2105.000000	15.737662
2104.000000	15.708508
2103.000000	15.674686
2102.000000	15.643769
2101.000000	15.605070
2100.000000	15.581104
2099.000000	15.561184
2098.000000	15.528814
2097.000000	15.496237
2096.000000	15.475902
2095.000000	15.452766
2094.000000	15.422575
2093.000000	15.401099
2092.000000	15.388441
2091.000000	15.364890
2090.000000	15.336463
2089.000000	15.308035
2088.000000	15.294444
2087.000000	15.276703
2086.000000	15.253048
2085.000000	15.229082
2084.000000	15.197646
2083.000000	15.160918
2082.000000	15.131661
2081.000000	15.113609
2080.000000	15.071590
2079.000000	15.025525
2078.000000	14.998135
2077.000000	14.956636
2076.000000	14.912646
2075.000000	14.875296
2074.000000	14.825807
2073.000000	14.774140
2072.000000	14.726519
2071.000000	14.676927
2070.000000	14.631485
2069.000000	14.569546
2068.000000	14.507400
2067.000000	14.462165
2066.000000	14.415063
2065.000000	14.356860
2064.000000	14.303636
2063.000000	14.247611
2062.000000	14.210780
2061.000000	14.173327
2060.000000	14.125913
2059.000000	14.093958
2058.000000	14.057231
2057.000000	14.020296
2056.000000	13.997264
2055.000000	13.979004
2054.000000	13.972675
2053.000000	13.965205
2052.000000	13.975891
2051.000000	14.000791
2050.000000	14.006394
2049.000000	14.035132
2048.000000	14.072378
2047.000000	14.115331
2046.000000	14.157660
2045.000000	14.224164
2044.000000	14.284027
2043.000000	14.341608
2042.000000	14.394106
2041.000000	14.449300
2040.000000	14.517879
2039.000000	14.564359
2038.000000	14.598181
2037.000000	14.664269
2036.000000	14.720190
2035.000000	14.750900
2034.000000	14.797899
2033.000000	14.839295
2032.000000	14.863572
2031.000000	14.876852
2030.000000	14.917729
2029.000000	14.928208
2028.000000	14.945223
2027.000000	14.960993
2026.000000	14.977697
2025.000000	14.991599
2024.000000	15.012868
2023.000000	15.008718
2022.000000	14.997098
2021.000000	15.020442
2020.000000	15.001040
2019.000000	15.004464
2018.000000	14.984959
2017.000000	14.963379
2016.000000	14.948854
2015.000000	14.928623
2014.000000	14.907666
2013.000000	14.903931
2012.000000	14.875815
2011.000000	14.854442
2010.000000	14.804435
2009.000000	14.763039
2008.000000	14.754531
2007.000000	14.699233
2006.000000	14.649329
2005.000000	14.623288
2004.000000	14.572762
2003.000000	14.517568
2002.000000	14.451272
2001.000000	14.402509
2000.000000	14.341816
1999.000000	14.275001
1998.000000	14.209535
1997.000000	14.137741
1996.000000	14.067813
1995.000000	13.991246
1994.000000	13.927648
1993.000000	13.857098
1992.000000	13.777522
1991.000000	13.698569
1990.000000	13.631339
1989.000000	13.564732
1988.000000	13.481836
1987.000000	13.377360
1986.000000	13.292701
1985.000000	13.217793
1984.000000	13.131163
1983.000000	13.053662
1982.000000	12.947733
1981.000000	12.864838
1980.000000	12.789827
1979.000000	12.693028
1978.000000	12.618847
1977.000000	12.535122
1976.000000	12.451707
1975.000000	12.348787
1974.000000	12.281454
1973.000000	12.198662
1972.000000	12.120227
1971.000000	12.056214
1970.000000	11.961594
1969.000000	11.879217
1968.000000	11.798500
1967.000000	11.722140
1966.000000	11.644121
1965.000000	11.562262
1964.000000	11.483724
1963.000000	11.414834
1962.000000	11.355801
1961.000000	11.264812
1960.000000	11.215013
1959.000000	11.122572
1958.000000	11.050777
1957.000000	10.997346
1956.000000	10.909367
1955.000000	10.867037
1954.000000	10.788706
1953.000000	10.725419
1952.000000	10.688276
1951.000000	10.605899
1950.000000	10.532444
1949.000000	10.516571
1948.000000	10.457226
1947.000000	10.400164
1946.000000	10.339885
1945.000000	10.295169
1944.000000	10.275353
1943.000000	10.252321
1942.000000	10.220573
1941.000000	10.188100
1940.000000	10.160710
1939.000000	10.151165
1938.000000	10.145978
1937.000000	10.134773
1936.000000	10.138300
1935.000000	10.147637
1934.000000	10.118899
1933.000000	10.155004
1932.000000	10.181875
1931.000000	10.195777
1930.000000	10.263214
1929.000000	10.312495
1928.000000	10.377443
1927.000000	10.439900
1926.000000	10.490426
1925.000000	10.573633
1924.000000	10.659330
1923.000000	10.734445
1922.000000	10.831554
1921.000000	10.930013
1920.000000	11.089579
1919.000000	11.251636
1918.000000	11.368562
1917.000000	11.493061
1916.000000	11.612581
1915.000000	11.735732
1914.000000	11.902664
1913.000000	12.084952
1912.000000	12.286434
1911.000000	12.485426
1910.000000	12.668855
1909.000000	12.853010
1908.000000	13.036647
1907.000000	13.243316
1906.000000	13.455069
1905.000000	13.718800
1904.000000	14.017080
1903.000000	14.264730
1902.000000	14.515908
1901.000000	14.821865
1900.000000	15.100744
1899.000000	15.413652
1898.000000	15.767438
1897.000000	16.088854
1896.000000	16.428115
1895.000000	16.722971
1894.000000	17.019280
1893.000000	17.352523
1892.000000	17.727785
1891.000000	18.183453
1890.000000	18.622729
1889.000000	19.058062
1888.000000	19.472749
1887.000000	19.899263
1886.000000	20.338227
1885.000000	20.804063
1884.000000	21.279962
1883.000000	21.805246
1882.000000	22.327313
1881.000000	22.813069
1880.000000	23.289279
1879.000000	23.731874
1878.000000	24.176130
1877.000000	24.630864
1876.000000	25.056652
1875.000000	25.468641
1874.000000	25.898994
1873.000000	26.299571
1872.000000	26.719031
1871.000000	27.080079
1870.000000	27.439986
1869.000000	27.761921
1868.000000	28.076801
1867.000000	28.330883
1866.000000	28.517114
1865.000000	28.678341
1864.000000	28.812696
1863.000000	28.931178
1862.000000	29.073937
1861.000000	29.243775
1860.000000	29.406040
1859.000000	29.539669
1858.000000	29.676307
1857.000000	29.807135
1856.000000	29.883910
1855.000000	29.937237
1854.000000	30.009862
1853.000000	30.079374
1852.000000	30.120459
1851.000000	30.134465
1850.000000	30.135814
1849.000000	30.160506
1848.000000	30.208750
1847.000000	30.255333
1846.000000	30.282723
1845.000000	30.267057
1844.000000	30.208231
1843.000000	30.151065
1842.000000	30.139549
1841.000000	30.181256
1840.000000	30.220058
1839.000000	30.223482
1838.000000	30.212070
1837.000000	30.185302
1836.000000	30.171089
1835.000000	30.135399
1834.000000	30.098879
1833.000000	30.020756
1832.000000	29.946782
1831.000000	29.891484
1830.000000	29.861915
1829.000000	29.833177
1828.000000	29.784414
1827.000000	29.731606
1826.000000	29.674855
1825.000000	29.628375
1824.000000	29.569964
1823.000000	29.513628
1822.000000	29.490596
1821.000000	29.489766
1820.000000	29.492878
1819.000000	29.476797
1818.000000	29.415481
1817.000000	29.370142
1816.000000	29.344724
1815.000000	29.326568
1814.000000	29.309241
1813.000000	29.276145
1812.000000	29.260998
1811.000000	29.232674
1810.000000	29.202276
1809.000000	29.173433
1808.000000	29.135668
1807.000000	29.092509
1806.000000	29.052773
1805.000000	29.007538
1804.000000	28.957116
1803.000000	28.910739
1802.000000	28.886151
1801.000000	28.864363
1800.000000	28.815186
1799.000000	28.749201
1798.000000	28.690790
1797.000000	28.633209
1796.000000	28.590672
1795.000000	28.565565
1794.000000	28.522924
1793.000000	28.474784
1792.000000	28.433180
1791.000000	28.393237
1790.000000	28.353397
1789.000000	28.308473
1788.000000	28.259607
1787.000000	28.224333
1786.000000	28.193726
1785.000000	28.158244
1784.000000	28.103776
1783.000000	28.054910
1782.000000	28.012372
1781.000000	27.957696
1780.000000	27.912047
1779.000000	27.875630
1778.000000	27.818464
1777.000000	27.752895
1776.000000	27.715441
1775.000000	27.663463
1774.000000	27.605363
1773.000000	27.537407
1772.000000	27.457105
1771.000000	27.382094
1770.000000	27.312997
1769.000000	27.238608
1768.000000	27.176255
1767.000000	27.107676
1766.000000	27.047294
1765.000000	26.996664
1764.000000	26.959522
1763.000000	26.937631
1762.000000	26.918645
1761.000000	26.931095
1760.000000	26.960456
1759.000000	26.993033
1758.000000	27.035882
1757.000000	27.101763
1756.000000	27.166917
1755.000000	27.219311
1754.000000	27.277307
1753.000000	27.322334
1752.000000	27.343603
1751.000000	27.369436
1750.000000	27.395374
1749.000000	27.406579
1748.000000	27.388111
1747.000000	27.357402
1746.000000	27.330738
1745.000000	27.286644
1744.000000	27.231346
1743.000000	27.144196
1742.000000	27.048747
1741.000000	26.952260
1740.000000	26.848303
1739.000000	26.715296
1738.000000	26.566934
1737.000000	26.430503
1736.000000	26.295318
1735.000000	26.191983
1734.000000	26.123612
1733.000000	26.061674
1732.000000	26.042273
1731.000000	26.035010
1730.000000	26.062919
1729.000000	26.114275
1728.000000	26.189701
1727.000000	26.245829
1726.000000	26.320529
1725.000000	26.387966
1724.000000	26.436313
1723.000000	26.508938
1722.000000	26.572951
1721.000000	26.613517
1720.000000	26.670787
1719.000000	26.722973
1718.000000	26.796532
1717.000000	26.868949
1716.000000	26.929435
1715.000000	27.002786
1714.000000	27.084644
1713.000000	27.177085
1712.000000	27.249087
1711.000000	27.330323
1710.000000	27.372238
1709.000000	27.414879
1708.000000	27.463745
1707.000000	27.445900
1706.000000	27.424839
1705.000000	27.415813
1704.000000	27.375869
1703.000000	27.338727
1702.000000	27.281042
1701.000000	27.217755
1700.000000	27.125003
1699.000000	27.008907
1698.000000	26.903394
1697.000000	26.801304
1696.000000	26.696828
1695.000000	26.605321
1694.000000	26.590485
1693.000000	26.585090
1692.000000	26.618601
1691.000000	26.665911
1690.000000	26.763228
1689.000000	26.846331
1688.000000	26.932236
1687.000000	26.988572
1686.000000	27.042210
1685.000000	27.074373
1684.000000	27.160796
1683.000000	27.244211
1682.000000	27.348064
1681.000000	27.550583
1680.000000	27.786302
1679.000000	28.075971
1678.000000	28.409007
1677.000000	28.772960
1676.000000	29.090226
1675.000000	29.401890
1674.000000	29.702037
1673.000000	29.945537
1672.000000	30.169429
1671.000000	30.355763
1670.000000	30.537740
1669.000000	30.676971
1668.000000	30.810497
1667.000000	30.915595
1666.000000	31.018722
1665.000000	31.084707
1664.000000	31.172064
1663.000000	31.238153
1662.000000	31.295526
1661.000000	31.355805
1660.000000	31.377903
1659.000000	31.438908
1658.000000	31.476050
1657.000000	31.494206
1656.000000	31.504478
1655.000000	31.522945
1654.000000	31.509561
1653.000000	31.515060
1652.000000	31.532179
1651.000000	31.497941
1650.000000	31.493895
1649.000000	31.471174
1648.000000	31.438182
1647.000000	31.397927
1646.000000	31.379252
1645.000000	31.343458
1644.000000	31.296356
1643.000000	31.252263
1642.000000	31.200388
1641.000000	31.166047
1640.000000	31.146127
1639.000000	31.095290
1638.000000	31.053790
1637.000000	30.994652
1636.000000	30.935100
1635.000000	30.879283
1634.000000	30.834878
1633.000000	30.783315
1632.000000	30.730091
1631.000000	30.670850
1630.000000	30.603102
1629.000000	30.546766
1628.000000	30.479121
1627.000000	30.426935
1626.000000	30.359809
1625.000000	30.316338
1624.000000	30.235413
1623.000000	30.180841
1622.000000	30.099294
1621.000000	30.086118
1620.000000	29.997101
1619.000000	29.933917
1618.000000	29.897294
1617.000000	29.845523
1616.000000	29.784310
1615.000000	29.723721
1614.000000	29.672883
1613.000000	29.608040
1612.000000	29.564984
1611.000000	29.516429
1610.000000	29.467563
1609.000000	29.424403
1608.000000	29.366719
1607.000000	29.303328
1606.000000	29.257989
1605.000000	29.199993
