PE UV       SUBTECH     SPECTRUM    ASCII       PEDS        4.00        
   -1
CICIMAUCR0201-1.Sample.ASC
24/05/31
11:24:50.00
24/05/31
11:24:50.00
Vinicio Soto Monge
C. cupreomarginata. Sex F. Dorsal
250,000000
1
Lambda 1050
1050L1511233
PerkinElmer UV WinLab 6.3.2.0749 / 2.02.05 Lambda 900 UV/VIS/NIR, Aug  7 2015 09:38:08

0
0
3350/servo 860,8/2
0
0
UV/VIS
1
1
1
DoubleDePol,CommonBeamDepol,RBeamAtt,SBeamAtt,60mm sphere, WB InGaAs Detector
0
0
0
0
Program
Program
3350/servo 860,8/2
3350/0,2 860,8/0,2
3350/0,2 860,8/0,2
0
15.00
 
 
 
0
 
860,8
319,2
860,8
Front
100
on
S:100 R:100
0
0
0
0
 
0
 
 
 
0
 
 
0
0
0
0
0
 
 
 
 
0
0


0
0
#HDR
-1
-1
#GR
nm
%R
1.0
0.0
2500,000000
-1,000000
2251
8
67,473000
5,702500
#DATA
2482.000000	8.843504
2481.000000	8.884478
2480.000000	8.887026
2479.000000	8.889998
2478.000000	8.918341
2477.000000	8.903161
2476.000000	8.840956
2475.000000	8.857303
2474.000000	8.834693
2473.000000	8.869405
2472.000000	8.917385
2471.000000	8.934794
2470.000000	8.906345
2469.000000	8.922374
2468.000000	8.910061
2467.000000	8.919508
2466.000000	9.015257
2465.000000	8.966003
2464.000000	9.020246
2463.000000	9.025235
2462.000000	9.067802
2461.000000	9.105486
2460.000000	9.126504
2459.000000	9.186586
2458.000000	9.251445
2457.000000	9.293693
2456.000000	9.348892
2455.000000	9.431054
2454.000000	9.533915
2453.000000	9.565229
2452.000000	9.647179
2451.000000	9.732100
2450.000000	9.758426
2449.000000	9.846213
2448.000000	9.928905
2447.000000	10.022531
2446.000000	10.123057
2445.000000	10.206068
2444.000000	10.264982
2443.000000	10.335148
2442.000000	10.425271
2441.000000	10.500533
2440.000000	10.572397
2439.000000	10.657850
2438.000000	10.727167
2437.000000	10.792875
2436.000000	10.865058
2435.000000	10.939576
2434.000000	11.017492
2433.000000	11.073646
2432.000000	11.127996
2431.000000	11.183832
2430.000000	11.237226
2429.000000	11.297520
2428.000000	11.341679
2427.000000	11.386157
2426.000000	11.456429
2425.000000	11.507913
2424.000000	11.535937
2423.000000	11.585298
2422.000000	11.634340
2421.000000	11.656950
2420.000000	11.698243
2419.000000	11.746224
2418.000000	11.772974
2417.000000	11.800679
2416.000000	11.844414
2415.000000	11.886450
2414.000000	11.934325
2413.000000	11.943878
2412.000000	11.982730
2411.000000	12.011815
2410.000000	12.053002
2409.000000	12.078160
2408.000000	12.104167
2407.000000	12.151936
2406.000000	12.177731
2405.000000	12.204799
2404.000000	12.257026
2403.000000	12.293224
2402.000000	12.330058
2401.000000	12.386743
2400.000000	12.427506
2399.000000	12.449691
2398.000000	12.482811
2397.000000	12.524847
2396.000000	12.567732
2395.000000	12.603718
2394.000000	12.629831
2393.000000	12.659341
2392.000000	12.695327
2391.000000	12.712417
2390.000000	12.713585
2389.000000	12.750101
2388.000000	12.762627
2387.000000	12.774091
2386.000000	12.811987
2385.000000	12.823664
2384.000000	12.824195
2383.000000	12.829290
2382.000000	12.822815
2381.000000	12.815596
2380.000000	12.809864
2379.000000	12.811987
2378.000000	12.801797
2377.000000	12.783963
2376.000000	12.771968
2375.000000	12.742352
2374.000000	12.718680
2373.000000	12.702226
2372.000000	12.668258
2371.000000	12.651380
2370.000000	12.630149
2369.000000	12.589812
2368.000000	12.542786
2367.000000	12.497035
2366.000000	12.449161
2365.000000	12.398102
2364.000000	12.349166
2363.000000	12.283352
2362.000000	12.216688
2361.000000	12.155545
2360.000000	12.091005
2359.000000	12.034956
2358.000000	11.979333
2357.000000	11.924028
2356.000000	11.885601
2355.000000	11.839000
2354.000000	11.794947
2353.000000	11.767348
2352.000000	11.755140
2351.000000	11.760979
2350.000000	11.768303
2349.000000	11.782315
2348.000000	11.799724
2347.000000	11.825519
2346.000000	11.853437
2345.000000	11.898233
2344.000000	11.952370
2343.000000	11.986127
2342.000000	12.031347
2341.000000	12.066908
2340.000000	12.085591
2339.000000	12.123275
2338.000000	12.160852
2337.000000	12.167009
2336.000000	12.172211
2335.000000	12.171892
2334.000000	12.155332
2333.000000	12.143868
2332.000000	12.113403
2331.000000	12.078054
2330.000000	12.034744
2329.000000	11.982942
2328.000000	11.919357
2327.000000	11.870315
2326.000000	11.801210
2325.000000	11.702808
2324.000000	11.602600
2323.000000	11.523623
2322.000000	11.414605
2321.000000	11.306968
2320.000000	11.193704
2319.000000	11.063243
2318.000000	10.931509
2317.000000	10.803702
2316.000000	10.664219
2315.000000	10.531847
2314.000000	10.387163
2313.000000	10.281011
2312.000000	10.165730
2311.000000	10.042382
2310.000000	9.942917
2309.000000	9.887825
2308.000000	9.799931
2307.000000	9.755984
2306.000000	9.750358
2305.000000	9.734435
2304.000000	9.739000
2303.000000	9.765750
2302.000000	9.811926
2301.000000	9.878059
2300.000000	9.948225
2299.000000	10.034102
2298.000000	10.128365
2297.000000	10.237170
2296.000000	10.323259
2295.000000	10.413276
2294.000000	10.516562
2293.000000	10.612098
2292.000000	10.674303
2291.000000	10.721010
2290.000000	10.783852
2289.000000	10.818033
2288.000000	10.827692
2287.000000	10.839263
2286.000000	10.830877
2285.000000	10.818457
2284.000000	10.788522
2283.000000	10.750945
2282.000000	10.716233
2281.000000	10.664325
2280.000000	10.626641
2279.000000	10.570487
2278.000000	10.536093
2277.000000	10.462743
2276.000000	10.425589
2275.000000	10.382916
2274.000000	10.356591
2273.000000	10.331327
2272.000000	10.322728
2271.000000	10.336847
2270.000000	10.368692
2269.000000	10.400962
2268.000000	10.460938
2267.000000	10.544904
2266.000000	10.627809
2265.000000	10.746380
2264.000000	10.908898
2263.000000	11.063562
2262.000000	11.266099
2261.000000	11.469486
2260.000000	11.721915
2259.000000	11.941012
2258.000000	12.205330
2257.000000	12.485146
2256.000000	12.764431
2255.000000	13.030978
2254.000000	13.293492
2253.000000	13.580314
2252.000000	13.829664
2251.000000	14.101731
2250.000000	14.333461
2249.000000	14.546189
2248.000000	14.783226
2247.000000	14.989160
2246.000000	15.182038
2245.000000	15.352199
2244.000000	15.499750
2243.000000	15.652290
2242.000000	15.806104
2241.000000	15.913317
2240.000000	16.044627
2239.000000	16.141862
2238.000000	16.230286
2237.000000	16.323806
2236.000000	16.407985
2235.000000	16.475391
2234.000000	16.519019
2233.000000	16.587593
2232.000000	16.646401
2231.000000	16.667526
2230.000000	16.718160
2229.000000	16.731535
2228.000000	16.757118
2227.000000	16.750006
2226.000000	16.772297
2225.000000	16.733021
2224.000000	16.729094
2223.000000	16.715506
2222.000000	16.714020
2221.000000	16.675062
2220.000000	16.642049
2219.000000	16.624534
2218.000000	16.570397
2217.000000	16.544071
2216.000000	16.501080
2215.000000	16.454691
2214.000000	16.434841
2213.000000	16.382296
2212.000000	16.353635
2211.000000	16.324762
2210.000000	16.303319
2209.000000	16.270518
2208.000000	16.206827
2207.000000	16.193133
2206.000000	16.165852
2205.000000	16.153008
2204.000000	16.133476
2203.000000	16.101949
2202.000000	16.089954
2201.000000	16.088043
2200.000000	16.054605
2199.000000	16.023291
2198.000000	15.995903
2197.000000	15.975735
2196.000000	15.954504
2195.000000	15.940811
2194.000000	15.915228
2193.000000	15.897925
2192.000000	15.894847
2191.000000	15.884444
2190.000000	15.879030
2189.000000	15.872130
2188.000000	15.854509
2187.000000	15.839648
2186.000000	15.812579
2185.000000	15.796657
2184.000000	15.771605
2183.000000	15.754727
2182.000000	15.733709
2181.000000	15.725641
2180.000000	15.714177
2179.000000	15.693265
2178.000000	15.689231
2177.000000	15.680633
2176.000000	15.683074
2175.000000	15.685303
2174.000000	15.676917
2173.000000	15.672671
2172.000000	15.692203
2171.000000	15.720440
2170.000000	15.750905
2169.000000	15.774258
2168.000000	15.777125
2167.000000	15.796763
2166.000000	15.837525
2165.000000	15.840391
2164.000000	15.860984
2163.000000	15.905462
2162.000000	15.952806
2161.000000	15.979874
2160.000000	16.021167
2159.000000	16.042929
2158.000000	16.110123
2157.000000	16.176043
2156.000000	16.215213
2155.000000	16.269350
2154.000000	16.298754
2153.000000	16.353423
2152.000000	16.414141
2151.000000	16.482822
2150.000000	16.526981
2149.000000	16.590884
2148.000000	16.636105
2147.000000	16.678353
2146.000000	16.728669
2145.000000	16.778879
2144.000000	16.829725
2143.000000	16.872186
2142.000000	16.897875
2141.000000	16.951588
2140.000000	16.995322
2139.000000	17.039694
2138.000000	17.071539
2137.000000	17.097865
2136.000000	17.121112
2135.000000	17.136716
2134.000000	17.175674
2133.000000	17.190323
2132.000000	17.206140
2131.000000	17.223867
2130.000000	17.247114
2129.000000	17.260277
2128.000000	17.253483
2127.000000	17.238091
2126.000000	17.226627
2125.000000	17.226202
2124.000000	17.219409
2123.000000	17.224185
2122.000000	17.210598
2121.000000	17.187457
2120.000000	17.156991
2119.000000	17.144890
2118.000000	17.126844
2117.000000	17.098077
2116.000000	17.074193
2115.000000	17.050415
2114.000000	17.006044
2113.000000	16.971757
2112.000000	16.948403
2111.000000	16.899043
2110.000000	16.861465
2109.000000	16.838961
2108.000000	16.803294
2107.000000	16.763593
2106.000000	16.730474
2105.000000	16.707120
2104.000000	16.655849
2103.000000	16.616997
2102.000000	16.596192
2101.000000	16.550228
2100.000000	16.527299
2099.000000	16.502247
2098.000000	16.438132
2097.000000	16.420086
2096.000000	16.402146
2095.000000	16.379536
2094.000000	16.353316
2093.000000	16.316800
2092.000000	16.294190
2091.000000	16.276781
2090.000000	16.251092
2089.000000	16.218504
2088.000000	16.197910
2087.000000	16.184429
2086.000000	16.162031
2085.000000	16.119995
2084.000000	16.083266
2083.000000	16.052801
2082.000000	16.027218
2081.000000	16.005669
2080.000000	15.965438
2079.000000	15.920536
2078.000000	15.880410
2077.000000	15.824574
2076.000000	15.760353
2075.000000	15.717149
2074.000000	15.680314
2073.000000	15.637004
2072.000000	15.577135
2071.000000	15.513019
2070.000000	15.451769
2069.000000	15.394872
2068.000000	15.334153
2067.000000	15.249763
2066.000000	15.190955
2065.000000	15.152740
2064.000000	15.094038
2063.000000	15.023553
2062.000000	14.970796
2061.000000	14.917295
2060.000000	14.860610
2059.000000	14.812523
2058.000000	14.771337
2057.000000	14.749788
2056.000000	14.724948
2055.000000	14.695863
2054.000000	14.685672
2053.000000	14.689494
2052.000000	14.698729
2051.000000	14.737368
2050.000000	14.780678
2049.000000	14.818893
2048.000000	14.884601
2047.000000	14.948292
2046.000000	15.017927
2045.000000	15.110916
2044.000000	15.214626
2043.000000	15.315683
2042.000000	15.406761
2041.000000	15.501661
2040.000000	15.621931
2039.000000	15.724473
2038.000000	15.813428
2037.000000	15.918943
2036.000000	16.008217
2035.000000	16.088362
2034.000000	16.169568
2033.000000	16.227420
2032.000000	16.305123
2031.000000	16.378050
2030.000000	16.451931
2029.000000	16.490677
2028.000000	16.528467
2027.000000	16.564028
2026.000000	16.609779
2025.000000	16.651815
2024.000000	16.682599
2023.000000	16.717098
2022.000000	16.728351
2021.000000	16.762956
2020.000000	16.779728
2019.000000	16.797880
2018.000000	16.808707
2017.000000	16.822401
2016.000000	16.824099
2015.000000	16.833228
2014.000000	16.840978
2013.000000	16.823887
2012.000000	16.809981
2011.000000	16.809981
2010.000000	16.787583
2009.000000	16.760302
2008.000000	16.743106
2007.000000	16.727714
2006.000000	16.694594
2005.000000	16.669861
2004.000000	16.620607
2003.000000	16.578464
2002.000000	16.528998
2001.000000	16.478257
2000.000000	16.433779
1999.000000	16.379324
1998.000000	16.320622
1997.000000	16.271049
1996.000000	16.192496
1995.000000	16.129442
1994.000000	16.049192
1993.000000	15.984545
1992.000000	15.920111
1991.000000	15.841346
1990.000000	15.754727
1989.000000	15.653670
1988.000000	15.583398
1987.000000	15.508030
1986.000000	15.413555
1985.000000	15.311012
1984.000000	15.236494
1983.000000	15.157517
1982.000000	15.066014
1981.000000	14.963790
1980.000000	14.873136
1979.000000	14.793947
1978.000000	14.704673
1977.000000	14.600432
1976.000000	14.507762
1975.000000	14.430589
1974.000000	14.334734
1973.000000	14.271149
1972.000000	14.186971
1971.000000	14.096318
1970.000000	14.027107
1969.000000	13.912887
1968.000000	13.831469
1967.000000	13.769582
1966.000000	13.691455
1965.000000	13.608869
1964.000000	13.506751
1963.000000	13.469810
1962.000000	13.382022
1961.000000	13.296358
1960.000000	13.227041
1959.000000	13.158254
1958.000000	13.071953
1957.000000	13.011128
1956.000000	12.938626
1955.000000	12.862516
1954.000000	12.793411
1953.000000	12.710825
1952.000000	12.642144
1951.000000	12.577923
1950.000000	12.518265
1949.000000	12.483872
1948.000000	12.437165
1947.000000	12.366575
1946.000000	12.374748
1945.000000	12.319549
1944.000000	12.268915
1943.000000	12.255964
1942.000000	12.217431
1941.000000	12.204268
1940.000000	12.187284
1939.000000	12.178580
1938.000000	12.152997
1937.000000	12.155226
1936.000000	12.149706
1935.000000	12.168920
1934.000000	12.190681
1933.000000	12.226666
1932.000000	12.280592
1931.000000	12.339718
1930.000000	12.382922
1929.000000	12.433132
1928.000000	12.526227
1927.000000	12.606159
1926.000000	12.660084
1925.000000	12.786511
1924.000000	12.899881
1923.000000	13.036074
1922.000000	13.137449
1921.000000	13.264512
1920.000000	13.408879
1919.000000	13.539445
1918.000000	13.694002
1917.000000	13.855035
1916.000000	14.041649
1915.000000	14.205972
1914.000000	14.418276
1913.000000	14.611578
1912.000000	14.821653
1911.000000	15.023553
1910.000000	15.275770
1909.000000	15.476290
1908.000000	15.707383
1907.000000	15.974142
1906.000000	16.250031
1905.000000	16.536534
1904.000000	16.812104
1903.000000	17.098714
1902.000000	17.409633
1901.000000	17.706114
1900.000000	18.010133
1899.000000	18.337717
1898.000000	18.691097
1897.000000	19.055940
1896.000000	19.388514
1895.000000	19.720769
1894.000000	20.082428
1893.000000	20.443025
1892.000000	20.844385
1891.000000	21.286826
1890.000000	21.687124
1889.000000	22.108759
1888.000000	22.556613
1887.000000	23.005529
1886.000000	23.463255
1885.000000	23.970661
1884.000000	24.519784
1883.000000	25.073153
1882.000000	25.633316
1881.000000	26.179467
1880.000000	26.720629
1879.000000	27.232492
1878.000000	27.735227
1877.000000	28.240085
1876.000000	28.676156
1875.000000	29.128681
1874.000000	29.565177
1873.000000	29.973649
1872.000000	30.352717
1871.000000	30.711192
1870.000000	31.025401
1869.000000	31.317531
1868.000000	31.580787
1867.000000	31.793303
1866.000000	31.959430
1865.000000	32.111652
1864.000000	32.250923
1863.000000	32.385524
1862.000000	32.521716
1861.000000	32.662367
1860.000000	32.786140
1859.000000	32.893248
1858.000000	32.977532
1857.000000	33.057358
1856.000000	33.109903
1855.000000	33.134424
1854.000000	33.182617
1853.000000	33.186545
1852.000000	33.187925
1851.000000	33.204272
1850.000000	33.215949
1849.000000	33.211597
1848.000000	33.202680
1847.000000	33.202786
1846.000000	33.156716
1845.000000	33.102473
1844.000000	33.065744
1843.000000	33.044832
1842.000000	33.065638
1841.000000	33.062241
1840.000000	33.029865
1839.000000	33.004919
1838.000000	32.964900
1837.000000	32.926367
1836.000000	32.896114
1835.000000	32.848770
1834.000000	32.795057
1833.000000	32.726483
1832.000000	32.666826
1831.000000	32.618951
1830.000000	32.579251
1829.000000	32.520443
1828.000000	32.453036
1827.000000	32.370025
1826.000000	32.311536
1825.000000	32.257611
1824.000000	32.206127
1823.000000	32.173114
1822.000000	32.163985
1821.000000	32.161119
1820.000000	32.131927
1819.000000	32.103054
1818.000000	32.061973
1817.000000	32.028960
1816.000000	32.032357
1815.000000	32.038195
1814.000000	32.004863
1813.000000	31.981404
1812.000000	31.958794
1811.000000	31.941809
1810.000000	31.904868
1809.000000	31.847440
1808.000000	31.815807
1807.000000	31.779822
1806.000000	31.738953
1805.000000	31.699146
1804.000000	31.653076
1803.000000	31.607431
1802.000000	31.563060
1801.000000	31.522722
1800.000000	31.471875
1799.000000	31.399374
1798.000000	31.343750
1797.000000	31.300334
1796.000000	31.261589
1795.000000	31.227939
1794.000000	31.175394
1793.000000	31.113401
1792.000000	31.062979
1791.000000	31.005338
1790.000000	30.960542
1789.000000	30.912349
1788.000000	30.853541
1787.000000	30.803862
1786.000000	30.746859
1785.000000	30.696755
1784.000000	30.628181
1783.000000	30.552283
1782.000000	30.480312
1781.000000	30.401335
1780.000000	30.331593
1779.000000	30.265779
1778.000000	30.175762
1777.000000	30.084684
1776.000000	29.992651
1775.000000	29.890320
1774.000000	29.786079
1773.000000	29.670692
1772.000000	29.553925
1771.000000	29.440449
1770.000000	29.321984
1769.000000	29.188551
1768.000000	29.069449
1767.000000	28.947799
1766.000000	28.843027
1765.000000	28.762352
1764.000000	28.708957
1763.000000	28.678279
1762.000000	28.665966
1761.000000	28.689531
1760.000000	28.734221
1759.000000	28.794091
1758.000000	28.881135
1757.000000	28.950028
1756.000000	29.006394
1755.000000	29.068175
1754.000000	29.138235
1753.000000	29.174857
1752.000000	29.202988
1751.000000	29.223369
1750.000000	29.211586
1749.000000	29.192160
1748.000000	29.164561
1747.000000	29.114882
1746.000000	29.033463
1745.000000	28.930390
1744.000000	28.795789
1743.000000	28.652591
1742.000000	28.494318
1741.000000	28.298150
1740.000000	28.085103
1739.000000	27.849022
1738.000000	27.608163
1737.000000	27.394692
1736.000000	27.187696
1735.000000	27.031229
1734.000000	26.928580
1733.000000	26.860006
1732.000000	26.825506
1731.000000	26.834211
1730.000000	26.898751
1729.000000	27.001294
1728.000000	27.088657
1727.000000	27.190669
1726.000000	27.288647
1725.000000	27.391295
1724.000000	27.466026
1723.000000	27.539483
1722.000000	27.612516
1721.000000	27.673022
1720.000000	27.727053
1719.000000	27.803377
1718.000000	27.896365
1717.000000	27.994874
1716.000000	28.106228
1715.000000	28.223207
1714.000000	28.340929
1713.000000	28.428186
1712.000000	28.543467
1711.000000	28.621170
1710.000000	28.681782
1709.000000	28.731037
1708.000000	28.761609
1707.000000	28.769888
1706.000000	28.767978
1705.000000	28.731461
1704.000000	28.705667
1703.000000	28.657049
1702.000000	28.588581
1701.000000	28.496441
1700.000000	28.401542
1699.000000	28.278512
1698.000000	28.150811
1697.000000	28.044129
1696.000000	27.964303
1695.000000	27.930865
1694.000000	27.942860
1693.000000	28.009523
1692.000000	28.118647
1691.000000	28.246772
1690.000000	28.407805
1689.000000	28.525102
1688.000000	28.642506
1687.000000	28.729975
1686.000000	28.777637
1685.000000	28.855765
1684.000000	28.953425
1683.000000	29.109786
1682.000000	29.339923
1681.000000	29.713790
1680.000000	30.104535
1679.000000	30.594425
1678.000000	31.097690
1677.000000	31.584609
1676.000000	32.028004
1675.000000	32.425967
1674.000000	32.764167
1673.000000	33.065956
1672.000000	33.351929
1671.000000	33.578669
1670.000000	33.796387
1669.000000	33.989265
1668.000000	34.135011
1667.000000	34.260801
1666.000000	34.388820
1665.000000	34.486692
1664.000000	34.584033
1663.000000	34.652288
1662.000000	34.736998
1661.000000	34.817354
1660.000000	34.851854
1659.000000	34.927009
1658.000000	34.950256
1657.000000	34.989214
1656.000000	34.996857
1655.000000	35.023607
1654.000000	35.029127
1653.000000	35.024987
1652.000000	35.039424
1651.000000	34.999617
1650.000000	34.979236
1649.000000	34.962252
1648.000000	34.926903
1647.000000	34.887202
1646.000000	34.863530
1645.000000	34.798141
1644.000000	34.761943
1643.000000	34.704090
1642.000000	34.652395
1641.000000	34.610465
1640.000000	34.579362
1639.000000	34.501022
1638.000000	34.458774
1637.000000	34.376718
1636.000000	34.314089
1635.000000	34.253370
1634.000000	34.183416
1633.000000	34.110702
1632.000000	34.041916
1631.000000	33.960179
1630.000000	33.880884
1629.000000	33.814857
1628.000000	33.731846
1627.000000	33.659451
1626.000000	33.566993
1625.000000	33.464026
1624.000000	33.385367
1623.000000	33.307239
1622.000000	33.246945
1621.000000	33.146526
1620.000000	33.077421
1619.000000	32.992818
1618.000000	32.906835
1617.000000	32.834227
1616.000000	32.764273
1615.000000	32.699733
1614.000000	32.612688
1613.000000	32.536153
1612.000000	32.455053
1611.000000	32.392636
1610.000000	32.307821
1609.000000	32.226721
1608.000000	32.149336
1607.000000	32.069404
1606.000000	31.970683
1605.000000	31.901365
