PE UV       SUBTECH     SPECTRUM    ASCII       PEDS        4.00        
   -1
CICIMAUCR0248-3.Sample.ASC
24/06/24
17:40:12.00
24/06/24
17:40:12.00
Vinicio Soto Monge
C. resplendens. Sex F.Dorsal.  
250,000000
1
Lambda 1050
1050L1511233
PerkinElmer UV WinLab 6.3.2.0749 / 2.02.05 Lambda 900 UV/VIS/NIR, Aug  7 2015 09:38:08

0
0
3350/servo 860,8/2
0
0
UV/VIS
1
1
1
DoubleDePol,CommonBeamDepol,RBeamAtt,SBeamAtt,60mm sphere, WB InGaAs Detector
0
0
0
0
Program
Program
3350/servo 860,8/2
3350/0,2 860,8/0,2
3350/0,2 860,8/0,2
0
15.00
 
 
 
0
 
860,8
319,2
860,8
Front
100
on
S:100 R:100
0
0
0
0
 
0
 
 
 
0
 
 
0
0
0
0
0
 
 
 
 
0
0


0
0
#HDR
-1
-1
#GR
nm
%R
1.0
0.0
2500,000000
-1,000000
2251
8
91,661300
5,768300
#DATA
2500.000000	8.679405
2499.000000	8.607508
2498.000000	8.617572
2497.000000	8.639359
2496.000000	8.591324
2495.000000	8.740200
2494.000000	8.571820
2493.000000	8.473157
2492.000000	8.524304
2491.000000	8.522333
2490.000000	8.410080
2489.000000	8.454379
2488.000000	8.471290
2487.000000	8.538414
2486.000000	8.421077
2485.000000	8.398045
2484.000000	8.490898
2483.000000	8.465065
2482.000000	8.424915
2481.000000	8.367440
2480.000000	8.434252
2479.000000	8.443382
2478.000000	8.434356
2477.000000	8.458944
2476.000000	8.427094
2475.000000	8.387152
2474.000000	8.448466
2473.000000	8.445457
2472.000000	8.519221
2471.000000	8.506148
2470.000000	8.531463
2469.000000	8.512684
2468.000000	8.512270
2467.000000	8.543393
2466.000000	8.609583
2465.000000	8.586863
2464.000000	8.632823
2463.000000	8.626287
2462.000000	8.643405
2461.000000	8.699843
2460.000000	8.731693
2459.000000	8.791347
2458.000000	8.856499
2457.000000	8.890424
2456.000000	8.885030
2455.000000	8.950078
2454.000000	9.012119
2453.000000	9.053306
2452.000000	9.108602
2451.000000	9.185167
2450.000000	9.252706
2449.000000	9.302089
2448.000000	9.364648
2447.000000	9.402308
2446.000000	9.472959
2445.000000	9.556060
2444.000000	9.625777
2443.000000	9.684912
2442.000000	9.757016
2441.000000	9.830468
2440.000000	9.895413
2439.000000	9.945730
2438.000000	10.011713
2437.000000	10.087551
2436.000000	10.145545
2435.000000	10.210283
2434.000000	10.286848
2433.000000	10.333845
2432.000000	10.404911
2431.000000	10.463735
2430.000000	10.515297
2429.000000	10.563435
2428.000000	10.626409
2427.000000	10.684507
2426.000000	10.725072
2425.000000	10.780991
2424.000000	10.833694
2423.000000	10.874362
2422.000000	10.909221
2421.000000	10.952794
2420.000000	10.992114
2419.000000	11.050627
2418.000000	11.101255
2417.000000	11.126984
2416.000000	11.163088
2415.000000	11.203445
2414.000000	11.234362
2413.000000	11.267975
2412.000000	11.311860
2411.000000	11.349831
2410.000000	11.384690
2409.000000	11.408551
2408.000000	11.431272
2407.000000	11.462084
2406.000000	11.504309
2405.000000	11.544459
2404.000000	11.562614
2403.000000	11.592597
2402.000000	11.596124
2401.000000	11.626730
2400.000000	11.665946
2399.000000	11.685865
2398.000000	11.723628
2397.000000	11.777680
2396.000000	11.831524
2395.000000	11.865034
2394.000000	11.906222
2393.000000	11.920746
2392.000000	11.935063
2391.000000	11.965876
2390.000000	11.990256
2389.000000	12.004366
2388.000000	12.035074
2387.000000	12.059351
2386.000000	12.089645
2385.000000	12.108630
2384.000000	12.108734
2383.000000	12.123155
2382.000000	12.130417
2381.000000	12.134048
2380.000000	12.150025
2379.000000	12.161126
2378.000000	12.165691
2377.000000	12.163616
2376.000000	12.175028
2375.000000	12.179593
2374.000000	12.166313
2373.000000	12.159051
2372.000000	12.167558
2371.000000	12.173783
2370.000000	12.161437
2369.000000	12.137887
2368.000000	12.120665
2367.000000	12.123674
2366.000000	12.120146
2365.000000	12.113092
2364.000000	12.102821
2363.000000	12.069414
2362.000000	12.032481
2361.000000	12.019409
2360.000000	11.998867
2359.000000	11.968781
2358.000000	11.937968
2357.000000	11.923236
2356.000000	11.907985
2355.000000	11.887340
2354.000000	11.873542
2353.000000	11.855282
2352.000000	11.841795
2351.000000	11.841173
2350.000000	11.863790
2349.000000	11.876862
2348.000000	11.886406
2347.000000	11.912032
2346.000000	11.937553
2345.000000	11.962141
2344.000000	12.005403
2343.000000	12.058625
2342.000000	12.093069
2341.000000	12.122014
2340.000000	12.161956
2339.000000	12.202210
2338.000000	12.230636
2337.000000	12.268192
2336.000000	12.283443
2335.000000	12.295374
2334.000000	12.325875
2333.000000	12.350255
2332.000000	12.360422
2331.000000	12.354301
2330.000000	12.363742
2329.000000	12.358555
2328.000000	12.348699
2327.000000	12.322659
2326.000000	12.317057
2325.000000	12.293714
2324.000000	12.248792
2323.000000	12.206567
2322.000000	12.185403
2321.000000	12.128031
2320.000000	12.083939
2319.000000	12.021069
2318.000000	11.942014
2317.000000	11.859847
2316.000000	11.789404
2315.000000	11.710556
2314.000000	11.626626
2313.000000	11.555560
2312.000000	11.460009
2311.000000	11.376390
2310.000000	11.309681
2309.000000	11.242869
2308.000000	11.193589
2307.000000	11.156344
2306.000000	11.123457
2305.000000	11.110074
2304.000000	11.097728
2303.000000	11.100114
2302.000000	11.137878
2301.000000	11.172321
2300.000000	11.209670
2299.000000	11.256459
2298.000000	11.371618
2297.000000	11.441439
2296.000000	11.515929
2295.000000	11.589485
2294.000000	11.652251
2293.000000	11.730061
2292.000000	11.809530
2291.000000	11.874268
2290.000000	11.938072
2289.000000	11.989219
2288.000000	12.028227
2287.000000	12.061426
2286.000000	12.090786
2285.000000	12.104584
2284.000000	12.114752
2283.000000	12.101680
2282.000000	12.092965
2281.000000	12.090060
2280.000000	12.067858
2279.000000	12.031340
2278.000000	12.016815
2277.000000	11.972516
2276.000000	11.938487
2275.000000	11.924170
2274.000000	11.896885
2273.000000	11.889830
2272.000000	11.855386
2271.000000	11.861403
2270.000000	11.852896
2269.000000	11.871674
2268.000000	11.915663
2267.000000	11.966291
2266.000000	12.033726
2265.000000	12.116723
2264.000000	12.208746
2263.000000	12.325253
2262.000000	12.454831
2261.000000	12.619684
2260.000000	12.780698
2259.000000	12.956859
2258.000000	13.139971
2257.000000	13.349123
2256.000000	13.581930
2255.000000	13.789215
2254.000000	13.986125
2253.000000	14.216130
2252.000000	14.398205
2251.000000	14.613582
2250.000000	14.810699
2249.000000	14.983229
2248.000000	15.158249
2247.000000	15.364600
2246.000000	15.496565
2245.000000	15.665257
2244.000000	15.767343
2243.000000	15.900968
2242.000000	16.015919
2241.000000	16.117486
2240.000000	16.211999
2239.000000	16.298627
2238.000000	16.373843
2237.000000	16.478834
2236.000000	16.511410
2235.000000	16.573347
2234.000000	16.630615
2233.000000	16.651883
2232.000000	16.695560
2231.000000	16.733531
2230.000000	16.755214
2229.000000	16.738200
2228.000000	16.762372
2227.000000	16.740586
2226.000000	16.764447
2225.000000	16.733427
2224.000000	16.715583
2223.000000	16.703652
2222.000000	16.687675
2221.000000	16.654580
2220.000000	16.592747
2219.000000	16.573762
2218.000000	16.534753
2217.000000	16.517324
2216.000000	16.455284
2215.000000	16.419906
2214.000000	16.355584
2213.000000	16.335561
2212.000000	16.289290
2211.000000	16.247791
2210.000000	16.215111
2209.000000	16.199861
2208.000000	16.168011
2207.000000	16.108564
2206.000000	16.071838
2205.000000	16.049014
2204.000000	16.042789
2203.000000	16.002950
2202.000000	15.983965
2201.000000	15.978778
2200.000000	15.934374
2199.000000	15.940910
2198.000000	15.926075
2197.000000	15.897026
2196.000000	15.877003
2195.000000	15.867873
2194.000000	15.852000
2193.000000	15.836230
2192.000000	15.822536
2191.000000	15.796496
2190.000000	15.791931
2189.000000	15.783839
2188.000000	15.766098
2187.000000	15.752611
2186.000000	15.722628
2185.000000	15.699493
2184.000000	15.696277
2183.000000	15.678640
2182.000000	15.661833
2181.000000	15.657372
2180.000000	15.644715
2179.000000	15.610582
2178.000000	15.601349
2177.000000	15.576554
2176.000000	15.556634
2175.000000	15.547090
2174.000000	15.558294
2173.000000	15.546467
2172.000000	15.536611
2171.000000	15.548750
2170.000000	15.550202
2169.000000	15.568462
2168.000000	15.572300
2167.000000	15.578214
2166.000000	15.593983
2165.000000	15.614940
2164.000000	15.633510
2163.000000	15.633510
2162.000000	15.690052
2161.000000	15.711527
2160.000000	15.733107
2159.000000	15.763401
2158.000000	15.803447
2157.000000	15.836230
2156.000000	15.875654
2155.000000	15.927423
2154.000000	15.969959
2153.000000	15.999112
2152.000000	16.064783
2151.000000	16.122466
2150.000000	16.178904
2149.000000	16.229428
2148.000000	16.268333
2147.000000	16.320310
2146.000000	16.372702
2145.000000	16.426027
2144.000000	16.471053
2143.000000	16.509751
2142.000000	16.570027
2141.000000	16.608102
2140.000000	16.641197
2139.000000	16.692448
2138.000000	16.746292
2137.000000	16.789139
2136.000000	16.818084
2135.000000	16.849208
2134.000000	16.895894
2133.000000	16.937288
2132.000000	16.971317
2131.000000	16.988124
2130.000000	16.995594
2129.000000	17.028274
2128.000000	17.070291
2127.000000	17.073922
2126.000000	17.081184
2125.000000	17.101311
2124.000000	17.102660
2123.000000	17.101622
2122.000000	17.122994
2121.000000	17.124550
2120.000000	17.116666
2119.000000	17.106291
2118.000000	17.091040
2117.000000	17.105980
2116.000000	17.097161
2115.000000	17.080977
2114.000000	17.067594
2113.000000	17.049749
2112.000000	17.037819
2111.000000	17.019559
2110.000000	17.010118
2109.000000	16.995594
2108.000000	16.977646
2107.000000	16.953784
2106.000000	16.925876
2105.000000	16.910003
2104.000000	16.894753
2103.000000	16.874730
2102.000000	16.856263
2101.000000	16.820678
2100.000000	16.802522
2099.000000	16.786753
2098.000000	16.761231
2097.000000	16.750857
2096.000000	16.738200
2095.000000	16.719422
2094.000000	16.705208
2093.000000	16.683733
2092.000000	16.667341
2091.000000	16.666822
2090.000000	16.653854
2089.000000	16.633623
2088.000000	16.630304
2087.000000	16.606961
2086.000000	16.585174
2085.000000	16.574903
2084.000000	16.560171
2083.000000	16.542638
2082.000000	16.522823
2081.000000	16.481532
2080.000000	16.433601
2079.000000	16.413474
2078.000000	16.390442
2077.000000	16.348010
2076.000000	16.298108
2075.000000	16.245509
2074.000000	16.202869
2073.000000	16.147676
2072.000000	16.093521
2071.000000	16.041959
2070.000000	15.983446
2069.000000	15.924830
2068.000000	15.872749
2067.000000	15.817141
2066.000000	15.747735
2065.000000	15.684450
2064.000000	15.626663
2063.000000	15.563067
2062.000000	15.503620
2061.000000	15.435459
2060.000000	15.365638
2059.000000	15.343436
2058.000000	15.294883
2057.000000	15.235540
2056.000000	15.208774
2055.000000	15.173811
2054.000000	15.162295
2053.000000	15.149327
2052.000000	15.127955
2051.000000	15.148912
2050.000000	15.171529
2049.000000	15.192797
2048.000000	15.249650
2047.000000	15.273822
2046.000000	15.315632
2045.000000	15.371344
2044.000000	15.439920
2043.000000	15.508496
2042.000000	15.578836
2041.000000	15.650006
2040.000000	15.719827
2039.000000	15.779896
2038.000000	15.857083
2037.000000	15.932299
2036.000000	15.975873
2035.000000	16.028576
2034.000000	16.071630
2033.000000	16.121429
2032.000000	16.148818
2031.000000	16.192287
2030.000000	16.228287
2029.000000	16.252668
2028.000000	16.274973
2027.000000	16.294788
2026.000000	16.299353
2025.000000	16.312218
2024.000000	16.323215
2023.000000	16.312944
2022.000000	16.315538
2021.000000	16.333382
2020.000000	16.335249
2019.000000	16.321659
2018.000000	16.317094
2017.000000	16.297278
2016.000000	16.283169
2015.000000	16.255676
2014.000000	16.239596
2013.000000	16.216668
2012.000000	16.191976
2011.000000	16.157014
2010.000000	16.124645
2009.000000	16.096115
2008.000000	16.054720
2007.000000	16.000876
2006.000000	15.963112
2005.000000	15.938524
2004.000000	15.892668
2003.000000	15.835400
2002.000000	15.769833
2001.000000	15.710801
2000.000000	15.666709
1999.000000	15.606018
1998.000000	15.549268
1997.000000	15.471355
1996.000000	15.400808
1995.000000	15.326007
1994.000000	15.247886
1993.000000	15.175264
1992.000000	15.087287
1991.000000	15.027425
1990.000000	14.929074
1989.000000	14.851264
1988.000000	14.787045
1987.000000	14.685374
1986.000000	14.622711
1985.000000	14.542204
1984.000000	14.446135
1983.000000	14.327761
1982.000000	14.268522
1981.000000	14.171831
1980.000000	14.099727
1979.000000	14.013306
1978.000000	13.906137
1977.000000	13.805710
1976.000000	13.725203
1975.000000	13.639301
1974.000000	13.553088
1973.000000	13.485238
1972.000000	13.382218
1971.000000	13.302541
1970.000000	13.213527
1969.000000	13.106669
1968.000000	13.036847
1967.000000	12.962669
1966.000000	12.906646
1965.000000	12.829563
1964.000000	12.748329
1963.000000	12.672491
1962.000000	12.577356
1961.000000	12.500791
1960.000000	12.455039
1959.000000	12.353160
1958.000000	12.290601
1957.000000	12.237068
1956.000000	12.148780
1955.000000	12.072423
1954.000000	12.022417
1953.000000	11.963386
1952.000000	11.864205
1951.000000	11.814406
1950.000000	11.741680
1949.000000	11.719686
1948.000000	11.673312
1947.000000	11.615006
1946.000000	11.557116
1945.000000	11.503064
1944.000000	11.474534
1943.000000	11.449220
1942.000000	11.411767
1941.000000	11.397554
1940.000000	11.379606
1939.000000	11.368609
1938.000000	11.342154
1937.000000	11.344955
1936.000000	11.363318
1935.000000	11.345059
1934.000000	11.360932
1933.000000	11.374211
1932.000000	11.404194
1931.000000	11.458453
1930.000000	11.508978
1929.000000	11.568217
1928.000000	11.621231
1927.000000	11.665427
1926.000000	11.762533
1925.000000	11.831213
1924.000000	11.940147
1923.000000	12.030510
1922.000000	12.163512
1921.000000	12.270267
1920.000000	12.394244
1919.000000	12.531085
1918.000000	12.651223
1917.000000	12.798439
1916.000000	12.947211
1915.000000	13.110300
1914.000000	13.314576
1913.000000	13.473100
1912.000000	13.693457
1911.000000	13.868892
1910.000000	14.073790
1909.000000	14.263438
1908.000000	14.485870
1907.000000	14.688901
1906.000000	14.957293
1905.000000	15.240520
1904.000000	15.526237
1903.000000	15.806766
1902.000000	16.075158
1901.000000	16.355791
1900.000000	16.687053
1899.000000	17.003790
1898.000000	17.350613
1897.000000	17.684261
1896.000000	18.014589
1895.000000	18.349689
1894.000000	18.694956
1893.000000	19.066471
1892.000000	19.439854
1891.000000	19.888971
1890.000000	20.329062
1889.000000	20.731701
1888.000000	21.160899
1887.000000	21.614788
1886.000000	22.048655
1885.000000	22.504308
1884.000000	22.945437
1883.000000	23.441758
1882.000000	23.935279
1881.000000	24.366655
1880.000000	24.818781
1879.000000	25.243933
1878.000000	25.644186
1877.000000	26.062802
1876.000000	26.485878
1875.000000	26.864656
1874.000000	27.264701
1873.000000	27.638810
1872.000000	28.004307
1871.000000	28.312952
1870.000000	28.611223
1869.000000	28.853781
1868.000000	29.115636
1867.000000	29.313480
1866.000000	29.492961
1865.000000	29.642978
1864.000000	29.781998
1863.000000	29.935646
1862.000000	30.077052
1861.000000	30.240556
1860.000000	30.413812
1859.000000	30.547126
1858.000000	30.663011
1857.000000	30.763437
1856.000000	30.839172
1855.000000	30.914076
1854.000000	30.978088
1853.000000	31.041477
1852.000000	31.066376
1851.000000	31.104451
1850.000000	31.146779
1849.000000	31.202491
1848.000000	31.259447
1847.000000	31.276877
1846.000000	31.258202
1845.000000	31.215978
1844.000000	31.195540
1843.000000	31.196785
1842.000000	31.232370
1841.000000	31.258514
1840.000000	31.264946
1839.000000	31.255609
1838.000000	31.229776
1837.000000	31.217534
1836.000000	31.186929
1835.000000	31.146571
1834.000000	31.089407
1833.000000	31.040232
1832.000000	31.004024
1831.000000	30.975909
1830.000000	30.956923
1829.000000	30.914699
1828.000000	30.878803
1827.000000	30.833362
1826.000000	30.778376
1825.000000	30.726607
1824.000000	30.676705
1823.000000	30.639979
1822.000000	30.652221
1821.000000	30.676913
1820.000000	30.644440
1819.000000	30.594746
1818.000000	30.546919
1817.000000	30.520982
1816.000000	30.513305
1815.000000	30.497328
1814.000000	30.471599
1813.000000	30.448775
1812.000000	30.431864
1811.000000	30.410596
1810.000000	30.367438
1809.000000	30.330608
1808.000000	30.296787
1807.000000	30.264314
1806.000000	30.234850
1805.000000	30.195842
1804.000000	30.158804
1803.000000	30.120937
1802.000000	30.091888
1801.000000	30.066470
1800.000000	30.019992
1799.000000	29.961894
1798.000000	29.927035
1797.000000	29.893733
1796.000000	29.851715
1795.000000	29.815612
1794.000000	29.778263
1793.000000	29.754194
1792.000000	29.732096
1791.000000	29.694851
1790.000000	29.645468
1789.000000	29.608327
1788.000000	29.581145
1787.000000	29.553653
1786.000000	29.527094
1785.000000	29.496592
1784.000000	29.460696
1783.000000	29.420650
1782.000000	29.385895
1781.000000	29.349584
1780.000000	29.315452
1779.000000	29.270218
1778.000000	29.208593
1777.000000	29.173631
1776.000000	29.138876
1775.000000	29.073412
1774.000000	29.021642
1773.000000	28.976928
1772.000000	28.918830
1771.000000	28.861666
1770.000000	28.799418
1769.000000	28.731879
1768.000000	28.650024
1767.000000	28.585286
1766.000000	28.541505
1765.000000	28.493159
1764.000000	28.446681
1763.000000	28.419396
1762.000000	28.404145
1761.000000	28.414105
1760.000000	28.450623
1759.000000	28.485793
1758.000000	28.524802
1757.000000	28.575949
1756.000000	28.625332
1755.000000	28.677101
1754.000000	28.726070
1753.000000	28.764767
1752.000000	28.807407
1751.000000	28.842058
1750.000000	28.855026
1749.000000	28.860006
1748.000000	28.841954
1747.000000	28.832098
1746.000000	28.817055
1745.000000	28.781885
1744.000000	28.727315
1743.000000	28.650231
1742.000000	28.577090
1741.000000	28.496583
1740.000000	28.393148
1739.000000	28.261287
1738.000000	28.138036
1737.000000	28.019351
1736.000000	27.895063
1735.000000	27.791732
1734.000000	27.691409
1733.000000	27.641507
1732.000000	27.603432
1731.000000	27.578637
1730.000000	27.594406
1729.000000	27.622418
1728.000000	27.645138
1727.000000	27.701887
1726.000000	27.773057
1725.000000	27.833541
1724.000000	27.885207
1723.000000	27.951916
1722.000000	28.005760
1721.000000	28.068526
1720.000000	28.146128
1719.000000	28.203293
1718.000000	28.267719
1717.000000	28.368560
1716.000000	28.444502
1715.000000	28.509759
1714.000000	28.622427
1713.000000	28.721401
1712.000000	28.805747
1711.000000	28.881378
1710.000000	28.953066
1709.000000	28.997366
1708.000000	29.024547
1707.000000	29.063556
1706.000000	29.064282
1705.000000	29.063867
1704.000000	29.056086
1703.000000	29.015210
1702.000000	28.979003
1701.000000	28.914473
1700.000000	28.863741
1699.000000	28.779499
1698.000000	28.704179
1697.000000	28.613297
1696.000000	28.538808
1695.000000	28.487868
1694.000000	28.453217
1693.000000	28.436721
1692.000000	28.461413
1691.000000	28.519303
1690.000000	28.585805
1689.000000	28.649609
1688.000000	28.723995
1687.000000	28.784582
1686.000000	28.869239
1685.000000	28.915199
1684.000000	28.973400
1683.000000	29.072997
1682.000000	29.197700
1681.000000	29.384754
1680.000000	29.605318
1679.000000	29.865306
1678.000000	30.158804
1677.000000	30.457074
1676.000000	30.726399
1675.000000	30.991990
1674.000000	31.233614
1673.000000	31.437683
1672.000000	31.630651
1671.000000	31.817913
1670.000000	31.980483
1669.000000	32.129048
1668.000000	32.241509
1667.000000	32.318281
1666.000000	32.409577
1665.000000	32.499422
1664.000000	32.570591
1663.000000	32.640205
1662.000000	32.719778
1661.000000	32.758268
1660.000000	32.833277
1659.000000	32.872389
1658.000000	32.907144
1657.000000	32.914199
1656.000000	32.947812
1655.000000	32.964516
1654.000000	32.964723
1653.000000	32.975513
1652.000000	32.984227
1651.000000	32.972919
1650.000000	32.971363
1649.000000	32.939513
1648.000000	32.921253
1647.000000	32.901957
1646.000000	32.877991
1645.000000	32.848320
1644.000000	32.837219
1643.000000	32.785657
1642.000000	32.752355
1641.000000	32.709300
1640.000000	32.702971
1639.000000	32.645081
1638.000000	32.617900
1637.000000	32.581796
1636.000000	32.538223
1635.000000	32.501600
1634.000000	32.444436
1633.000000	32.405635
1632.000000	32.343387
1631.000000	32.302926
1630.000000	32.255411
1629.000000	32.190362
1628.000000	32.147722
1627.000000	32.079457
1626.000000	32.017313
1625.000000	31.944691
1624.000000	31.897071
1623.000000	31.847688
1622.000000	31.774340
