PE UV       SUBTECH     SPECTRUM    ASCII       PEDS        4.00        
   -1
CICIMAUCR0215-1.ASC
24/06/12
16:09:18.00
24/06/12
16:09:18.00
Vinicio Soto Monge
C. cupreomarginata. Sex M. Dorsal.
250,000000
1
Lambda 1050
1050L1511233
PerkinElmer UV WinLab 6.3.2.0749 / 2.02.05 Lambda 900 UV/VIS/NIR, Aug  7 2015 09:38:08

0
0
3350/servo 860,8/2
0
0
UV/VIS
1
1
1
DoubleDePol,CommonBeamDepol,RBeamAtt,SBeamAtt,60mm sphere, WB InGaAs Detector
0
0
0
0
Program
Program
3350/servo 860,8/2
3350/0,2 860,8/0,2
3350/0,2 860,8/0,2
0
15.00
 
 
 
0
 
860,8
319,2
860,8
Front
100
on
S:100 R:100
0
0
0
0
 
0
 
 
 
0
 
 
0
0
0
0
0
 
 
 
 
0
0


0
0
#HDR
-1
-1
#GR
nm
%R
1.0
0.0
2500,000000
-1,000000
2251
8
70,764800
5,818800
#DATA
2500.000000	12.659216
2499.000000	12.430248
2498.000000	12.446973
2497.000000	12.581411
2496.000000	12.455230
2495.000000	12.458194
2494.000000	12.451843
2493.000000	12.304807
2492.000000	12.319839
2491.000000	12.409288
2490.000000	12.032649
2489.000000	12.186036
2488.000000	12.248915
2487.000000	12.047152
2486.000000	12.131520
2485.000000	12.013383
2484.000000	12.024287
2483.000000	12.071393
2482.000000	12.045034
2481.000000	12.082296
2480.000000	12.153750
2479.000000	12.188576
2478.000000	12.233566
2477.000000	12.093411
2476.000000	12.140623
2475.000000	12.248386
2474.000000	12.272839
2473.000000	12.163488
2472.000000	12.136812
2471.000000	12.229967
2470.000000	12.215676
2469.000000	12.172380
2468.000000	12.269875
2467.000000	12.239811
2466.000000	12.214723
2465.000000	12.255584
2464.000000	12.333706
2463.000000	12.345245
2462.000000	12.318145
2461.000000	12.369803
2460.000000	12.441045
2459.000000	12.472485
2458.000000	12.536528
2457.000000	12.665674
2456.000000	12.686951
2455.000000	12.840761
2454.000000	12.959003
2453.000000	12.997747
2452.000000	13.086031
2451.000000	13.206285
2450.000000	13.313306
2449.000000	13.430701
2448.000000	13.525655
2447.000000	13.666233
2446.000000	13.741180
2445.000000	13.832428
2444.000000	13.941673
2443.000000	14.033662
2442.000000	14.140895
2441.000000	14.260831
2440.000000	14.346364
2439.000000	14.430202
2438.000000	14.548021
2437.000000	14.617887
2436.000000	14.723638
2435.000000	14.853842
2434.000000	14.953347
2433.000000	15.011251
2432.000000	15.098265
2431.000000	15.167496
2430.000000	15.264355
2429.000000	15.328822
2428.000000	15.390960
2427.000000	15.490677
2426.000000	15.555991
2425.000000	15.594734
2424.000000	15.661001
2423.000000	15.721868
2422.000000	15.816610
2421.000000	15.808354
2420.000000	15.866892
2419.000000	15.957612
2418.000000	15.989263
2417.000000	16.009693
2416.000000	16.076913
2415.000000	16.124760
2414.000000	16.181076
2413.000000	16.229135
2412.000000	16.265338
2411.000000	16.296883
2410.000000	16.329170
2409.000000	16.373206
2408.000000	16.423700
2407.000000	16.454610
2406.000000	16.495365
2405.000000	16.528922
2404.000000	16.543424
2403.000000	16.579945
2402.000000	16.630968
2401.000000	16.668441
2400.000000	16.723910
2399.000000	16.750268
2398.000000	16.773451
2397.000000	16.831461
2396.000000	16.856337
2395.000000	16.867558
2394.000000	16.904078
2393.000000	16.948962
2392.000000	16.958171
2391.000000	17.001890
2390.000000	17.025390
2389.000000	17.036400
2388.000000	17.074720
2387.000000	17.109441
2386.000000	17.104466
2385.000000	17.113569
2384.000000	17.139716
2383.000000	17.147232
2382.000000	17.122567
2381.000000	17.100231
2380.000000	17.104254
2379.000000	17.096632
2378.000000	17.081812
2377.000000	17.095150
2376.000000	17.089646
2375.000000	17.066145
2374.000000	17.052702
2373.000000	17.034600
2372.000000	17.028354
2371.000000	17.016393
2370.000000	16.976908
2369.000000	16.947162
2368.000000	16.913394
2367.000000	16.870628
2366.000000	16.838024
2365.000000	16.773557
2364.000000	16.725180
2363.000000	16.688448
2362.000000	16.626627
2361.000000	16.562584
2360.000000	16.492613
2359.000000	16.415337
2358.000000	16.350764
2357.000000	16.305987
2356.000000	16.243849
2355.000000	16.194837
2354.000000	16.163715
2353.000000	16.126348
2352.000000	16.105388
2351.000000	16.084005
2350.000000	16.076701
2349.000000	16.107611
2348.000000	16.145084
2347.000000	16.182028
2346.000000	16.189227
2345.000000	16.246919
2344.000000	16.313926
2343.000000	16.366537
2342.000000	16.417348
2341.000000	16.455457
2340.000000	16.494836
2339.000000	16.539401
2338.000000	16.565230
2337.000000	16.589683
2336.000000	16.622181
2335.000000	16.625569
2334.000000	16.614560
2333.000000	16.611278
2332.000000	16.610643
2331.000000	16.570206
2330.000000	16.526169
2329.000000	16.479063
2328.000000	16.443072
2327.000000	16.399670
2326.000000	16.327688
2325.000000	16.263750
2324.000000	16.195896
2323.000000	16.107505
2322.000000	15.995826
2321.000000	15.896109
2320.000000	15.800203
2319.000000	15.672327
2318.000000	15.536407
2317.000000	15.404933
2316.000000	15.278646
2315.000000	15.135209
2314.000000	14.987962
2313.000000	14.841457
2312.000000	14.709453
2311.000000	14.601267
2310.000000	14.495199
2309.000000	14.397704
2308.000000	14.309631
2307.000000	14.236273
2306.000000	14.202504
2305.000000	14.194459
2304.000000	14.198587
2303.000000	14.211714
2302.000000	14.254903
2301.000000	14.310372
2300.000000	14.374522
2299.000000	14.468417
2298.000000	14.555855
2297.000000	14.650173
2296.000000	14.735282
2295.000000	14.851513
2294.000000	14.972190
2293.000000	15.040256
2292.000000	15.126423
2291.000000	15.173530
2290.000000	15.233445
2289.000000	15.268377
2288.000000	15.296218
2287.000000	15.309979
2286.000000	15.320565
2285.000000	15.312096
2284.000000	15.277481
2283.000000	15.239902
2282.000000	15.203381
2281.000000	15.157016
2280.000000	15.093925
2279.000000	15.043431
2278.000000	14.989444
2277.000000	14.937151
2276.000000	14.875119
2275.000000	14.834999
2274.000000	14.807900
2273.000000	14.770744
2272.000000	14.760899
2271.000000	14.762699
2270.000000	14.755712
2269.000000	14.776884
2268.000000	14.813193
2267.000000	14.902113
2266.000000	15.008605
2265.000000	15.131293
2264.000000	15.249111
2263.000000	15.414460
2262.000000	15.598228
2261.000000	15.808777
2260.000000	16.035946
2259.000000	16.269784
2258.000000	16.523523
2257.000000	16.795999
2256.000000	17.054607
2255.000000	17.304853
2254.000000	17.593630
2253.000000	17.850227
2252.000000	18.110106
2251.000000	18.356965
2250.000000	18.604881
2249.000000	18.813737
2248.000000	19.004809
2247.000000	19.229861
2246.000000	19.410347
2245.000000	19.565321
2244.000000	19.723260
2243.000000	19.900252
2242.000000	20.008967
2241.000000	20.113131
2240.000000	20.212530
2239.000000	20.321669
2238.000000	20.409212
2237.000000	20.497815
2236.000000	20.566092
2235.000000	20.606000
2234.000000	20.667927
2233.000000	20.717150
2232.000000	20.746261
2231.000000	20.786910
2230.000000	20.791885
2229.000000	20.829570
2228.000000	20.819090
2227.000000	20.797178
2226.000000	20.822690
2225.000000	20.786169
2224.000000	20.763198
2223.000000	20.729959
2222.000000	20.693544
2221.000000	20.660834
2220.000000	20.604095
2219.000000	20.571597
2218.000000	20.510729
2217.000000	20.491675
2216.000000	20.434830
2215.000000	20.374280
2214.000000	20.325374
2213.000000	20.272763
2212.000000	20.228515
2211.000000	20.151557
2210.000000	20.128692
2209.000000	20.100110
2208.000000	20.036279
2207.000000	20.021459
2206.000000	19.994359
2205.000000	19.941113
2204.000000	19.932221
2203.000000	19.904381
2202.000000	19.876858
2201.000000	19.845207
2200.000000	19.816308
2199.000000	19.785504
2198.000000	19.751312
2197.000000	19.751629
2196.000000	19.713944
2195.000000	19.706005
2194.000000	19.694467
2193.000000	19.668955
2192.000000	19.642279
2191.000000	19.633811
2190.000000	19.643549
2189.000000	19.595385
2188.000000	19.590515
2187.000000	19.546055
2186.000000	19.550925
2185.000000	19.544361
2184.000000	19.508794
2183.000000	19.517791
2182.000000	19.485505
2181.000000	19.457982
2180.000000	19.451207
2179.000000	19.453325
2178.000000	19.423049
2177.000000	19.408970
2176.000000	19.402619
2175.000000	19.398597
2174.000000	19.409182
2173.000000	19.421567
2172.000000	19.417651
2171.000000	19.409923
2170.000000	19.426543
2169.000000	19.446867
2168.000000	19.473967
2167.000000	19.493550
2166.000000	19.510487
2165.000000	19.544256
2164.000000	19.594644
2163.000000	19.628835
2162.000000	19.654770
2161.000000	19.703888
2160.000000	19.750041
2159.000000	19.791220
2158.000000	19.841819
2157.000000	19.886597
2156.000000	19.969271
2155.000000	20.027810
2154.000000	20.080738
2153.000000	20.135043
2152.000000	20.206602
2151.000000	20.267364
2150.000000	20.329396
2149.000000	20.405719
2148.000000	20.480560
2147.000000	20.549261
2146.000000	20.605789
2145.000000	20.659670
2144.000000	20.723607
2143.000000	20.778230
2142.000000	20.857516
2141.000000	20.903458
2140.000000	20.953529
2139.000000	21.004869
2138.000000	21.073359
2137.000000	21.124382
2136.000000	21.175828
2135.000000	21.209279
2134.000000	21.255115
2133.000000	21.296293
2132.000000	21.338848
2131.000000	21.366794
2130.000000	21.397493
2129.000000	21.442270
2128.000000	21.463124
2127.000000	21.473921
2126.000000	21.487577
2125.000000	21.501550
2124.000000	21.504302
2123.000000	21.500915
2122.000000	21.508431
2121.000000	21.514782
2120.000000	21.507795
2119.000000	21.523251
2118.000000	21.510336
2117.000000	21.490012
2116.000000	21.479638
2115.000000	21.463759
2114.000000	21.445869
2113.000000	21.429779
2112.000000	21.402044
2111.000000	21.386589
2110.000000	21.361184
2109.000000	21.335778
2108.000000	21.304444
2107.000000	21.284014
2106.000000	21.267289
2105.000000	21.250987
2104.000000	21.224522
2103.000000	21.181862
2102.000000	21.154657
2101.000000	21.133909
2100.000000	21.103634
2099.000000	21.075264
2098.000000	21.059915
2097.000000	21.043295
2096.000000	21.013232
2095.000000	20.985709
2094.000000	20.960621
2093.000000	20.936803
2092.000000	20.919125
2091.000000	20.905258
2090.000000	20.882075
2089.000000	20.872548
2088.000000	20.853070
2087.000000	20.838462
2086.000000	20.823854
2085.000000	20.784687
2084.000000	20.763621
2083.000000	20.734405
2082.000000	20.694709
2081.000000	20.664222
2080.000000	20.626748
2079.000000	20.577737
2078.000000	20.535394
2077.000000	20.494004
2076.000000	20.432395
2075.000000	20.375021
2074.000000	20.322727
2073.000000	20.268846
2072.000000	20.210625
2071.000000	20.145523
2070.000000	20.080633
2069.000000	20.011190
2068.000000	19.939419
2067.000000	19.879504
2066.000000	19.812815
2065.000000	19.748242
2064.000000	19.680282
2063.000000	19.620261
2062.000000	19.564263
2061.000000	19.508264
2060.000000	19.455971
2059.000000	19.406112
2058.000000	19.370439
2057.000000	19.333283
2056.000000	19.308195
2055.000000	19.310841
2054.000000	19.309571
2053.000000	19.312006
2052.000000	19.329049
2051.000000	19.372238
2050.000000	19.422097
2049.000000	19.484341
2048.000000	19.557382
2047.000000	19.638892
2046.000000	19.721989
2045.000000	19.814085
2044.000000	19.905439
2043.000000	20.009497
2042.000000	20.111543
2041.000000	20.211472
2040.000000	20.308331
2039.000000	20.401908
2038.000000	20.493263
2037.000000	20.604942
2036.000000	20.676184
2035.000000	20.760975
2034.000000	20.833487
2033.000000	20.909704
2032.000000	20.977452
2031.000000	21.033768
2030.000000	21.090719
2029.000000	21.155610
2028.000000	21.221029
2027.000000	21.246964
2026.000000	21.284649
2025.000000	21.332920
2024.000000	21.358114
2023.000000	21.385001
2022.000000	21.431049
2021.000000	21.443329
2020.000000	21.456349
2019.000000	21.469158
2018.000000	21.500703
2017.000000	21.516793
2016.000000	21.524838
2015.000000	21.530237
2014.000000	21.523356
2013.000000	21.514359
2012.000000	21.508854
2011.000000	21.486942
2010.000000	21.457513
2009.000000	21.447563
2008.000000	21.411677
2007.000000	21.376745
2006.000000	21.338636
2005.000000	21.314607
2004.000000	21.282744
2003.000000	21.226004
2002.000000	21.178580
2001.000000	21.134015
2000.000000	21.062350
1999.000000	20.996083
1998.000000	20.939450
1997.000000	20.890015
1996.000000	20.809140
1995.000000	20.728583
1994.000000	20.667080
1993.000000	20.572020
1992.000000	20.484688
1991.000000	20.403814
1990.000000	20.306637
1989.000000	20.210201
1988.000000	20.133879
1987.000000	20.036279
1986.000000	19.941325
1985.000000	19.850076
1984.000000	19.743796
1983.000000	19.641326
1982.000000	19.545949
1981.000000	19.444115
1980.000000	19.371921
1979.000000	19.252514
1978.000000	19.142740
1977.000000	19.030850
1976.000000	18.953045
1975.000000	18.855127
1974.000000	18.759327
1973.000000	18.660668
1972.000000	18.561692
1971.000000	18.448107
1970.000000	18.345109
1969.000000	18.274925
1968.000000	18.179972
1967.000000	18.080360
1966.000000	17.984348
1965.000000	17.886219
1964.000000	17.819952
1963.000000	17.737702
1962.000000	17.635020
1961.000000	17.542713
1960.000000	17.445007
1959.000000	17.362545
1958.000000	17.281988
1957.000000	17.196879
1956.000000	17.094621
1955.000000	17.023273
1954.000000	16.913394
1953.000000	16.856760
1952.000000	16.765829
1951.000000	16.692153
1950.000000	16.610961
1949.000000	16.511032
1948.000000	16.455880
1947.000000	16.408668
1946.000000	16.334357
1945.000000	16.265761
1944.000000	16.191132
1943.000000	16.153976
1942.000000	16.110893
1941.000000	16.069397
1940.000000	16.085381
1939.000000	16.038169
1938.000000	16.030335
1937.000000	16.032558
1936.000000	16.016574
1935.000000	16.021549
1934.000000	16.033829
1933.000000	16.039968
1932.000000	16.074266
1931.000000	16.134499
1930.000000	16.190815
1929.000000	16.235592
1928.000000	16.291590
1927.000000	16.435026
1926.000000	16.517489
1925.000000	16.626522
1924.000000	16.726980
1923.000000	16.802773
1922.000000	16.951502
1921.000000	17.123626
1920.000000	17.308346
1919.000000	17.472742
1918.000000	17.613955
1917.000000	17.794335
1916.000000	17.959789
1915.000000	18.106084
1914.000000	18.290169
1913.000000	18.537980
1912.000000	18.805798
1911.000000	19.075310
1910.000000	19.260559
1909.000000	19.476401
1908.000000	19.672766
1907.000000	19.923118
1906.000000	20.202474
1905.000000	20.552860
1904.000000	20.873501
1903.000000	21.201975
1902.000000	21.504196
1901.000000	21.825578
1900.000000	22.132986
1899.000000	22.497663
1898.000000	22.900767
1897.000000	23.244378
1896.000000	23.588625
1895.000000	23.893704
1894.000000	24.212757
1893.000000	24.571612
1892.000000	24.964976
1891.000000	25.415292
1890.000000	25.880744
1889.000000	26.310206
1888.000000	26.695208
1887.000000	27.153039
1886.000000	27.582500
1885.000000	28.042343
1884.000000	28.502608
1883.000000	29.016332
1882.000000	29.513648
1881.000000	30.008211
1880.000000	30.480651
1879.000000	30.933612
1878.000000	31.358734
1877.000000	31.799310
1876.000000	32.204107
1875.000000	32.614832
1874.000000	32.996446
1873.000000	33.375731
1872.000000	33.736068
1871.000000	34.063590
1870.000000	34.362212
1869.000000	34.621350
1868.000000	34.875935
1867.000000	35.049541
1866.000000	35.207797
1865.000000	35.336095
1864.000000	35.448410
1863.000000	35.574591
1862.000000	35.691245
1861.000000	35.832882
1860.000000	35.970073
1859.000000	36.095195
1858.000000	36.197453
1857.000000	36.284891
1856.000000	36.354227
1855.000000	36.378786
1854.000000	36.435949
1853.000000	36.488454
1852.000000	36.504544
1851.000000	36.518729
1850.000000	36.553344
1849.000000	36.595793
1848.000000	36.627867
1847.000000	36.616964
1846.000000	36.606167
1845.000000	36.571657
1844.000000	36.522328
1843.000000	36.506979
1842.000000	36.529526
1841.000000	36.569540
1840.000000	36.589230
1839.000000	36.574198
1838.000000	36.555779
1837.000000	36.532914
1836.000000	36.490571
1835.000000	36.458708
1834.000000	36.413719
1833.000000	36.365025
1832.000000	36.328504
1831.000000	36.276105
1830.000000	36.244348
1829.000000	36.224553
1828.000000	36.196395
1827.000000	36.128011
1826.000000	36.069472
1825.000000	36.044913
1824.000000	36.002571
1823.000000	35.980870
1822.000000	35.989974
1821.000000	36.007334
1820.000000	36.003417
1819.000000	35.974730
1818.000000	35.931541
1817.000000	35.911110
1816.000000	35.906558
1815.000000	35.903277
1814.000000	35.905288
1813.000000	35.895655
1812.000000	35.884858
1811.000000	35.873849
1810.000000	35.849290
1809.000000	35.822931
1808.000000	35.801866
1807.000000	35.781118
1806.000000	35.764710
1805.000000	35.727025
1804.000000	35.694421
1803.000000	35.668804
1802.000000	35.634506
1801.000000	35.618416
1800.000000	35.582636
1799.000000	35.538494
1798.000000	35.501867
1797.000000	35.474980
1796.000000	35.451374
1795.000000	35.421628
1794.000000	35.390506
1793.000000	35.355361
1792.000000	35.327733
1791.000000	35.297352
1790.000000	35.265701
1789.000000	35.239448
1788.000000	35.214678
1787.000000	35.190754
1786.000000	35.154974
1785.000000	35.122265
1784.000000	35.084791
1783.000000	35.031651
1782.000000	34.982851
1781.000000	34.948447
1780.000000	34.917220
1779.000000	34.865879
1778.000000	34.817185
1777.000000	34.754518
1776.000000	34.687616
1775.000000	34.627489
1774.000000	34.574878
1773.000000	34.504801
1772.000000	34.418634
1771.000000	34.329290
1770.000000	34.252438
1769.000000	34.177386
1768.000000	34.095347
1767.000000	34.018495
1766.000000	33.951487
1765.000000	33.888502
1764.000000	33.839490
1763.000000	33.806675
1762.000000	33.806463
1761.000000	33.799582
1760.000000	33.814297
1759.000000	33.864367
1758.000000	33.900993
1757.000000	33.952863
1756.000000	34.011614
1755.000000	34.054486
1754.000000	34.104344
1753.000000	34.141077
1752.000000	34.139066
1751.000000	34.141394
1750.000000	34.140336
1749.000000	34.126257
1748.000000	34.091747
1747.000000	34.060096
1746.000000	34.010873
1745.000000	33.955192
1744.000000	33.854099
1743.000000	33.752582
1742.000000	33.635081
1741.000000	33.503606
1740.000000	33.346197
1739.000000	33.169840
1738.000000	33.008408
1737.000000	32.866136
1736.000000	32.714443
1735.000000	32.600965
1734.000000	32.504317
1733.000000	32.438474
1732.000000	32.406188
1731.000000	32.399307
1730.000000	32.422596
1729.000000	32.471713
1728.000000	32.529405
1727.000000	32.588262
1726.000000	32.650717
1725.000000	32.711797
1724.000000	32.777428
1723.000000	32.835226
1722.000000	32.855550
1721.000000	32.895776
1720.000000	32.948387
1719.000000	33.008090
1718.000000	33.057949
1717.000000	33.134060
1716.000000	33.219063
1715.000000	33.307771
1714.000000	33.410770
1713.000000	33.495985
1712.000000	33.554524
1711.000000	33.638151
1710.000000	33.696795
1709.000000	33.712674
1708.000000	33.750147
1707.000000	33.745913
1706.000000	33.744325
1705.000000	33.714368
1704.000000	33.677106
1703.000000	33.625871
1702.000000	33.569873
1701.000000	33.486140
1700.000000	33.367792
1699.000000	33.252831
1698.000000	33.117335
1697.000000	32.998669
1696.000000	32.915995
1695.000000	32.834273
1694.000000	32.803681
1693.000000	32.798811
1692.000000	32.851210
1691.000000	32.914407
1690.000000	33.014971
1689.000000	33.117123
1688.000000	33.192175
1687.000000	33.252196
1686.000000	33.293904
1685.000000	33.350008
1684.000000	33.418603
1683.000000	33.525942
1682.000000	33.675201
1681.000000	33.925552
1680.000000	34.216553
1679.000000	34.571385
1678.000000	34.952047
1677.000000	35.335884
1676.000000	35.685212
1675.000000	36.015485
1674.000000	36.310191
1673.000000	36.553450
1672.000000	36.785171
1671.000000	37.008211
1670.000000	37.173136
1669.000000	37.348965
1668.000000	37.489331
1667.000000	37.600798
1666.000000	37.702738
1665.000000	37.797269
1664.000000	37.892963
1663.000000	38.004325
1662.000000	38.073767
1661.000000	38.127966
1660.000000	38.195820
1659.000000	38.238692
1658.000000	38.271402
1657.000000	38.320202
1656.000000	38.342961
1655.000000	38.348995
1654.000000	38.349418
1653.000000	38.374718
1652.000000	38.382234
1651.000000	38.361380
1650.000000	38.359792
1649.000000	38.315015
1648.000000	38.303582
1647.000000	38.294479
1646.000000	38.249489
1645.000000	38.214027
1644.000000	38.196984
1643.000000	38.163004
1642.000000	38.109652
1641.000000	38.071226
1640.000000	38.011735
1639.000000	38.011629
1638.000000	37.946209
1637.000000	37.908524
1636.000000	37.865864
1635.000000	37.822674
1634.000000	37.775462
1633.000000	37.737565
1632.000000	37.675321
1631.000000	37.592118
1630.000000	37.556656
1629.000000	37.510185
1628.000000	37.466572
1627.000000	37.367490
1626.000000	37.310644
1625.000000	37.260786
