PE UV       SUBTECH     SPECTRUM    ASCII       PEDS        4.00        
   -1
CICIMAUCR0215-3.Sample.ASC
24/06/13
11:59:15.00
24/06/13
11:59:15.00
Vinicio Soto Monge
C. cupreomarginata. Sex M. Dorsal
a
250.000000
1
Lambda 1050
1050L1511233
PerkinElmer UV WinLab 6.3.2.0749 / 2.02.05 Lambda 900 UV/VIS/NIR. Aug  7 2015 09:38:08

0
0
3350/servo 860.8/2
0
0
UV/VIS
1
1
1
DoubleDePol.CommonBeamDepol.RBeamAtt.SBeamAtt.60mm sphere. WB InGaAs Detector
0
0
0
0
Program
Program
3350/servo 860.8/2
3350/0.2 860.8/0.2
3350/0.2 860.8/0.2
0
15.00
 
 
 
0
 
860.8
319.2
860.8
Front
100
on
S:100 R:100
0
0
0
0
 
0
 
 
 
0
 
 
0
0
0
0
0
 
 
 
 
0
0


0
0
#HDR
-1
-1
#GR
nm
%R
1.0
0.0
2500.000000
-1.000000
2251
8
67.988100
5.466400

2483.000000	11.289786
2482.000000	11.302958
2481.000000	11.304108
2480.000000	11.389932
2479.000000	11.316756
2478.000000	11.357630
2477.000000	11.356062
2476.000000	11.388468
2475.000000	11.385228
2474.000000	11.439795
2473.000000	11.381673
2472.000000	11.453908
2471.000000	11.485269
2470.000000	11.464779
2469.000000	11.505758
2468.000000	11.524470
2467.000000	11.582069
2466.000000	11.626079
2465.000000	11.615939
2464.000000	11.643745
2463.000000	11.698418
2462.000000	11.746400
2461.000000	11.826370
2460.000000	11.871738
2459.000000	11.929442
2458.000000	11.990491
2457.000000	12.026138
2456.000000	12.132242
2455.000000	12.184196
2454.000000	12.261553
2453.000000	12.363162
2452.000000	12.430901
2451.000000	12.527911
2450.000000	12.619171
2449.000000	12.672484
2448.000000	12.777125
2447.000000	12.881765
2446.000000	12.983374
2445.000000	13.071185
2444.000000	13.153768
2443.000000	13.242519
2442.000000	13.338170
2441.000000	13.437897
2440.000000	13.518808
2439.000000	13.616758
2438.000000	13.716695
2437.000000	13.816526
2436.000000	13.910818
2435.000000	13.966327
2434.000000	14.051419
2433.000000	14.123653
2432.000000	14.210732
2431.000000	14.293838
2430.000000	14.368372
2429.000000	14.403914
2428.000000	14.487857
2427.000000	14.586330
2426.000000	14.669122
2425.000000	14.716373
2424.000000	14.772508
2423.000000	14.851538
2422.000000	14.909242
2421.000000	14.959523
2420.000000	15.012210
2419.000000	15.080890
2418.000000	15.110787
2417.000000	15.171836
2416.000000	15.225986
2415.000000	15.275536
2414.000000	15.323413
2413.000000	15.377981
2412.000000	15.414882
2411.000000	15.465060
2410.000000	15.518477
2409.000000	15.559769
2408.000000	15.589771
2407.000000	15.636185
2406.000000	15.695352
2405.000000	15.719709
2404.000000	15.761106
2403.000000	15.802188
2402.000000	15.838985
2401.000000	15.881636
2400.000000	15.925959
2399.000000	15.961919
2398.000000	15.989935
2397.000000	16.026000
2396.000000	16.053284
2395.000000	16.092485
2394.000000	16.133463
2393.000000	16.170469
2392.000000	16.209565
2391.000000	16.245107
2390.000000	16.273646
2389.000000	16.298943
2388.000000	16.327273
2387.000000	16.345671
2386.000000	16.363756
2385.000000	16.381527
2384.000000	16.394489
2383.000000	16.412679
2382.000000	16.414560
2381.000000	16.409961
2380.000000	16.433690
2379.000000	16.451880
2378.000000	16.456375
2377.000000	16.446235
2376.000000	16.436722
2375.000000	16.433481
2374.000000	16.431600
2373.000000	16.426582
2372.000000	16.421669
2371.000000	16.410902
2370.000000	16.398984
2369.000000	16.388008
2368.000000	16.372641
2367.000000	16.340862
2366.000000	16.314624
2365.000000	16.295912
2364.000000	16.263715
2363.000000	16.232040
2362.000000	16.205175
2361.000000	16.172559
2360.000000	16.143603
2359.000000	16.095725
2358.000000	16.061856
2357.000000	16.037081
2356.000000	16.004152
2355.000000	15.970805
2354.000000	15.941639
2353.000000	15.915296
2352.000000	15.905679
2351.000000	15.905052
2350.000000	15.897316
2349.000000	15.900975
2348.000000	15.917701
2347.000000	15.944148
2346.000000	15.971014
2345.000000	16.018996
2344.000000	16.055897
2343.000000	16.081718
2342.000000	16.119141
2341.000000	16.165765
2340.000000	16.198275
2339.000000	16.240194
2338.000000	16.284099
2337.000000	16.301870
2336.000000	16.318387
2335.000000	16.339922
2334.000000	16.343998
2333.000000	16.354975
2332.000000	16.337622
2331.000000	16.324450
2330.000000	16.319119
2329.000000	16.299466
2328.000000	16.273228
2327.000000	16.226814
2326.000000	16.188344
2325.000000	16.143603
2324.000000	16.082867
2323.000000	16.007183
2322.000000	15.942267
2321.000000	15.864805
2320.000000	15.778772
2319.000000	15.680926
2318.000000	15.599179
2317.000000	15.476559
2316.000000	15.359165
2315.000000	15.265082
2314.000000	15.151870
2313.000000	15.019213
2312.000000	14.911646
2311.000000	14.806378
2310.000000	14.707801
2309.000000	14.610373
2308.000000	14.550160
2307.000000	14.499983
2306.000000	14.435902
2305.000000	14.404228
2304.000000	14.401301
2303.000000	14.403496
2302.000000	14.425658
2301.000000	14.458587
2300.000000	14.512841
2299.000000	14.580371
2298.000000	14.662432
2297.000000	14.742193
2296.000000	14.822895
2295.000000	14.903597
2294.000000	14.979908
2293.000000	15.052769
2292.000000	15.135876
2291.000000	15.211664
2290.000000	15.264350
2289.000000	15.293725
2288.000000	15.341707
2287.000000	15.360524
2286.000000	15.362614
2285.000000	15.362196
2284.000000	15.352683
2283.000000	15.334808
2282.000000	15.295502
2281.000000	15.262887
2280.000000	15.223163
2279.000000	15.165355
2278.000000	15.115178
2277.000000	15.089043
2276.000000	15.029040
2275.000000	14.959732
2274.000000	14.917395
2273.000000	14.907255
2272.000000	14.880285
2271.000000	14.865964
2270.000000	14.856869
2269.000000	14.891366
2268.000000	14.920427
2267.000000	14.989421
2266.000000	15.047334
2265.000000	15.144866
2264.000000	15.264559
2263.000000	15.376831
2262.000000	15.537503
2261.000000	15.743125
2260.000000	15.943835
2259.000000	16.133567
2258.000000	16.356334
2257.000000	16.588717
2256.000000	16.847026
2255.000000	17.086518
2254.000000	17.310120
2253.000000	17.547208
2252.000000	17.772170
2251.000000	17.997863
2250.000000	18.215402
2249.000000	18.392277
2248.000000	18.595600
2247.000000	18.769025
2246.000000	18.942137
2245.000000	19.103227
2244.000000	19.238810
2243.000000	19.361013
2242.000000	19.470880
2241.000000	19.571548
2240.000000	19.677339
2239.000000	19.755114
2238.000000	19.809263
2237.000000	19.904496
2236.000000	19.960631
2235.000000	19.969412
2234.000000	20.038511
2233.000000	20.069871
2232.000000	20.095274
2231.000000	20.111581
2230.000000	20.118167
2229.000000	20.112731
2228.000000	20.140015
2227.000000	20.105309
2226.000000	20.100501
2225.000000	20.086597
2224.000000	20.048546
2223.000000	20.028266
2222.000000	19.970771
2221.000000	19.930734
2220.000000	19.878571
2219.000000	19.849614
2218.000000	19.782711
2217.000000	19.727307
2216.000000	19.682252
2215.000000	19.630088
2214.000000	19.569248
2213.000000	19.534647
2212.000000	19.459590
2211.000000	19.431156
2210.000000	19.390387
2209.000000	19.345960
2208.000000	19.296828
2207.000000	19.265989
2206.000000	19.205568
2205.000000	19.192082
2204.000000	19.172325
2203.000000	19.147446
2202.000000	19.101450
2201.000000	19.066953
2200.000000	19.041760
2199.000000	19.021584
2198.000000	19.005695
2197.000000	18.964612
2196.000000	18.942137
2195.000000	18.918303
2194.000000	18.905758
2193.000000	18.886210
2192.000000	18.867916
2191.000000	18.833628
2190.000000	18.843455
2189.000000	18.814917
2188.000000	18.797564
2187.000000	18.778643
2186.000000	18.750836
2185.000000	18.732960
2184.000000	18.716757
2183.000000	18.691459
2182.000000	18.675465
2181.000000	18.651631
2180.000000	18.636787
2179.000000	18.633233
2178.000000	18.617762
2177.000000	18.598422
2176.000000	18.604276
2175.000000	18.590687
2174.000000	18.602290
2173.000000	18.597063
2172.000000	18.596018
2171.000000	18.602499
2170.000000	18.613580
2169.000000	18.609399
2168.000000	18.641805
2167.000000	18.665221
2166.000000	18.674734
2165.000000	18.703167
2164.000000	18.732333
2163.000000	18.777179
2162.000000	18.811153
2161.000000	18.846277
2160.000000	18.877847
2159.000000	18.928024
2158.000000	18.972975
2157.000000	19.032874
2156.000000	19.081902
2155.000000	19.146609
2154.000000	19.195219
2153.000000	19.257208
2152.000000	19.317944
2151.000000	19.381188
2150.000000	19.447464
2149.000000	19.503704
2148.000000	19.559736
2147.000000	19.626430
2146.000000	19.678175
2145.000000	19.740269
2144.000000	19.785743
2143.000000	19.845119
2142.000000	19.910245
2141.000000	19.962199
2140.000000	19.993351
2139.000000	20.052623
2138.000000	20.110536
2137.000000	20.147960
2136.000000	20.202214
2135.000000	20.227721
2134.000000	20.262845
2133.000000	20.292847
2132.000000	20.334557
2131.000000	20.358705
2130.000000	20.383480
2129.000000	20.410136
2128.000000	20.415259
2127.000000	20.419022
2126.000000	20.442856
2125.000000	20.446619
2124.000000	20.450487
2123.000000	20.439824
2122.000000	20.431566
2121.000000	20.448919
2120.000000	20.455609
2119.000000	20.429894
2118.000000	20.408673
2117.000000	20.406059
2116.000000	20.381284
2115.000000	20.368740
2114.000000	20.350864
2113.000000	20.323267
2112.000000	20.309782
2111.000000	20.283752
2110.000000	20.233889
2109.000000	20.209532
2108.000000	20.187579
2107.000000	20.155068
2106.000000	20.136984
2105.000000	20.116390
2104.000000	20.079593
2103.000000	20.037047
2102.000000	20.007254
2101.000000	19.989379
2100.000000	19.958750
2099.000000	19.915263
2098.000000	19.893206
2097.000000	19.863099
2096.000000	19.827034
2095.000000	19.816685
2094.000000	19.792537
2093.000000	19.759609
2092.000000	19.739329
2091.000000	19.723648
2090.000000	19.703264
2089.000000	19.680893
2088.000000	19.649532
2087.000000	19.615767
2086.000000	19.580538
2085.000000	19.551895
2084.000000	19.523044
2083.000000	19.475271
2082.000000	19.435129
2081.000000	19.408368
2080.000000	19.361640
2079.000000	19.310522
2078.000000	19.252818
2077.000000	19.187065
2076.000000	19.119639
2075.000000	19.060472
2074.000000	19.007785
2073.000000	18.936283
2072.000000	18.855790
2071.000000	18.783347
2070.000000	18.709753
2069.000000	18.638460
2068.000000	18.571766
2067.000000	18.489705
2066.000000	18.396981
2065.000000	18.328615
2064.000000	18.267670
2063.000000	18.187491
2062.000000	18.115152
2061.000000	18.060585
2060.000000	17.994204
2059.000000	17.919356
2058.000000	17.869597
2057.000000	17.829664
2056.000000	17.804994
2055.000000	17.784819
2054.000000	17.750426
2053.000000	17.741750
2052.000000	17.751576
2051.000000	17.776247
2050.000000	17.803426
2049.000000	17.835414
2048.000000	17.879005
2047.000000	17.926988
2046.000000	17.980824
2045.000000	18.050235
2044.000000	18.123097
2043.000000	18.188955
2042.000000	18.256381
2041.000000	18.347431
2040.000000	18.409839
2039.000000	18.455417
2038.000000	18.524097
2037.000000	18.600513
2036.000000	18.649436
2035.000000	18.697732
2034.000000	18.758676
2033.000000	18.792546
2032.000000	18.820143
2031.000000	18.843978
2030.000000	18.878579
2029.000000	18.899173
2028.000000	18.923843
2027.000000	18.950709
2026.000000	18.969107
2025.000000	18.963253
2024.000000	18.983638
2023.000000	19.001827
2022.000000	18.982801
2021.000000	18.987087
2020.000000	18.980815
2019.000000	18.975484
2018.000000	18.972661
2017.000000	18.969316
2016.000000	18.943914
2015.000000	18.923948
2014.000000	18.899068
2013.000000	18.862376
2012.000000	18.834360
2011.000000	18.812094
2010.000000	18.759408
2009.000000	18.715816
2008.000000	18.667521
2007.000000	18.633860
2006.000000	18.558281
2005.000000	18.503295
2004.000000	18.452908
2003.000000	18.386737
2002.000000	18.320252
2001.000000	18.257844
2000.000000	18.184982
1999.000000	18.104176
1998.000000	18.019397
1997.000000	17.946640
1996.000000	17.857680
1995.000000	17.774469
1994.000000	17.684882
1993.000000	17.589859
1992.000000	17.500794
1991.000000	17.411729
1990.000000	17.306566
1989.000000	17.233809
1988.000000	17.126346
1987.000000	17.035191
1986.000000	16.933686
1985.000000	16.821833
1984.000000	16.719074
1983.000000	16.598648
1982.000000	16.512301
1981.000000	16.398148
1980.000000	16.302916
1979.000000	16.208729
1978.000000	16.107538
1977.000000	16.006452
1976.000000	15.903902
1975.000000	15.798320
1974.000000	15.690648
1973.000000	15.603883
1972.000000	15.487117
1971.000000	15.411746
1970.000000	15.315887
1969.000000	15.193161
1968.000000	15.126886
1967.000000	15.013568
1966.000000	14.918754
1965.000000	14.848820
1964.000000	14.743970
1963.000000	14.653024
1962.000000	14.556851
1961.000000	14.474999
1960.000000	14.396388
1959.000000	14.307428
1958.000000	14.212091
1957.000000	14.133271
1956.000000	14.049955
1955.000000	13.969254
1954.000000	13.890120
1953.000000	13.824262
1952.000000	13.733002
1951.000000	13.644878
1950.000000	13.590311
1949.000000	13.515672
1948.000000	13.453996
1947.000000	13.413122
1946.000000	13.351864
1945.000000	13.299909
1944.000000	13.244819
1943.000000	13.209590
1942.000000	13.167462
1941.000000	13.149273
1940.000000	13.127425
1939.000000	13.107772
1938.000000	13.107563
1937.000000	13.088224
1936.000000	13.078189
1935.000000	13.104532
1934.000000	13.126693
1933.000000	13.126484
1932.000000	13.155963
1931.000000	13.181575
1930.000000	13.272521
1929.000000	13.337124
1928.000000	13.403609
1927.000000	13.492569
1926.000000	13.598360
1925.000000	13.653555
1924.000000	13.749519
1923.000000	13.855100
1922.000000	14.010963
1921.000000	14.156269
1920.000000	14.309205
1919.000000	14.451269
1918.000000	14.600651
1917.000000	14.761532
1916.000000	14.910601
1915.000000	15.100438
1914.000000	15.314528
1913.000000	15.534994
1912.000000	15.784208
1911.000000	16.001120
1910.000000	16.221378
1909.000000	16.411529
1908.000000	16.634086
1907.000000	16.869292
1906.000000	17.195235
1905.000000	17.544386
1904.000000	17.893118
1903.000000	18.174320
1902.000000	18.501099
1901.000000	18.841887
1900.000000	19.234524
1899.000000	19.635733
1898.000000	20.043737
1897.000000	20.422890
1896.000000	20.785316
1895.000000	21.145861
1894.000000	21.541112
1893.000000	21.951102
1892.000000	22.426741
1891.000000	22.977123
1890.000000	23.508270
1889.000000	23.990809
1888.000000	24.493418
1887.000000	24.961112
1886.000000	25.475534
1885.000000	25.992151
1884.000000	26.562499
1883.000000	27.137448
1882.000000	27.665145
1881.000000	28.191589
1880.000000	28.684267
1879.000000	29.133040
1878.000000	29.597703
1877.000000	30.101880
1876.000000	30.526296
1875.000000	30.962107
1874.000000	31.388091
1873.000000	31.805190
1872.000000	32.194901
1871.000000	32.560568
1870.000000	32.883897
1869.000000	33.196147
1868.000000	33.476826
1867.000000	33.693424
1866.000000	33.862355
1865.000000	34.000447
1864.000000	34.137284
1863.000000	34.272868
1862.000000	34.431553
1861.000000	34.605606
1860.000000	34.765860
1859.000000	34.901547
1858.000000	35.022809
1857.000000	35.137171
1856.000000	35.202820
1855.000000	35.264078
1854.000000	35.352411
1853.000000	35.412624
1852.000000	35.431754
1851.000000	35.474091
1850.000000	35.515487
1849.000000	35.557615
1848.000000	35.605806
1847.000000	35.650339
1846.000000	35.661211
1845.000000	35.613960
1844.000000	35.586572
1843.000000	35.568905
1842.000000	35.601416
1841.000000	35.652430
1840.000000	35.678564
1839.000000	35.669260
1838.000000	35.644589
1837.000000	35.632359
1836.000000	35.621069
1835.000000	35.595144
1834.000000	35.554375
1833.000000	35.493535
1832.000000	35.436667
1831.000000	35.417014
1830.000000	35.403111
1829.000000	35.384922
1828.000000	35.349066
1827.000000	35.311538
1826.000000	35.272755
1825.000000	35.236794
1824.000000	35.215678
1823.000000	35.188917
1822.000000	35.203552
1821.000000	35.226445
1820.000000	35.210347
1819.000000	35.195607
1818.000000	35.176163
1817.000000	35.145430
1816.000000	35.132363
1815.000000	35.133095
1814.000000	35.122432
1813.000000	35.124941
1812.000000	35.126300
1811.000000	35.105602
1810.000000	35.084381
1809.000000	35.064101
1808.000000	35.039639
1807.000000	35.011101
1806.000000	35.000125
1805.000000	34.968973
1804.000000	34.926113
1803.000000	34.913360
1802.000000	34.893289
1801.000000	34.862974
1800.000000	34.831090
1799.000000	34.789589
1798.000000	34.761783
1797.000000	34.727913
1796.000000	34.700838
1795.000000	34.683799
1794.000000	34.664355
1793.000000	34.642612
1792.000000	34.609996
1791.000000	34.577590
1790.000000	34.551456
1789.000000	34.532744
1788.000000	34.507551
1787.000000	34.476817
1786.000000	34.451624
1785.000000	34.420263
1784.000000	34.393502
1783.000000	34.360887
1782.000000	34.327017
1781.000000	34.287712
1780.000000	34.238266
1779.000000	34.206696
1778.000000	34.164464
1777.000000	34.123799
1776.000000	34.086271
1775.000000	34.028044
1774.000000	33.967204
1773.000000	33.914309
1772.000000	33.859950
1771.000000	33.798588
1770.000000	33.740152
1769.000000	33.681821
1768.000000	33.612723
1767.000000	33.543624
1766.000000	33.494074
1765.000000	33.448392
1764.000000	33.412536
1763.000000	33.399992
1762.000000	33.392256
1761.000000	33.407518
1760.000000	33.437416
1759.000000	33.478185
1758.000000	33.521567
1757.000000	33.562232
1756.000000	33.628508
1755.000000	33.674713
1754.000000	33.712345
1753.000000	33.754787
1752.000000	33.770363
1751.000000	33.780921
1750.000000	33.780817
1749.000000	33.781235
1748.000000	33.777785
1747.000000	33.745170
1746.000000	33.690916
1745.000000	33.640007
1744.000000	33.576135
1743.000000	33.494388
1742.000000	33.399051
1741.000000	33.273608
1740.000000	33.145238
1739.000000	33.024603
1738.000000	32.894665
1737.000000	32.759709
1736.000000	32.644301
1735.000000	32.565690
1734.000000	32.474743
1733.000000	32.412963
1732.000000	32.385156
1731.000000	32.378466
1730.000000	32.399896
1729.000000	32.421744
1728.000000	32.464394
1727.000000	32.514990
1726.000000	32.582102
1725.000000	32.634579
1724.000000	32.680157
1723.000000	32.735770
1722.000000	32.790547
1721.000000	32.840306
1720.000000	32.904282
1719.000000	32.975262
1718.000000	33.059936
1717.000000	33.156736
1716.000000	33.225939
1715.000000	33.344065
1714.000000	33.432189
1713.000000	33.531185
1712.000000	33.616695
1711.000000	33.686211
1710.000000	33.751860
1709.000000	33.786566
1708.000000	33.817927
1707.000000	33.824826
1706.000000	33.818136
1705.000000	33.796497
1704.000000	33.778203
1703.000000	33.736180
1702.000000	33.674503
1701.000000	33.614291
1700.000000	33.506723
1699.000000	33.405323
1698.000000	33.314168
1697.000000	33.218517
1696.000000	33.125794
1695.000000	33.066940
1694.000000	33.035997
1693.000000	33.037252
1692.000000	33.057532
1691.000000	33.122240
1690.000000	33.196460
1689.000000	33.263886
1688.000000	33.323785
1687.000000	33.389329
1686.000000	33.433966
1685.000000	33.517908
1684.000000	33.609796
1683.000000	33.726458
1682.000000	33.891938
1681.000000	34.100801
1680.000000	34.378031
1679.000000	34.692998
1678.000000	35.012774
1677.000000	35.335581
1676.000000	35.630268
1675.000000	35.927777
1674.000000	36.190267
1673.000000	36.416170
1672.000000	36.609980
1671.000000	36.792918
1670.000000	36.963834
1669.000000	37.087605
1668.000000	37.222352
1667.000000	37.360444
1666.000000	37.459335
1665.000000	37.554463
1664.000000	37.620529
1663.000000	37.692659
1662.000000	37.784442
1661.000000	37.834201
1660.000000	37.877583
1659.000000	37.945636
1658.000000	37.968216
1657.000000	38.016721
1656.000000	38.027802
1655.000000	38.057072
1654.000000	38.036896
1653.000000	38.045364
1652.000000	38.066898
1651.000000	38.039510
1650.000000	38.033656
1649.000000	38.006790
1648.000000	37.979297
1647.000000	37.962885
1646.000000	37.931629
1645.000000	37.897341
1644.000000	37.858244
1643.000000	37.817580
1642.000000	37.805767
1641.000000	37.768761
1640.000000	37.724647
1639.000000	37.703113
1638.000000	37.650113
1637.000000	37.621679
1636.000000	37.556135
1635.000000	37.504703
1634.000000	37.441250
1633.000000	37.413234
1632.000000	37.363057
1631.000000	37.308385
1630.000000	37.249008
1629.000000	37.211480
1628.000000	37.141023
1627.000000	37.092100
1626.000000	37.028228
1625.000000	36.951394
1624.000000	36.911880
1623.000000	36.836718
1622.000000	36.783823
1621.000000	36.757375
1620.000000	36.693713
1619.000000	36.650226
1618.000000	36.605485
1617.000000	36.551858
1616.000000	36.483073
1615.000000	36.454012
1614.000000	36.386795
1613.000000	36.340486
1612.000000	36.284245
1611.000000	36.228841
1610.000000	36.193090
1609.000000	36.153262
1608.000000	36.092840
