PE UV       SUBTECH     SPECTRUM    ASCII       PEDS        4.00        
   -1
CICIMAUCR0234-1.ASC
24/06/14
15:10:23.00
24/06/14
15:10:23.00
Vinicio Soto Monge
C. resplendens. Sex M. Dorsal.
250,000000
1
Lambda 1050
1050L1511233
PerkinElmer UV WinLab 6.3.2.0749 / 2.02.05 Lambda 900 UV/VIS/NIR, Aug  7 2015 09:38:08

0
0
3350/servo 860,8/2
0
0
UV/VIS
1
1
1
DoubleDePol,CommonBeamDepol,RBeamAtt,SBeamAtt,60mm sphere, WB InGaAs Detector
0
0
0
0
Program
Program
3350/servo 860,8/2
3350/0,2 860,8/0,2
3350/0,2 860,8/0,2
0
15.00
 
 
 
0
 
860,8
319,2
860,8
Front
100
on
S:100 R:100
0
0
0
0
 
0
 
 
 
0
 
 
0
0
0
0
0
 
 
 
 
0
0


0
0
#HDR
-1
-1
#GR
nm
%R
1.0
0.0
2500,000000
-1,000000
2251
8
92,850900
5,313300
#DATA
2500.000000	7.338709
2499.000000	7.537618
2498.000000	7.293119
2497.000000	7.158698
2496.000000	7.180585
2495.000000	7.249130
2494.000000	7.211548
2493.000000	7.179945
2492.000000	7.083106
2491.000000	7.159765
2490.000000	7.193611
2489.000000	7.164997
2488.000000	7.177169
2487.000000	7.136276
2486.000000	7.204501
2485.000000	7.086736
2484.000000	7.049794
2483.000000	7.090793
2482.000000	7.132753
2481.000000	7.132112
2480.000000	7.073604
2479.000000	7.057268
2478.000000	7.072216
2477.000000	7.044349
2476.000000	7.070294
2475.000000	7.115884
2474.000000	7.022995
2473.000000	7.021607
2472.000000	7.037089
2471.000000	7.042107
2470.000000	7.036875
2469.000000	7.068372
2468.000000	7.053211
2467.000000	7.062073
2466.000000	7.080543
2465.000000	7.060258
2464.000000	7.092608
2463.000000	7.092715
2462.000000	7.123891
2461.000000	7.140654
2460.000000	7.159979
2459.000000	7.148875
2458.000000	7.178770
2457.000000	7.224253
2456.000000	7.257031
2455.000000	7.304436
2454.000000	7.328139
2453.000000	7.343834
2452.000000	7.382377
2451.000000	7.419639
2450.000000	7.455086
2449.000000	7.515517
2448.000000	7.551391
2447.000000	7.591643
2446.000000	7.644813
2445.000000	7.662750
2444.000000	7.693820
2443.000000	7.738983
2442.000000	7.777526
2441.000000	7.828988
2440.000000	7.892729
2439.000000	7.888138
2438.000000	7.932340
2437.000000	7.976969
2436.000000	8.039749
2435.000000	8.059394
2434.000000	8.084378
2433.000000	8.114593
2432.000000	8.157407
2431.000000	8.183245
2430.000000	8.228835
2429.000000	8.254032
2428.000000	8.263108
2427.000000	8.287344
2426.000000	8.316278
2425.000000	8.335390
2424.000000	8.350337
2423.000000	8.377349
2422.000000	8.416854
2421.000000	8.427851
2420.000000	8.451874
2419.000000	8.467675
2418.000000	8.484545
2417.000000	8.521059
2416.000000	8.525757
2415.000000	8.531843
2414.000000	8.569212
2413.000000	8.584480
2412.000000	8.588323
2411.000000	8.613307
2410.000000	8.624091
2409.000000	8.652064
2408.000000	8.666051
2407.000000	8.685269
2406.000000	8.693063
2405.000000	8.707049
2404.000000	8.739934
2403.000000	8.765345
2402.000000	8.781787
2401.000000	8.818409
2400.000000	8.837413
2399.000000	8.869978
2398.000000	8.889303
2397.000000	8.923469
2396.000000	8.946744
2395.000000	8.957848
2394.000000	8.975785
2393.000000	9.018919
2392.000000	9.051056
2391.000000	9.061733
2390.000000	9.073157
2389.000000	9.080631
2388.000000	9.097074
2387.000000	9.107110
2386.000000	9.119068
2385.000000	9.134976
2384.000000	9.133695
2383.000000	9.142877
2382.000000	9.154088
2381.000000	9.159853
2380.000000	9.161348
2379.000000	9.157611
2378.000000	9.149817
2377.000000	9.141809
2376.000000	9.143624
2375.000000	9.127823
2374.000000	9.119815
2373.000000	9.108177
2372.000000	9.090347
2371.000000	9.077962
2370.000000	9.056822
2369.000000	9.026179
2368.000000	8.994149
2367.000000	8.977600
2366.000000	8.961798
2365.000000	8.920372
2364.000000	8.876384
2363.000000	8.846489
2362.000000	8.815526
2361.000000	8.765879
2360.000000	8.714737
2359.000000	8.679183
2358.000000	8.649822
2357.000000	8.607221
2356.000000	8.573269
2355.000000	8.545616
2354.000000	8.533978
2353.000000	8.535580
2352.000000	8.519031
2351.000000	8.526398
2350.000000	8.532911
2349.000000	8.538142
2348.000000	8.568998
2347.000000	8.597185
2346.000000	8.635408
2345.000000	8.661993
2344.000000	8.670535
2343.000000	8.716445
2342.000000	8.775808
2341.000000	8.805490
2340.000000	8.808479
2339.000000	8.830367
2338.000000	8.866988
2337.000000	8.882149
2336.000000	8.909375
2335.000000	8.916956
2334.000000	8.885779
2333.000000	8.872754
2332.000000	8.865387
2331.000000	8.853749
2330.000000	8.820544
2329.000000	8.797909
2328.000000	8.757871
2327.000000	8.709719
2326.000000	8.654092
2325.000000	8.595156
2324.000000	8.549033
2323.000000	8.485826
2322.000000	8.417174
2321.000000	8.347988
2320.000000	8.278269
2319.000000	8.201182
2318.000000	8.118971
2317.000000	8.048717
2316.000000	7.973873
2315.000000	7.881625
2314.000000	7.806353
2313.000000	7.744641
2312.000000	7.661789
2311.000000	7.601359
2310.000000	7.544131
2309.000000	7.498114
2308.000000	7.474838
2307.000000	7.448039
2306.000000	7.430423
2305.000000	7.428928
2304.000000	7.446545
2303.000000	7.464375
2302.000000	7.505374
2301.000000	7.542422
2300.000000	7.579151
2299.000000	7.630933
2298.000000	7.687947
2297.000000	7.764287
2296.000000	7.819166
2295.000000	7.871055
2294.000000	7.939173
2293.000000	7.984976
2292.000000	8.051279
2291.000000	8.064732
2290.000000	8.093453
2289.000000	8.107546
2288.000000	8.131569
2287.000000	8.127405
2286.000000	8.115234
2285.000000	8.116835
2284.000000	8.077651
2283.000000	8.060675
2282.000000	8.025121
2281.000000	7.977609
2280.000000	7.954548
2279.000000	7.918033
2278.000000	7.893369
2277.000000	7.845644
2276.000000	7.828988
2275.000000	7.802083
2274.000000	7.775818
2273.000000	7.769625
2272.000000	7.746990
2271.000000	7.730334
2270.000000	7.708020
2269.000000	7.748592
2268.000000	7.795997
2267.000000	7.840412
2266.000000	7.886429
2265.000000	7.956469
2264.000000	8.045728
2263.000000	8.150360
2262.000000	8.250295
2261.000000	8.377456
2260.000000	8.511237
2259.000000	8.650356
2258.000000	8.837627
2257.000000	8.994256
2256.000000	9.175228
2255.000000	9.381290
2254.000000	9.530979
2253.000000	9.688142
2252.000000	9.890361
2251.000000	10.054677
2250.000000	10.225399
2249.000000	10.367508
2248.000000	10.546131
2247.000000	10.666138
2246.000000	10.797783
2245.000000	10.922275
2244.000000	11.040254
2243.000000	11.170404
2242.000000	11.263506
2241.000000	11.364616
2240.000000	11.460707
2239.000000	11.548043
2238.000000	11.630041
2237.000000	11.704779
2236.000000	11.755494
2235.000000	11.839520
2234.000000	11.894292
2233.000000	11.956965
2232.000000	11.989316
2231.000000	12.069392
2230.000000	12.099074
2229.000000	12.126406
2228.000000	12.169968
2227.000000	12.167832
2226.000000	12.195806
2225.000000	12.217266
2224.000000	12.224633
2223.000000	12.214276
2222.000000	12.226768
2221.000000	12.245880
2220.000000	12.225594
2219.000000	12.229224
2218.000000	12.228904
2217.000000	12.211500
2216.000000	12.216946
2215.000000	12.182566
2214.000000	12.182460
2213.000000	12.154700
2212.000000	12.170288
2211.000000	12.129289
2210.000000	12.144023
2209.000000	12.120107
2208.000000	12.107722
2207.000000	12.113808
2206.000000	12.092134
2205.000000	12.073876
2204.000000	12.065335
2203.000000	12.075478
2202.000000	12.072061
2201.000000	12.066616
2200.000000	12.066082
2199.000000	12.051135
2198.000000	12.035333
2197.000000	12.041632
2196.000000	12.037362
2195.000000	12.018143
2194.000000	12.024122
2193.000000	12.028393
2192.000000	11.994868
2191.000000	11.998071
2190.000000	12.010456
2189.000000	11.987181
2188.000000	11.985366
2187.000000	11.974689
2186.000000	11.947463
2185.000000	11.944473
2184.000000	11.954403
2183.000000	11.939989
2182.000000	11.909880
2181.000000	11.916287
2180.000000	11.897175
2179.000000	11.899097
2178.000000	11.907211
2177.000000	11.896107
2176.000000	11.879345
2175.000000	11.894399
2174.000000	11.902727
2173.000000	11.895574
2172.000000	11.900698
2171.000000	11.919169
2170.000000	11.903047
2169.000000	11.905183
2168.000000	11.919703
2167.000000	11.926750
2166.000000	11.949598
2165.000000	11.971272
2164.000000	12.004264
2163.000000	12.009282
2162.000000	12.019318
2161.000000	12.055405
2160.000000	12.062025
2159.000000	12.090319
2158.000000	12.110284
2157.000000	12.140820
2156.000000	12.171035
2155.000000	12.169968
2154.000000	12.220255
2153.000000	12.258265
2152.000000	12.276416
2151.000000	12.288374
2150.000000	12.322646
2149.000000	12.343359
2148.000000	12.345174
2147.000000	12.375176
2146.000000	12.395035
2145.000000	12.413826
2144.000000	12.435927
2143.000000	12.468385
2142.000000	12.495611
2141.000000	12.508102
2140.000000	12.527855
2139.000000	12.532339
2138.000000	12.551344
2137.000000	12.558177
2136.000000	12.567038
2135.000000	12.577715
2134.000000	12.594051
2133.000000	12.591702
2132.000000	12.586043
2131.000000	12.593197
2130.000000	12.582306
2129.000000	12.581239
2128.000000	12.582520
2127.000000	12.573124
2126.000000	12.549956
2125.000000	12.558817
2124.000000	12.561486
2123.000000	12.548888
2122.000000	12.502764
2121.000000	12.485681
2120.000000	12.463260
2119.000000	12.454185
2118.000000	12.423329
2117.000000	12.408274
2116.000000	12.383824
2115.000000	12.347203
2114.000000	12.328198
2113.000000	12.307485
2112.000000	12.280152
2111.000000	12.246307
2110.000000	12.206589
2109.000000	12.187478
2108.000000	12.156408
2107.000000	12.126300
2106.000000	12.103344
2105.000000	12.070353
2104.000000	12.048038
2103.000000	12.017930
2102.000000	11.983978
2101.000000	11.948744
2100.000000	11.931875
2099.000000	11.914792
2098.000000	11.875074
2097.000000	11.845820
2096.000000	11.816885
2095.000000	11.785496
2094.000000	11.763928
2093.000000	11.732645
2092.000000	11.717271
2091.000000	11.699013
2090.000000	11.664848
2089.000000	11.649473
2088.000000	11.633778
2087.000000	11.607193
2086.000000	11.591284
2085.000000	11.568970
2084.000000	11.557225
2083.000000	11.532775
2082.000000	11.500745
2081.000000	11.499357
2080.000000	11.482381
2079.000000	11.448962
2078.000000	11.421630
2077.000000	11.388318
2076.000000	11.374225
2075.000000	11.345077
2074.000000	11.302583
2073.000000	11.285287
2072.000000	11.266389
2071.000000	11.244395
2070.000000	11.224109
2069.000000	11.196456
2068.000000	11.176490
2067.000000	11.149051
2066.000000	11.127804
2065.000000	11.100578
2064.000000	11.083602
2063.000000	11.069508
2062.000000	11.047514
2061.000000	11.028296
2060.000000	11.015697
2059.000000	11.003419
2058.000000	10.997547
2057.000000	10.994130
2056.000000	11.002458
2055.000000	11.022957
2054.000000	11.041535
2053.000000	11.043670
2052.000000	11.066305
2051.000000	11.102393
2050.000000	11.136025
2049.000000	11.180974
2048.000000	11.220265
2047.000000	11.264894
2046.000000	11.313367
2045.000000	11.354366
2044.000000	11.414476
2043.000000	11.486545
2042.000000	11.542278
2041.000000	11.613812
2040.000000	11.671254
2039.000000	11.713854
2038.000000	11.750476
2037.000000	11.813149
2036.000000	11.886819
2035.000000	11.924828
2034.000000	11.966468
2033.000000	12.019425
2032.000000	12.066723
2031.000000	12.095550
2030.000000	12.126620
2029.000000	12.144023
2028.000000	12.168473
2027.000000	12.207870
2026.000000	12.254955
2025.000000	12.263176
2024.000000	12.278551
2023.000000	12.301399
2022.000000	12.323500
2021.000000	12.321472
2020.000000	12.339195
2019.000000	12.355637
2018.000000	12.370585
2017.000000	12.370799
2016.000000	12.398238
2015.000000	12.388095
2014.000000	12.384892
2013.000000	12.376671
2012.000000	12.378272
2011.000000	12.374856
2010.000000	12.347737
2009.000000	12.348377
2008.000000	12.318802
2007.000000	12.297556
2006.000000	12.286665
2005.000000	12.278017
2004.000000	12.237018
2003.000000	12.207443
2002.000000	12.186944
2001.000000	12.147440
2000.000000	12.106868
1999.000000	12.070887
1998.000000	12.037468
1997.000000	12.011417
1996.000000	11.961983
1995.000000	11.937854
1994.000000	11.862902
1993.000000	11.808024
1992.000000	11.762327
1991.000000	11.711826
1990.000000	11.667303
1989.000000	11.612104
1988.000000	11.551887
1987.000000	11.490388
1986.000000	11.420028
1985.000000	11.370061
1984.000000	11.298740
1983.000000	11.248025
1982.000000	11.207560
1981.000000	11.148303
1980.000000	11.072391
1979.000000	11.026160
1978.000000	10.933059
1977.000000	10.896437
1976.000000	10.843373
1975.000000	10.765860
1974.000000	10.723473
1973.000000	10.675534
1972.000000	10.594817
1971.000000	10.525525
1970.000000	10.480789
1969.000000	10.429327
1968.000000	10.376370
1967.000000	10.327683
1966.000000	10.270776
1965.000000	10.210772
1964.000000	10.157068
1963.000000	10.108702
1962.000000	10.047097
1961.000000	9.992645
1960.000000	9.940542
1959.000000	9.915985
1958.000000	9.854807
1957.000000	9.808576
1956.000000	9.755833
1955.000000	9.711738
1954.000000	9.672020
1953.000000	9.612870
1952.000000	9.571978
1951.000000	9.530339
1950.000000	9.488913
1949.000000	9.438198
1948.000000	9.410865
1947.000000	9.365062
1946.000000	9.347445
1945.000000	9.301641
1944.000000	9.287975
1943.000000	9.245481
1942.000000	9.223594
1941.000000	9.202454
1940.000000	9.193272
1939.000000	9.194339
1938.000000	9.200745
1937.000000	9.191030
1936.000000	9.177683
1935.000000	9.186225
1934.000000	9.196261
1933.000000	9.215052
1932.000000	9.233416
1931.000000	9.239502
1930.000000	9.271426
1929.000000	9.298545
1928.000000	9.374457
1927.000000	9.404032
1926.000000	9.465851
1925.000000	9.510693
1924.000000	9.569523
1923.000000	9.630487
1922.000000	9.725084
1921.000000	9.787436
1920.000000	9.890147
1919.000000	10.034071
1918.000000	10.128240
1917.000000	10.190379
1916.000000	10.275901
1915.000000	10.365799
1914.000000	10.479294
1913.000000	10.628236
1912.000000	10.773547
1911.000000	10.956761
1910.000000	11.054774
1909.000000	11.174782
1908.000000	11.278240
1907.000000	11.403052
1906.000000	11.569077
1905.000000	11.775246
1904.000000	11.962304
1903.000000	12.148614
1902.000000	12.328198
1901.000000	12.517391
1900.000000	12.696655
1899.000000	12.897913
1898.000000	13.118389
1897.000000	13.346019
1896.000000	13.575250
1895.000000	13.758571
1894.000000	13.922994
1893.000000	14.133114
1892.000000	14.392347
1891.000000	14.699625
1890.000000	14.966226
1889.000000	15.254393
1888.000000	15.568825
1887.000000	15.859021
1886.000000	16.171424
1885.000000	16.537426
1884.000000	16.942184
1883.000000	17.375235
1882.000000	17.858254
1881.000000	18.339459
1880.000000	18.832087
1879.000000	19.286706
1878.000000	19.734278
1877.000000	20.207901
1876.000000	20.677788
1875.000000	21.108704
1874.000000	21.555315
1873.000000	21.979078
1872.000000	22.383623
1871.000000	22.769803
1870.000000	23.144452
1869.000000	23.482694
1868.000000	23.807269
1867.000000	24.024863
1866.000000	24.211173
1865.000000	24.361930
1864.000000	24.487702
1863.000000	24.606429
1862.000000	24.706791
1861.000000	24.841746
1860.000000	24.985776
1859.000000	25.099591
1858.000000	25.233478
1857.000000	25.312593
1856.000000	25.370355
1855.000000	25.400784
1854.000000	25.413596
1853.000000	25.472532
1852.000000	25.462602
1851.000000	25.446267
1850.000000	25.425554
1849.000000	25.384875
1848.000000	25.398435
1847.000000	25.432494
1846.000000	25.435910
1845.000000	25.404948
1844.000000	25.329890
1843.000000	25.256113
1842.000000	25.216288
1841.000000	25.229848
1840.000000	25.249066
1839.000000	25.251629
1838.000000	25.230595
1837.000000	25.204117
1836.000000	25.175610
1835.000000	25.146035
1834.000000	25.099804
1833.000000	25.011400
1832.000000	24.917871
1831.000000	24.833845
1830.000000	24.771279
1829.000000	24.730280
1828.000000	24.669422
1827.000000	24.592976
1826.000000	24.528061
1825.000000	24.470299
1824.000000	24.393213
1823.000000	24.305876
1822.000000	24.248862
1821.000000	24.224626
1820.000000	24.222597
1819.000000	24.213629
1818.000000	24.167825
1817.000000	24.121488
1816.000000	24.091486
1815.000000	24.065968
1814.000000	24.054544
1813.000000	24.043867
1812.000000	24.032123
1811.000000	24.024863
1810.000000	23.996676
1809.000000	23.937847
1808.000000	23.888840
1807.000000	23.838979
1806.000000	23.804173
1805.000000	23.773637
1804.000000	23.717050
1803.000000	23.660890
1802.000000	23.606438
1801.000000	23.552841
1800.000000	23.506396
1799.000000	23.458564
1798.000000	23.393009
1797.000000	23.330015
1796.000000	23.274176
1795.000000	23.212357
1794.000000	23.162176
1793.000000	23.109219
1792.000000	23.057543
1791.000000	22.996899
1790.000000	22.935721
1789.000000	22.890878
1788.000000	22.825536
1787.000000	22.759233
1786.000000	22.686417
1785.000000	22.609864
1784.000000	22.534272
1783.000000	22.458360
1782.000000	22.395687
1781.000000	22.312728
1780.000000	22.223470
1779.000000	22.160477
1778.000000	22.085633
1777.000000	21.997122
1776.000000	21.912348
1775.000000	21.817751
1774.000000	21.714613
1773.000000	21.610621
1772.000000	21.503426
1771.000000	21.384486
1770.000000	21.265653
1769.000000	21.142336
1768.000000	21.028521
1767.000000	20.928586
1766.000000	20.830466
1765.000000	20.741849
1764.000000	20.677467
1763.000000	20.623656
1762.000000	20.587889
1761.000000	20.611485
1760.000000	20.642020
1759.000000	20.692522
1758.000000	20.766726
1757.000000	20.834310
1756.000000	20.901467
1755.000000	20.965421
1754.000000	21.024784
1753.000000	21.065783
1752.000000	21.083400
1751.000000	21.103686
1750.000000	21.096746
1749.000000	21.077101
1748.000000	21.050195
1747.000000	20.992434
1746.000000	20.924315
1745.000000	20.843492
1744.000000	20.739607
1743.000000	20.615649
1742.000000	20.460835
1741.000000	20.298547
1740.000000	20.101667
1739.000000	19.908950
1738.000000	19.696482
1737.000000	19.476539
1736.000000	19.286172
1735.000000	19.149722
1734.000000	19.061104
1733.000000	18.989997
1732.000000	18.967896
1731.000000	18.999179
1730.000000	19.072315
1729.000000	19.150363
1728.000000	19.272505
1727.000000	19.390698
1726.000000	19.508570
1725.000000	19.598682
1724.000000	19.703422
1723.000000	19.760543
1722.000000	19.802823
1721.000000	19.855139
1720.000000	19.869339
1719.000000	19.882258
1718.000000	19.890266
1717.000000	19.927421
1716.000000	19.973118
1715.000000	20.002372
1714.000000	20.060881
1713.000000	20.125583
1712.000000	20.163806
1711.000000	20.208755
1710.000000	20.254772
1709.000000	20.262139
1708.000000	20.252103
1707.000000	20.238757
1706.000000	20.196263
1705.000000	20.174696
1704.000000	20.118963
1703.000000	20.086399
1702.000000	19.996393
1701.000000	19.896992
1700.000000	19.787341
1699.000000	19.642030
1698.000000	19.484440
1697.000000	19.327384
1696.000000	19.211220
1695.000000	19.105520
1694.000000	19.100715
1693.000000	19.156021
1692.000000	19.249443
1691.000000	19.386213
1690.000000	19.524051
1689.000000	19.714739
1688.000000	19.864321
1687.000000	19.938098
1686.000000	20.006857
1685.000000	20.045293
1684.000000	20.062696
1683.000000	20.130494
1682.000000	20.291821
1681.000000	20.567603
1680.000000	20.927946
1679.000000	21.389825
1678.000000	21.873484
1677.000000	22.408713
1676.000000	22.904971
1675.000000	23.345604
1674.000000	23.761466
1673.000000	24.099493
1672.000000	24.416915
1671.000000	24.658959
1670.000000	24.886482
1669.000000	25.092331
1668.000000	25.245223
1667.000000	25.364162
1666.000000	25.456090
1665.000000	25.554637
1664.000000	25.643147
1663.000000	25.728028
1662.000000	25.778102
1661.000000	25.820169
1660.000000	25.861168
1659.000000	25.910068
1658.000000	25.946262
1657.000000	25.938575
1656.000000	25.962064
1655.000000	25.958754
1654.000000	25.932276
1653.000000	25.942205
1652.000000	25.948077
1651.000000	25.919463
1650.000000	25.863197
1649.000000	25.820810
1648.000000	25.805435
1647.000000	25.735395
1646.000000	25.703044
1645.000000	25.646884
1644.000000	25.606312
1643.000000	25.535739
1642.000000	25.489722
1641.000000	25.431960
1640.000000	25.363415
1639.000000	25.289104
1638.000000	25.242019
1637.000000	25.166321
1636.000000	25.109200
1635.000000	25.032113
1634.000000	24.945311
1633.000000	24.873563
1632.000000	24.801174
1631.000000	24.731347
1630.000000	24.643904
1629.000000	24.560518
1628.000000	24.486742
1627.000000	24.401220
1626.000000	24.334704
1625.000000	24.248862
1624.000000	24.154799
1623.000000	24.079848
1622.000000	24.008207
1621.000000	23.923219
1620.000000	23.838872
1619.000000	23.757195
1618.000000	23.684165
1617.000000	23.639643
1616.000000	23.554869
1615.000000	23.477996
1614.000000	23.402618
1613.000000	23.336528
1612.000000	23.279301
