PE UV       SUBTECH     SPECTRUM    ASCII       PEDS        4.00        
   -1
CICIMAUCR0247-2.Sample.ASC
24/06/24
16:44:50.00
24/06/24
16:44:50.00
Vinicio Soto Monge
C. resplendens. Sex M.Dorsal. 
250,000000
1
Lambda 1050
1050L1511233
PerkinElmer UV WinLab 6.3.2.0749 / 2.02.05 Lambda 900 UV/VIS/NIR, Aug  7 2015 09:38:08

0
0
3350/servo 860,8/2
0
0
UV/VIS
1
1
1
DoubleDePol,CommonBeamDepol,RBeamAtt,SBeamAtt,60mm sphere, WB InGaAs Detector
0
0
0
0
Program
Program
3350/servo 860,8/2
3350/0,2 860,8/0,2
3350/0,2 860,8/0,2
0
15.00
 
 
 
0
 
860,8
319,2
860,8
Front
100
on
S:100 R:100
0
0
0
0
 
0
 
 
 
0
 
 
0
0
0
0
0
 
 
 
 
0
0


0
0
#HDR
-1
-1
#GR
nm
%R
1.0
0.0
2500,000000
-1,000000
2251
8
88,436700
5,788500
#DATA
2482.000000	11.359897
2481.000000	11.400479
2480.000000	11.372163
2479.000000	11.332194
2478.000000	11.354377
2477.000000	11.380648
2476.000000	11.368790
2475.000000	11.382897
2474.000000	11.408351
2473.000000	11.452818
2472.000000	11.472649
2471.000000	11.474080
2470.000000	11.502601
2469.000000	11.520285
2468.000000	11.562095
2467.000000	11.591228
2466.000000	11.620158
2465.000000	11.661865
2464.000000	11.684865
2463.000000	11.696723
2462.000000	11.748142
2461.000000	11.791280
2460.000000	11.813156
2459.000000	11.847707
2458.000000	11.905157
2457.000000	11.981007
2456.000000	12.079346
2455.000000	12.106742
2454.000000	12.155502
2453.000000	12.229614
2452.000000	12.324273
2451.000000	12.362812
2450.000000	12.436515
2449.000000	12.535161
2448.000000	12.589441
2447.000000	12.685838
2446.000000	12.786324
2445.000000	12.846942
2444.000000	12.918601
2443.000000	13.009580
2442.000000	13.071834
2441.000000	13.161791
2440.000000	13.251236
2439.000000	13.330971
2438.000000	13.421132
2437.000000	13.505569
2436.000000	13.575081
2435.000000	13.636721
2434.000000	13.717478
2433.000000	13.792817
2432.000000	13.848528
2431.000000	13.936645
2430.000000	14.001966
2429.000000	14.075362
2428.000000	14.140172
2427.000000	14.215715
2426.000000	14.285739
2425.000000	14.342473
2424.000000	14.395322
2423.000000	14.458087
2422.000000	14.518297
2421.000000	14.585867
2420.000000	14.634627
2419.000000	14.681650
2418.000000	14.757398
2417.000000	14.809736
2416.000000	14.839483
2415.000000	14.893253
2414.000000	14.949476
2413.000000	14.996499
2412.000000	15.041682
2411.000000	15.084411
2410.000000	15.132558
2409.000000	15.172119
2408.000000	15.211475
2407.000000	15.237542
2406.000000	15.282418
2405.000000	15.323512
2404.000000	15.356837
2403.000000	15.393228
2402.000000	15.427269
2401.000000	15.458754
2400.000000	15.492794
2399.000000	15.521519
2398.000000	15.554333
2397.000000	15.570791
2396.000000	15.570893
2395.000000	15.601049
2394.000000	15.628956
2393.000000	15.645720
2392.000000	15.682419
2391.000000	15.716459
2390.000000	15.732815
2389.000000	15.739868
2388.000000	15.750806
2387.000000	15.763891
2386.000000	15.777895
2385.000000	15.800282
2384.000000	15.824816
2383.000000	15.828496
2382.000000	15.826860
2381.000000	15.834016
2380.000000	15.823896
2379.000000	15.836878
2378.000000	15.836367
2377.000000	15.829212
2376.000000	15.832994
2375.000000	15.821647
2374.000000	15.810914
2373.000000	15.804167
2372.000000	15.789140
2371.000000	15.772886
2370.000000	15.763993
2369.000000	15.764709
2368.000000	15.764197
2367.000000	15.756633
2366.000000	15.738233
2365.000000	15.712779
2364.000000	15.694277
2363.000000	15.679454
2362.000000	15.670765
2361.000000	15.655227
2360.000000	15.626400
2359.000000	15.602684
2358.000000	15.576311
2357.000000	15.560568
2356.000000	15.553208
2355.000000	15.520190
2354.000000	15.486456
2353.000000	15.475007
2352.000000	15.469487
2351.000000	15.449145
2350.000000	15.444442
2349.000000	15.456300
2348.000000	15.453336
2347.000000	15.458140
2346.000000	15.478585
2345.000000	15.488092
2344.000000	15.511092
2343.000000	15.540123
2342.000000	15.551777
2341.000000	15.576311
2340.000000	15.598595
2339.000000	15.621596
2338.000000	15.633045
2337.000000	15.649196
2336.000000	15.660747
2335.000000	15.677205
2334.000000	15.683543
2333.000000	15.683645
2332.000000	15.697752
2331.000000	15.705930
2330.000000	15.697241
2329.000000	15.692028
2328.000000	15.683850
2327.000000	15.671174
2326.000000	15.647049
2325.000000	15.639076
2324.000000	15.606569
2323.000000	15.583160
2322.000000	15.544212
2321.000000	15.500256
2320.000000	15.446384
2319.000000	15.392410
2318.000000	15.346103
2317.000000	15.269436
2316.000000	15.188475
2315.000000	15.113034
2314.000000	15.036979
2313.000000	14.948556
2312.000000	14.874035
2311.000000	14.802785
2310.000000	14.723051
2309.000000	14.667339
2308.000000	14.604983
2307.000000	14.557040
2306.000000	14.522182
2305.000000	14.479861
2304.000000	14.479452
2303.000000	14.478328
2302.000000	14.477305
2301.000000	14.495501
2300.000000	14.525453
2299.000000	14.575440
2298.000000	14.623178
2297.000000	14.656503
2296.000000	14.720393
2295.000000	14.772118
2294.000000	14.828341
2293.000000	14.883951
2292.000000	14.949578
2291.000000	14.999565
2290.000000	15.046384
2289.000000	15.094838
2288.000000	15.127549
2287.000000	15.141247
2286.000000	15.182750
2285.000000	15.213622
2284.000000	15.224457
2283.000000	15.213110
2282.000000	15.207795
2281.000000	15.212497
2280.000000	15.194915
2279.000000	15.177639
2278.000000	15.165883
2277.000000	15.135523
2276.000000	15.115487
2275.000000	15.100971
2274.000000	15.078686
2273.000000	15.069180
2272.000000	15.070713
2271.000000	15.056606
2270.000000	15.077255
2269.000000	15.093611
2268.000000	15.102505
2267.000000	15.149323
2266.000000	15.211066
2265.000000	15.301738
2264.000000	15.381268
2263.000000	15.481345
2262.000000	15.617916
2261.000000	15.755100
2260.000000	15.898826
2259.000000	16.057681
2258.000000	16.238106
2257.000000	16.422926
2256.000000	16.627066
2255.000000	16.814033
2254.000000	17.001920
2253.000000	17.219554
2252.000000	17.390676
2251.000000	17.580812
2250.000000	17.779228
2249.000000	17.952292
2248.000000	18.117383
2247.000000	18.283599
2246.000000	18.428960
2245.000000	18.570949
2244.000000	18.698831
2243.000000	18.823646
2242.000000	18.923416
2241.000000	19.011839
2240.000000	19.112427
2239.000000	19.186437
2238.000000	19.274451
2237.000000	19.330163
2236.000000	19.392622
2235.000000	19.430342
2234.000000	19.486054
2233.000000	19.509974
2232.000000	19.526330
2231.000000	19.548921
2230.000000	19.569060
2229.000000	19.570797
2228.000000	19.566095
2227.000000	19.546264
2226.000000	19.529090
2225.000000	19.524388
2224.000000	19.465098
2223.000000	19.421551
2222.000000	19.396608
2221.000000	19.337114
2220.000000	19.300212
2219.000000	19.261776
2218.000000	19.200748
2217.000000	19.145343
2216.000000	19.090756
2215.000000	19.032795
2214.000000	19.015621
2213.000000	18.932820
2212.000000	18.896429
2211.000000	18.835708
2210.000000	18.775703
2209.000000	18.738596
2208.000000	18.689119
2207.000000	18.640972
2206.000000	18.612656
2205.000000	18.578207
2204.000000	18.564304
2203.000000	18.526584
2202.000000	18.495508
2201.000000	18.491010
2200.000000	18.464534
2199.000000	18.428245
2198.000000	18.390627
2197.000000	18.397271
2196.000000	18.364662
2195.000000	18.348306
2194.000000	18.331133
2193.000000	18.295150
2192.000000	18.271843
2191.000000	18.263972
2190.000000	18.252012
2189.000000	18.243527
2188.000000	18.223082
2187.000000	18.199571
2186.000000	18.178308
2185.000000	18.162975
2184.000000	18.143348
2183.000000	18.132103
2182.000000	18.112272
2181.000000	18.087227
2180.000000	18.067703
2179.000000	18.051142
2178.000000	18.022111
2177.000000	18.015671
2176.000000	18.003813
2175.000000	18.015262
2174.000000	17.999622
2173.000000	17.989195
2172.000000	17.998497
2171.000000	18.007800
2170.000000	18.010457
2169.000000	18.022111
2168.000000	18.023951
2167.000000	18.062591
2166.000000	18.074551
2165.000000	18.094587
2164.000000	18.126685
2163.000000	18.158784
2162.000000	18.182602
2161.000000	18.225945
2160.000000	18.270310
2159.000000	18.289732
2158.000000	18.333893
2157.000000	18.392978
2156.000000	18.427632
2155.000000	18.483855
2154.000000	18.547846
2153.000000	18.609385
2152.000000	18.657635
2151.000000	18.730827
2150.000000	18.771103
2149.000000	18.834583
2148.000000	18.913398
2147.000000	18.965941
2146.000000	19.019301
2145.000000	19.094436
2144.000000	19.156179
2143.000000	19.206984
2142.000000	19.259629
2141.000000	19.325768
2140.000000	19.366861
2139.000000	19.419711
2138.000000	19.471947
2137.000000	19.524899
2136.000000	19.564664
2135.000000	19.598807
2134.000000	19.640616
2133.000000	19.691114
2132.000000	19.716977
2131.000000	19.731288
2130.000000	19.759604
2129.000000	19.795485
2128.000000	19.805094
2127.000000	19.820427
2126.000000	19.840565
2125.000000	19.850685
2124.000000	19.850379
2123.000000	19.856410
2122.000000	19.857841
2121.000000	19.858659
2120.000000	19.856103
2119.000000	19.843427
2118.000000	19.839441
2117.000000	19.828298
2116.000000	19.833512
2115.000000	19.813476
2114.000000	19.769827
2113.000000	19.754902
2112.000000	19.750915
2111.000000	19.731697
2110.000000	19.698577
2109.000000	19.668830
2108.000000	19.646852
2107.000000	19.626100
2106.000000	19.591753
2105.000000	19.567628
2104.000000	19.554953
2103.000000	19.521219
2102.000000	19.485850
2101.000000	19.461009
2100.000000	19.444142
2099.000000	19.415724
2098.000000	19.379742
2097.000000	19.358683
2096.000000	19.345701
2095.000000	19.324439
2094.000000	19.307367
2093.000000	19.294896
2092.000000	19.266887
2091.000000	19.249713
2090.000000	19.238366
2089.000000	19.204939
2088.000000	19.182859
2087.000000	19.168957
2086.000000	19.150761
2085.000000	19.122547
2084.000000	19.084520
2083.000000	19.056817
2082.000000	19.032488
2081.000000	18.980252
2080.000000	18.931287
2079.000000	18.897042
2078.000000	18.842557
2077.000000	18.774680
2076.000000	18.719173
2075.000000	18.666017
2074.000000	18.594358
2073.000000	18.514726
2072.000000	18.440614
2071.000000	18.380507
2070.000000	18.299750
2069.000000	18.203455
2068.000000	18.112476
2067.000000	18.032435
2066.000000	17.959141
2065.000000	17.869798
2064.000000	17.784441
2063.000000	17.707978
2062.000000	17.611888
2061.000000	17.526736
2060.000000	17.467037
2059.000000	17.394254
2058.000000	17.333124
2057.000000	17.275470
2056.000000	17.226505
2055.000000	17.186638
2054.000000	17.169873
2053.000000	17.157709
2052.000000	17.142477
2051.000000	17.151882
2050.000000	17.165784
2049.000000	17.196145
2048.000000	17.256150
2047.000000	17.291928
2046.000000	17.345289
2045.000000	17.399876
2044.000000	17.473170
2043.000000	17.555358
2042.000000	17.622826
2041.000000	17.693360
2040.000000	17.775241
2039.000000	17.836780
2038.000000	17.897807
2037.000000	17.968239
2036.000000	18.038569
2035.000000	18.084058
2034.000000	18.136499
2033.000000	18.190575
2032.000000	18.222571
2031.000000	18.271945
2030.000000	18.301386
2029.000000	18.324897
2028.000000	18.346773
2027.000000	18.375089
2026.000000	18.386538
2025.000000	18.398805
2024.000000	18.386742
2023.000000	18.401565
2022.000000	18.433458
2021.000000	18.422112
2020.000000	18.413627
2019.000000	18.396249
2018.000000	18.389707
2017.000000	18.386231
2016.000000	18.377440
2015.000000	18.333586
2014.000000	18.318661
2013.000000	18.289323
2012.000000	18.261416
2011.000000	18.213371
2010.000000	18.187406
2009.000000	18.143655
2008.000000	18.112272
2007.000000	18.057787
2006.000000	18.006675
2005.000000	17.968750
2004.000000	17.922238
2003.000000	17.854362
2002.000000	17.788530
2001.000000	17.732307
2000.000000	17.660955
1999.000000	17.589910
1998.000000	17.542785
1997.000000	17.461619
1996.000000	17.375751
1995.000000	17.307466
1994.000000	17.215669
1993.000000	17.151269
1992.000000	17.069285
1991.000000	16.984542
1990.000000	16.885896
1989.000000	16.813113
1988.000000	16.724588
1987.000000	16.627475
1986.000000	16.537416
1985.000000	16.446233
1984.000000	16.354232
1983.000000	16.267648
1982.000000	16.177896
1981.000000	16.083646
1980.000000	15.987249
1979.000000	15.888603
1978.000000	15.793024
1977.000000	15.696832
1976.000000	15.593893
1975.000000	15.548812
1974.000000	15.447407
1973.000000	15.340685
1972.000000	15.228751
1971.000000	15.162816
1970.000000	15.063966
1969.000000	14.992205
1968.000000	14.915640
1967.000000	14.843572
1966.000000	14.758727
1965.000000	14.671735
1964.000000	14.592716
1963.000000	14.510630
1962.000000	14.437029
1961.000000	14.362100
1960.000000	14.278992
1959.000000	14.196804
1958.000000	14.114719
1957.000000	14.056451
1956.000000	13.987552
1955.000000	13.912316
1954.000000	13.830128
1953.000000	13.760923
1952.000000	13.697953
1951.000000	13.627215
1950.000000	13.576512
1949.000000	13.534702
1948.000000	13.473981
1947.000000	13.407434
1946.000000	13.378914
1945.000000	13.314002
1944.000000	13.303473
1943.000000	13.233961
1942.000000	13.220569
1941.000000	13.203702
1940.000000	13.189391
1939.000000	13.147684
1938.000000	13.145946
1937.000000	13.178964
1936.000000	13.152897
1935.000000	13.157600
1934.000000	13.168946
1933.000000	13.186427
1932.000000	13.200738
1931.000000	13.271783
1930.000000	13.330051
1929.000000	13.371145
1928.000000	13.437488
1927.000000	13.506080
1926.000000	13.585814
1925.000000	13.643877
1924.000000	13.754278
1923.000000	13.843008
1922.000000	13.961690
1921.000000	14.098056
1920.000000	14.230947
1919.000000	14.359646
1918.000000	14.494070
1917.000000	14.654152
1916.000000	14.810759
1915.000000	14.983414
1914.000000	15.151367
1913.000000	15.359699
1912.000000	15.576413
1911.000000	15.775033
1910.000000	15.980809
1909.000000	16.218172
1908.000000	16.460544
1907.000000	16.717636
1906.000000	17.013982
1905.000000	17.322391
1904.000000	17.663102
1903.000000	17.971204
1902.000000	18.293105
1901.000000	18.655488
1900.000000	19.007239
1899.000000	19.398960
1898.000000	19.818178
1897.000000	20.215828
1896.000000	20.635455
1895.000000	21.044452
1894.000000	21.467555
1893.000000	21.941054
1892.000000	22.408727
1891.000000	22.985268
1890.000000	23.521226
1889.000000	24.025188
1888.000000	24.572390
1887.000000	25.139424
1886.000000	25.671600
1885.000000	26.234545
1884.000000	26.815072
1883.000000	27.387217
1882.000000	27.936260
1881.000000	28.467618
1880.000000	29.003985
1879.000000	29.530640
1878.000000	30.016407
1877.000000	30.525071
1876.000000	31.016153
1875.000000	31.495070
1874.000000	31.947511
1873.000000	32.379099
1872.000000	32.813345
1871.000000	33.205474
1870.000000	33.560497
1869.000000	33.869416
1868.000000	34.198882
1867.000000	34.433690
1866.000000	34.667271
1865.000000	34.866913
1864.000000	35.060116
1863.000000	35.272945
1862.000000	35.486899
1861.000000	35.676932
1860.000000	35.884957
1859.000000	36.059555
1858.000000	36.198681
1857.000000	36.346803
1856.000000	36.465178
1855.000000	36.560859
1854.000000	36.655007
1853.000000	36.720328
1852.000000	36.771338
1851.000000	36.864770
1850.000000	36.938984
1849.000000	37.017390
1848.000000	37.074942
1847.000000	37.096511
1846.000000	37.055008
1845.000000	37.028328
1844.000000	37.059915
1843.000000	37.085471
1842.000000	37.138013
1841.000000	37.186774
1840.000000	37.161116
1839.000000	37.150894
1838.000000	37.132596
1837.000000	37.121249
1836.000000	37.094466
1835.000000	37.041310
1834.000000	36.978034
1833.000000	36.924162
1832.000000	36.914859
1831.000000	36.906682
1830.000000	36.879695
1829.000000	36.844427
1828.000000	36.804969
1827.000000	36.760502
1826.000000	36.694977
1825.000000	36.666354
1824.000000	36.626487
1823.000000	36.607576
1822.000000	36.642127
1821.000000	36.663798
1820.000000	36.613300
1819.000000	36.556873
1818.000000	36.526819
1817.000000	36.502490
1816.000000	36.481943
1815.000000	36.470800
1814.000000	36.446062
1813.000000	36.422960
1812.000000	36.403844
1811.000000	36.375324
1810.000000	36.336785
1809.000000	36.291398
1808.000000	36.261038
1807.000000	36.241104
1806.000000	36.218308
1805.000000	36.162188
1804.000000	36.102285
1803.000000	36.064053
1802.000000	36.032875
1801.000000	36.006501
1800.000000	35.965305
1799.000000	35.906527
1798.000000	35.856437
1797.000000	35.820148
1796.000000	35.778543
1795.000000	35.748285
1794.000000	35.715369
1793.000000	35.669061
1792.000000	35.631545
1791.000000	35.591678
1790.000000	35.554469
1789.000000	35.521553
1788.000000	35.495179
1787.000000	35.469112
1786.000000	35.438343
1785.000000	35.414116
1784.000000	35.384369
1783.000000	35.335915
1782.000000	35.307803
1781.000000	35.263949
1780.000000	35.204251
1779.000000	35.168984
1778.000000	35.125845
1777.000000	35.080560
1776.000000	35.034253
1775.000000	34.967297
1774.000000	34.921194
1773.000000	34.863131
1772.000000	34.795970
1771.000000	34.738112
1770.000000	34.679946
1769.000000	34.611252
1768.000000	34.529371
1767.000000	34.460779
1766.000000	34.403841
1765.000000	34.352013
1764.000000	34.301617
1763.000000	34.276981
1762.000000	34.272381
1761.000000	34.266043
1760.000000	34.295279
1759.000000	34.330444
1758.000000	34.352320
1757.000000	34.400058
1756.000000	34.444730
1755.000000	34.495944
1754.000000	34.541025
1753.000000	34.578438
1752.000000	34.606959
1751.000000	34.629652
1750.000000	34.646724
1749.000000	34.650710
1748.000000	34.642226
1747.000000	34.632821
1746.000000	34.598985
1745.000000	34.550634
1744.000000	34.485313
1743.000000	34.418765
1742.000000	34.343222
1741.000000	34.228527
1740.000000	34.134482
1739.000000	34.017947
1738.000000	33.890985
1737.000000	33.770259
1736.000000	33.656280
1735.000000	33.549559
1734.000000	33.456842
1733.000000	33.400619
1732.000000	33.333049
1731.000000	33.301053
1730.000000	33.295431
1729.000000	33.303915
1728.000000	33.331720
1727.000000	33.367192
1726.000000	33.390805
1725.000000	33.424744
1724.000000	33.475753
1723.000000	33.528194
1722.000000	33.591777
1721.000000	33.666707
1720.000000	33.770259
1719.000000	33.889963
1718.000000	34.001489
1717.000000	34.134891
1716.000000	34.280559
1715.000000	34.420708
1714.000000	34.571385
1713.000000	34.713885
1712.000000	34.840131
1711.000000	34.954212
1710.000000	35.052653
1709.000000	35.133717
1708.000000	35.198935
1707.000000	35.265687
1706.000000	35.295741
1705.000000	35.316697
1704.000000	35.318332
1703.000000	35.326101
1702.000000	35.281430
1701.000000	35.259452
1700.000000	35.210180
1699.000000	35.156921
1698.000000	35.081685
1697.000000	35.008186
1696.000000	34.962697
1695.000000	34.909234
1694.000000	34.874989
1693.000000	34.864051
1692.000000	34.876727
1691.000000	34.913527
1690.000000	34.969035
1689.000000	34.991728
1688.000000	35.077085
1687.000000	35.159784
1686.000000	35.237065
1685.000000	35.343479
1684.000000	35.444067
1683.000000	35.601492
1682.000000	35.777316
1681.000000	35.997301
1680.000000	36.233744
1679.000000	36.511383
1678.000000	36.822245
1677.000000	37.126462
1676.000000	37.432315
1675.000000	37.709852
1674.000000	37.951508
1673.000000	38.209316
1672.000000	38.428994
1671.000000	38.638348
1670.000000	38.805177
1669.000000	38.968632
1668.000000	39.132497
1667.000000	39.231960
1666.000000	39.356469
1665.000000	39.454603
1664.000000	39.554680
1663.000000	39.652406
1662.000000	39.719362
1661.000000	39.804105
1660.000000	39.861555
1659.000000	39.915427
1658.000000	39.958974
1657.000000	40.005179
1656.000000	40.035948
1655.000000	40.032984
1654.000000	40.041366
1653.000000	40.058233
1652.000000	40.052100
1651.000000	40.061709
1650.000000	40.052304
1649.000000	40.035335
1648.000000	40.009677
1647.000000	39.971241
1646.000000	39.919107
1645.000000	39.894982
1644.000000	39.853173
1643.000000	39.815861
1642.000000	39.761580
1641.000000	39.731322
1640.000000	39.670193
1639.000000	39.625419
1638.000000	39.593627
1637.000000	39.531577
1636.000000	39.481283
1635.000000	39.438656
1634.000000	39.378549
1633.000000	39.324881
1632.000000	39.262627
1631.000000	39.185653
1630.000000	39.116141
1629.000000	39.058691
1628.000000	38.981410
1627.000000	38.910978
1626.000000	38.835946
1625.000000	38.747318
1624.000000	38.697229
1623.000000	38.619846
1622.000000	38.540520
1621.000000	38.470497
1620.000000	38.402314
1619.000000	38.329838
1618.000000	38.272388
1617.000000	38.204205
1616.000000	38.128968
1615.000000	38.065488
1614.000000	38.010593
1613.000000	37.934744
1612.000000	37.874636
1611.000000	37.805329
1610.000000	37.733466
1609.000000	37.657513
1608.000000	37.586877
1607.000000	37.513276
