PE UV       SUBTECH     SPECTRUM    ASCII       PEDS        4.00        
   -1
CICIMAUCR0257-3.Sample.ASC
24/07/01
10:08:09.00
24/07/01
10:08:09.00
Vinicio Soto Monge
C. resplendens. Sex F. Dorsal.
250,000000
1
Lambda 1050
1050L1511233
PerkinElmer UV WinLab 6.3.2.0749 / 2.02.05 Lambda 900 UV/VIS/NIR, Aug  7 2015 09:38:08

0
0
3350/servo 860,8/2
0
0
UV/VIS
1
1
1
DoubleDePol,CommonBeamDepol,RBeamAtt,SBeamAtt,60mm sphere, WB InGaAs Detector
0
0
0
0
Program
Program
3350/servo 860,8/2
3350/0,2 860,8/0,2
3350/0,2 860,8/0,2
0
15.00
 
 
 
0
 
860,8
319,2
860,8
Front
100
on
S:100 R:100
0
0
0
0
 
0
 
 
 
0
 
 
0
0
0
0
0
 
 
 
 
0
0


0
0
#HDR
-1
-1
#GR
nm
%R
1.0
0.0
2500,000000
-1,000000
2251
8
90,810900
5,926100
#DATA
2500.000000	9.290427
2499.000000	9.247396
2498.000000	9.374093
2497.000000	9.301055
2496.000000	9.218119
2495.000000	9.156854
2494.000000	9.163731
2493.000000	9.144247
2492.000000	9.157271
2491.000000	9.100903
2490.000000	9.053809
2489.000000	9.045682
2488.000000	9.066520
2487.000000	9.038180
2486.000000	9.048808
2485.000000	8.952743
2484.000000	8.988898
2483.000000	9.040889
2482.000000	9.052454
2481.000000	9.020051
2480.000000	9.009840
2479.000000	9.019738
2478.000000	8.921694
2477.000000	9.006819
2476.000000	8.992440
2475.000000	9.008590
2474.000000	9.046307
2473.000000	9.012445
2472.000000	9.045995
2471.000000	9.034013
2470.000000	8.994316
2469.000000	9.046932
2468.000000	9.065166
2467.000000	9.054330
2466.000000	9.086212
2465.000000	9.072563
2464.000000	9.133620
2463.000000	9.174046
2462.000000	9.190612
2461.000000	9.237811
2460.000000	9.283134
2459.000000	9.313662
2458.000000	9.367425
2457.000000	9.410873
2456.000000	9.465781
2455.000000	9.539966
2454.000000	9.603314
2453.000000	9.682499
2452.000000	9.738554
2451.000000	9.814822
2450.000000	9.874211
2449.000000	9.950375
2448.000000	10.016537
2447.000000	10.103120
2446.000000	10.182409
2445.000000	10.254927
2444.000000	10.326819
2443.000000	10.416215
2442.000000	10.497796
2441.000000	10.542703
2440.000000	10.619179
2439.000000	10.702845
2438.000000	10.758900
2437.000000	10.831625
2436.000000	10.921647
2435.000000	10.973951
2434.000000	11.024067
2433.000000	11.078142
2432.000000	11.136385
2431.000000	11.216300
2430.000000	11.257768
2429.000000	11.304758
2428.000000	11.364564
2427.000000	11.426350
2426.000000	11.457815
2425.000000	11.503868
2424.000000	11.540647
2423.000000	11.575239
2422.000000	11.605663
2421.000000	11.643067
2420.000000	11.685057
2419.000000	11.722670
2418.000000	11.764242
2417.000000	11.793311
2416.000000	11.826965
2415.000000	11.839260
2414.000000	11.875310
2413.000000	11.911464
2412.000000	11.937512
2411.000000	11.972833
2410.000000	12.002632
2409.000000	12.015551
2408.000000	12.033681
2407.000000	12.068585
2406.000000	12.097029
2405.000000	12.118284
2404.000000	12.138810
2403.000000	12.164858
2402.000000	12.182883
2401.000000	12.206013
2400.000000	12.228518
2399.000000	12.265506
2398.000000	12.308016
2397.000000	12.333439
2396.000000	12.345734
2395.000000	12.363029
2394.000000	12.372719
2393.000000	12.386056
2392.000000	12.412104
2391.000000	12.431483
2390.000000	12.446487
2389.000000	12.465866
2388.000000	12.480141
2387.000000	12.487017
2386.000000	12.490872
2385.000000	12.481912
2384.000000	12.484517
2383.000000	12.472326
2382.000000	12.464824
2381.000000	12.455760
2380.000000	12.446487
2379.000000	12.444820
2378.000000	12.436901
2377.000000	12.424607
2376.000000	12.393349
2375.000000	12.369698
2374.000000	12.362925
2373.000000	12.327917
2372.000000	12.284573
2371.000000	12.265715
2370.000000	12.231332
2369.000000	12.194448
2368.000000	12.154334
2367.000000	12.111824
2366.000000	12.068793
2365.000000	12.017010
2364.000000	11.956267
2363.000000	11.894585
2362.000000	11.832696
2361.000000	11.779662
2360.000000	11.723920
2359.000000	11.667761
2358.000000	11.606809
2357.000000	11.557631
2356.000000	11.524081
2355.000000	11.469797
2354.000000	11.436873
2353.000000	11.426662
2352.000000	11.414888
2351.000000	11.404053
2350.000000	11.419785
2349.000000	11.450939
2348.000000	11.471985
2347.000000	11.500117
2346.000000	11.545128
2345.000000	11.593056
2344.000000	11.630669
2343.000000	11.664010
2342.000000	11.715689
2341.000000	11.756532
2340.000000	11.778933
2339.000000	11.816650
2338.000000	11.834050
2337.000000	11.840823
2336.000000	11.849054
2335.000000	11.854784
2334.000000	11.843323
2333.000000	11.818317
2332.000000	11.797687
2331.000000	11.765805
2330.000000	11.738194
2329.000000	11.684640
2328.000000	11.631502
2327.000000	11.581490
2326.000000	11.513453
2325.000000	11.455419
2324.000000	11.388424
2323.000000	11.297152
2322.000000	11.206818
2321.000000	11.096584
2320.000000	10.987912
2319.000000	10.874865
2318.000000	10.776925
2317.000000	10.662210
2316.000000	10.545724
2315.000000	10.421737
2314.000000	10.315774
2313.000000	10.225857
2312.000000	10.121041
2311.000000	10.036021
2310.000000	9.961107
2309.000000	9.908178
2308.000000	9.861917
2307.000000	9.830868
2306.000000	9.841704
2305.000000	9.846080
2304.000000	9.873586
2303.000000	9.916617
2302.000000	9.985696
2301.000000	10.043522
2300.000000	10.122499
2299.000000	10.207936
2298.000000	10.307543
2297.000000	10.400482
2296.000000	10.488940
2295.000000	10.597924
2294.000000	10.681694
2293.000000	10.739208
2292.000000	10.808391
2291.000000	10.850172
2290.000000	10.876324
2289.000000	10.904559
2288.000000	10.943631
2287.000000	10.951029
2286.000000	10.956030
2285.000000	10.956030
2284.000000	10.924252
2283.000000	10.911123
2282.000000	10.904143
2281.000000	10.856110
2280.000000	10.822978
2279.000000	10.802764
2278.000000	10.757337
2277.000000	10.728580
2276.000000	10.713368
2275.000000	10.677422
2274.000000	10.670650
2273.000000	10.691176
2272.000000	10.710243
2271.000000	10.700657
2270.000000	10.729518
2269.000000	10.786823
2268.000000	10.857569
2267.000000	10.927794
2266.000000	11.041988
2265.000000	11.162850
2264.000000	11.313510
2263.000000	11.461149
2262.000000	11.621083
2261.000000	11.811649
2260.000000	12.008779
2259.000000	12.267694
2258.000000	12.476390
2257.000000	12.713946
2256.000000	12.951502
2255.000000	13.215523
2254.000000	13.456517
2253.000000	13.680320
2252.000000	13.913813
2251.000000	14.118445
2250.000000	14.352875
2249.000000	14.536460
2248.000000	14.721713
2247.000000	14.911132
2246.000000	15.080339
2245.000000	15.242044
2244.000000	15.382702
2243.000000	15.511795
2242.000000	15.633699
2241.000000	15.747164
2240.000000	15.857502
2239.000000	15.949086
2238.000000	16.040150
2237.000000	16.118918
2236.000000	16.223005
2235.000000	16.278748
2234.000000	16.324279
2233.000000	16.401798
2232.000000	16.442849
2231.000000	16.477128
2230.000000	16.522555
2229.000000	16.546415
2228.000000	16.542873
2227.000000	16.552667
2226.000000	16.552875
2225.000000	16.524118
2224.000000	16.524952
2223.000000	16.552667
2222.000000	16.511094
2221.000000	16.477441
2220.000000	16.448788
2219.000000	16.416176
2218.000000	16.405549
2217.000000	16.366998
2216.000000	16.310630
2215.000000	16.278956
2214.000000	16.237384
2213.000000	16.207168
2212.000000	16.175598
2211.000000	16.142465
2210.000000	16.106103
2209.000000	16.084222
2208.000000	16.059425
2207.000000	16.019728
2206.000000	16.017853
2205.000000	16.010455
2204.000000	15.999098
2203.000000	15.968570
2202.000000	15.964402
2201.000000	15.952733
2200.000000	15.890948
2199.000000	15.894490
2198.000000	15.896261
2197.000000	15.899179
2196.000000	15.886988
2195.000000	15.868859
2194.000000	15.839269
2193.000000	15.823848
2192.000000	15.818222
2191.000000	15.810616
2190.000000	15.788944
2189.000000	15.774253
2188.000000	15.765605
2187.000000	15.758625
2186.000000	15.761750
2185.000000	15.734973
2184.000000	15.711009
2183.000000	15.696110
2182.000000	15.668603
2181.000000	15.678710
2180.000000	15.660372
2179.000000	15.623697
2178.000000	15.620259
2177.000000	15.628594
2176.000000	15.598795
2175.000000	15.603067
2174.000000	15.610673
2173.000000	15.617133
2172.000000	15.610360
2171.000000	15.626927
2170.000000	15.656725
2169.000000	15.647661
2168.000000	15.676105
2167.000000	15.691317
2166.000000	15.697048
2165.000000	15.738828
2164.000000	15.769044
2163.000000	15.810824
2162.000000	15.807386
2161.000000	15.860940
2160.000000	15.890114
2159.000000	15.938563
2158.000000	15.964715
2157.000000	16.005558
2156.000000	16.061092
2155.000000	16.119439
2154.000000	16.178932
2153.000000	16.224151
2152.000000	16.260097
2151.000000	16.296043
2150.000000	16.369394
2149.000000	16.442224
2148.000000	16.493903
2147.000000	16.546832
2146.000000	16.595385
2145.000000	16.640396
2144.000000	16.708537
2143.000000	16.758653
2142.000000	16.813666
2141.000000	16.872847
2140.000000	16.933382
2139.000000	16.974329
2138.000000	17.014338
2137.000000	17.063204
2136.000000	17.113112
2135.000000	17.148641
2134.000000	17.185004
2133.000000	17.229910
2132.000000	17.268253
2131.000000	17.302427
2130.000000	17.322745
2129.000000	17.349418
2128.000000	17.385364
2127.000000	17.400263
2126.000000	17.434438
2125.000000	17.456526
2124.000000	17.466425
2123.000000	17.471217
2122.000000	17.479761
2121.000000	17.480386
2120.000000	17.494556
2119.000000	17.494765
2118.000000	17.494973
2117.000000	17.494660
2116.000000	17.476219
2115.000000	17.467258
2114.000000	17.471113
2113.000000	17.465591
2112.000000	17.449025
2111.000000	17.437772
2110.000000	17.420476
2109.000000	17.423498
2108.000000	17.422039
2107.000000	17.408390
2106.000000	17.381925
2105.000000	17.359733
2104.000000	17.350772
2103.000000	17.344312
2102.000000	17.340561
2101.000000	17.322224
2100.000000	17.279610
2099.000000	17.280651
2098.000000	17.279297
2097.000000	17.260334
2096.000000	17.254916
2095.000000	17.251374
2094.000000	17.236370
2093.000000	17.229702
2092.000000	17.233661
2091.000000	17.214282
2090.000000	17.205321
2089.000000	17.212094
2088.000000	17.205425
2087.000000	17.213865
2086.000000	17.211468
2085.000000	17.184274
2084.000000	17.167291
2083.000000	17.166979
2082.000000	17.146453
2081.000000	17.130408
2080.000000	17.123427
2079.000000	17.095503
2078.000000	17.068935
2077.000000	17.042262
2076.000000	17.002148
2075.000000	16.970786
2074.000000	16.937028
2073.000000	16.885245
2072.000000	16.851800
2071.000000	16.822939
2070.000000	16.788452
2069.000000	16.748234
2068.000000	16.685823
2067.000000	16.623934
2066.000000	16.581215
2065.000000	16.541414
2064.000000	16.496820
2063.000000	16.447225
2062.000000	16.402735
2061.000000	16.361476
2060.000000	16.335845
2059.000000	16.312506
2058.000000	16.282915
2057.000000	16.261139
2056.000000	16.271663
2055.000000	16.277185
2054.000000	16.278956
2053.000000	16.311047
2052.000000	16.360642
2051.000000	16.419302
2050.000000	16.488381
2049.000000	16.583091
2048.000000	16.688845
2047.000000	16.767509
2046.000000	16.873472
2045.000000	17.011838
2044.000000	17.130408
2043.000000	17.251478
2042.000000	17.386406
2041.000000	17.531232
2040.000000	17.653448
2039.000000	17.791918
2038.000000	17.913926
2037.000000	18.030204
2036.000000	18.155442
2035.000000	18.259008
2034.000000	18.362262
2033.000000	18.468641
2032.000000	18.567206
2031.000000	18.664833
2030.000000	18.755584
2029.000000	18.824975
2028.000000	18.888532
2027.000000	18.970322
2026.000000	19.050966
2025.000000	19.104729
2024.000000	19.159325
2023.000000	19.212358
2022.000000	19.253618
2021.000000	19.332074
2020.000000	19.373334
2019.000000	19.419491
2018.000000	19.474400
2017.000000	19.491070
2016.000000	19.540144
2015.000000	19.567026
2014.000000	19.584322
2013.000000	19.600263
2012.000000	19.612870
2011.000000	19.626727
2010.000000	19.650066
2009.000000	19.653505
2008.000000	19.650170
2007.000000	19.649962
2006.000000	19.641106
2005.000000	19.626936
2004.000000	19.622456
2003.000000	19.608077
2002.000000	19.578487
2001.000000	19.556502
2000.000000	19.527954
1999.000000	19.482527
1998.000000	19.451165
1997.000000	19.413760
1996.000000	19.370417
1995.000000	19.331345
1994.000000	19.264558
1993.000000	19.215797
1992.000000	19.144738
1991.000000	19.086600
1990.000000	19.033983
1989.000000	18.972510
1988.000000	18.891866
1987.000000	18.822266
1986.000000	18.760272
1985.000000	18.687130
1984.000000	18.608882
1983.000000	18.549077
1982.000000	18.451762
1981.000000	18.369138
1980.000000	18.290161
1979.000000	18.228792
1978.000000	18.137833
1977.000000	18.065629
1976.000000	17.996758
1975.000000	17.913197
1974.000000	17.830261
1973.000000	17.768996
1972.000000	17.704918
1971.000000	17.646884
1970.000000	17.569261
1969.000000	17.480178
1968.000000	17.415892
1967.000000	17.338790
1966.000000	17.273983
1965.000000	17.199278
1964.000000	17.132596
1963.000000	17.086439
1962.000000	17.030280
1961.000000	16.953074
1960.000000	16.882641
1959.000000	16.816062
1958.000000	16.755110
1957.000000	16.676342
1956.000000	16.597573
1955.000000	16.551833
1954.000000	16.479733
1953.000000	16.416176
1952.000000	16.359079
1951.000000	16.316778
1950.000000	16.255513
1949.000000	16.199250
1948.000000	16.153406
1947.000000	16.087348
1946.000000	16.069323
1945.000000	16.024312
1944.000000	16.007642
1943.000000	15.959922
1942.000000	15.934604
1941.000000	15.902096
1940.000000	15.912411
1939.000000	15.892823
1938.000000	15.906055
1937.000000	15.930749
1936.000000	15.952837
1935.000000	15.985657
1934.000000	16.015977
1933.000000	16.048693
1932.000000	16.106832
1931.000000	16.139861
1930.000000	16.229153
1929.000000	16.292605
1928.000000	16.402631
1927.000000	16.500258
1926.000000	16.603929
1925.000000	16.722082
1924.000000	16.837005
1923.000000	16.938591
1922.000000	17.104256
1921.000000	17.280130
1920.000000	17.445482
1919.000000	17.611146
1918.000000	17.782333
1917.000000	17.975503
1916.000000	18.139292
1915.000000	18.285577
1914.000000	18.534281
1913.000000	18.787883
1912.000000	19.039193
1911.000000	19.282271
1910.000000	19.520869
1909.000000	19.714352
1908.000000	19.898563
1907.000000	20.148309
1906.000000	20.447547
1905.000000	20.783564
1904.000000	21.094783
1903.000000	21.384331
1902.000000	21.673045
1901.000000	21.933732
1900.000000	22.251203
1899.000000	22.612851
1898.000000	22.935948
1897.000000	23.275507
1896.000000	23.554949
1895.000000	23.811259
1894.000000	24.107163
1893.000000	24.416194
1892.000000	24.737833
1891.000000	25.119069
1890.000000	25.468839
1889.000000	25.778600
1888.000000	26.137226
1887.000000	26.459282
1886.000000	26.823222
1885.000000	27.197165
1884.000000	27.641749
1883.000000	28.074664
1882.000000	28.514455
1881.000000	28.960394
1880.000000	29.392267
1879.000000	29.781213
1878.000000	30.217046
1877.000000	30.605471
1876.000000	30.965139
1875.000000	31.318035
1874.000000	31.647801
1873.000000	31.977254
1872.000000	32.288786
1871.000000	32.554265
1870.000000	32.805367
1869.000000	33.014791
1868.000000	33.220881
1867.000000	33.346745
1866.000000	33.438433
1865.000000	33.536894
1864.000000	33.610765
1863.000000	33.682866
1862.000000	33.757675
1861.000000	33.845717
1860.000000	33.923235
1859.000000	33.978144
1858.000000	34.008880
1857.000000	34.025238
1856.000000	34.039513
1855.000000	34.036595
1854.000000	34.034199
1853.000000	34.023571
1852.000000	33.979915
1851.000000	33.948554
1850.000000	33.920630
1849.000000	33.902605
1848.000000	33.882705
1847.000000	33.849259
1846.000000	33.788828
1845.000000	33.687450
1844.000000	33.632125
1843.000000	33.601180
1842.000000	33.615350
1841.000000	33.627644
1840.000000	33.582217
1839.000000	33.533560
1838.000000	33.480839
1837.000000	33.437287
1836.000000	33.398528
1835.000000	33.331428
1834.000000	33.243595
1833.000000	33.158679
1832.000000	33.089496
1831.000000	33.030211
1830.000000	32.980408
1829.000000	32.915393
1828.000000	32.832665
1827.000000	32.744206
1826.000000	32.669397
1825.000000	32.615634
1824.000000	32.554891
1823.000000	32.507379
1822.000000	32.503212
1821.000000	32.524988
1820.000000	32.503003
1819.000000	32.458514
1818.000000	32.413086
1817.000000	32.379224
1816.000000	32.373077
1815.000000	32.383496
1814.000000	32.360678
1813.000000	32.353280
1812.000000	32.349321
1811.000000	32.319627
1810.000000	32.276804
1809.000000	32.234086
1808.000000	32.193555
1807.000000	32.160318
1806.000000	32.120830
1805.000000	32.065712
1804.000000	32.006740
1803.000000	31.968814
1802.000000	31.946205
1801.000000	31.905987
1800.000000	31.846181
1799.000000	31.783458
1798.000000	31.730529
1797.000000	31.683330
1796.000000	31.650197
1795.000000	31.616960
1794.000000	31.577263
1793.000000	31.522459
1792.000000	31.475989
1791.000000	31.442544
1790.000000	31.395658
1789.000000	31.340332
1788.000000	31.290633
1787.000000	31.233640
1786.000000	31.162582
1785.000000	31.097567
1784.000000	31.036615
1783.000000	30.971599
1782.000000	30.899082
1781.000000	30.825523
1780.000000	30.755194
1779.000000	30.681947
1778.000000	30.607763
1777.000000	30.511699
1776.000000	30.416885
1775.000000	30.306338
1774.000000	30.184538
1773.000000	30.077638
1772.000000	29.959381
1771.000000	29.836435
1770.000000	29.710051
1769.000000	29.575123
1768.000000	29.445509
1767.000000	29.321313
1766.000000	29.227645
1765.000000	29.150439
1764.000000	29.081048
1763.000000	29.052708
1762.000000	29.040934
1761.000000	29.070837
1760.000000	29.111055
1759.000000	29.158670
1758.000000	29.220977
1757.000000	29.282345
1756.000000	29.329857
1755.000000	29.377472
1754.000000	29.416023
1753.000000	29.440820
1752.000000	29.438945
1751.000000	29.424983
1750.000000	29.403728
1749.000000	29.372471
1748.000000	29.319333
1747.000000	29.240669
1746.000000	29.148147
1745.000000	29.032390
1744.000000	28.909340
1743.000000	28.740134
1742.000000	28.557174
1741.000000	28.357647
1740.000000	28.139054
1739.000000	27.915772
1738.000000	27.688218
1737.000000	27.503070
1736.000000	27.317193
1735.000000	27.171533
1734.000000	27.058486
1733.000000	27.006807
1732.000000	26.989720
1731.000000	27.011808
1730.000000	27.078491
1729.000000	27.176222
1728.000000	27.260721
1727.000000	27.350222
1726.000000	27.433887
1725.000000	27.502133
1724.000000	27.564022
1723.000000	27.616430
1722.000000	27.659357
1721.000000	27.703951
1720.000000	27.733541
1719.000000	27.768654
1718.000000	27.842734
1717.000000	27.925253
1716.000000	27.996312
1715.000000	28.101545
1714.000000	28.191046
1713.000000	28.293361
1712.000000	28.358273
1711.000000	28.408493
1710.000000	28.465173
1709.000000	28.491325
1708.000000	28.522374
1707.000000	28.516435
1706.000000	28.527792
1705.000000	28.506328
1704.000000	28.472779
1703.000000	28.431623
1702.000000	28.359210
1701.000000	28.289610
1700.000000	28.198339
1699.000000	28.075393
1698.000000	27.937131
1697.000000	27.854820
1696.000000	27.793347
1695.000000	27.752817
1694.000000	27.758964
1693.000000	27.858258
1692.000000	27.964742
1691.000000	28.094773
1690.000000	28.217718
1689.000000	28.325869
1688.000000	28.435895
1687.000000	28.510288
1686.000000	28.521019
1685.000000	28.570927
1684.000000	28.664699
1683.000000	28.826613
1682.000000	29.068545
1681.000000	29.410709
1680.000000	29.851647
1679.000000	30.330927
1678.000000	30.843757
1677.000000	31.292613
1676.000000	31.724903
1675.000000	32.099679
1674.000000	32.441426
1673.000000	32.737330
1672.000000	33.000308
1671.000000	33.200564
1670.000000	33.415198
1669.000000	33.607744
1668.000000	33.744026
1667.000000	33.872911
1666.000000	33.998878
1665.000000	34.099735
1664.000000	34.202676
1663.000000	34.293948
1662.000000	34.365527
1661.000000	34.432314
1660.000000	34.500455
1659.000000	34.558385
1658.000000	34.601521
1657.000000	34.642155
1656.000000	34.655388
1655.000000	34.680706
1654.000000	34.695293
1653.000000	34.696543
1652.000000	34.694043
1651.000000	34.674455
1650.000000	34.659138
1649.000000	34.639551
1648.000000	34.619129
1647.000000	34.573076
1646.000000	34.524107
1645.000000	34.515667
1644.000000	34.465030
1643.000000	34.417102
1642.000000	34.366048
1641.000000	34.334583
1640.000000	34.296032
1639.000000	34.229453
1638.000000	34.179858
1637.000000	34.129430
1636.000000	34.067019
1635.000000	34.014194
1634.000000	33.947616
1633.000000	33.887185
1632.000000	33.825191
1631.000000	33.764135
1630.000000	33.679844
1629.000000	33.615975
1628.000000	33.543041
1627.000000	33.464689
1626.000000	33.390297
1625.000000	33.317050
1624.000000	33.241824
1623.000000	33.175871
1622.000000	33.104500
