PE UV       SUBTECH     SPECTRUM    ASCII       PEDS        4.00        
   -1
CICIMAUCR0244-2.Sample.ASC
24/06/21
11:05:02.00
24/06/21
11:05:02.00
Vinicio Soto Monge
C. cupreomarginata. Sex M. Dorsal
250,000000
1
Lambda 1050
1050L1511233
PerkinElmer UV WinLab 6.3.2.0749 / 2.02.05 Lambda 900 UV/VIS/NIR, Aug  7 2015 09:38:08

0
0
3350/servo 860,8/2
0
0
UV/VIS
1
1
1
DoubleDePol,CommonBeamDepol,RBeamAtt,SBeamAtt,60mm sphere, WB InGaAs Detector
0
0
0
0
Program
Program
3350/servo 860,8/2
3350/0,2 860,8/0,2
3350/0,2 860,8/0,2
0
15.00
 
 
 
0
 
860,8
319,2
860,8
Front
100
on
S:100 R:100
0
0
0
0
 
0
 
 
 
0
 
 
0
0
0
0
0
 
 
 
 
0
0


0
0
#HDR
-1
-1
#GR
nm
%R
1.0
0.0
2500,000000
-1,000000
2251
8
73,853900
5,259900
#DATA
2482.000000	8.100064
2481.000000	8.066361
2480.000000	8.092539
2479.000000	8.129315
2478.000000	8.083212
2477.000000	8.111934
2476.000000	8.076005
2475.000000	8.122638
2474.000000	8.078867
2473.000000	8.090101
2472.000000	8.124440
2471.000000	8.143093
2470.000000	8.128044
2469.000000	8.174253
2468.000000	8.170225
2467.000000	8.227987
2466.000000	8.181566
2465.000000	8.206684
2464.000000	8.227457
2463.000000	8.258298
2462.000000	8.275362
2461.000000	8.330368
2460.000000	8.329626
2459.000000	8.367886
2458.000000	8.406040
2457.000000	8.445467
2456.000000	8.500578
2455.000000	8.553995
2454.000000	8.608576
2453.000000	8.616207
2452.000000	8.654680
2451.000000	8.732790
2450.000000	8.772004
2449.000000	8.844922
2448.000000	8.882016
2447.000000	8.919005
2446.000000	9.005276
2445.000000	9.051379
2444.000000	9.109564
2443.000000	9.157257
2442.000000	9.218410
2441.000000	9.271296
2440.000000	9.316552
2439.000000	9.376221
2438.000000	9.424126
2437.000000	9.481993
2436.000000	9.530216
2435.000000	9.583314
2434.000000	9.626344
2433.000000	9.656867
2432.000000	9.704454
2431.000000	9.761050
2430.000000	9.802596
2429.000000	9.875513
2428.000000	9.906884
2427.000000	9.928399
2426.000000	9.967613
2425.000000	9.985631
2424.000000	10.042544
2423.000000	10.071478
2422.000000	10.096702
2421.000000	10.131253
2420.000000	10.169832
2419.000000	10.208092
2418.000000	10.257269
2417.000000	10.276028
2416.000000	10.295529
2415.000000	10.310897
2414.000000	10.352019
2413.000000	10.389113
2412.000000	10.412960
2411.000000	10.457897
2410.000000	10.477080
2409.000000	10.481849
2408.000000	10.505272
2407.000000	10.544062
2406.000000	10.568968
2405.000000	10.592603
2404.000000	10.620583
2403.000000	10.637222
2402.000000	10.655452
2401.000000	10.681842
2400.000000	10.688095
2399.000000	10.708550
2398.000000	10.730383
2397.000000	10.759952
2396.000000	10.775320
2395.000000	10.792913
2394.000000	10.819091
2393.000000	10.835625
2392.000000	10.855656
2391.000000	10.879715
2390.000000	10.900487
2389.000000	10.922320
2388.000000	10.924440
2387.000000	10.929845
2386.000000	10.947650
2385.000000	10.953904
2384.000000	10.958143
2383.000000	10.961004
2382.000000	10.953162
2381.000000	10.949240
2380.000000	10.953692
2379.000000	10.952632
2378.000000	10.954116
2377.000000	10.941609
2376.000000	10.926348
2375.000000	10.915431
2374.000000	10.923804
2373.000000	10.917975
2372.000000	10.887875
2371.000000	10.873673
2370.000000	10.864453
2369.000000	10.852900
2368.000000	10.831386
2367.000000	10.806055
2366.000000	10.777122
2365.000000	10.749354
2364.000000	10.731336
2363.000000	10.714697
2362.000000	10.683961
2361.000000	10.633195
2360.000000	10.585820
2359.000000	10.570028
2358.000000	10.553177
2357.000000	10.508981
2356.000000	10.468389
2355.000000	10.459805
2354.000000	10.441999
2353.000000	10.442529
2352.000000	10.459063
2351.000000	10.440304
2350.000000	10.428751
2349.000000	10.455989
2348.000000	10.490010
2347.000000	10.494038
2346.000000	10.511631
2345.000000	10.549255
2344.000000	10.586774
2343.000000	10.606699
2342.000000	10.629592
2341.000000	10.660539
2340.000000	10.689155
2339.000000	10.713319
2338.000000	10.729005
2337.000000	10.736636
2336.000000	10.751156
2335.000000	10.753699
2334.000000	10.753487
2333.000000	10.750626
2332.000000	10.729641
2331.000000	10.717770
2330.000000	10.710034
2329.000000	10.673681
2328.000000	10.636586
2327.000000	10.606063
2326.000000	10.567379
2325.000000	10.525091
2324.000000	10.494991
2323.000000	10.440092
2322.000000	10.380952
2321.000000	10.318210
2320.000000	10.261190
2319.000000	10.184881
2318.000000	10.103273
2317.000000	10.034278
2316.000000	9.971217
2315.000000	9.891517
2314.000000	9.808849
2313.000000	9.728513
2312.000000	9.653370
2311.000000	9.602497
2310.000000	9.554699
2309.000000	9.487187
2308.000000	9.454437
2307.000000	9.426458
2306.000000	9.391483
2305.000000	9.389787
2304.000000	9.406744
2303.000000	9.418721
2302.000000	9.435678
2301.000000	9.479980
2300.000000	9.542192
2299.000000	9.587872
2298.000000	9.647435
2297.000000	9.697989
2296.000000	9.768787
2295.000000	9.827396
2294.000000	9.905931
2293.000000	9.964434
2292.000000	10.006404
2291.000000	10.060350
2290.000000	10.094477
2289.000000	10.100518
2288.000000	10.129769
2287.000000	10.141958
2286.000000	10.150330
2285.000000	10.147045
2284.000000	10.134327
2283.000000	10.133055
2282.000000	10.099352
2281.000000	10.062151
2280.000000	10.015836
2279.000000	9.984041
2278.000000	9.950974
2277.000000	9.909534
2276.000000	9.876255
2275.000000	9.849547
2274.000000	9.794011
2273.000000	9.772390
2272.000000	9.768045
2271.000000	9.756599
2270.000000	9.778219
2269.000000	9.784685
2268.000000	9.820295
2267.000000	9.856012
2266.000000	9.908792
2265.000000	10.009159
2264.000000	10.083136
2263.000000	10.205866
2262.000000	10.323827
2261.000000	10.457579
2260.000000	10.623338
2259.000000	10.798213
2258.000000	10.980612
2257.000000	11.159831
2256.000000	11.329512
2255.000000	11.539997
2254.000000	11.753661
2253.000000	11.915923
2252.000000	12.093235
2251.000000	12.297467
2250.000000	12.464498
2249.000000	12.633225
2248.000000	12.799938
2247.000000	12.930193
2246.000000	13.071364
2245.000000	13.203103
2244.000000	13.332298
2243.000000	13.417509
2242.000000	13.544478
2241.000000	13.641348
2240.000000	13.742139
2239.000000	13.831378
2238.000000	13.896452
2237.000000	13.970535
2236.000000	14.024905
2235.000000	14.076096
2234.000000	14.134493
2233.000000	14.192890
2232.000000	14.217797
2231.000000	14.255739
2230.000000	14.282659
2229.000000	14.304916
2228.000000	14.316150
2227.000000	14.343388
2226.000000	14.321661
2225.000000	14.319012
2224.000000	14.315514
2223.000000	14.320496
2222.000000	14.291244
2221.000000	14.275134
2220.000000	14.239206
2219.000000	14.235814
2218.000000	14.190983
2217.000000	14.169468
2216.000000	14.165122
2215.000000	14.121987
2214.000000	14.105135
2213.000000	14.078003
2212.000000	14.060622
2211.000000	14.020560
2210.000000	13.985903
2209.000000	13.981134
2208.000000	13.963964
2207.000000	13.940648
2206.000000	13.917543
2205.000000	13.913940
2204.000000	13.901963
2203.000000	13.881402
2202.000000	13.873348
2201.000000	13.873136
2200.000000	13.861053
2199.000000	13.850879
2198.000000	13.841022
2197.000000	13.814632
2196.000000	13.824065
2195.000000	13.806366
2194.000000	13.790574
2193.000000	13.795979
2192.000000	13.783791
2191.000000	13.768741
2190.000000	13.761746
2189.000000	13.736840
2188.000000	13.748392
2187.000000	13.739807
2186.000000	13.717339
2185.000000	13.707058
2184.000000	13.693386
2183.000000	13.684060
2182.000000	13.663075
2181.000000	13.659259
2180.000000	13.649509
2179.000000	13.641136
2178.000000	13.644845
2177.000000	13.618879
2176.000000	13.611672
2175.000000	13.607539
2174.000000	13.613368
2173.000000	13.612732
2172.000000	13.618243
2171.000000	13.615594
2170.000000	13.632975
2169.000000	13.653748
2168.000000	13.647389
2167.000000	13.652794
2166.000000	13.669010
2165.000000	13.683106
2164.000000	13.706740
2163.000000	13.721684
2162.000000	13.742457
2161.000000	13.768953
2160.000000	13.781141
2159.000000	13.833180
2158.000000	13.860418
2157.000000	13.893273
2156.000000	13.930367
2155.000000	13.971171
2154.000000	14.005828
2153.000000	14.033702
2152.000000	14.069525
2151.000000	14.128452
2150.000000	14.159929
2149.000000	14.200415
2148.000000	14.220128
2147.000000	14.261462
2146.000000	14.307883
2145.000000	14.335121
2144.000000	14.382708
2143.000000	14.412702
2142.000000	14.438880
2141.000000	14.467178
2140.000000	14.499609
2139.000000	14.534478
2138.000000	14.564047
2137.000000	14.581111
2136.000000	14.598810
2135.000000	14.623929
2134.000000	14.648729
2133.000000	14.659221
2132.000000	14.673529
2131.000000	14.673741
2130.000000	14.689109
2129.000000	14.706384
2128.000000	14.691971
2127.000000	14.695468
2126.000000	14.698436
2125.000000	14.696528
2124.000000	14.678934
2123.000000	14.679464
2122.000000	14.682114
2121.000000	14.670986
2120.000000	14.648093
2119.000000	14.628910
2118.000000	14.608773
2117.000000	14.582277
2116.000000	14.567015
2115.000000	14.539989
2114.000000	14.515295
2113.000000	14.490494
2112.000000	14.452022
2111.000000	14.414292
2110.000000	14.393201
2109.000000	14.363843
2108.000000	14.333956
2107.000000	14.296331
2106.000000	14.270259
2105.000000	14.241325
2104.000000	14.221294
2103.000000	14.193950
2102.000000	14.153358
2101.000000	14.115946
2100.000000	14.075036
2099.000000	14.036034
2098.000000	14.010173
2097.000000	13.993110
2096.000000	13.957075
2095.000000	13.922312
2094.000000	13.889669
2093.000000	13.866141
2092.000000	13.840069
2091.000000	13.805518
2090.000000	13.781459
2089.000000	13.753055
2088.000000	13.729103
2087.000000	13.712357
2086.000000	13.684272
2085.000000	13.644951
2084.000000	13.603618
2083.000000	13.577651
2082.000000	13.556243
2081.000000	13.512153
2080.000000	13.466050
2079.000000	13.419841
2078.000000	13.378613
2077.000000	13.326892
2076.000000	13.269661
2075.000000	13.235322
2074.000000	13.184450
2073.000000	13.134531
2072.000000	13.089594
2071.000000	13.034588
2070.000000	12.966652
2069.000000	12.913660
2068.000000	12.859608
2067.000000	12.805662
2066.000000	12.748006
2065.000000	12.679328
2064.000000	12.620295
2063.000000	12.583095
2062.000000	12.534342
2061.000000	12.492584
2060.000000	12.451780
2059.000000	12.406207
2058.000000	12.368052
2057.000000	12.327142
2056.000000	12.297467
2055.000000	12.278602
2054.000000	12.269487
2053.000000	12.269169
2052.000000	12.269063
2051.000000	12.286126
2050.000000	12.304886
2049.000000	12.324175
2048.000000	12.343888
2047.000000	12.384056
2046.000000	12.422210
2045.000000	12.463438
2044.000000	12.501381
2043.000000	12.557870
2042.000000	12.600582
2041.000000	12.642658
2040.000000	12.686535
2039.000000	12.711971
2038.000000	12.751080
2037.000000	12.785313
2036.000000	12.815200
2035.000000	12.839259
2034.000000	12.867980
2033.000000	12.889283
2032.000000	12.916839
2031.000000	12.945243
2030.000000	12.959657
2029.000000	12.970149
2028.000000	12.966546
2027.000000	12.967818
2026.000000	12.975660
2025.000000	12.987319
2024.000000	12.986789
2023.000000	12.975766
2022.000000	12.978098
2021.000000	12.959975
2020.000000	12.941534
2019.000000	12.931783
2018.000000	12.932313
2017.000000	12.909208
2016.000000	12.878155
2015.000000	12.842332
2014.000000	12.829508
2013.000000	12.810431
2012.000000	12.777576
2011.000000	12.749490
2010.000000	12.712713
2009.000000	12.666292
2008.000000	12.609379
2007.000000	12.594859
2006.000000	12.549286
2005.000000	12.493114
2004.000000	12.440758
2003.000000	12.405465
2002.000000	12.342404
2001.000000	12.288352
2000.000000	12.234406
1999.000000	12.156932
1998.000000	12.104787
1997.000000	12.051265
1996.000000	11.981845
1995.000000	11.897588
1994.000000	11.849259
1993.000000	11.781217
1992.000000	11.700987
1991.000000	11.630401
1990.000000	11.551125
1989.000000	11.508943
1988.000000	11.411862
1987.000000	11.336507
1986.000000	11.277156
1985.000000	11.215049
1984.000000	11.147113
1983.000000	11.048018
1982.000000	10.979022
1981.000000	10.934826
1980.000000	10.829796
1979.000000	10.760906
1978.000000	10.692546
1977.000000	10.620053
1976.000000	10.572572
1975.000000	10.495521
1974.000000	10.420061
1973.000000	10.334213
1972.000000	10.305279
1971.000000	10.239145
1970.000000	10.166546
1969.000000	10.093417
1968.000000	10.047844
1967.000000	9.990824
1966.000000	9.911866
1965.000000	9.862053
1964.000000	9.816692
1963.000000	9.741125
1962.000000	9.697459
1961.000000	9.627404
1960.000000	9.603239
1959.000000	9.539967
1958.000000	9.489306
1957.000000	9.442249
1956.000000	9.386819
1955.000000	9.348241
1954.000000	9.299594
1953.000000	9.284121
1952.000000	9.226147
1951.000000	9.180680
1950.000000	9.132987
1949.000000	9.098224
1948.000000	9.079147
1947.000000	9.046292
1946.000000	9.039191
1945.000000	8.980581
1944.000000	8.976872
1943.000000	8.938824
1942.000000	8.919429
1941.000000	8.916567
1940.000000	8.915507
1939.000000	8.936492
1938.000000	8.921442
1937.000000	8.920064
1936.000000	8.956523
1935.000000	8.968817
1934.000000	8.973692
1933.000000	8.996055
1932.000000	9.016086
1931.000000	9.051909
1930.000000	9.130655
1929.000000	9.151640
1928.000000	9.242999
1927.000000	9.302562
1926.000000	9.378977
1925.000000	9.464612
1924.000000	9.531912
1923.000000	9.582042
1922.000000	9.686649
1921.000000	9.813300
1920.000000	9.965600
1919.000000	10.095325
1918.000000	10.209894
1917.000000	10.326794
1916.000000	10.431189
1915.000000	10.517248
1914.000000	10.692228
1913.000000	10.871130
1912.000000	11.089352
1911.000000	11.287224
1910.000000	11.444717
1909.000000	11.557802
1908.000000	11.708830
1907.000000	11.901721
1906.000000	12.118247
1905.000000	12.402285
1904.000000	12.689609
1903.000000	12.920549
1902.000000	13.150641
1901.000000	13.384336
1900.000000	13.719564
1899.000000	14.027979
1898.000000	14.388537
1897.000000	14.703417
1896.000000	14.986713
1895.000000	15.219984
1894.000000	15.490244
1893.000000	15.802474
1892.000000	16.181262
1891.000000	16.677481
1890.000000	17.115514
1889.000000	17.524084
1888.000000	17.957242
1887.000000	18.346840
1886.000000	18.777984
1885.000000	19.240606
1884.000000	19.814405
1883.000000	20.382587
1882.000000	20.888556
1881.000000	21.418266
1880.000000	21.913530
1879.000000	22.356757
1878.000000	22.846616
1877.000000	23.351102
1876.000000	23.802807
1875.000000	24.279842
1874.000000	24.723175
1873.000000	25.216638
1872.000000	25.684240
1871.000000	26.103196
1870.000000	26.538792
1869.000000	26.943440
1868.000000	27.273051
1867.000000	27.528474
1866.000000	27.750511
1865.000000	27.911289
1864.000000	28.069947
1863.000000	28.181019
1862.000000	28.306187
1861.000000	28.491871
1860.000000	28.669819
1859.000000	28.833247
1858.000000	29.001550
1857.000000	29.101175
1856.000000	29.153743
1855.000000	29.204404
1854.000000	29.300319
1853.000000	29.373449
1852.000000	29.377688
1851.000000	29.388604
1850.000000	29.362320
1849.000000	29.333069
1848.000000	29.407576
1847.000000	29.519601
1846.000000	29.545355
1845.000000	29.472014
1844.000000	29.390618
1843.000000	29.299896
1842.000000	29.285800
1841.000000	29.359565
1840.000000	29.372389
1839.000000	29.388710
1838.000000	29.347482
1837.000000	29.310918
1836.000000	29.310388
1835.000000	29.297670
1834.000000	29.229098
1833.000000	29.124491
1832.000000	29.019779
1831.000000	28.953433
1830.000000	28.932342
1829.000000	28.886875
1828.000000	28.813957
1827.000000	28.752381
1826.000000	28.685504
1825.000000	28.629969
1824.000000	28.558535
1823.000000	28.466541
1822.000000	28.420014
1821.000000	28.431778
1820.000000	28.450113
1819.000000	28.441529
1818.000000	28.374758
1817.000000	28.309260
1816.000000	28.279161
1815.000000	28.269410
1814.000000	28.237509
1813.000000	28.209953
1812.000000	28.172646
1811.000000	28.134704
1810.000000	28.109268
1809.000000	28.057547
1808.000000	27.992473
1807.000000	27.954743
1806.000000	27.916800
1805.000000	27.858721
1804.000000	27.805835
1803.000000	27.743304
1802.000000	27.673884
1801.000000	27.638697
1800.000000	27.600331
1799.000000	27.526142
1798.000000	27.447820
1797.000000	27.379036
1796.000000	27.327951
1795.000000	27.280682
1794.000000	27.228114
1793.000000	27.179891
1792.000000	27.121176
1791.000000	27.065958
1790.000000	27.007985
1789.000000	26.936975
1788.000000	26.879744
1787.000000	26.832475
1786.000000	26.775773
1785.000000	26.698934
1784.000000	26.628879
1783.000000	26.565288
1782.000000	26.483468
1781.000000	26.402390
1780.000000	26.346113
1779.000000	26.289623
1778.000000	26.218295
1777.000000	26.137323
1776.000000	26.073415
1775.000000	25.990853
1774.000000	25.910729
1773.000000	25.816721
1772.000000	25.705225
1771.000000	25.613125
1770.000000	25.527914
1769.000000	25.412603
1768.000000	25.319760
1767.000000	25.222573
1766.000000	25.149761
1765.000000	25.077056
1764.000000	25.016221
1763.000000	24.997886
1762.000000	25.000959
1761.000000	25.007001
1760.000000	25.019401
1759.000000	25.072287
1758.000000	25.140753
1757.000000	25.191413
1756.000000	25.247797
1755.000000	25.293688
1754.000000	25.352615
1753.000000	25.408363
1752.000000	25.421187
1751.000000	25.426805
1750.000000	25.417372
1749.000000	25.402322
1748.000000	25.380277
1747.000000	25.352827
1746.000000	25.304923
1745.000000	25.231263
1744.000000	25.149338
1743.000000	25.042611
1742.000000	24.915112
1741.000000	24.778604
1740.000000	24.630968
1739.000000	24.466799
1738.000000	24.288639
1737.000000	24.137293
1736.000000	23.978953
1735.000000	23.868411
1734.000000	23.788711
1733.000000	23.743456
1732.000000	23.747483
1731.000000	23.766772
1730.000000	23.797084
1729.000000	23.866927
1728.000000	23.968778
1727.000000	24.049432
1726.000000	24.130934
1725.000000	24.216040
1724.000000	24.303477
1723.000000	24.366537
1722.000000	24.425677
1721.000000	24.489903
1720.000000	24.529753
1719.000000	24.598007
1718.000000	24.675588
1717.000000	24.761117
1716.000000	24.823860
1715.000000	24.903666
1714.000000	25.001595
1713.000000	25.081826
1712.000000	25.177423
1711.000000	25.257760
1710.000000	25.304181
1709.000000	25.355583
1708.000000	25.395221
1707.000000	25.401898
1706.000000	25.377946
1705.000000	25.363320
1704.000000	25.340639
1703.000000	25.286693
1702.000000	25.234125
1701.000000	25.155485
1700.000000	25.064338
1699.000000	24.956658
1698.000000	24.828629
1697.000000	24.718193
1696.000000	24.647290
1695.000000	24.601929
1694.000000	24.576916
1693.000000	24.630120
1692.000000	24.713000
1691.000000	24.824178
1690.000000	24.948709
1689.000000	25.078540
1688.000000	25.193639
1687.000000	25.268888
1686.000000	25.349012
1685.000000	25.422353
1684.000000	25.484460
1683.000000	25.644602
1682.000000	25.821490
1681.000000	26.125029
1680.000000	26.449765
1679.000000	26.858441
1678.000000	27.296050
1677.000000	27.770966
1676.000000	28.190876
1675.000000	28.584819
1674.000000	28.923121
1673.000000	29.233549
1672.000000	29.516316
1671.000000	29.770678
1670.000000	29.979785
1669.000000	30.148300
1668.000000	30.321902
1667.000000	30.415698
1666.000000	30.537686
1665.000000	30.639749
1664.000000	30.735877
1663.000000	30.832747
1662.000000	30.892204
1661.000000	30.941275
1660.000000	31.019597
1659.000000	31.061673
1658.000000	31.109154
1657.000000	31.116997
1656.000000	31.131199
1655.000000	31.157165
1654.000000	31.175076
1653.000000	31.169035
1652.000000	31.161616
1651.000000	31.155999
1650.000000	31.123568
1649.000000	31.100039
1648.000000	31.052664
1647.000000	31.017054
1646.000000	30.976250
1645.000000	30.958762
1644.000000	30.894960
1643.000000	30.831263
1642.000000	30.809218
1641.000000	30.768732
1640.000000	30.708321
1639.000000	30.648970
1638.000000	30.583260
1637.000000	30.510660
1636.000000	30.478653
1635.000000	30.388990
1634.000000	30.343311
1633.000000	30.246759
1632.000000	30.163244
1631.000000	30.106966
1630.000000	30.030975
1629.000000	29.937815
1628.000000	29.866700
1627.000000	29.794736
1626.000000	29.709525
1625.000000	29.612337
1624.000000	29.542388
1623.000000	29.442550
1622.000000	29.361790
1621.000000	29.305089
1620.000000	29.208961
1619.000000	29.127565
1618.000000	29.045215
1617.000000	28.970072
1616.000000	28.894400
1615.000000	28.822118
1614.000000	28.744114
1613.000000	28.655617
1612.000000	28.585243
1611.000000	28.501092
1610.000000	28.414185
1609.000000	28.338830
1608.000000	28.256692
1607.000000	28.165969
1606.000000	28.091674
1605.000000	28.018227
1604.000000	27.926975
1603.000000	27.845579
1602.000000	27.756870
1601.000000	27.669115
