PE UV       SUBTECH     SPECTRUM    ASCII       PEDS        4.00        
   -1
CICIMAUCR0258-3.Sample.ASC
24/07/01
13:32:30.00
24/07/01
13:32:30.00
Vinicio Soto Monge
C. resplendens. Sex M. Dorsal.
250,000000
1
Lambda 1050
1050L1511233
PerkinElmer UV WinLab 6.3.2.0749 / 2.02.05 Lambda 900 UV/VIS/NIR, Aug  7 2015 09:38:08

0
0
3350/servo 860,8/2
0
0
UV/VIS
1
1
1
DoubleDePol,CommonBeamDepol,RBeamAtt,SBeamAtt,60mm sphere, WB InGaAs Detector
0
0
0
0
Program
Program
3350/servo 860,8/2
3350/0,2 860,8/0,2
3350/0,2 860,8/0,2
0
15.00
 
 
 
0
 
860,8
319,2
860,8
Front
100
on
S:100 R:100
0
0
0
0
 
0
 
 
 
0
 
 
0
0
0
0
0
 
 
 
 
0
0


0
0
#HDR
-1
-1
#GR
nm
%R
1.0
0.0
2500,000000
-1,000000
2251
8
89,537900
5,117800
#DATA
2482.000000	8.621218
2481.000000	8.613256
2480.000000	8.558231
2479.000000	8.527809
2478.000000	8.568440
2477.000000	8.631631
2476.000000	8.597636
2475.000000	8.631121
2474.000000	8.660011
2473.000000	8.686350
2472.000000	8.676549
2471.000000	8.688698
2470.000000	8.674610
2469.000000	8.672262
2468.000000	8.726776
2467.000000	8.786905
2466.000000	8.765059
2465.000000	8.758117
2464.000000	8.809364
2463.000000	8.819164
2462.000000	8.879702
2461.000000	8.890931
2460.000000	8.940648
2459.000000	8.981686
2458.000000	9.019765
2457.000000	9.037732
2456.000000	9.083671
2455.000000	9.155540
2454.000000	9.195048
2453.000000	9.259873
2452.000000	9.309793
2451.000000	9.379314
2450.000000	9.426070
2449.000000	9.519275
2448.000000	9.589204
2447.000000	9.636674
2446.000000	9.719365
2445.000000	9.757239
2444.000000	9.813386
2443.000000	9.891177
2442.000000	9.959370
2441.000000	10.029912
2440.000000	10.092593
2439.000000	10.153948
2438.000000	10.226940
2437.000000	10.289212
2436.000000	10.351587
2435.000000	10.426621
2434.000000	10.476337
2433.000000	10.551677
2432.000000	10.629876
2431.000000	10.674896
2430.000000	10.724306
2429.000000	10.775349
2428.000000	10.822819
2427.000000	10.894688
2426.000000	10.949815
2425.000000	10.983198
2424.000000	11.030259
2423.000000	11.090184
2422.000000	11.134694
2421.000000	11.188392
2420.000000	11.237291
2419.000000	11.288232
2418.000000	11.333967
2417.000000	11.366737
2416.000000	11.413084
2415.000000	11.457594
2414.000000	11.503942
2413.000000	11.528238
2412.000000	11.562641
2411.000000	11.607457
2410.000000	11.634612
2409.000000	11.680143
2408.000000	11.708217
2407.000000	11.739762
2406.000000	11.775900
2405.000000	11.812141
2404.000000	11.855222
2403.000000	11.879212
2402.000000	11.915861
2401.000000	11.951285
2400.000000	11.985280
2399.000000	12.019683
2398.000000	12.050411
2397.000000	12.076954
2396.000000	12.101659
2395.000000	12.135245
2394.000000	12.161584
2393.000000	12.189453
2392.000000	12.232942
2391.000000	12.244682
2390.000000	12.261016
2389.000000	12.278983
2388.000000	12.304811
2387.000000	12.323187
2386.000000	12.343911
2385.000000	12.362082
2384.000000	12.378824
2383.000000	12.387604
2382.000000	12.404244
2381.000000	12.416188
2380.000000	12.425886
2379.000000	12.426192
2378.000000	12.411798
2377.000000	12.405877
2376.000000	12.412104
2375.000000	12.429357
2374.000000	12.432318
2373.000000	12.426805
2372.000000	12.417311
2371.000000	12.419455
2370.000000	12.418638
2369.000000	12.392810
2368.000000	12.371678
2367.000000	12.362899
2366.000000	12.357999
2365.000000	12.354221
2364.000000	12.326862
2363.000000	12.301749
2362.000000	12.281842
2361.000000	12.253360
2360.000000	12.234678
2359.000000	12.210585
2358.000000	12.179041
2357.000000	12.159950
2356.000000	12.125956
2355.000000	12.090021
2354.000000	12.062968
2353.000000	12.056537
2352.000000	12.047247
2351.000000	12.033363
2350.000000	12.033669
2349.000000	12.048472
2348.000000	12.054699
2347.000000	12.068685
2346.000000	12.097473
2345.000000	12.123097
2344.000000	12.145965
2343.000000	12.178530
2342.000000	12.239884
2341.000000	12.270612
2340.000000	12.298686
2339.000000	12.335744
2338.000000	12.365349
2337.000000	12.392402
2336.000000	12.410165
2335.000000	12.429868
2334.000000	12.456921
2333.000000	12.454573
2332.000000	12.464373
2331.000000	12.481932
2330.000000	12.464475
2329.000000	12.444364
2328.000000	12.445691
2327.000000	12.425682
2326.000000	12.415167
2325.000000	12.396689
2324.000000	12.347892
2323.000000	12.303586
2322.000000	12.262650
2321.000000	12.228042
2320.000000	12.162605
2319.000000	12.094411
2318.000000	12.020194
2317.000000	11.949244
2316.000000	11.882071
2315.000000	11.792234
2314.000000	11.708319
2313.000000	11.618585
2312.000000	11.539978
2311.000000	11.462494
2310.000000	11.376844
2309.000000	11.324065
2308.000000	11.273940
2307.000000	11.235249
2306.000000	11.184819
2305.000000	11.165218
2304.000000	11.177264
2303.000000	11.186860
2302.000000	11.201765
2301.000000	11.228920
2300.000000	11.255769
2299.000000	11.332028
2298.000000	11.388686
2297.000000	11.461371
2296.000000	11.530382
2295.000000	11.626752
2294.000000	11.691985
2293.000000	11.750991
2292.000000	11.823473
2291.000000	11.909736
2290.000000	11.966700
2289.000000	11.998960
2288.000000	12.040509
2287.000000	12.092471
2286.000000	12.119014
2285.000000	12.135858
2284.000000	12.143004
2283.000000	12.145658
2282.000000	12.154846
2281.000000	12.154234
2280.000000	12.121055
2279.000000	12.085631
2278.000000	12.063887
2277.000000	12.046838
2276.000000	12.017335
2275.000000	12.007841
2274.000000	11.985791
2273.000000	11.959963
2272.000000	11.937402
2271.000000	11.940872
2270.000000	11.948733
2269.000000	11.980176
2268.000000	11.995285
2267.000000	12.040713
2266.000000	12.094819
2265.000000	12.162809
2264.000000	12.281944
2263.000000	12.384847
2262.000000	12.495816
2261.000000	12.633122
2260.000000	12.818103
2259.000000	12.986954
2258.000000	13.168567
2257.000000	13.350893
2256.000000	13.542714
2255.000000	13.761894
2254.000000	13.943609
2253.000000	14.154826
2252.000000	14.342767
2251.000000	14.573279
2250.000000	14.737332
2249.000000	14.912207
2248.000000	15.093411
2247.000000	15.245724
2246.000000	15.401814
2245.000000	15.525135
2244.000000	15.672957
2243.000000	15.786477
2242.000000	15.910921
2241.000000	16.012497
2240.000000	16.102435
2239.000000	16.176040
2238.000000	16.253728
2237.000000	16.327945
2236.000000	16.386747
2235.000000	16.462291
2234.000000	16.495367
2233.000000	16.541612
2232.000000	16.568971
2231.000000	16.601129
2230.000000	16.616237
2229.000000	16.622260
2228.000000	16.650845
2227.000000	16.652070
2226.000000	16.631755
2225.000000	16.633898
2224.000000	16.609398
2223.000000	16.597555
2222.000000	16.594391
2221.000000	16.552535
2220.000000	16.507617
2219.000000	16.452695
2218.000000	16.426458
2217.000000	16.373271
2216.000000	16.348668
2215.000000	16.318042
2214.000000	16.300177
2213.000000	16.242906
2212.000000	16.185840
2211.000000	16.151335
2210.000000	16.123975
2209.000000	16.102844
2208.000000	16.067828
2207.000000	16.038121
2206.000000	16.008005
2205.000000	15.995040
2204.000000	15.940322
2203.000000	15.913473
2202.000000	15.903672
2201.000000	15.899487
2200.000000	15.859367
2199.000000	15.852629
2198.000000	15.847423
2197.000000	15.823432
2196.000000	15.806792
2195.000000	15.800769
2194.000000	15.774329
2193.000000	15.747378
2192.000000	15.737373
2191.000000	15.715425
2190.000000	15.700010
2189.000000	15.682859
2188.000000	15.683676
2187.000000	15.668363
2186.000000	15.638860
2185.000000	15.617830
2184.000000	15.609152
2183.000000	15.591389
2182.000000	15.577608
2181.000000	15.570972
2180.000000	15.521970
2179.000000	15.517274
2178.000000	15.505534
2177.000000	15.489813
2176.000000	15.492365
2175.000000	15.467558
2174.000000	15.468171
2173.000000	15.464291
2172.000000	15.451326
2171.000000	15.473377
2170.000000	15.476542
2169.000000	15.489507
2168.000000	15.478584
2167.000000	15.496551
2166.000000	15.519520
2165.000000	15.537283
2164.000000	15.552290
2163.000000	15.579751
2162.000000	15.580568
2161.000000	15.618238
2160.000000	15.651110
2159.000000	15.671119
2158.000000	15.714098
2157.000000	15.730431
2156.000000	15.792908
2155.000000	15.827312
2154.000000	15.871923
2153.000000	15.928377
2152.000000	15.973704
2151.000000	16.024543
2150.000000	16.084774
2149.000000	16.128774
2148.000000	16.166954
2147.000000	16.226164
2146.000000	16.266999
2145.000000	16.324167
2144.000000	16.375619
2143.000000	16.408083
2142.000000	16.462189
2141.000000	16.509659
2140.000000	16.541816
2139.000000	16.591328
2138.000000	16.630529
2137.000000	16.672998
2136.000000	16.725572
2135.000000	16.758138
2134.000000	16.800810
2133.000000	16.821432
2132.000000	16.851853
2131.000000	16.892382
2130.000000	16.906878
2129.000000	16.917189
2128.000000	16.935054
2127.000000	16.959555
2126.000000	16.974664
2125.000000	16.988956
2124.000000	16.992427
2123.000000	16.998450
2122.000000	17.010904
2121.000000	17.013865
2120.000000	17.022644
2119.000000	17.014988
2118.000000	17.012436
2117.000000	17.005596
2116.000000	17.009986
2115.000000	16.986506
2114.000000	16.972724
2113.000000	16.978951
2112.000000	16.967620
2111.000000	16.945058
2110.000000	16.917801
2109.000000	16.912187
2108.000000	16.908614
2107.000000	16.892892
2106.000000	16.869514
2105.000000	16.847974
2104.000000	16.824494
2103.000000	16.813673
2102.000000	16.798972
2101.000000	16.769878
2100.000000	16.742212
2099.000000	16.710974
2098.000000	16.691577
2097.000000	16.686983
2096.000000	16.674937
2095.000000	16.650130
2094.000000	16.637267
2093.000000	16.631755
2092.000000	16.620729
2091.000000	16.598066
2090.000000	16.590205
2089.000000	16.571728
2088.000000	16.543960
2087.000000	16.536610
2086.000000	16.531097
2085.000000	16.518030
2084.000000	16.497408
2083.000000	16.468416
2082.000000	16.435340
2081.000000	16.407776
2080.000000	16.377457
2079.000000	16.345912
2078.000000	16.306711
2077.000000	16.255055
2076.000000	16.209116
2075.000000	16.173385
2074.000000	16.127446
2073.000000	16.062315
2072.000000	15.999532
2071.000000	15.948897
2070.000000	15.888155
2069.000000	15.822003
2068.000000	15.767693
2067.000000	15.711750
2066.000000	15.635899
2065.000000	15.566684
2064.000000	15.507576
2063.000000	15.433665
2062.000000	15.355161
2061.000000	15.284109
2060.000000	15.223265
2059.000000	15.183859
2058.000000	15.134654
2057.000000	15.085142
2056.000000	15.043490
2055.000000	14.996939
2054.000000	14.971009
2053.000000	14.961106
2052.000000	14.954164
2051.000000	14.948448
2050.000000	14.964577
2049.000000	14.992243
2048.000000	15.022358
2047.000000	15.070952
2046.000000	15.121484
2045.000000	15.168853
2044.000000	15.225511
2043.000000	15.299115
2042.000000	15.385174
2041.000000	15.452858
2040.000000	15.531669
2039.000000	15.612011
2038.000000	15.656725
2037.000000	15.706951
2036.000000	15.787600
2035.000000	15.840379
2034.000000	15.885501
2033.000000	15.942465
2032.000000	15.983913
2031.000000	16.017805
2030.000000	16.056088
2029.000000	16.088960
2028.000000	16.113256
2027.000000	16.129284
2026.000000	16.167771
2025.000000	16.178388
2024.000000	16.183186
2023.000000	16.207482
2022.000000	16.213608
2021.000000	16.215445
2020.000000	16.219324
2019.000000	16.212791
2018.000000	16.221264
2017.000000	16.186555
2016.000000	16.194109
2015.000000	16.179613
2014.000000	16.153683
2013.000000	16.132142
2012.000000	16.113256
2011.000000	16.088143
2010.000000	16.066194
2009.000000	16.036589
2008.000000	16.006270
2007.000000	15.977992
2006.000000	15.951551
2005.000000	15.913677
2004.000000	15.882234
2003.000000	15.819553
2002.000000	15.782393
2001.000000	15.734923
2000.000000	15.691128
1999.000000	15.631918
1998.000000	15.567195
1997.000000	15.502982
1996.000000	15.458881
1995.000000	15.386910
1994.000000	15.337398
1993.000000	15.264916
1992.000000	15.186616
1991.000000	15.116380
1990.000000	15.043082
1989.000000	14.980503
1988.000000	14.889544
1987.000000	14.812060
1986.000000	14.733963
1985.000000	14.664647
1984.000000	14.596555
1983.000000	14.503962
1982.000000	14.398915
1981.000000	14.341440
1980.000000	14.271817
1979.000000	14.181981
1978.000000	14.098270
1977.000000	14.002410
1976.000000	13.917270
1975.000000	13.833967
1974.000000	13.768326
1973.000000	13.692577
1972.000000	13.606825
1971.000000	13.534649
1970.000000	13.456247
1969.000000	13.367840
1968.000000	13.309752
1967.000000	13.239109
1966.000000	13.140697
1965.000000	13.093227
1964.000000	13.022889
1963.000000	12.935809
1962.000000	12.880478
1961.000000	12.793296
1960.000000	12.718569
1959.000000	12.642820
1958.000000	12.589837
1957.000000	12.508168
1956.000000	12.447426
1955.000000	12.373107
1954.000000	12.313693
1953.000000	12.249787
1952.000000	12.185370
1951.000000	12.122587
1950.000000	12.066847
1949.000000	12.002941
1948.000000	11.973949
1947.000000	11.911778
1946.000000	11.884316
1945.000000	11.813264
1944.000000	11.793051
1943.000000	11.753237
1942.000000	11.718732
1941.000000	11.685758
1940.000000	11.666872
1939.000000	11.678408
1938.000000	11.638900
1937.000000	11.628487
1936.000000	11.631448
1935.000000	11.612766
1934.000000	11.639308
1933.000000	11.653499
1932.000000	11.652886
1931.000000	11.703623
1930.000000	11.750073
1929.000000	11.777228
1928.000000	11.813060
1927.000000	11.905244
1926.000000	11.937708
1925.000000	12.021113
1924.000000	12.091246
1923.000000	12.195272
1922.000000	12.271633
1921.000000	12.379437
1920.000000	12.496326
1919.000000	12.611582
1918.000000	12.717139
1917.000000	12.868126
1916.000000	13.029218
1915.000000	13.175100
1914.000000	13.332926
1913.000000	13.492386
1912.000000	13.660114
1911.000000	13.853262
1910.000000	14.050800
1909.000000	14.259056
1908.000000	14.454859
1907.000000	14.655357
1906.000000	14.899956
1905.000000	15.161707
1904.000000	15.431317
1903.000000	15.695109
1902.000000	15.960024
1901.000000	16.263222
1900.000000	16.553148
1899.000000	16.901570
1898.000000	17.244377
1897.000000	17.627099
1896.000000	17.987465
1895.000000	18.337316
1894.000000	18.691251
1893.000000	19.096433
1892.000000	19.493958
1891.000000	19.973663
1890.000000	20.433972
1889.000000	20.881316
1888.000000	21.338868
1887.000000	21.848587
1886.000000	22.319104
1885.000000	22.819227
1884.000000	23.317104
1883.000000	23.860000
1882.000000	24.398610
1881.000000	24.867085
1880.000000	25.366800
1879.000000	25.839869
1878.000000	26.293849
1877.000000	26.758343
1876.000000	27.201909
1875.000000	27.591268
1874.000000	28.005433
1873.000000	28.392852
1872.000000	28.765877
1871.000000	29.117055
1870.000000	29.443732
1869.000000	29.723858
1868.000000	30.047881
1867.000000	30.301362
1866.000000	30.533303
1865.000000	30.720939
1864.000000	30.919906
1863.000000	31.100293
1862.000000	31.286090
1861.000000	31.462394
1860.000000	31.644108
1859.000000	31.794278
1858.000000	31.911065
1857.000000	32.027954
1856.000000	32.149131
1855.000000	32.232944
1854.000000	32.306038
1853.000000	32.393322
1852.000000	32.402714
1851.000000	32.465191
1850.000000	32.565543
1849.000000	32.624447
1848.000000	32.648335
1847.000000	32.656298
1846.000000	32.633328
1845.000000	32.594331
1844.000000	32.632511
1843.000000	32.648335
1842.000000	32.685188
1841.000000	32.720714
1840.000000	32.716631
1839.000000	32.691313
1838.000000	32.673244
1837.000000	32.648335
1836.000000	32.627305
1835.000000	32.600048
1834.000000	32.550127
1833.000000	32.517153
1832.000000	32.497144
1831.000000	32.474175
1830.000000	32.438751
1829.000000	32.409248
1828.000000	32.376682
1827.000000	32.325435
1826.000000	32.275208
1825.000000	32.230800
1824.000000	32.193743
1823.000000	32.174755
1822.000000	32.182105
1821.000000	32.193947
1820.000000	32.172509
1819.000000	32.108501
1818.000000	32.053680
1817.000000	32.036121
1816.000000	32.023156
1815.000000	32.015602
1814.000000	31.995695
1813.000000	31.967825
1812.000000	31.960475
1811.000000	31.937812
1810.000000	31.895650
1809.000000	31.859001
1808.000000	31.834908
1807.000000	31.807753
1806.000000	31.774473
1805.000000	31.724246
1804.000000	31.680247
1803.000000	31.642883
1802.000000	31.611134
1801.000000	31.582346
1800.000000	31.538755
1799.000000	31.491897
1798.000000	31.441670
1797.000000	31.406348
1796.000000	31.382869
1795.000000	31.347649
1794.000000	31.302935
1793.000000	31.261283
1792.000000	31.229330
1791.000000	31.195540
1790.000000	31.161851
1789.000000	31.136227
1788.000000	31.101518
1787.000000	31.077527
1786.000000	31.055987
1785.000000	31.013825
1784.000000	30.984424
1783.000000	30.951144
1782.000000	30.893669
1781.000000	30.854672
1780.000000	30.818125
1779.000000	30.773513
1778.000000	30.725430
1777.000000	30.665812
1776.000000	30.609766
1775.000000	30.558213
1774.000000	30.498900
1773.000000	30.444386
1772.000000	30.387013
1771.000000	30.316165
1770.000000	30.240110
1769.000000	30.157012
1768.000000	30.078201
1767.000000	30.000411
1766.000000	29.924050
1765.000000	29.859634
1764.000000	29.811755
1763.000000	29.773064
1762.000000	29.770206
1761.000000	29.764489
1760.000000	29.786029
1759.000000	29.819718
1758.000000	29.859634
1757.000000	29.906900
1756.000000	29.957637
1755.000000	30.020012
1754.000000	30.067788
1753.000000	30.112808
1752.000000	30.156706
1751.000000	30.178654
1750.000000	30.197030
1749.000000	30.221429
1748.000000	30.211118
1747.000000	30.210097
1746.000000	30.189271
1745.000000	30.151908
1744.000000	30.106479
1743.000000	30.039510
1742.000000	29.963354
1741.000000	29.869740
1740.000000	29.750911
1739.000000	29.614421
1738.000000	29.494470
1737.000000	29.356040
1736.000000	29.230167
1735.000000	29.087654
1734.000000	28.969234
1733.000000	28.883175
1732.000000	28.819268
1731.000000	28.782926
1730.000000	28.769960
1729.000000	28.793134
1728.000000	28.844075
1727.000000	28.889504
1726.000000	28.933197
1725.000000	28.991591
1724.000000	29.052128
1723.000000	29.113278
1722.000000	29.173305
1721.000000	29.253851
1720.000000	29.334602
1719.000000	29.426071
1718.000000	29.531629
1717.000000	29.634635
1716.000000	29.739273
1715.000000	29.863309
1714.000000	29.974481
1713.000000	30.088001
1712.000000	30.205197
1711.000000	30.309938
1710.000000	30.393138
1709.000000	30.460311
1708.000000	30.543512
1707.000000	30.582203
1706.000000	30.610481
1705.000000	30.637534
1704.000000	30.656114
1703.000000	30.648457
1702.000000	30.634369
1701.000000	30.614769
1700.000000	30.551985
1699.000000	30.518092
1698.000000	30.476339
1697.000000	30.411718
1696.000000	30.333622
1695.000000	30.291868
1694.000000	30.267368
1693.000000	30.277066
1692.000000	30.312286
1691.000000	30.355468
1690.000000	30.427644
1689.000000	30.497573
1688.000000	30.589553
1687.000000	30.671631
1686.000000	30.749012
1685.000000	30.821086
1684.000000	30.914495
1683.000000	31.030670
1682.000000	31.163893
1681.000000	31.344994
1680.000000	31.562031
1679.000000	31.838788
1678.000000	32.126570
1677.000000	32.416496
1676.000000	32.730821
1675.000000	33.005026
1674.000000	33.259630
1673.000000	33.492694
1672.000000	33.677675
1671.000000	33.860410
1670.000000	34.046412
1669.000000	34.212507
1668.000000	34.332458
1667.000000	34.461496
1666.000000	34.552864
1665.000000	34.651888
1664.000000	34.729167
1663.000000	34.799097
1662.000000	34.890260
1661.000000	34.948347
1660.000000	35.003474
1659.000000	35.044513
1658.000000	35.095454
1657.000000	35.132920
1656.000000	35.162627
1655.000000	35.190395
1654.000000	35.185597
1653.000000	35.200093
1652.000000	35.187945
1651.000000	35.185801
1650.000000	35.160994
1649.000000	35.154664
1648.000000	35.143537
1647.000000	35.109032
1646.000000	35.072689
1645.000000	35.047780
1644.000000	35.030017
1643.000000	34.984792
1642.000000	34.946816
1641.000000	34.912209
1640.000000	34.865249
1639.000000	34.833806
1638.000000	34.785417
1637.000000	34.750095
1636.000000	34.715692
1635.000000	34.661280
1634.000000	34.631777
1633.000000	34.571852
1632.000000	34.506720
1631.000000	34.452819
1630.000000	34.405757
1629.000000	34.342769
1628.000000	34.290399
1627.000000	34.234353
1626.000000	34.150132
1625.000000	34.092146
1624.000000	34.035795
1623.000000	33.985364
1622.000000	33.925541
1621.000000	33.854489
1620.000000	33.794564
1619.000000	33.747196
1618.000000	33.687169
1617.000000	33.621221
1616.000000	33.557519
1615.000000	33.517501
1614.000000	33.455330
1613.000000	33.391219
1612.000000	33.344260
1611.000000	33.286887
1610.000000	33.220531
1609.000000	33.181431
1608.000000	33.123344
1607.000000	33.068115
1606.000000	33.006251
1605.000000	32.928052
