PE UV       SUBTECH     SPECTRUM    ASCII       PEDS        4.00        
   -1
CICIMAUCR0254-1.Sample.ASC
24/06/26
16:33:48.00
24/06/26
16:33:48.00
Vinicio Soto Monge
C. resplendens. Sex F. Ventral
250,000000
1
Lambda 1050
1050L1511233
PerkinElmer UV WinLab 6.3.2.0749 / 2.02.05 Lambda 900 UV/VIS/NIR, Aug  7 2015 09:38:08

0
0
3350/servo 860,8/2
0
0
UV/VIS
1
1
1
DoubleDePol,CommonBeamDepol,RBeamAtt,SBeamAtt,60mm sphere, WB InGaAs Detector
0
0
0
0
Program
Program
3350/servo 860,8/2
3350/0,2 860,8/0,2
3350/0,2 860,8/0,2
0
15.00
 
 
 
0
 
860,8
319,2
860,8
Front
100
on
S:100 R:100
0
0
0
0
 
0
 
 
 
0
 
 
0
0
0
0
0
 
 
 
 
0
0


0
0
#HDR
-1
-1
#GR
nm
%R
1.0
0.0
2500,000000
-1,000000
2251
8
57,930800
4,246000
#DATA
2482.000000	5.254868
2481.000000	5.265141
2480.000000	5.281533
2479.000000	5.247655
2478.000000	5.220881
2477.000000	5.258256
2476.000000	5.220881
2475.000000	5.204926
2474.000000	5.224815
2473.000000	5.203396
2472.000000	5.264594
2471.000000	5.221100
2470.000000	5.248202
2469.000000	5.247546
2468.000000	5.210827
2467.000000	5.228750
2466.000000	5.241098
2465.000000	5.204270
2464.000000	5.201757
2463.000000	5.274976
2462.000000	5.243940
2461.000000	5.250278
2460.000000	5.223285
2459.000000	5.238476
2458.000000	5.256398
2457.000000	5.224815
2456.000000	5.233121
2455.000000	5.284921
2454.000000	5.291806
2453.000000	5.270168
2452.000000	5.288637
2451.000000	5.300439
2450.000000	5.318143
2449.000000	5.359561
2448.000000	5.367320
2447.000000	5.358031
2446.000000	5.400542
2445.000000	5.409722
2444.000000	5.411689
2443.000000	5.427098
2442.000000	5.449829
2441.000000	5.488406
2440.000000	5.484034
2439.000000	5.494526
2438.000000	5.538129
2437.000000	5.538129
2436.000000	5.564904
2435.000000	5.583591
2434.000000	5.582826
2433.000000	5.597470
2432.000000	5.612770
2431.000000	5.631457
2430.000000	5.658450
2429.000000	5.664679
2428.000000	5.666209
2427.000000	5.697901
2426.000000	5.709704
2425.000000	5.733527
2424.000000	5.738991
2423.000000	5.764017
2422.000000	5.760302
2421.000000	5.774180
2420.000000	5.782705
2419.000000	5.787950
2418.000000	5.800518
2417.000000	5.808277
2416.000000	5.812867
2415.000000	5.829696
2414.000000	5.850897
2413.000000	5.853629
2412.000000	5.873519
2411.000000	5.869257
2410.000000	5.879201
2409.000000	5.897342
2408.000000	5.897452
2407.000000	5.914500
2406.000000	5.924444
2405.000000	5.944115
2404.000000	5.943678
2403.000000	5.948924
2402.000000	5.952530
2401.000000	5.957885
2400.000000	5.969688
2399.000000	5.978649
2398.000000	5.984550
2397.000000	5.999850
2396.000000	6.002910
2395.000000	6.004221
2394.000000	6.007062
2393.000000	6.021815
2392.000000	6.024001
2391.000000	6.042470
2390.000000	6.060502
2389.000000	6.067059
2388.000000	6.071539
2387.000000	6.067059
2386.000000	6.073397
2385.000000	6.080938
2384.000000	6.072851
2383.000000	6.090664
2382.000000	6.086183
2381.000000	6.079408
2380.000000	6.092522
2379.000000	6.091210
2378.000000	6.093287
2377.000000	6.098751
2376.000000	6.100608
2375.000000	6.091866
2374.000000	6.098860
2373.000000	6.090664
2372.000000	6.081812
2371.000000	6.083997
2370.000000	6.066184
2369.000000	6.055802
2368.000000	6.067605
2367.000000	6.068589
2366.000000	6.068916
2365.000000	6.062032
2364.000000	6.047606
2363.000000	6.039410
2362.000000	6.030558
2361.000000	6.032197
2360.000000	6.036350
2359.000000	6.021051
2358.000000	6.013947
2357.000000	5.989905
2356.000000	5.980179
2355.000000	5.992309
2354.000000	5.983566
2353.000000	5.983566
2352.000000	5.978977
2351.000000	5.972857
2350.000000	5.980288
2349.000000	5.997555
2348.000000	5.991872
2347.000000	5.956136
2346.000000	5.978977
2345.000000	6.001489
2344.000000	5.988375
2343.000000	5.990998
2342.000000	6.002691
2341.000000	6.008046
2340.000000	6.018646
2339.000000	6.023236
2338.000000	6.035476
2337.000000	6.045202
2336.000000	6.053835
2335.000000	6.042251
2334.000000	6.034820
2333.000000	6.040503
2332.000000	6.046295
2331.000000	6.039629
2330.000000	6.028372
2329.000000	6.028045
2328.000000	6.016242
2327.000000	6.008374
2326.000000	6.002691
2325.000000	5.990014
2324.000000	5.970890
2323.000000	5.972092
2322.000000	5.972857
2321.000000	5.954716
2320.000000	5.944880
2319.000000	5.925100
2318.000000	5.906413
2317.000000	5.901932
2316.000000	5.880185
2315.000000	5.848821
2314.000000	5.837674
2313.000000	5.806747
2312.000000	5.776038
2311.000000	5.760957
2310.000000	5.751668
2309.000000	5.726096
2308.000000	5.716261
2307.000000	5.706206
2306.000000	5.697245
2305.000000	5.696262
2304.000000	5.692765
2303.000000	5.699759
2302.000000	5.711998
2301.000000	5.716916
2300.000000	5.729484
2299.000000	5.718993
2298.000000	5.731669
2297.000000	5.754072
2296.000000	5.773197
2295.000000	5.782705
2294.000000	5.817019
2293.000000	5.839750
2292.000000	5.840515
2291.000000	5.842919
2290.000000	5.857017
2289.000000	5.869475
2288.000000	5.890457
2287.000000	5.891550
2286.000000	5.904009
2285.000000	5.884119
2284.000000	5.886195
2283.000000	5.893408
2282.000000	5.891113
2281.000000	5.895047
2280.000000	5.891878
2279.000000	5.865104
2278.000000	5.836909
2277.000000	5.866743
2276.000000	5.848056
2275.000000	5.842810
2274.000000	5.837018
2273.000000	5.841389
2272.000000	5.826308
2271.000000	5.821391
2270.000000	5.827511
2269.000000	5.831991
2268.000000	5.836035
2267.000000	5.848711
2266.000000	5.847509
2265.000000	5.899200
2264.000000	5.912095
2263.000000	5.946847
2262.000000	5.981162
2261.000000	6.015368
2260.000000	6.072960
2259.000000	6.120279
2258.000000	6.184101
2257.000000	6.231639
2256.000000	6.311306
2255.000000	6.366166
2254.000000	6.414906
2253.000000	6.498835
2252.000000	6.556318
2251.000000	6.634565
2250.000000	6.705926
2249.000000	6.742099
2248.000000	6.828433
2247.000000	6.883402
2246.000000	6.948862
2245.000000	6.969626
2244.000000	7.024814
2243.000000	7.101203
2242.000000	7.143386
2241.000000	7.159888
2240.000000	7.190924
2239.000000	7.219447
2238.000000	7.244910
2237.000000	7.323484
2236.000000	7.340423
2235.000000	7.348510
2234.000000	7.374191
2233.000000	7.379109
2232.000000	7.418342
2231.000000	7.432658
2230.000000	7.451345
2229.000000	7.444460
2228.000000	7.439980
2227.000000	7.449815
2226.000000	7.442712
2225.000000	7.439652
2224.000000	7.455826
2223.000000	7.450143
2222.000000	7.458558
2221.000000	7.429161
2220.000000	7.442712
2219.000000	7.407086
2218.000000	7.370257
2217.000000	7.373645
2216.000000	7.357143
2215.000000	7.367197
2214.000000	7.337363
2213.000000	7.333210
2212.000000	7.292120
2211.000000	7.296163
2210.000000	7.299005
2209.000000	7.290262
2208.000000	7.261193
2207.000000	7.265673
2206.000000	7.264253
2205.000000	7.236386
2204.000000	7.251576
2203.000000	7.243052
2202.000000	7.231031
2201.000000	7.215075
2200.000000	7.209939
2199.000000	7.221632
2198.000000	7.188192
2197.000000	7.197262
2196.000000	7.183711
2195.000000	7.183821
2194.000000	7.174531
2193.000000	7.174969
2192.000000	7.161090
2191.000000	7.159123
2190.000000	7.171144
2189.000000	7.177264
2188.000000	7.179449
2187.000000	7.153221
2186.000000	7.140982
2185.000000	7.114644
2184.000000	7.157920
2183.000000	7.144588
2182.000000	7.130381
2181.000000	7.122294
2180.000000	7.112131
2179.000000	7.115737
2178.000000	7.102077
2177.000000	7.088963
2176.000000	7.098471
2175.000000	7.111475
2174.000000	7.116721
2173.000000	7.106995
2172.000000	7.101531
2171.000000	7.077707
2170.000000	7.104590
2169.000000	7.103935
2168.000000	7.099017
2167.000000	7.099126
2166.000000	7.102951
2165.000000	7.100984
2164.000000	7.114972
2163.000000	7.131693
2162.000000	7.161745
2161.000000	7.144479
2160.000000	7.149724
2159.000000	7.165242
2158.000000	7.176608
2157.000000	7.208737
2156.000000	7.219556
2155.000000	7.240211
2154.000000	7.254854
2153.000000	7.265455
2152.000000	7.270810
2151.000000	7.287311
2150.000000	7.300098
2149.000000	7.328620
2148.000000	7.348510
2147.000000	7.363482
2146.000000	7.393097
2145.000000	7.412440
2144.000000	7.406648
2143.000000	7.449487
2142.000000	7.480742
2141.000000	7.503036
2140.000000	7.518991
2139.000000	7.518008
2138.000000	7.539427
2137.000000	7.548060
2136.000000	7.562158
2135.000000	7.586419
2134.000000	7.590244
2133.000000	7.607620
2132.000000	7.615269
2131.000000	7.624449
2130.000000	7.625323
2129.000000	7.642481
2128.000000	7.649912
2127.000000	7.633301
2126.000000	7.644339
2125.000000	7.683462
2124.000000	7.680293
2123.000000	7.662370
2122.000000	7.665758
2121.000000	7.666523
2120.000000	7.677561
2119.000000	7.675812
2118.000000	7.651551
2117.000000	7.670676
2116.000000	7.666632
2115.000000	7.652972
2114.000000	7.661387
2113.000000	7.652644
2112.000000	7.644557
2111.000000	7.623356
2110.000000	7.614723
2109.000000	7.622919
2108.000000	7.609040
2107.000000	7.600298
2106.000000	7.603685
2105.000000	7.588932
2104.000000	7.578550
2103.000000	7.565655
2102.000000	7.556038
2101.000000	7.554071
2100.000000	7.551448
2099.000000	7.534072
2098.000000	7.531231
2097.000000	7.539427
2096.000000	7.523253
2095.000000	7.511669
2094.000000	7.514401
2093.000000	7.506752
2092.000000	7.497790
2091.000000	7.494512
2090.000000	7.484786
2089.000000	7.470579
2088.000000	7.460743
2087.000000	7.459323
2086.000000	7.469158
2085.000000	7.474513
2084.000000	7.465989
2083.000000	7.454296
2082.000000	7.444132
2081.000000	7.426975
2080.000000	7.411238
2079.000000	7.412987
2078.000000	7.401184
2077.000000	7.373864
2076.000000	7.376705
2075.000000	7.356269
2074.000000	7.324140
2073.000000	7.303048
2072.000000	7.295945
2071.000000	7.291027
2070.000000	7.264908
2069.000000	7.245347
2068.000000	7.216715
2067.000000	7.192782
2066.000000	7.182291
2065.000000	7.159450
2064.000000	7.122731
2063.000000	7.112240
2062.000000	7.089619
2061.000000	7.073336
2060.000000	7.050495
2059.000000	7.037709
2058.000000	7.032136
2057.000000	7.020661
2056.000000	7.013230
2055.000000	7.000990
2054.000000	6.991810
2053.000000	7.000444
2052.000000	7.011481
2051.000000	7.019568
2050.000000	7.025688
2049.000000	7.042736
2048.000000	7.059784
2047.000000	7.082406
2046.000000	7.103498
2045.000000	7.126228
2044.000000	7.162510
2043.000000	7.191907
2042.000000	7.214857
2041.000000	7.251357
2040.000000	7.280973
2039.000000	7.313430
2038.000000	7.337582
2037.000000	7.350040
2036.000000	7.370913
2035.000000	7.394081
2034.000000	7.415610
2033.000000	7.448067
2032.000000	7.472000
2031.000000	7.490359
2030.000000	7.496151
2029.000000	7.509046
2028.000000	7.532542
2027.000000	7.544673
2026.000000	7.530466
2025.000000	7.560847
2024.000000	7.568387
2023.000000	7.571884
2022.000000	7.582047
2021.000000	7.603248
2020.000000	7.599096
2019.000000	7.587621
2018.000000	7.598658
2017.000000	7.615051
2016.000000	7.607292
2015.000000	7.614504
2014.000000	7.612865
2013.000000	7.600626
2012.000000	7.592866
2011.000000	7.604888
2010.000000	7.591227
2009.000000	7.569480
2008.000000	7.553962
2007.000000	7.557787
2006.000000	7.545328
2005.000000	7.526750
2004.000000	7.528171
2003.000000	7.512434
2002.000000	7.494512
2001.000000	7.473202
2000.000000	7.456044
1999.000000	7.458448
1998.000000	7.399764
1997.000000	7.366323
1996.000000	7.368399
1995.000000	7.352772
1994.000000	7.335614
1993.000000	7.302392
1992.000000	7.258024
1991.000000	7.255729
1990.000000	7.251795
1989.000000	7.229938
1988.000000	7.187645
1987.000000	7.138031
1986.000000	7.134206
1985.000000	7.138359
1984.000000	7.097378
1983.000000	7.063172
1982.000000	7.025032
1981.000000	7.015416
1980.000000	6.985581
1979.000000	6.955638
1978.000000	6.920012
1977.000000	6.895423
1976.000000	6.860125
1975.000000	6.850071
1974.000000	6.828542
1973.000000	6.794992
1972.000000	6.779583
1971.000000	6.776086
1970.000000	6.743520
1969.000000	6.711172
1968.000000	6.700134
1967.000000	6.669972
1966.000000	6.644509
1965.000000	6.629756
1964.000000	6.616970
1963.000000	6.590633
1962.000000	6.556646
1961.000000	6.529872
1960.000000	6.506922
1959.000000	6.497961
1958.000000	6.474247
1957.000000	6.465832
1956.000000	6.448347
1955.000000	6.417747
1954.000000	6.413923
1953.000000	6.385728
1952.000000	6.371193
1951.000000	6.356877
1950.000000	6.326715
1949.000000	6.326496
1948.000000	6.321688
1947.000000	6.302673
1946.000000	6.278302
1945.000000	6.277428
1944.000000	6.247157
1943.000000	6.236229
1942.000000	6.234371
1941.000000	6.201149
1940.000000	6.211203
1939.000000	6.219508
1938.000000	6.222459
1937.000000	6.188253
1936.000000	6.212296
1935.000000	6.208689
1934.000000	6.191860
1933.000000	6.202679
1932.000000	6.214372
1931.000000	6.216776
1930.000000	6.233496
1929.000000	6.233059
1928.000000	6.242895
1927.000000	6.264861
1926.000000	6.279614
1925.000000	6.318956
1924.000000	6.336222
1923.000000	6.366057
1922.000000	6.349446
1921.000000	6.396328
1920.000000	6.414578
1919.000000	6.468018
1918.000000	6.520801
1917.000000	6.532276
1916.000000	6.586590
1915.000000	6.645493
1914.000000	6.662213
1913.000000	6.709751
1912.000000	6.750077
1911.000000	6.820455
1910.000000	6.889303
1909.000000	6.948534
1908.000000	7.013121
1907.000000	7.091804
1906.000000	7.165024
1905.000000	7.248079
1904.000000	7.331790
1903.000000	7.421620
1902.000000	7.510249
1901.000000	7.592211
1900.000000	7.701494
1899.000000	7.830229
1898.000000	7.940058
1897.000000	8.057647
1896.000000	8.209659
1895.000000	8.353803
1894.000000	8.489751
1893.000000	8.632038
1892.000000	8.790826
1891.000000	8.965678
1890.000000	9.146541
1889.000000	9.337021
1888.000000	9.548047
1887.000000	9.744210
1886.000000	9.982118
1885.000000	10.209973
1884.000000	10.452253
1883.000000	10.718904
1882.000000	10.989488
1881.000000	11.269034
1880.000000	11.525193
1879.000000	11.822880
1878.000000	12.071826
1877.000000	12.342301
1876.000000	12.632775
1875.000000	12.903687
1874.000000	13.154055
1873.000000	13.422672
1872.000000	13.675880
1871.000000	13.940017
1870.000000	14.193991
1869.000000	14.443921
1868.000000	14.677130
1867.000000	14.892090
1866.000000	15.076887
1865.000000	15.222343
1864.000000	15.388234
1863.000000	15.522215
1862.000000	15.659911
1861.000000	15.795204
1860.000000	15.899241
1859.000000	16.039014
1858.000000	16.165782
1857.000000	16.256487
1856.000000	16.343257
1855.000000	16.404893
1854.000000	16.449480
1853.000000	16.525650
1852.000000	16.557561
1851.000000	16.597449
1850.000000	16.640725
1849.000000	16.651217
1848.000000	16.668374
1847.000000	16.703891
1846.000000	16.716349
1845.000000	16.710229
1844.000000	16.721048
1843.000000	16.693728
1842.000000	16.687936
1841.000000	16.694493
1840.000000	16.709574
1839.000000	16.706732
1838.000000	16.685750
1837.000000	16.657555
1836.000000	16.650342
1835.000000	16.651763
1834.000000	16.616027
1833.000000	16.586521
1832.000000	16.562260
1831.000000	16.532317
1830.000000	16.499532
1829.000000	16.466638
1828.000000	16.435601
1827.000000	16.382381
1826.000000	16.349268
1825.000000	16.333750
1824.000000	16.308833
1823.000000	16.284572
1822.000000	16.247963
1821.000000	16.240094
1820.000000	16.237909
1819.000000	16.220533
1818.000000	16.190589
1817.000000	16.169498
1816.000000	16.151029
1815.000000	16.131686
1814.000000	16.128516
1813.000000	16.116714
1812.000000	16.088628
1811.000000	16.067974
1810.000000	16.063165
1809.000000	16.042401
1808.000000	16.011256
1807.000000	15.985793
1806.000000	15.966122
1805.000000	15.938364
1804.000000	15.908749
1803.000000	15.873559
1802.000000	15.846239
1801.000000	15.822634
1800.000000	15.785805
1799.000000	15.756190
1798.000000	15.707996
1797.000000	15.660021
1796.000000	15.641770
1795.000000	15.620460
1794.000000	15.588331
1793.000000	15.555000
1792.000000	15.524510
1791.000000	15.493364
1790.000000	15.461126
1789.000000	15.432712
1788.000000	15.406047
1787.000000	15.375776
1786.000000	15.340477
1785.000000	15.300589
1784.000000	15.269444
1783.000000	15.235238
1782.000000	15.207808
1781.000000	15.170980
1780.000000	15.128141
1779.000000	15.101366
1778.000000	15.060932
1777.000000	15.008804
1776.000000	14.939081
1775.000000	14.895368
1774.000000	14.844224
1773.000000	14.796139
1772.000000	14.766414
1771.000000	14.723029
1770.000000	14.652760
1769.000000	14.581945
1768.000000	14.520856
1767.000000	14.460422
1766.000000	14.408076
1765.000000	14.372231
1764.000000	14.329611
1763.000000	14.305350
1762.000000	14.288739
1761.000000	14.291799
1760.000000	14.304913
1759.000000	14.330376
1758.000000	14.363598
1757.000000	14.393213
1756.000000	14.432446
1755.000000	14.470476
1754.000000	14.509053
1753.000000	14.547849
1752.000000	14.562383
1751.000000	14.566536
1750.000000	14.581617
1749.000000	14.575825
1748.000000	14.545226
1747.000000	14.541182
1746.000000	14.509381
1745.000000	14.484465
1744.000000	14.439768
1743.000000	14.367204
1742.000000	14.304694
1741.000000	14.216175
1740.000000	14.140661
1739.000000	14.030503
1738.000000	13.925373
1737.000000	13.834996
1736.000000	13.728773
1735.000000	13.633041
1734.000000	13.590093
1733.000000	13.542992
1732.000000	13.507366
1731.000000	13.499061
1730.000000	13.502995
1729.000000	13.507475
1728.000000	13.522119
1727.000000	13.569111
1726.000000	13.586706
1725.000000	13.625064
1724.000000	13.677192
1723.000000	13.706807
1722.000000	13.743745
1721.000000	13.784398
1720.000000	13.836635
1719.000000	13.886250
1718.000000	13.933679
1717.000000	13.990178
1716.000000	14.050721
1715.000000	14.124924
1714.000000	14.195411
1713.000000	14.272019
1712.000000	14.349063
1711.000000	14.406109
1710.000000	14.451024
1709.000000	14.521293
1708.000000	14.525664
1707.000000	14.538778
1706.000000	14.545881
1705.000000	14.537795
1704.000000	14.522276
1703.000000	14.514189
1702.000000	14.486432
1701.000000	14.450587
1700.000000	14.367969
1699.000000	14.318464
1698.000000	14.254643
1697.000000	14.190494
1696.000000	14.113668
1695.000000	14.106674
1694.000000	14.028318
1693.000000	14.037497
1692.000000	14.062523
1691.000000	14.101974
1690.000000	14.154867
1689.000000	14.220765
1688.000000	14.283165
1687.000000	14.351795
1686.000000	14.393541
1685.000000	14.448510
1684.000000	14.536702
1683.000000	14.627407
1682.000000	14.740405
1681.000000	14.904439
1680.000000	15.094154
1679.000000	15.367907
1678.000000	15.621225
1677.000000	15.900880
1676.000000	16.204796
1675.000000	16.478440
1674.000000	16.711213
1673.000000	16.934041
1672.000000	17.144520
1671.000000	17.338387
1670.000000	17.506683
1669.000000	17.673777
1668.000000	17.809834
1667.000000	17.960753
1666.000000	18.043808
1665.000000	18.143256
1664.000000	18.238113
1663.000000	18.291444
1662.000000	18.387175
1661.000000	18.440396
1660.000000	18.521593
1659.000000	18.573503
1658.000000	18.621041
1657.000000	18.654263
1656.000000	18.683004
1655.000000	18.684862
1654.000000	18.699287
1653.000000	18.706063
1652.000000	18.719286
1651.000000	18.709560
1650.000000	18.711199
1649.000000	18.695572
1648.000000	18.659180
1647.000000	18.657432
1646.000000	18.603883
1645.000000	18.574814
1644.000000	18.556892
1643.000000	18.507605
1642.000000	18.492305
1641.000000	18.460067
1640.000000	18.405863
1639.000000	18.397557
1638.000000	18.338982
1637.000000	18.284340
1636.000000	18.248167
1635.000000	18.191887
1634.000000	18.150469
1633.000000	18.098450
1632.000000	18.033317
1631.000000	17.995833
1630.000000	17.950481
1629.000000	17.896277
1628.000000	17.814314
1627.000000	17.763279
1626.000000	17.718036
1625.000000	17.649188
1624.000000	17.588427
1623.000000	17.538157
1622.000000	17.472696
1621.000000	17.407345
1620.000000	17.360135
1619.000000	17.318061
1618.000000	17.264949
1617.000000	17.219488
1616.000000	17.161240
1615.000000	17.095233
1614.000000	17.054580
1613.000000	17.000157
1612.000000	16.948029
1611.000000	16.866722
1610.000000	16.838309
1609.000000	16.792301
1608.000000	16.731758
1607.000000	16.666407
1606.000000	16.636354
1605.000000	16.567178
1604.000000	16.509477
1603.000000	16.451120
1602.000000	16.392216
1601.000000	16.347191
1600.000000	16.302823
1599.000000	16.235504
1598.000000	16.155072
1597.000000	16.118025
1596.000000	16.057701
1595.000000	16.001639
1594.000000	15.947763
1593.000000	15.898367
1592.000000	15.836622
1591.000000	15.806897
1590.000000	15.757064
1589.000000	15.704062
1588.000000	15.665594
1587.000000	15.606800
1586.000000	15.554453
1585.000000	15.521887
1584.000000	15.484075
1583.000000	15.433149
1582.000000	15.409981
1581.000000	15.361350
1580.000000	15.332172
