PE UV       SUBTECH     SPECTRUM    ASCII       PEDS        4.00        
   -1
CICIMAUCR0018-3.Sample.ASC
24/04/17
10:35:40.00
24/04/17
10:35:40.00
Vinicio Soto Monge
C. cupreomarginata
250,000000
1
Lambda 1050
1050L1511233
PerkinElmer UV WinLab 6.3.2.0749 / 2.02.05 Lambda 900 UV/VIS/NIR, Aug  7 2015 09:38:08

0
0
3350/servo 860,8/2
0
0
UV/VIS
1
1
1
DoubleDePol,CommonBeamDepol,RBeamAtt,SBeamAtt,60mm sphere, WB InGaAs Detector
0
0
0
0
Program
Program
3350/servo 860,8/2
3350/0,2 860,8/0,2
3350/0,2 860,8/0,2
0
15.00
 
 
 
0
 
860,8
319,2
860,8
Front
100
on
S:100 R:100
0
0
0
0
 
0
 
 
 
0
 
 
0
0
0
0
0
 
 
 
 
0
0


0
0
#HDR
-1
-1
#GR
nm
%R
1.0
0.0
2500,000000
-1,000000
2251
8
67,966100
4,192900
#DATA
2482.000000	16.903258
2481.000000	16.899878
2480.000000	16.946069
2479.000000	16.914749
2478.000000	17.043293
2477.000000	16.973783
2476.000000	16.941675
2475.000000	17.003525
2474.000000	17.102665
2473.000000	17.106383
2472.000000	17.121591
2471.000000	17.184455
2470.000000	17.259486
2469.000000	17.290805
2468.000000	17.346234
2467.000000	17.418223
2466.000000	17.435460
2465.000000	17.488973
2464.000000	17.545528
2463.000000	17.589352
2462.000000	17.639711
2461.000000	17.728148
2460.000000	17.774902
2459.000000	17.825486
2458.000000	17.936567
2457.000000	18.004501
2456.000000	18.075363
2455.000000	18.159069
2454.000000	18.255618
2453.000000	18.374135
2452.000000	18.450293
2451.000000	18.584132
2450.000000	18.681019
2449.000000	18.788608
2448.000000	18.895634
2447.000000	19.004576
2446.000000	19.117798
2445.000000	19.248483
2444.000000	19.368464
2443.000000	19.453860
2442.000000	19.579700
2441.000000	19.699457
2440.000000	19.816284
2439.000000	19.913509
2438.000000	20.007354
2437.000000	20.135673
2436.000000	20.241347
2435.000000	20.342064
2434.000000	20.429263
2433.000000	20.549582
2432.000000	20.633288
2431.000000	20.715642
2430.000000	20.821542
2429.000000	20.928906
2428.000000	20.995600
2427.000000	21.085276
2426.000000	21.181713
2425.000000	21.259785
2424.000000	21.325916
2423.000000	21.385175
2422.000000	21.467641
2421.000000	21.524985
2420.000000	21.581540
2419.000000	21.646093
2418.000000	21.725067
2417.000000	21.777003
2416.000000	21.832319
2415.000000	21.906449
2414.000000	21.968411
2413.000000	22.020234
2412.000000	22.078366
2411.000000	22.136386
2410.000000	22.164438
2409.000000	22.200714
2408.000000	22.243299
2407.000000	22.284195
2406.000000	22.314500
2405.000000	22.343453
2404.000000	22.373871
2403.000000	22.406092
2402.000000	22.425694
2401.000000	22.449015
2400.000000	22.498697
2399.000000	22.526750
2398.000000	22.530693
2397.000000	22.561899
2396.000000	22.572827
2395.000000	22.584994
2394.000000	22.605386
2393.000000	22.611357
2392.000000	22.620257
2391.000000	22.640310
2390.000000	22.641662
2389.000000	22.648309
2388.000000	22.653378
2387.000000	22.640761
2386.000000	22.634226
2385.000000	22.637043
2384.000000	22.635804
2383.000000	22.612258
2382.000000	22.610005
2381.000000	22.619468
2380.000000	22.593782
2379.000000	22.547817
2378.000000	22.540494
2377.000000	22.543423
2376.000000	22.517850
2375.000000	22.477630
2374.000000	22.449916
2373.000000	22.433581
2372.000000	22.424680
2371.000000	22.406092
2370.000000	22.386827
2369.000000	22.392911
2368.000000	22.388292
2367.000000	22.384123
2366.000000	22.389193
2365.000000	22.375786
2364.000000	22.366323
2363.000000	22.367788
2362.000000	22.364408
2361.000000	22.351339
2360.000000	22.359451
2359.000000	22.362831
2358.000000	22.341989
2357.000000	22.317767
2356.000000	22.297263
2355.000000	22.293320
2354.000000	22.277210
2353.000000	22.266282
2352.000000	22.270788
2351.000000	22.256255
2350.000000	22.238793
2349.000000	22.219641
2348.000000	22.210853
2347.000000	22.215810
2346.000000	22.193955
2345.000000	22.196996
2344.000000	22.185280
2343.000000	22.172549
2342.000000	22.175141
2341.000000	22.170860
2340.000000	22.176830
2339.000000	22.170409
2338.000000	22.178633
2337.000000	22.178182
2336.000000	22.186519
2335.000000	22.208375
2334.000000	22.212881
2333.000000	22.221894
2332.000000	22.235976
2331.000000	22.268986
2330.000000	22.317091
2329.000000	22.351339
2328.000000	22.358550
2327.000000	22.394713
2326.000000	22.414091
2325.000000	22.436510
2324.000000	22.486530
2323.000000	22.513231
2322.000000	22.515822
2321.000000	22.536326
2320.000000	22.546916
2319.000000	22.540832
2318.000000	22.522469
2317.000000	22.511766
2316.000000	22.495430
2315.000000	22.489234
2314.000000	22.464111
2313.000000	22.427610
2312.000000	22.400797
2311.000000	22.361704
2310.000000	22.332075
2309.000000	22.328019
2308.000000	22.299291
2307.000000	22.254791
2306.000000	22.219190
2305.000000	22.201052
2304.000000	22.190350
2303.000000	22.164325
2302.000000	22.175704
2301.000000	22.196433
2300.000000	22.194067
2299.000000	22.191927
2298.000000	22.219641
2297.000000	22.241947
2296.000000	22.241271
2295.000000	22.282955
2294.000000	22.300755
2293.000000	22.343341
2292.000000	22.371618
2291.000000	22.403839
2290.000000	22.458253
2289.000000	22.502866
2288.000000	22.533509
2287.000000	22.568546
2286.000000	22.600767
2285.000000	22.663067
2284.000000	22.734831
2283.000000	22.770995
2282.000000	22.811890
2281.000000	22.847152
2280.000000	22.906636
2279.000000	22.931984
2278.000000	22.941222
2277.000000	22.993947
2276.000000	23.058050
2275.000000	23.064809
2274.000000	23.122153
2273.000000	23.149529
2272.000000	23.207549
2271.000000	23.228841
2270.000000	23.298126
2269.000000	23.361779
2268.000000	23.422389
2267.000000	23.517474
2266.000000	23.587097
2265.000000	23.702460
2264.000000	23.815682
2263.000000	23.964618
2262.000000	24.100147
2261.000000	24.233986
2260.000000	24.393623
2259.000000	24.637418
2258.000000	24.788381
2257.000000	24.963904
2256.000000	25.154185
2255.000000	25.348747
2254.000000	25.597724
2253.000000	25.802651
2252.000000	25.981103
2251.000000	26.184678
2250.000000	26.373832
2249.000000	26.596221
2248.000000	26.760591
2247.000000	26.917863
2246.000000	27.075473
2245.000000	27.202553
2244.000000	27.376048
2243.000000	27.513605
2242.000000	27.631671
2241.000000	27.699605
2240.000000	27.827811
2239.000000	27.875691
2238.000000	27.947680
2237.000000	27.993870
2236.000000	28.024514
2235.000000	28.043215
2234.000000	28.090306
2233.000000	28.101347
2232.000000	28.077463
2231.000000	28.074196
2230.000000	28.054481
2229.000000	27.992068
2228.000000	27.974606
2227.000000	27.931570
2226.000000	27.867917
2225.000000	27.804828
2224.000000	27.756385
2223.000000	27.663328
2222.000000	27.586720
2221.000000	27.473498
2220.000000	27.407818
2219.000000	27.323436
2218.000000	27.226549
2217.000000	27.170558
2216.000000	27.089781
2215.000000	26.987937
2214.000000	26.916286
2213.000000	26.821089
2212.000000	26.728596
2211.000000	26.662240
2210.000000	26.605347
2209.000000	26.528964
2208.000000	26.468241
2207.000000	26.408869
2206.000000	26.354455
2205.000000	26.308377
2204.000000	26.254526
2203.000000	26.227939
2202.000000	26.188959
2201.000000	26.116857
2200.000000	26.083510
2199.000000	26.035742
2198.000000	26.031123
2197.000000	25.989440
2196.000000	25.920492
2195.000000	25.896271
2194.000000	25.870134
2193.000000	25.879259
2192.000000	25.844447
2191.000000	25.817184
2190.000000	25.771895
2189.000000	25.725592
2188.000000	25.710834
2187.000000	25.662954
2186.000000	25.625213
2185.000000	25.591528
2184.000000	25.557167
2183.000000	25.532156
2182.000000	25.523820
2181.000000	25.493176
2180.000000	25.470081
2179.000000	25.416568
2178.000000	25.416906
2177.000000	25.385249
2176.000000	25.377137
2175.000000	25.376236
2174.000000	25.348409
2173.000000	25.328919
2172.000000	25.347283
2171.000000	25.388178
2170.000000	25.405077
2169.000000	25.396177
2168.000000	25.406203
2167.000000	25.435720
2166.000000	25.459829
2165.000000	25.488783
2164.000000	25.516271
2163.000000	25.583529
2162.000000	25.653040
2161.000000	25.713537
2160.000000	25.780795
2159.000000	25.871711
2158.000000	25.944263
2157.000000	26.047910
2156.000000	26.162709
2155.000000	26.260047
2154.000000	26.354568
2153.000000	26.463509
2152.000000	26.600052
2151.000000	26.739637
2150.000000	26.842494
2149.000000	26.936227
2148.000000	27.074797
2147.000000	27.193540
2146.000000	27.324112
2145.000000	27.447361
2144.000000	27.568695
2143.000000	27.675496
2142.000000	27.795365
2141.000000	27.914333
2140.000000	28.032625
2139.000000	28.158803
2138.000000	28.280475
2137.000000	28.391219
2136.000000	28.502639
2135.000000	28.620818
2134.000000	28.734491
2133.000000	28.811775
2132.000000	28.901001
2131.000000	28.998564
2130.000000	29.091057
2129.000000	29.160680
2128.000000	29.243147
2127.000000	29.337668
2126.000000	29.409995
2125.000000	29.454833
2124.000000	29.539553
2123.000000	29.625287
2122.000000	29.689840
2121.000000	29.755521
2120.000000	29.785263
2119.000000	29.824581
2118.000000	29.868968
2117.000000	29.895443
2116.000000	29.938028
2115.000000	29.974642
2114.000000	29.994470
2113.000000	30.031197
2112.000000	30.044266
2111.000000	30.063418
2110.000000	30.085048
2109.000000	30.109608
2108.000000	30.126169
2107.000000	30.126732
2106.000000	30.150278
2105.000000	30.149715
2104.000000	30.140927
2103.000000	30.162445
2102.000000	30.188469
2101.000000	30.200299
2100.000000	30.204354
2099.000000	30.201989
2098.000000	30.207959
2097.000000	30.233533
2096.000000	30.270823
2095.000000	30.294256
2094.000000	30.307888
2093.000000	30.318929
2092.000000	30.346530
2091.000000	30.372780
2090.000000	30.392608
2089.000000	30.408718
2088.000000	30.423927
2087.000000	30.434292
2086.000000	30.431475
2085.000000	30.420209
2084.000000	30.409732
2083.000000	30.401170
2082.000000	30.387651
2081.000000	30.343263
2080.000000	30.312394
2079.000000	30.267556
2078.000000	30.188131
2077.000000	30.114340
2076.000000	30.049786
2075.000000	29.958307
2074.000000	29.870996
2073.000000	29.776250
2072.000000	29.659197
2071.000000	29.557015
2070.000000	29.455509
2069.000000	29.327641
2068.000000	29.191211
2067.000000	29.057823
2066.000000	28.910352
2065.000000	28.785751
2064.000000	28.661150
2063.000000	28.535873
2062.000000	28.431889
2061.000000	28.333988
2060.000000	28.232144
2059.000000	28.138525
2058.000000	28.062705
2057.000000	27.988237
2056.000000	27.956355
2055.000000	27.967395
2054.000000	27.969085
2053.000000	27.990040
2052.000000	28.051552
2051.000000	28.148326
2050.000000	28.232820
2049.000000	28.358097
2048.000000	28.484726
2047.000000	28.646054
2046.000000	28.801185
2045.000000	28.962626
2044.000000	29.149302
2043.000000	29.351525
2042.000000	29.542370
2041.000000	29.732313
2040.000000	29.925748
2039.000000	30.087978
2038.000000	30.239842
2037.000000	30.430123
2036.000000	30.605421
2035.000000	30.761116
2034.000000	30.909713
2033.000000	31.041299
2032.000000	31.191023
2031.000000	31.334212
2030.000000	31.425917
2029.000000	31.546687
2028.000000	31.638505
2027.000000	31.784398
2026.000000	31.922969
2025.000000	31.999464
2024.000000	32.071792
2023.000000	32.133416
2022.000000	32.241907
2021.000000	32.347694
2020.000000	32.397827
2019.000000	32.454945
2018.000000	32.511049
2017.000000	32.554648
2016.000000	32.599937
2015.000000	32.651761
2014.000000	32.679024
2013.000000	32.713836
2012.000000	32.722285
2011.000000	32.752590
2010.000000	32.737607
2009.000000	32.761941
2008.000000	32.738057
2007.000000	32.710118
2006.000000	32.696937
2005.000000	32.650296
2004.000000	32.628665
2003.000000	32.590249
2002.000000	32.562985
2001.000000	32.519837
2000.000000	32.421711
1999.000000	32.326852
1998.000000	32.295195
1997.000000	32.264551
1996.000000	32.144795
1995.000000	32.033149
1994.000000	31.982904
1993.000000	31.861682
1992.000000	31.766260
1991.000000	31.677823
1990.000000	31.589047
1989.000000	31.465686
1988.000000	31.362603
1987.000000	31.238903
1986.000000	31.113063
1985.000000	31.028456
1984.000000	30.901714
1983.000000	30.788379
1982.000000	30.689352
1981.000000	30.559681
1980.000000	30.436432
1979.000000	30.336841
1978.000000	30.237138
1977.000000	30.145997
1976.000000	30.038971
1975.000000	29.912342
1974.000000	29.785713
1973.000000	29.690967
1972.000000	29.607148
1971.000000	29.522316
1970.000000	29.415177
1969.000000	29.298237
1968.000000	29.209575
1967.000000	29.113814
1966.000000	28.983693
1965.000000	28.910014
1964.000000	28.797017
1963.000000	28.667346
1962.000000	28.554687
1961.000000	28.450478
1960.000000	28.354943
1959.000000	28.215696
1958.000000	28.087377
1957.000000	27.969874
1956.000000	27.851920
1955.000000	27.749851
1954.000000	27.679213
1953.000000	27.585819
1952.000000	27.452994
1951.000000	27.349460
1950.000000	27.260234
1949.000000	27.144984
1948.000000	27.032100
1947.000000	26.913469
1946.000000	26.799571
1945.000000	26.733891
1944.000000	26.663930
1943.000000	26.588561
1942.000000	26.497307
1941.000000	26.453595
1940.000000	26.341049
1939.000000	26.338795
1938.000000	26.319305
1937.000000	26.322685
1936.000000	26.324375
1935.000000	26.290014
1934.000000	26.279762
1933.000000	26.313560
1932.000000	26.318629
1931.000000	26.361891
1930.000000	26.385662
1929.000000	26.458327
1928.000000	26.557917
1927.000000	26.724090
1926.000000	26.864913
1925.000000	27.004047
1924.000000	27.109271
1923.000000	27.174388
1922.000000	27.326590
1921.000000	27.640459
1920.000000	27.993870
1919.000000	28.214231
1918.000000	28.508272
1917.000000	28.667459
1916.000000	28.783498
1915.000000	28.969047
1914.000000	29.379690
1913.000000	29.867504
1912.000000	30.335377
1911.000000	30.756271
1910.000000	31.154521
1909.000000	31.338381
1908.000000	31.617775
1907.000000	32.026728
1906.000000	32.602641
1905.000000	33.315999
1904.000000	33.957254
1903.000000	34.497004
1902.000000	35.010391
1901.000000	35.479955
1900.000000	36.197931
1899.000000	37.070814
1898.000000	37.864610
1897.000000	38.622129
1896.000000	39.120421
1895.000000	39.508193
1894.000000	40.043324
1893.000000	40.664977
1892.000000	41.425200
1891.000000	42.229023
1890.000000	42.940353
1889.000000	43.531587
1888.000000	44.137243
1887.000000	44.614241
1886.000000	45.127066
1885.000000	45.690474
1884.000000	46.324068
1883.000000	46.865733
1882.000000	47.324707
1881.000000	47.745376
1880.000000	48.016884
1879.000000	48.272620
1878.000000	48.575786
1877.000000	48.847294
1876.000000	49.053010
1875.000000	49.307281
1874.000000	49.555244
1873.000000	49.867648
1872.000000	50.196049
1871.000000	50.595087
1870.000000	51.080648
1869.000000	51.484531
1868.000000	51.730917
1867.000000	51.951052
1866.000000	51.943730
1865.000000	51.997581
1864.000000	51.979780
1863.000000	51.927957
1862.000000	51.962544
1861.000000	52.037687
1860.000000	52.174793
1859.000000	52.340290
1858.000000	52.506912
1857.000000	52.552990
1856.000000	52.456103
1855.000000	52.505673
1854.000000	52.708122
1853.000000	52.777857
1852.000000	52.814472
1851.000000	52.746088
1850.000000	52.497111
1849.000000	52.394704
1848.000000	52.664184
1847.000000	53.053872
1846.000000	53.173629
1845.000000	52.959126
1844.000000	52.572818
1843.000000	52.353809
1842.000000	52.479086
1841.000000	52.719725
1840.000000	52.748115
1839.000000	52.619797
1838.000000	52.505448
1837.000000	52.589829
1836.000000	52.779097
1835.000000	52.876997
1834.000000	52.767042
1833.000000	52.527754
1832.000000	52.375214
1831.000000	52.363723
1830.000000	52.443936
1829.000000	52.458582
1828.000000	52.379270
1827.000000	52.365863
1826.000000	52.470861
1825.000000	52.479987
1824.000000	52.358202
1823.000000	52.146516
1822.000000	52.101227
1821.000000	52.305591
1820.000000	52.526064
1819.000000	52.545780
1818.000000	52.407096
1817.000000	52.310773
1816.000000	52.348401
1815.000000	52.400787
1814.000000	52.392676
1813.000000	52.328911
1812.000000	52.292409
1811.000000	52.348626
1810.000000	52.354034
1809.000000	52.258837
1808.000000	52.157106
1807.000000	52.159246
1806.000000	52.183243
1805.000000	52.171076
1804.000000	52.124547
1803.000000	52.053685
1802.000000	52.027548
1801.000000	52.036786
1800.000000	52.057628
1799.000000	52.057290
1798.000000	52.001411
1797.000000	51.968289
1796.000000	51.949588
1795.000000	51.934829
1794.000000	51.919846
1793.000000	51.877599
1792.000000	51.854616
1791.000000	51.853152
1790.000000	51.838393
1789.000000	51.826789
1788.000000	51.825212
1787.000000	51.832760
1786.000000	51.833098
1785.000000	51.822058
1784.000000	51.823522
1783.000000	51.820030
1782.000000	51.803582
1781.000000	51.783303
1780.000000	51.785106
1779.000000	51.787359
1778.000000	51.733508
1777.000000	51.680558
1776.000000	51.627833
1775.000000	51.591107
1774.000000	51.535791
1773.000000	51.475856
1772.000000	51.457042
1771.000000	51.402853
1770.000000	51.358240
1769.000000	51.307431
1768.000000	51.262705
1767.000000	51.220796
1766.000000	51.203334
1765.000000	51.184069
1764.000000	51.164692
1763.000000	51.132471
1762.000000	51.127965
1761.000000	51.106109
1760.000000	51.075579
1759.000000	51.065665
1758.000000	51.044823
1757.000000	51.037950
1756.000000	51.038063
1755.000000	51.024882
1754.000000	51.002688
1753.000000	51.024882
1752.000000	51.023755
1751.000000	50.984888
1750.000000	50.941852
1749.000000	50.876848
1748.000000	50.829869
1747.000000	50.784580
1746.000000	50.716647
1745.000000	50.604551
1744.000000	50.543152
1743.000000	50.466994
1742.000000	50.361433
1741.000000	50.277051
1740.000000	50.229509
1739.000000	50.167208
1738.000000	50.082038
1737.000000	50.025934
1736.000000	49.979180
1735.000000	49.943129
1734.000000	49.880040
1733.000000	49.849397
1732.000000	49.814360
1731.000000	49.767606
1730.000000	49.739554
1729.000000	49.695167
1728.000000	49.638386
1727.000000	49.575973
1726.000000	49.536881
1725.000000	49.516039
1724.000000	49.515588
1723.000000	49.563468
1722.000000	49.656525
1721.000000	49.816050
1720.000000	49.982447
1719.000000	50.169236
1718.000000	50.388696
1717.000000	50.619197
1716.000000	50.849922
1715.000000	51.098223
1714.000000	51.277238
1713.000000	51.452761
1712.000000	51.660054
1711.000000	51.830732
1710.000000	51.964121
1709.000000	52.081737
1708.000000	52.190904
1707.000000	52.261541
1706.000000	52.315054
1705.000000	52.364286
1704.000000	52.432107
1703.000000	52.497787
1702.000000	52.482578
1701.000000	52.479762
1700.000000	52.483254
1699.000000	52.454188
1698.000000	52.442584
1697.000000	52.439430
1696.000000	52.406646
1695.000000	52.365863
1694.000000	52.330601
1693.000000	52.253655
1692.000000	52.212421
1691.000000	52.143587
1690.000000	52.059092
1689.000000	52.044785
1688.000000	52.036561
1687.000000	52.112831
1686.000000	52.252415
1685.000000	52.432557
1684.000000	52.633541
1683.000000	52.861451
1682.000000	53.101414
1681.000000	53.357038
1680.000000	53.605789
1679.000000	53.838318
1678.000000	54.052595
1677.000000	54.267211
1676.000000	54.482840
1675.000000	54.673121
1674.000000	54.887624
1673.000000	55.070019
1672.000000	55.261991
1671.000000	55.426698
1670.000000	55.632301
1669.000000	55.818414
1668.000000	56.013427
1667.000000	56.234802
1666.000000	56.380695
1665.000000	56.520843
1664.000000	56.665160
1663.000000	56.823108
1662.000000	56.948948
1661.000000	57.064198
1660.000000	57.193305
1659.000000	57.275321
1658.000000	57.389107
1657.000000	57.451295
1656.000000	57.511117
1655.000000	57.559785
1654.000000	57.591781
1653.000000	57.606426
1652.000000	57.625916
1651.000000	57.673796
1650.000000	57.712551
1649.000000	57.677064
1648.000000	57.667150
1647.000000	57.664896
1646.000000	57.664671
1645.000000	57.628395
1644.000000	57.619607
1643.000000	57.601131
1642.000000	57.585810
1641.000000	57.581303
1640.000000	57.594034
1639.000000	57.579276
1638.000000	57.556631
1637.000000	57.542436
1636.000000	57.524298
1635.000000	57.500301
1634.000000	57.473714
1633.000000	57.466616
1632.000000	57.428650
1631.000000	57.398908
1630.000000	57.355197
1629.000000	57.292107
1628.000000	57.252001
1627.000000	57.219555
1626.000000	57.167844
1625.000000	57.123006
1624.000000	57.092025
1623.000000	57.059016
1622.000000	57.019247
1621.000000	56.988041
1620.000000	56.950863
1619.000000	56.900730
1618.000000	56.863214
1617.000000	56.841471
1616.000000	56.818489
1615.000000	56.793591
1614.000000	56.743232
1613.000000	56.668990
1612.000000	56.613900
1611.000000	56.559711
1610.000000	56.504395
1609.000000	56.451445
1608.000000	56.373147
1607.000000	56.291920
