PE UV       SUBTECH     SPECTRUM    ASCII       PEDS        4.00        
   -1
CICIMAUCR0215-2.Sample.ASC
24/06/13
14:07:13.00
24/06/13
14:07:13.00
Vinicio Soto Monge
C. cupreomarginata. Sex M. Ventral 
250,000000
1
Lambda 1050
1050L1511233
PerkinElmer UV WinLab 6.3.2.0749 / 2.02.05 Lambda 900 UV/VIS/NIR, Aug  7 2015 09:38:08

0
0
3350/servo 860,8/2
0
0
UV/VIS
1
1
1
DoubleDePol,CommonBeamDepol,RBeamAtt,SBeamAtt,60mm sphere, WB InGaAs Detector
0
0
0
0
Program
Program
3350/servo 860,8/2
3350/0,2 860,8/0,2
3350/0,2 860,8/0,2
0
15.00
 
 
 
0
 
860,8
319,2
860,8
Front
100
on
S:100 R:100
0
0
0
0
 
0
 
 
 
0
 
 
0
0
0
0
0
 
 
 
 
0
0


0
0
#HDR
-1
-1
#GR
nm
%R
1.0
0.0
2500,000000
-1,000000
2251
8
59,483200
4,004400
#DATA
2482.000000	7.890087
2481.000000	7.891999
2480.000000	7.904143
2479.000000	7.919212
2478.000000	7.857926
2477.000000	7.905830
2476.000000	7.901332
2475.000000	7.883677
2474.000000	7.887500
2473.000000	7.954409
2472.000000	7.888850
2471.000000	7.873219
2470.000000	7.897734
2469.000000	7.861637
2468.000000	7.913927
2467.000000	7.863211
2466.000000	7.872319
2465.000000	7.923710
2464.000000	7.969703
2463.000000	7.955309
2462.000000	7.958458
2461.000000	8.001077
2460.000000	8.032789
2459.000000	8.023567
2458.000000	8.039086
2457.000000	8.042572
2456.000000	8.081255
2455.000000	8.118927
2454.000000	8.141867
2453.000000	8.173466
2452.000000	8.218334
2451.000000	8.270737
2450.000000	8.300649
2449.000000	8.331686
2448.000000	8.380715
2447.000000	8.411977
2446.000000	8.445825
2445.000000	8.469327
2444.000000	8.514308
2443.000000	8.560189
2442.000000	8.590776
2441.000000	8.636656
2440.000000	8.659259
2439.000000	8.718634
2438.000000	8.754618
2437.000000	8.798925
2436.000000	8.811744
2435.000000	8.869432
2434.000000	8.885400
2433.000000	8.915312
2432.000000	8.962992
2431.000000	8.985145
2430.000000	9.009772
2429.000000	9.018206
2428.000000	9.068360
2427.000000	9.106706
2426.000000	9.135494
2425.000000	9.149213
2424.000000	9.189808
2423.000000	9.203752
2422.000000	9.240411
2421.000000	9.262902
2420.000000	9.291015
2419.000000	9.298099
2418.000000	9.319690
2417.000000	9.342968
2416.000000	9.353426
2415.000000	9.383450
2414.000000	9.411114
2413.000000	9.422134
2412.000000	9.443387
2411.000000	9.457106
2410.000000	9.474199
2409.000000	9.510184
2408.000000	9.514120
2407.000000	9.535261
2406.000000	9.551116
2405.000000	9.572370
2404.000000	9.585527
2403.000000	9.602619
2402.000000	9.631745
2401.000000	9.638492
2400.000000	9.670091
2399.000000	9.691681
2398.000000	9.716983
2397.000000	9.737899
2396.000000	9.736212
2395.000000	9.742622
2394.000000	9.754205
2393.000000	9.788390
2392.000000	9.806495
2391.000000	9.816953
2390.000000	9.829435
2389.000000	9.840006
2388.000000	9.842030
2387.000000	9.844616
2386.000000	9.860472
2385.000000	9.863621
2384.000000	9.876440
2383.000000	9.896906
2382.000000	9.888135
2381.000000	9.884762
2380.000000	9.886111
2379.000000	9.883750
2378.000000	9.887685
2377.000000	9.890947
2376.000000	9.883637
2375.000000	9.868231
2374.000000	9.854400
2373.000000	9.856761
2372.000000	9.855412
2371.000000	9.855974
2370.000000	9.845628
2369.000000	9.832359
2368.000000	9.813580
2367.000000	9.790302
2366.000000	9.779956
2365.000000	9.762751
2364.000000	9.750157
2363.000000	9.733401
2362.000000	9.704051
2361.000000	9.685834
2360.000000	9.667729
2359.000000	9.641640
2358.000000	9.620050
2357.000000	9.596772
2356.000000	9.580579
2355.000000	9.569559
2354.000000	9.558088
2353.000000	9.546731
2352.000000	9.528289
2351.000000	9.524578
2350.000000	9.535148
2349.000000	9.552916
2348.000000	9.563599
2347.000000	9.568771
2346.000000	9.590137
2345.000000	9.591487
2344.000000	9.594186
2343.000000	9.624548
2342.000000	9.644114
2341.000000	9.655809
2340.000000	9.668629
2339.000000	9.698541
2338.000000	9.702477
2337.000000	9.704501
2336.000000	9.721931
2335.000000	9.731152
2334.000000	9.728116
2333.000000	9.729803
2332.000000	9.727779
2331.000000	9.720919
2330.000000	9.703489
2329.000000	9.681673
2328.000000	9.665817
2327.000000	9.638492
2326.000000	9.618250
2325.000000	9.594748
2324.000000	9.542120
2323.000000	9.514345
2322.000000	9.470488
2321.000000	9.431130
2320.000000	9.393009
2319.000000	9.345104
2318.000000	9.300798
2317.000000	9.256155
2316.000000	9.220395
2315.000000	9.156635
2314.000000	9.110754
2313.000000	9.051379
2312.000000	9.006511
2311.000000	8.966028
2310.000000	8.920710
2309.000000	8.892147
2308.000000	8.847841
2307.000000	8.846042
2306.000000	8.821977
2305.000000	8.805897
2304.000000	8.808933
2303.000000	8.811069
2302.000000	8.834347
2301.000000	8.840082
2300.000000	8.873593
2299.000000	8.905304
2298.000000	8.939265
2297.000000	8.971314
2296.000000	8.984695
2295.000000	9.036648
2294.000000	9.089388
2293.000000	9.141678
2292.000000	9.170016
2291.000000	9.200266
2290.000000	9.233552
2289.000000	9.235126
2288.000000	9.249970
2287.000000	9.264589
2286.000000	9.275159
2285.000000	9.254918
2284.000000	9.247046
2283.000000	9.254693
2282.000000	9.245921
2281.000000	9.218821
2280.000000	9.198129
2279.000000	9.176539
2278.000000	9.156522
2277.000000	9.135943
2276.000000	9.098384
2275.000000	9.067010
2274.000000	9.063749
2273.000000	9.081517
2272.000000	9.060938
2271.000000	9.057114
2270.000000	9.056777
2269.000000	9.064874
2268.000000	9.072408
2267.000000	9.094673
2266.000000	9.126835
2265.000000	9.194531
2264.000000	9.247721
2263.000000	9.344092
2262.000000	9.403467
2261.000000	9.478247
2260.000000	9.595310
2259.000000	9.686284
2258.000000	9.797611
2257.000000	9.902866
2256.000000	10.065922
2255.000000	10.168366
2254.000000	10.303196
2253.000000	10.436676
2252.000000	10.584551
2251.000000	10.717582
2250.000000	10.832733
2249.000000	10.957667
2248.000000	11.065508
2247.000000	11.188306
2246.000000	11.298284
2245.000000	11.395443
2244.000000	11.474497
2243.000000	11.540281
2242.000000	11.644187
2241.000000	11.688380
2240.000000	11.786101
2239.000000	11.846376
2238.000000	11.899340
2237.000000	11.952643
2236.000000	11.985591
2235.000000	12.050476
2234.000000	12.093320
2233.000000	12.126831
2232.000000	12.135377
2231.000000	12.189129
2230.000000	12.175860
2229.000000	12.177097
2228.000000	12.190929
2227.000000	12.198688
2226.000000	12.217917
2225.000000	12.189467
2224.000000	12.193065
2223.000000	12.199700
2222.000000	12.158880
2221.000000	12.136389
2220.000000	12.141900
2219.000000	12.125819
2218.000000	12.120196
2217.000000	12.103553
2216.000000	12.049914
2215.000000	12.018090
2214.000000	12.006507
2213.000000	11.981655
2212.000000	11.987390
2211.000000	11.951293
2210.000000	11.940161
2209.000000	11.901027
2208.000000	11.892256
2207.000000	11.872802
2206.000000	11.854697
2205.000000	11.855709
2204.000000	11.845139
2203.000000	11.829845
2202.000000	11.816688
2201.000000	11.809604
2200.000000	11.792848
2199.000000	11.764623
2198.000000	11.767884
2197.000000	11.750341
2196.000000	11.746968
2195.000000	11.740108
2194.000000	11.733811
2193.000000	11.742920
2192.000000	11.718405
2191.000000	11.709072
2190.000000	11.704686
2189.000000	11.714582
2188.000000	11.689730
2187.000000	11.685344
2186.000000	11.675786
2185.000000	11.668027
2184.000000	11.642837
2183.000000	11.661729
2182.000000	11.638677
2181.000000	11.632492
2180.000000	11.627994
2179.000000	11.617311
2178.000000	11.602130
2177.000000	11.614499
2176.000000	11.621921
2175.000000	11.576266
2174.000000	11.593471
2173.000000	11.580539
2172.000000	11.604716
2171.000000	11.601905
2170.000000	11.606740
2169.000000	11.589198
2168.000000	11.603816
2167.000000	11.625857
2166.000000	11.636315
2165.000000	11.643400
2164.000000	11.658356
2163.000000	11.679946
2162.000000	11.685232
2161.000000	11.694003
2160.000000	11.714919
2159.000000	11.750117
2158.000000	11.770695
2157.000000	11.778230
2156.000000	11.820287
2155.000000	11.827596
2154.000000	11.847163
2153.000000	11.893156
2152.000000	11.925204
2151.000000	11.963326
2150.000000	11.984692
2149.000000	12.018540
2148.000000	12.051713
2147.000000	12.087023
2146.000000	12.109626
2145.000000	12.128630
2144.000000	12.150558
2143.000000	12.172374
2142.000000	12.219267
2141.000000	12.253452
2140.000000	12.263910
2139.000000	12.288762
2138.000000	12.302481
2137.000000	12.324409
2136.000000	12.358820
2135.000000	12.368940
2134.000000	12.381760
2133.000000	12.400764
2132.000000	12.422917
2131.000000	12.430452
2130.000000	12.449119
2129.000000	12.450018
2128.000000	12.464075
2127.000000	12.469922
2126.000000	12.472509
2125.000000	12.471159
2124.000000	12.460139
2123.000000	12.460589
2122.000000	12.454404
2121.000000	12.459127
2120.000000	12.436861
2119.000000	12.421680
2118.000000	12.418419
2117.000000	12.428315
2116.000000	12.402788
2115.000000	12.391318
2114.000000	12.390419
2113.000000	12.355446
2112.000000	12.346675
2111.000000	12.350836
2110.000000	12.325984
2109.000000	12.296409
2108.000000	12.284376
2107.000000	12.276280
2106.000000	12.261211
2105.000000	12.223877
2104.000000	12.203298
2103.000000	12.180246
2102.000000	12.173724
2101.000000	12.163940
2100.000000	12.133803
2099.000000	12.115024
2098.000000	12.101417
2097.000000	12.083762
2096.000000	12.068918
2095.000000	12.045303
2094.000000	12.024949
2093.000000	12.008644
2092.000000	12.003696
2091.000000	11.998411
2090.000000	11.980306
2089.000000	11.970860
2088.000000	11.957478
2087.000000	11.938474
2086.000000	11.922168
2085.000000	11.912272
2084.000000	11.903839
2083.000000	11.878649
2082.000000	11.852560
2081.000000	11.829620
2080.000000	11.806792
2079.000000	11.788575
2078.000000	11.769796
2077.000000	11.739096
2076.000000	11.705810
2075.000000	11.662854
2074.000000	11.629568
2073.000000	11.616299
2072.000000	11.582226
2071.000000	11.551864
2070.000000	11.511606
2069.000000	11.461565
2068.000000	11.426480
2067.000000	11.404214
2066.000000	11.371715
2065.000000	11.319875
2064.000000	11.275231
2063.000000	11.240709
2062.000000	11.219455
2061.000000	11.194041
2060.000000	11.151984
2059.000000	11.130281
2058.000000	11.118586
2057.000000	11.111389
2056.000000	11.101943
2055.000000	11.090473
2054.000000	11.090248
2053.000000	11.101605
2052.000000	11.110714
2051.000000	11.110264
2050.000000	11.155020
2049.000000	11.188418
2048.000000	11.194828
2047.000000	11.231825
2046.000000	11.288276
2045.000000	11.320437
2044.000000	11.376213
2043.000000	11.414672
2042.000000	11.445934
2041.000000	11.500923
2040.000000	11.536233
2039.000000	11.581438
2038.000000	11.638789
2037.000000	11.676910
2036.000000	11.717505
2035.000000	11.752028
2034.000000	11.783740
2033.000000	11.809491
2032.000000	11.834456
2031.000000	11.860882
2030.000000	11.885959
2029.000000	11.913397
2028.000000	11.935662
2027.000000	11.953767
2026.000000	11.954779
2025.000000	11.955342
2024.000000	11.976145
2023.000000	11.989077
2022.000000	12.000772
2021.000000	11.991889
2020.000000	11.988178
2019.000000	11.999648
2018.000000	12.001222
2017.000000	12.002009
2016.000000	12.005833
2015.000000	11.995037
2014.000000	11.989415
2013.000000	11.984017
2012.000000	11.968161
2011.000000	11.941173
2010.000000	11.933526
2009.000000	11.915758
2008.000000	11.906650
2007.000000	11.881348
2006.000000	11.862119
2005.000000	11.833219
2004.000000	11.789700
2003.000000	11.767659
2002.000000	11.741120
2001.000000	11.713795
2000.000000	11.680059
1999.000000	11.655095
1998.000000	11.605391
1997.000000	11.546803
1996.000000	11.512618
1995.000000	11.480119
1994.000000	11.440761
1993.000000	11.391844
1992.000000	11.342140
1991.000000	11.300646
1990.000000	11.231600
1989.000000	11.213158
1988.000000	11.146361
1987.000000	11.106328
1986.000000	11.043693
1985.000000	11.010182
1984.000000	10.956767
1983.000000	10.915497
1982.000000	10.879962
1981.000000	10.813953
1980.000000	10.742546
1979.000000	10.714096
1978.000000	10.679123
1977.000000	10.607491
1976.000000	10.562060
1975.000000	10.517305
1974.000000	10.451520
1973.000000	10.405977
1972.000000	10.383711
1971.000000	10.336707
1970.000000	10.289139
1969.000000	10.229540
1968.000000	10.206599
1967.000000	10.168928
1966.000000	10.123273
1965.000000	10.063448
1964.000000	10.033086
1963.000000	9.978884
1962.000000	9.952345
1961.000000	9.908264
1960.000000	9.852151
1959.000000	9.826174
1958.000000	9.792888
1957.000000	9.758478
1956.000000	9.729016
1955.000000	9.674026
1954.000000	9.653448
1953.000000	9.627246
1952.000000	9.573157
1951.000000	9.542008
1950.000000	9.520529
1949.000000	9.477123
1948.000000	9.450472
1947.000000	9.422246
1946.000000	9.423033
1945.000000	9.358936
1944.000000	9.342630
1943.000000	9.357699
1942.000000	9.320365
1941.000000	9.319465
1940.000000	9.309232
1939.000000	9.298437
1938.000000	9.287979
1937.000000	9.285167
1936.000000	9.283818
1935.000000	9.292814
1934.000000	9.275609
1933.000000	9.297874
1932.000000	9.326100
1931.000000	9.367932
1930.000000	9.369731
1929.000000	9.421459
1928.000000	9.419660
1927.000000	9.451709
1926.000000	9.517718
1925.000000	9.566972
1924.000000	9.589125
1923.000000	9.640066
1922.000000	9.687071
1921.000000	9.781643
1920.000000	9.855412
1919.000000	9.926144
1918.000000	9.991591
1917.000000	10.068958
1916.000000	10.147787
1915.000000	10.247307
1914.000000	10.308931
1913.000000	10.432516
1912.000000	10.562285
1911.000000	10.668665
1910.000000	10.769984
1909.000000	10.906726
1908.000000	10.996125
1907.000000	11.128144
1906.000000	11.256002
1905.000000	11.426704
1904.000000	11.614724
1903.000000	11.773619
1902.000000	11.952193
1901.000000	12.132454
1900.000000	12.292810
1899.000000	12.510855
1898.000000	12.760498
1897.000000	12.994511
1896.000000	13.178595
1895.000000	13.396415
1894.000000	13.606363
1893.000000	13.833291
1892.000000	14.105200
1891.000000	14.429287
1890.000000	14.753261
1889.000000	15.046087
1888.000000	15.363876
1887.000000	15.697634
1886.000000	16.044211
1885.000000	16.405857
1884.000000	16.810572
1883.000000	17.272863
1882.000000	17.731555
1881.000000	18.145153
1880.000000	18.604407
1879.000000	19.025653
1878.000000	19.437003
1877.000000	19.854200
1876.000000	20.290851
1875.000000	20.736386
1874.000000	21.132217
1873.000000	21.546603
1872.000000	21.967511
1871.000000	22.344901
1870.000000	22.709133
1869.000000	23.067967
1868.000000	23.410384
1867.000000	23.671498
1866.000000	23.911695
1865.000000	24.102414
1864.000000	24.295382
1863.000000	24.451578
1862.000000	24.610810
1861.000000	24.788372
1860.000000	24.963010
1859.000000	25.119880
1858.000000	25.267867
1857.000000	25.407308
1856.000000	25.482201
1855.000000	25.545174
1854.000000	25.646381
1853.000000	25.722398
1852.000000	25.731282
1851.000000	25.768166
1850.000000	25.801677
1849.000000	25.795830
1848.000000	25.847445
1847.000000	25.899286
1846.000000	25.904683
1845.000000	25.904009
1844.000000	25.860377
1843.000000	25.805950
1842.000000	25.797629
1841.000000	25.796729
1840.000000	25.832264
1839.000000	25.827429
1838.000000	25.799541
1837.000000	25.771090
1836.000000	25.754785
1835.000000	25.737467
1834.000000	25.686751
1833.000000	25.621079
1832.000000	25.560467
1831.000000	25.511776
1830.000000	25.471968
1829.000000	25.428561
1828.000000	25.378183
1827.000000	25.308462
1826.000000	25.254485
1825.000000	25.214340
1824.000000	25.151367
1823.000000	25.093342
1822.000000	25.058481
1821.000000	25.049035
1820.000000	25.040826
1819.000000	25.018786
1818.000000	24.985163
1817.000000	24.936583
1816.000000	24.908808
1815.000000	24.890815
1814.000000	24.865514
1813.000000	24.837176
1812.000000	24.826043
1811.000000	24.817497
1810.000000	24.795119
1809.000000	24.760483
1808.000000	24.718876
1807.000000	24.666474
1806.000000	24.626778
1805.000000	24.587195
1804.000000	24.540077
1803.000000	24.502406
1802.000000	24.461473
1801.000000	24.425939
1800.000000	24.379608
1799.000000	24.313149
1798.000000	24.261646
1797.000000	24.212055
1796.000000	24.166961
1795.000000	24.127603
1794.000000	24.080261
1793.000000	24.047312
1792.000000	24.006942
1791.000000	23.948692
1790.000000	23.888305
1789.000000	23.836690
1788.000000	23.802054
1787.000000	23.763371
1786.000000	23.711193
1785.000000	23.668574
1784.000000	23.610099
1783.000000	23.542065
1782.000000	23.470883
1781.000000	23.403187
1780.000000	23.360343
1779.000000	23.301193
1778.000000	23.239907
1777.000000	23.168050
1776.000000	23.108675
1775.000000	23.044690
1774.000000	22.950343
1773.000000	22.857682
1772.000000	22.766933
1771.000000	22.678996
1770.000000	22.598143
1769.000000	22.504470
1768.000000	22.391231
1767.000000	22.309028
1766.000000	22.248754
1765.000000	22.184656
1764.000000	22.113249
1763.000000	22.071080
1762.000000	22.061859
1761.000000	22.064108
1760.000000	22.084124
1759.000000	22.123145
1758.000000	22.169813
1757.000000	22.241895
1756.000000	22.293398
1755.000000	22.342989
1754.000000	22.412259
1753.000000	22.458252
1752.000000	22.479393
1751.000000	22.500759
1750.000000	22.499185
1749.000000	22.481305
1748.000000	22.473546
1747.000000	22.429240
1746.000000	22.386733
1745.000000	22.326346
1744.000000	22.258537
1743.000000	22.162278
1742.000000	22.035433
1741.000000	21.900265
1740.000000	21.746543
1739.000000	21.581014
1738.000000	21.424143
1737.000000	21.255240
1736.000000	21.117711
1735.000000	21.011444
1734.000000	20.906301
1733.000000	20.847939
1732.000000	20.809030
1731.000000	20.808693
1730.000000	20.857722
1729.000000	20.915635
1728.000000	20.975909
1727.000000	21.065196
1726.000000	21.167977
1725.000000	21.240171
1724.000000	21.308093
1723.000000	21.373090
1722.000000	21.434264
1721.000000	21.494763
1720.000000	21.538844
1719.000000	21.576403
1718.000000	21.616773
1717.000000	21.691104
1716.000000	21.765660
1715.000000	21.834031
1714.000000	21.898016
1713.000000	21.988203
1712.000000	22.076028
1711.000000	22.151933
1710.000000	22.178134
1709.000000	22.228738
1708.000000	22.262698
1707.000000	22.270345
1706.000000	22.251903
1705.000000	22.214119
1704.000000	22.183982
1703.000000	22.132816
1702.000000	22.071867
1701.000000	21.982580
1700.000000	21.887446
1699.000000	21.767797
1698.000000	21.655345
1697.000000	21.523776
1696.000000	21.413235
1695.000000	21.344864
1694.000000	21.297522
1693.000000	21.312141
1692.000000	21.408287
1691.000000	21.509944
1690.000000	21.619922
1689.000000	21.755877
1688.000000	21.854047
1687.000000	21.952780
1686.000000	22.025199
1685.000000	22.091883
1684.000000	22.170825
1683.000000	22.271244
1682.000000	22.467024
1681.000000	22.701374
1680.000000	23.026023
1679.000000	23.420392
1678.000000	23.833766
1677.000000	24.277614
1676.000000	24.700322
1675.000000	25.099302
1674.000000	25.472530
1673.000000	25.784472
1672.000000	26.080671
1671.000000	26.341560
1670.000000	26.555668
1669.000000	26.752684
1668.000000	26.930696
1667.000000	27.088466
1666.000000	27.214525
1665.000000	27.326527
1664.000000	27.440666
1663.000000	27.530740
1662.000000	27.611818
1661.000000	27.666582
1660.000000	27.733154
1659.000000	27.799838
1658.000000	27.863036
1657.000000	27.884402
1656.000000	27.885077
1655.000000	27.931294
1654.000000	27.950299
1653.000000	27.913527
1652.000000	27.915101
1651.000000	27.904756
1650.000000	27.881366
1649.000000	27.859438
1648.000000	27.822328
1647.000000	27.764640
1646.000000	27.739339
1645.000000	27.697394
1644.000000	27.658261
1643.000000	27.588541
1642.000000	27.546708
1641.000000	27.520170
1640.000000	27.445839
1639.000000	27.397597
1638.000000	27.337323
1637.000000	27.268614
1636.000000	27.205079
1635.000000	27.146491
1634.000000	27.082506
1633.000000	27.008963
1632.000000	26.932945
1631.000000	26.846020
1630.000000	26.784171
1629.000000	26.707366
1628.000000	26.616055
1627.000000	26.562753
1626.000000	26.501804
1625.000000	26.412404
1624.000000	26.337849
1623.000000	26.235067
1622.000000	26.160174
1621.000000	26.085281
1620.000000	26.006452
1619.000000	25.939543
1618.000000	25.869148
1617.000000	25.788970
1616.000000	25.725435
1615.000000	25.632212
1614.000000	25.578460
1613.000000	25.524483
1612.000000	25.453188
1611.000000	25.384592
1610.000000	25.305764
1609.000000	25.236943
1608.000000	25.164411
1607.000000	25.109647
1606.000000	25.037678
1605.000000	24.933997
1604.000000	24.882494
1603.000000	24.805352
1602.000000	24.718539
1601.000000	24.653766
1600.000000	24.592368
1599.000000	24.513764
1598.000000	24.458212
1597.000000	24.358580
1596.000000	24.285936
1595.000000	24.219364
