PE UV       SUBTECH     SPECTRUM    ASCII       PEDS        4.00        
   -1
CICIMAUCR0236-2.Sample.ASC
24/06/19
14:50:02.00
24/06/19
14:50:02.00
Vinicio Soto Monge
C. resplendens. Sex M. Ventral
250,000000
1
Lambda 1050
1050L1511233
PerkinElmer UV WinLab 6.3.2.0749 / 2.02.05 Lambda 900 UV/VIS/NIR, Aug  7 2015 09:38:08

0
0
3350/servo 860,8/2
0
0
UV/VIS
1
1
1
DoubleDePol,CommonBeamDepol,RBeamAtt,SBeamAtt,60mm sphere, WB InGaAs Detector
0
0
0
0
Program
Program
3350/servo 860,8/2
3350/0,2 860,8/0,2
3350/0,2 860,8/0,2
0
15.00
 
 
 
0
 
860,8
319,2
860,8
Front
100
on
S:100 R:100
0
0
0
0
 
0
 
 
 
0
 
 
0
0
0
0
0
 
 
 
 
0
0


0
0
#HDR
-1
-1
#GR
nm
%R
1.0
0.0
2500,000000
-1,000000
2251
8
62,401400
4,357000
#DATA
2482.000000	6.351294
2481.000000	6.438589
2480.000000	6.371919
2479.000000	6.356422
2478.000000	6.355976
2477.000000	6.357983
2476.000000	6.257420
2475.000000	6.281948
2474.000000	6.279606
2473.000000	6.255636
2472.000000	6.302127
2471.000000	6.249839
2470.000000	6.311046
2469.000000	6.317178
2468.000000	6.307478
2467.000000	6.320857
2466.000000	6.370470
2465.000000	6.325540
2464.000000	6.346165
2463.000000	6.321415
2462.000000	6.332898
2461.000000	6.354527
2460.000000	6.302796
2459.000000	6.341817
2458.000000	6.412166
2457.000000	6.401352
2456.000000	6.421086
2455.000000	6.403916
2454.000000	6.451968
2453.000000	6.468580
2452.000000	6.501915
2451.000000	6.500354
2450.000000	6.529118
2449.000000	6.583190
2448.000000	6.582521
2447.000000	6.599468
2446.000000	6.613069
2445.000000	6.694568
2444.000000	6.709507
2443.000000	6.723778
2442.000000	6.742285
2441.000000	6.763914
2440.000000	6.777069
2439.000000	6.840060
2438.000000	6.851767
2437.000000	6.906619
2436.000000	6.932373
2435.000000	6.926576
2434.000000	6.947090
2433.000000	6.975854
2432.000000	7.005733
2431.000000	7.039514
2430.000000	7.048433
2429.000000	7.074744
2428.000000	7.092694
2427.000000	7.133387
2426.000000	7.135394
2425.000000	7.153344
2424.000000	7.165050
2423.000000	7.182889
2422.000000	7.198608
2421.000000	7.226258
2420.000000	7.243427
2419.000000	7.253126
2418.000000	7.266840
2417.000000	7.285235
2416.000000	7.295604
2415.000000	7.321469
2414.000000	7.334513
2413.000000	7.347334
2412.000000	7.363054
2411.000000	7.375987
2410.000000	7.394494
2409.000000	7.411441
2408.000000	7.417795
2407.000000	7.422032
2406.000000	7.444441
2405.000000	7.459827
2404.000000	7.474097
2403.000000	7.505426
2402.000000	7.519696
2401.000000	7.537757
2400.000000	7.545004
2399.000000	7.564515
2398.000000	7.592164
2397.000000	7.609445
2396.000000	7.620148
2395.000000	7.641442
2394.000000	7.640773
2393.000000	7.654709
2392.000000	7.663851
2391.000000	7.677341
2390.000000	7.698413
2389.000000	7.707443
2388.000000	7.719038
2387.000000	7.725393
2386.000000	7.731748
2385.000000	7.733755
2384.000000	7.739552
2383.000000	7.752373
2382.000000	7.751704
2381.000000	7.745015
2380.000000	7.749475
2379.000000	7.774894
2378.000000	7.772441
2377.000000	7.755160
2376.000000	7.761404
2375.000000	7.757056
2374.000000	7.743120
2373.000000	7.743789
2372.000000	7.725281
2371.000000	7.709450
2370.000000	7.711345
2369.000000	7.708112
2368.000000	7.699974
2367.000000	7.677007
2366.000000	7.655490
2365.000000	7.638097
2364.000000	7.631519
2363.000000	7.611451
2362.000000	7.570312
2361.000000	7.559498
2360.000000	7.549464
2359.000000	7.521034
2358.000000	7.507209
2357.000000	7.495726
2356.000000	7.470976
2355.000000	7.453583
2354.000000	7.432512
2353.000000	7.420025
2352.000000	7.427272
2351.000000	7.435076
2350.000000	7.440762
2349.000000	7.443995
2348.000000	7.449235
2347.000000	7.461722
2346.000000	7.483128
2345.000000	7.496061
2344.000000	7.517912
2343.000000	7.548795
2342.000000	7.554369
2341.000000	7.572207
2340.000000	7.602532
2339.000000	7.604762
2338.000000	7.608887
2337.000000	7.607215
2336.000000	7.616468
2335.000000	7.616245
2334.000000	7.611451
2333.000000	7.613793
2332.000000	7.608887
2331.000000	7.604762
2330.000000	7.569309
2329.000000	7.547011
2328.000000	7.544224
2327.000000	7.521146
2326.000000	7.495726
2325.000000	7.471422
2324.000000	7.435522
2323.000000	7.407092
2322.000000	7.371416
2321.000000	7.333956
2320.000000	7.296384
2319.000000	7.258589
2318.000000	7.209088
2317.000000	7.179544
2316.000000	7.139185
2315.000000	7.102282
2314.000000	7.064153
2313.000000	7.004952
2312.000000	6.958796
2311.000000	6.953445
2310.000000	6.918437
2309.000000	6.869382
2308.000000	6.834040
2307.000000	6.827351
2306.000000	6.823783
2305.000000	6.826793
2304.000000	6.819435
2303.000000	6.807840
2302.000000	6.822222
2301.000000	6.850652
2300.000000	6.876294
2299.000000	6.905170
2298.000000	6.930366
2297.000000	6.964370
2296.000000	7.016213
2295.000000	7.041744
2294.000000	7.046984
2293.000000	7.093140
2292.000000	7.131827
2291.000000	7.156800
2290.000000	7.163378
2289.000000	7.190804
2288.000000	7.199500
2287.000000	7.179767
2286.000000	7.195933
2285.000000	7.189801
2284.000000	7.179209
2283.000000	7.170625
2282.000000	7.156689
2281.000000	7.125137
2280.000000	7.109752
2279.000000	7.092360
2278.000000	7.080319
2277.000000	7.054676
2276.000000	7.041186
2275.000000	7.013983
2274.000000	6.997594
2273.000000	6.988898
2272.000000	6.991797
2271.000000	6.973847
2270.000000	6.979867
2269.000000	6.991462
2268.000000	6.992243
2267.000000	7.013983
2266.000000	7.065268
2265.000000	7.079427
2264.000000	7.144871
2263.000000	7.205632
2262.000000	7.272637
2261.000000	7.351460
2260.000000	7.442880
2259.000000	7.540433
2258.000000	7.656827
2257.000000	7.763299
2256.000000	7.871778
2255.000000	7.973567
2254.000000	8.123854
2253.000000	8.247495
2252.000000	8.351960
2251.000000	8.471587
2250.000000	8.592330
2249.000000	8.724444
2248.000000	8.839389
2247.000000	8.970165
2246.000000	9.042968
2245.000000	9.126473
2244.000000	9.232498
2243.000000	9.331946
2242.000000	9.401404
2241.000000	9.449233
2240.000000	9.519025
2239.000000	9.587479
2238.000000	9.653034
2237.000000	9.730296
2236.000000	9.784145
2235.000000	9.816142
2234.000000	9.844683
2233.000000	9.880248
2232.000000	9.901654
2231.000000	9.961301
2230.000000	9.943351
2229.000000	9.978136
2228.000000	9.997312
2227.000000	9.998204
2226.000000	10.021728
2225.000000	10.039231
2224.000000	10.030535
2223.000000	10.010913
2222.000000	10.021505
2221.000000	9.987055
2220.000000	9.979139
2219.000000	9.967098
2218.000000	9.961858
2217.000000	9.938446
2216.000000	9.918935
2215.000000	9.916817
2214.000000	9.864305
2213.000000	9.863079
2212.000000	9.854940
2211.000000	9.807000
2210.000000	9.803544
2209.000000	9.793733
2208.000000	9.795963
2207.000000	9.780577
2206.000000	9.759506
2205.000000	9.756496
2204.000000	9.738769
2203.000000	9.724944
2202.000000	9.728401
2201.000000	9.680795
2200.000000	9.700863
2199.000000	9.713350
2198.000000	9.695846
2197.000000	9.688488
2196.000000	9.681910
2195.000000	9.667193
2194.000000	9.670426
2193.000000	9.670649
2192.000000	9.656490
2191.000000	9.645341
2190.000000	9.659947
2189.000000	9.652031
2188.000000	9.635530
2187.000000	9.640213
2186.000000	9.623044
2185.000000	9.604314
2184.000000	9.636757
2183.000000	9.588705
2182.000000	9.594057
2181.000000	9.553698
2180.000000	9.549015
2179.000000	9.549684
2178.000000	9.564735
2177.000000	9.571090
2176.000000	9.551245
2175.000000	9.545336
2174.000000	9.541657
2173.000000	9.557823
2172.000000	9.555705
2171.000000	9.536082
2170.000000	9.551914
2169.000000	9.551468
2168.000000	9.575215
2167.000000	9.575550
2166.000000	9.581570
2165.000000	9.594280
2164.000000	9.616466
2163.000000	9.614905
2162.000000	9.630848
2161.000000	9.630179
2160.000000	9.651919
2159.000000	9.661507
2158.000000	9.678119
2157.000000	9.712681
2156.000000	9.738435
2155.000000	9.761178
2154.000000	9.774334
2153.000000	9.784145
2152.000000	9.808227
2151.000000	9.852042
2150.000000	9.876681
2149.000000	9.898310
2148.000000	9.919381
2147.000000	9.953385
2146.000000	9.975460
2145.000000	9.992183
2144.000000	10.007346
2143.000000	10.027637
2142.000000	10.064762
2141.000000	10.090516
2140.000000	10.101442
2139.000000	10.128534
2138.000000	10.142693
2137.000000	10.149940
2136.000000	10.162872
2135.000000	10.170788
2134.000000	10.188292
2133.000000	10.203120
2132.000000	10.204458
2131.000000	10.210144
2130.000000	10.215830
2129.000000	10.226310
2128.000000	10.228762
2127.000000	10.225864
2126.000000	10.231996
2125.000000	10.237235
2124.000000	10.236901
2123.000000	10.244371
2122.000000	10.222407
2121.000000	10.212931
2120.000000	10.206799
2119.000000	10.179596
2118.000000	10.159862
2117.000000	10.169562
2116.000000	10.156183
2115.000000	10.140017
2114.000000	10.117831
2113.000000	10.100216
2112.000000	10.098543
2111.000000	10.087172
2110.000000	10.057404
2109.000000	10.038562
2108.000000	10.009352
2107.000000	9.985717
2106.000000	9.971781
2105.000000	9.958291
2104.000000	9.937665
2103.000000	9.916817
2102.000000	9.908567
2101.000000	9.884819
2100.000000	9.863748
2099.000000	9.839221
2098.000000	9.817146
2097.000000	9.795963
2096.000000	9.786040
2095.000000	9.783588
2094.000000	9.765415
2093.000000	9.751144
2092.000000	9.738435
2091.000000	9.711008
2090.000000	9.688711
2089.000000	9.684140
2088.000000	9.685143
2087.000000	9.665298
2086.000000	9.632743
2085.000000	9.614571
2084.000000	9.599520
2083.000000	9.584469
2082.000000	9.580455
2081.000000	9.548235
2080.000000	9.526829
2079.000000	9.529059
2078.000000	9.503416
2077.000000	9.471976
2076.000000	9.443658
2075.000000	9.415675
2074.000000	9.389921
2073.000000	9.361268
2072.000000	9.338078
2071.000000	9.323696
2070.000000	9.300507
2069.000000	9.251340
2068.000000	9.209086
2067.000000	9.184893
2066.000000	9.158693
2065.000000	9.125135
2064.000000	9.107408
2063.000000	9.089124
2062.000000	9.061698
2061.000000	9.026133
2060.000000	9.007068
2059.000000	8.990010
2058.000000	8.973733
2057.000000	8.970946
2056.000000	8.969385
2055.000000	8.968159
2054.000000	8.965817
2053.000000	8.969162
2052.000000	8.982652
2051.000000	8.998706
2050.000000	9.024014
2049.000000	9.065154
2048.000000	9.084776
2047.000000	9.121567
2046.000000	9.177089
2045.000000	9.218785
2044.000000	9.254685
2043.000000	9.299838
2042.000000	9.351791
2041.000000	9.402965
2040.000000	9.448006
2039.000000	9.490149
2038.000000	9.528390
2037.000000	9.560833
2036.000000	9.607881
2035.000000	9.655821
2034.000000	9.674329
2033.000000	9.698076
2032.000000	9.727620
2031.000000	9.755604
2030.000000	9.781692
2029.000000	9.803210
2028.000000	9.820936
2027.000000	9.849700
2026.000000	9.865420
2025.000000	9.858508
2024.000000	9.865420
2023.000000	9.899870
2022.000000	9.919604
2021.000000	9.910573
2020.000000	9.947253
2019.000000	9.932648
2018.000000	9.904999
2017.000000	9.925067
2016.000000	9.926293
2015.000000	9.912803
2014.000000	9.921388
2013.000000	9.905556
2012.000000	9.890951
2011.000000	9.878242
2010.000000	9.863860
2009.000000	9.860849
2008.000000	9.833089
2007.000000	9.815250
2006.000000	9.796297
2005.000000	9.772439
2004.000000	9.743340
2003.000000	9.725502
2002.000000	9.691832
2001.000000	9.658609
2000.000000	9.634416
1999.000000	9.593276
1998.000000	9.552137
1997.000000	9.532069
1996.000000	9.497619
1995.000000	9.428719
1994.000000	9.410769
1993.000000	9.369072
1992.000000	9.306750
1991.000000	9.282445
1990.000000	9.237961
1989.000000	9.206633
1988.000000	9.156129
1987.000000	9.124466
1986.000000	9.055677
1985.000000	9.017660
1984.000000	8.955672
1983.000000	8.919995
1982.000000	8.876849
1981.000000	8.821997
1980.000000	8.778739
1979.000000	8.734590
1978.000000	8.678065
1977.000000	8.643726
1976.000000	8.611283
1975.000000	8.575384
1974.000000	8.533687
1973.000000	8.478277
1972.000000	8.453080
1971.000000	8.421752
1970.000000	8.358203
1969.000000	8.309260
1968.000000	8.288969
1967.000000	8.251732
1966.000000	8.234228
1965.000000	8.172017
1964.000000	8.145483
1963.000000	8.092637
1962.000000	8.069670
1961.000000	8.010470
1960.000000	8.029534
1959.000000	7.968662
1958.000000	7.939897
1957.000000	7.931201
1956.000000	7.883596
1955.000000	7.853048
1954.000000	7.799756
1953.000000	7.778685
1952.000000	7.776901
1951.000000	7.708224
1950.000000	7.705548
1949.000000	7.671990
1948.000000	7.657719
1947.000000	7.645901
1946.000000	7.617137
1945.000000	7.617918
1944.000000	7.577893
1943.000000	7.564180
1942.000000	7.543778
1941.000000	7.562285
1940.000000	7.542105
1939.000000	7.536419
1938.000000	7.503530
1937.000000	7.516129
1936.000000	7.528950
1935.000000	7.527166
1934.000000	7.532740
1933.000000	7.544893
1932.000000	7.550356
1931.000000	7.562508
1930.000000	7.594282
1929.000000	7.614016
1928.000000	7.645233
1927.000000	7.672213
1926.000000	7.699193
1925.000000	7.737211
1924.000000	7.770211
1923.000000	7.823726
1922.000000	7.888501
1921.000000	7.944580
1920.000000	7.977692
1919.000000	8.027416
1918.000000	8.104455
1917.000000	8.168895
1916.000000	8.236792
1915.000000	8.319294
1914.000000	8.405698
1913.000000	8.501021
1912.000000	8.582630
1911.000000	8.682636
1910.000000	8.775617
1909.000000	8.881309
1908.000000	8.983990
1907.000000	9.114097
1906.000000	9.238630
1905.000000	9.370856
1904.000000	9.513004
1903.000000	9.659501
1902.000000	9.796186
1901.000000	9.960074
1900.000000	10.142247
1899.000000	10.304017
1898.000000	10.524208
1897.000000	10.709502
1896.000000	10.910851
1895.000000	11.109189
1894.000000	11.329380
1893.000000	11.546002
1892.000000	11.836765
1891.000000	12.123403
1890.000000	12.413497
1889.000000	12.710949
1888.000000	13.026239
1887.000000	13.382000
1886.000000	13.711784
1885.000000	14.110914
1884.000000	14.517625
1883.000000	15.003270
1882.000000	15.515115
1881.000000	15.983256
1880.000000	16.491534
1879.000000	16.948972
1878.000000	17.417337
1877.000000	17.930297
1876.000000	18.399107
1875.000000	18.876837
1874.000000	19.351110
1873.000000	19.788146
1872.000000	20.239453
1871.000000	20.657201
1870.000000	21.053321
1869.000000	21.430153
1868.000000	21.801634
1867.000000	22.092396
1866.000000	22.346033
1865.000000	22.568008
1864.000000	22.781174
1863.000000	22.983080
1862.000000	23.138496
1861.000000	23.323679
1860.000000	23.505740
1859.000000	23.666284
1858.000000	23.811219
1857.000000	23.934860
1856.000000	24.017585
1855.000000	24.096630
1854.000000	24.162632
1853.000000	24.223393
1852.000000	24.240116
1851.000000	24.261299
1850.000000	24.296084
1849.000000	24.301101
1848.000000	24.311581
1847.000000	24.315929
1846.000000	24.298202
1845.000000	24.262414
1844.000000	24.240228
1843.000000	24.208677
1842.000000	24.202768
1841.000000	24.226515
1840.000000	24.204663
1839.000000	24.186379
1838.000000	24.168095
1837.000000	24.141672
1836.000000	24.106776
1835.000000	24.058055
1834.000000	23.990828
1833.000000	23.931850
1832.000000	23.861612
1831.000000	23.802969
1830.000000	23.750235
1829.000000	23.690477
1828.000000	23.615779
1827.000000	23.543312
1826.000000	23.462594
1825.000000	23.395700
1824.000000	23.340290
1823.000000	23.295360
1822.000000	23.276853
1821.000000	23.254890
1820.000000	23.218991
1819.000000	23.190338
1818.000000	23.142063
1817.000000	23.090667
1816.000000	23.068258
1815.000000	23.067477
1814.000000	23.061791
1813.000000	23.031578
1812.000000	23.007273
1811.000000	22.982857
1810.000000	22.943390
1809.000000	22.895116
1808.000000	22.850966
1807.000000	22.815736
1806.000000	22.771921
1805.000000	22.721416
1804.000000	22.657422
1803.000000	22.601008
1802.000000	22.555186
1801.000000	22.502675
1800.000000	22.447600
1799.000000	22.387173
1798.000000	22.327638
1797.000000	22.273008
1796.000000	22.225737
1795.000000	22.174341
1794.000000	22.123836
1793.000000	22.060176
1792.000000	21.993617
1791.000000	21.946792
1790.000000	21.880233
1789.000000	21.822148
1788.000000	21.777441
1787.000000	21.704415
1786.000000	21.646887
1785.000000	21.585903
1784.000000	21.510982
1783.000000	21.442194
1782.000000	21.362368
1781.000000	21.275964
1780.000000	21.206952
1779.000000	21.137829
1778.000000	21.054770
1777.000000	20.976394
1776.000000	20.884638
1775.000000	20.791657
1774.000000	20.684293
1773.000000	20.586294
1772.000000	20.493759
1771.000000	20.375246
1770.000000	20.251047
1769.000000	20.141900
1768.000000	20.022607
1767.000000	19.917361
1766.000000	19.818025
1765.000000	19.725489
1764.000000	19.674316
1763.000000	19.634737
1762.000000	19.618237
1761.000000	19.614669
1760.000000	19.649677
1759.000000	19.720249
1758.000000	19.772315
1757.000000	19.828393
1756.000000	19.903425
1755.000000	19.970988
1754.000000	20.014468
1753.000000	20.050591
1752.000000	20.084595
1751.000000	20.083480
1750.000000	20.082922
1749.000000	20.059064
1748.000000	20.023610
1747.000000	19.958166
1746.000000	19.901196
1745.000000	19.819697
1744.000000	19.725378
1743.000000	19.606531
1742.000000	19.465497
1741.000000	19.300605
1740.000000	19.105835
1739.000000	18.902368
1738.000000	18.708934
1737.000000	18.516839
1736.000000	18.355849
1735.000000	18.204782
1734.000000	18.104777
1733.000000	18.060181
1732.000000	18.016143
1731.000000	18.027626
1730.000000	18.084040
1729.000000	18.161859
1728.000000	18.265209
1727.000000	18.367444
1726.000000	18.458531
1725.000000	18.540586
1724.000000	18.598672
1723.000000	18.682400
1722.000000	18.736807
1721.000000	18.785081
1720.000000	18.818639
1719.000000	18.870370
1718.000000	18.924331
1717.000000	18.977511
1716.000000	19.032029
1715.000000	19.112635
1714.000000	19.206955
1713.000000	19.287561
1712.000000	19.339069
1711.000000	19.419341
1710.000000	19.468842
1709.000000	19.499056
1708.000000	19.508421
1707.000000	19.518343
1706.000000	19.501174
1705.000000	19.454794
1704.000000	19.412429
1703.000000	19.335501
1702.000000	19.269723
1701.000000	19.164701
1700.000000	19.032475
1699.000000	18.893671
1698.000000	18.735469
1697.000000	18.603132
1696.000000	18.490974
1695.000000	18.428094
1694.000000	18.392752
1693.000000	18.423412
1692.000000	18.510150
1691.000000	18.637136
1690.000000	18.773041
1689.000000	18.923216
1688.000000	19.047526
1687.000000	19.129693
1686.000000	19.211860
1685.000000	19.275298
1684.000000	19.330262
1683.000000	19.456244
1682.000000	19.654471
1681.000000	19.943896
1680.000000	20.345813
1679.000000	20.810610
1678.000000	21.334719
1677.000000	21.827499
1676.000000	22.339901
1675.000000	22.817074
1674.000000	23.242738
1673.000000	23.608198
1672.000000	23.927613
1671.000000	24.212913
1670.000000	24.452057
1669.000000	24.684734
1668.000000	24.910276
1667.000000	25.093229
1666.000000	25.221329
1665.000000	25.338393
1664.000000	25.483328
1663.000000	25.563488
1662.000000	25.655578
1661.000000	25.734512
1660.000000	25.810325
1659.000000	25.862055
1658.000000	25.914232
1657.000000	25.931179
1656.000000	25.944780
1655.000000	25.971091
1654.000000	25.978338
1653.000000	25.988595
1652.000000	25.967301
1651.000000	25.947344
1650.000000	25.925827
1649.000000	25.909884
1648.000000	25.843548
1647.000000	25.808652
1646.000000	25.727823
1645.000000	25.689471
1644.000000	25.631274
1643.000000	25.567614
1642.000000	25.495926
1641.000000	25.433604
1640.000000	25.383323
1639.000000	25.314311
1638.000000	25.247306
1637.000000	25.176511
1636.000000	25.099918
1635.000000	25.031464
1634.000000	24.942719
1633.000000	24.867241
1632.000000	24.783290
1631.000000	24.698112
1630.000000	24.588519
1629.000000	24.516609
1628.000000	24.430316
1627.000000	24.330980
1626.000000	24.224620
1625.000000	24.148473
1624.000000	24.055491
1623.000000	23.945786
1622.000000	23.873095
1621.000000	23.790482
1620.000000	23.668848
1619.000000	23.619793
1618.000000	23.505963
1617.000000	23.449884
1616.000000	23.350436
1615.000000	23.281201
1614.000000	23.198477
1613.000000	23.108505
1612.000000	23.027341
1611.000000	22.939711
1610.000000	22.848513
1609.000000	22.763224
1608.000000	22.719075
1607.000000	22.636239
1606.000000	22.540804
1605.000000	22.452171
1604.000000	22.358632
1603.000000	22.291515
1602.000000	22.215257
1601.000000	22.112799
1600.000000	22.037990
1599.000000	21.962512
1598.000000	21.876108
1597.000000	21.809438
1596.000000	21.721808
1595.000000	21.621022
1594.000000	21.557808
1593.000000	21.513993
1592.000000	21.412984
1591.000000	21.351665
1590.000000	21.283657
1589.000000	21.223676
1588.000000	21.146637
1587.000000	21.086656
1586.000000	21.045517
1585.000000	20.985982
1584.000000	20.940717
1583.000000	20.870256
