PE UV       SUBTECH     SPECTRUM    ASCII       PEDS        4.00        
   -1
CICIMAUCR0201-2.Sample.ASC
24/05/31
13:41:41.00
24/05/31
13:41:41.00
Vinicio Soto Monge
C. cupreomarginata. Sex F. Dorsal
250,000000
1
Lambda 1050
1050L1511233
PerkinElmer UV WinLab 6.3.2.0749 / 2.02.05 Lambda 900 UV/VIS/NIR, Aug  7 2015 09:38:08

0
0
3350/servo 860,8/2
0
0
UV/VIS
1
1
1
DoubleDePol,CommonBeamDepol,RBeamAtt,SBeamAtt,60mm sphere, WB InGaAs Detector
0
0
0
0
Program
Program
3350/servo 860,8/2
3350/0,2 860,8/0,2
3350/0,2 860,8/0,2
0
15.00
 
 
 
0
 
860,8
319,2
860,8
Front
100
on
S:100 R:100
0
0
0
0
 
0
 
 
 
0
 
 
0
0
0
0
0
 
 
 
 
0
0


0
0
#HDR
-1
-1
#GR
nm
%R
1.0
0.0
2500,000000
-1,000000
2251
8
68,704500
5,755300
#DATA
2482.000000	9.644580
2481.000000	9.648617
2480.000000	9.605385
2479.000000	9.638632
2478.000000	9.709268
2477.000000	9.579149
2476.000000	9.574794
2475.000000	9.609315
2474.000000	9.613883
2473.000000	9.686856
2472.000000	9.664868
2471.000000	9.672622
2470.000000	9.680907
2469.000000	9.701939
2468.000000	9.707781
2467.000000	9.739222
2466.000000	9.734124
2465.000000	9.807841
2464.000000	9.825261
2463.000000	9.831209
2462.000000	9.873166
2461.000000	9.929463
2460.000000	9.967808
2459.000000	10.048748
2458.000000	10.095060
2457.000000	10.164847
2456.000000	10.241538
2455.000000	10.302402
2454.000000	10.384616
2453.000000	10.480321
2452.000000	10.536192
2451.000000	10.622762
2450.000000	10.687769
2449.000000	10.805567
2448.000000	10.885126
2447.000000	10.983167
2446.000000	11.088112
2445.000000	11.157474
2444.000000	11.255728
2443.000000	11.337199
2442.000000	11.407941
2441.000000	11.523084
2440.000000	11.624418
2439.000000	11.677847
2438.000000	11.787679
2437.000000	11.869043
2436.000000	11.946265
2435.000000	12.021151
2434.000000	12.087644
2433.000000	12.178250
2432.000000	12.238052
2431.000000	12.297111
2430.000000	12.382299
2429.000000	12.456547
2428.000000	12.515712
2427.000000	12.574876
2426.000000	12.639989
2425.000000	12.682371
2424.000000	12.724010
2423.000000	12.787104
2422.000000	12.836815
2421.000000	12.883552
2420.000000	12.938787
2419.000000	12.971609
2418.000000	13.036084
2417.000000	13.072730
2416.000000	13.131470
2415.000000	13.173108
2414.000000	13.208374
2413.000000	13.250331
2412.000000	13.284958
2411.000000	13.314806
2410.000000	13.352302
2409.000000	13.391816
2408.000000	13.419645
2407.000000	13.462983
2406.000000	13.511951
2405.000000	13.536806
2404.000000	13.562830
2403.000000	13.582693
2402.000000	13.622314
2401.000000	13.676061
2400.000000	13.727047
2399.000000	13.773677
2398.000000	13.824451
2397.000000	13.892538
2396.000000	13.944373
2395.000000	13.984418
2394.000000	14.010123
2393.000000	14.024357
2392.000000	14.057285
2391.000000	14.097968
2390.000000	14.108483
2389.000000	14.147785
2388.000000	14.194097
2387.000000	14.196221
2386.000000	14.200151
2385.000000	14.222245
2384.000000	14.224582
2383.000000	14.223414
2382.000000	14.227025
2381.000000	14.235098
2380.000000	14.252412
2379.000000	14.231486
2378.000000	14.213004
2377.000000	14.206418
2376.000000	14.188998
2375.000000	14.183050
2374.000000	14.167436
2373.000000	14.148953
2372.000000	14.119849
2371.000000	14.090851
2370.000000	14.074493
2369.000000	14.045070
2368.000000	13.992810
2367.000000	13.955845
2366.000000	13.909002
2365.000000	13.845801
2364.000000	13.800232
2363.000000	13.727365
2362.000000	13.670856
2361.000000	13.625394
2360.000000	13.552952
2359.000000	13.485396
2358.000000	13.430268
2357.000000	13.376201
2356.000000	13.324578
2355.000000	13.282834
2354.000000	13.252667
2353.000000	13.222395
2352.000000	13.201894
2351.000000	13.201682
2350.000000	13.203487
2349.000000	13.220483
2348.000000	13.243320
2347.000000	13.272637
2346.000000	13.310876
2345.000000	13.349965
2344.000000	13.380025
2343.000000	13.419752
2342.000000	13.476048
2341.000000	13.520980
2340.000000	13.545729
2339.000000	13.583862
2338.000000	13.603513
2337.000000	13.618808
2336.000000	13.634635
2335.000000	13.634529
2334.000000	13.631873
2333.000000	13.614984
2332.000000	13.590129
2331.000000	13.554120
2330.000000	13.503772
2329.000000	13.453105
2328.000000	13.393940
2327.000000	13.332014
2326.000000	13.265839
2325.000000	13.172577
2324.000000	13.088239
2323.000000	13.005281
2322.000000	12.905009
2321.000000	12.804631
2320.000000	12.669837
2319.000000	12.532813
2318.000000	12.399507
2317.000000	12.270131
2316.000000	12.128008
2315.000000	11.977494
2314.000000	11.843763
2313.000000	11.710669
2312.000000	11.578000
2311.000000	11.449580
2310.000000	11.339961
2309.000000	11.257959
2308.000000	11.175744
2307.000000	11.111587
2306.000000	11.089387
2305.000000	11.069843
2304.000000	11.071117
2303.000000	11.088537
2302.000000	11.136974
2301.000000	11.208885
2300.000000	11.276441
2299.000000	11.361205
2298.000000	11.478153
2297.000000	11.576513
2296.000000	11.684645
2295.000000	11.795858
2294.000000	11.872973
2293.000000	11.960817
2292.000000	12.044094
2291.000000	12.102197
2290.000000	12.154882
2289.000000	12.206611
2288.000000	12.224031
2287.000000	12.242938
2286.000000	12.232741
2285.000000	12.219464
2284.000000	12.203212
2283.000000	12.150739
2282.000000	12.117705
2281.000000	12.076066
2280.000000	12.001181
2279.000000	11.951151
2278.000000	11.878391
2277.000000	11.806692
2276.000000	11.747102
2275.000000	11.711094
2274.000000	11.677316
2273.000000	11.644388
2272.000000	11.639183
2271.000000	11.614965
2270.000000	11.644281
2269.000000	11.677528
2268.000000	11.736905
2267.000000	11.803505
2266.000000	11.907601
2265.000000	12.043244
2264.000000	12.190041
2263.000000	12.366472
2262.000000	12.568503
2261.000000	12.789547
2260.000000	13.035553
2259.000000	13.289951
2258.000000	13.557413
2257.000000	13.872356
2256.000000	14.175402
2255.000000	14.440953
2254.000000	14.754833
2253.000000	15.066696
2252.000000	15.341169
2251.000000	15.621377
2250.000000	15.877474
2249.000000	16.147805
2248.000000	16.383507
2247.000000	16.595310
2246.000000	16.803289
2245.000000	17.003408
2244.000000	17.183876
2243.000000	17.351173
2242.000000	17.493508
2241.000000	17.615449
2240.000000	17.753004
2239.000000	17.878981
2238.000000	17.981059
2237.000000	18.078144
2236.000000	18.157066
2235.000000	18.238430
2234.000000	18.294408
2233.000000	18.351342
2232.000000	18.389582
2231.000000	18.430264
2230.000000	18.473283
2229.000000	18.477532
2228.000000	18.489960
2227.000000	18.507805
2226.000000	18.491128
2225.000000	18.481675
2224.000000	18.454163
2223.000000	18.427715
2222.000000	18.408170
2221.000000	18.396698
2220.000000	18.362814
2219.000000	18.301313
2218.000000	18.259249
2217.000000	18.227596
2216.000000	18.175442
2215.000000	18.114471
2214.000000	18.076551
2213.000000	18.029814
2212.000000	17.972455
2211.000000	17.925824
2210.000000	17.891197
2209.000000	17.845628
2208.000000	17.795811
2207.000000	17.777328
2206.000000	17.761077
2205.000000	17.731016
2204.000000	17.690865
2203.000000	17.657831
2202.000000	17.639986
2201.000000	17.586663
2200.000000	17.581140
2199.000000	17.564676
2198.000000	17.507211
2197.000000	17.503705
2196.000000	17.489897
2195.000000	17.461005
2194.000000	17.457606
2193.000000	17.455588
2192.000000	17.436787
2191.000000	17.413099
2190.000000	17.403965
2189.000000	17.366681
2188.000000	17.331204
2187.000000	17.359246
2186.000000	17.315589
2185.000000	17.298594
2184.000000	17.277669
2183.000000	17.244209
2182.000000	17.218292
2181.000000	17.207776
2180.000000	17.187700
2179.000000	17.173892
2178.000000	17.179096
2177.000000	17.143938
2176.000000	17.144681
2175.000000	17.152435
2174.000000	17.138308
2173.000000	17.141282
2172.000000	17.160295
2171.000000	17.179521
2170.000000	17.189294
2169.000000	17.190887
2168.000000	17.237411
2167.000000	17.238049
2166.000000	17.265985
2165.000000	17.286697
2164.000000	17.333222
2163.000000	17.369974
2162.000000	17.398760
2161.000000	17.431051
2160.000000	17.485117
2159.000000	17.512946
2158.000000	17.571368
2157.000000	17.622247
2156.000000	17.696707
2155.000000	17.757040
2154.000000	17.805264
2153.000000	17.869634
2152.000000	17.930073
2151.000000	17.999541
2150.000000	18.059343
2149.000000	18.120738
2148.000000	18.176716
2147.000000	18.240236
2146.000000	18.297489
2145.000000	18.361115
2144.000000	18.428140
2143.000000	18.460006
2142.000000	18.517365
2141.000000	18.560702
2140.000000	18.621567
2139.000000	18.676270
2138.000000	18.715359
2137.000000	18.751261
2136.000000	18.802141
2135.000000	18.835175
2134.000000	18.864173
2133.000000	18.879469
2132.000000	18.906768
2131.000000	18.925569
2130.000000	18.940121
2129.000000	18.941395
2128.000000	18.957753
2127.000000	18.966782
2126.000000	18.963702
2125.000000	18.954673
2124.000000	18.954142
2123.000000	18.943095
2122.000000	18.926100
2121.000000	18.916434
2120.000000	18.895721
2119.000000	18.874583
2118.000000	18.843248
2117.000000	18.815525
2116.000000	18.808089
2115.000000	18.749349
2114.000000	18.710473
2113.000000	18.688379
2112.000000	18.656725
2111.000000	18.618592
2110.000000	18.575679
2109.000000	18.530111
2108.000000	18.481250
2107.000000	18.435894
2106.000000	18.410507
2105.000000	18.389157
2104.000000	18.339021
2103.000000	18.283361
2102.000000	18.241829
2101.000000	18.201572
2100.000000	18.152604
2099.000000	18.119995
2098.000000	18.090784
2097.000000	18.051058
2096.000000	18.016643
2095.000000	18.001984
2094.000000	17.957159
2093.000000	17.914246
2092.000000	17.890134
2091.000000	17.860286
2090.000000	17.822366
2089.000000	17.787101
2088.000000	17.766494
2087.000000	17.733991
2086.000000	17.711791
2085.000000	17.687254
2084.000000	17.637968
2083.000000	17.602703
2082.000000	17.560427
2081.000000	17.512840
2080.000000	17.476725
2079.000000	17.420641
2078.000000	17.361901
2077.000000	17.315908
2076.000000	17.262692
2075.000000	17.204695
2074.000000	17.134909
2073.000000	17.063104
2072.000000	17.002027
2071.000000	16.931497
2070.000000	16.852894
2069.000000	16.788631
2068.000000	16.714808
2067.000000	16.627707
2066.000000	16.552291
2065.000000	16.490259
2064.000000	16.413355
2063.000000	16.334009
2062.000000	16.276225
2061.000000	16.203570
2060.000000	16.150460
2059.000000	16.107972
2058.000000	16.063041
2057.000000	16.018004
2056.000000	15.980933
2055.000000	15.971267
2054.000000	15.968717
2053.000000	15.966274
2052.000000	15.982526
2051.000000	16.014817
2050.000000	16.060917
2049.000000	16.130278
2048.000000	16.193054
2047.000000	16.249139
2046.000000	16.321793
2045.000000	16.430032
2044.000000	16.532534
2043.000000	16.637373
2042.000000	16.736477
2041.000000	16.836855
2040.000000	16.941588
2039.000000	17.043241
2038.000000	17.136821
2037.000000	17.230613
2036.000000	17.306242
2035.000000	17.397060
2034.000000	17.470883
2033.000000	17.551398
2032.000000	17.622459
2031.000000	17.676526
2030.000000	17.721032
2029.000000	17.784020
2028.000000	17.843822
2027.000000	17.880787
2026.000000	17.926887
2025.000000	17.945050
2024.000000	17.977872
2023.000000	18.003684
2022.000000	18.033000
2021.000000	18.061680
2020.000000	18.091740
2019.000000	18.102362
2018.000000	18.113090
2017.000000	18.098220
2016.000000	18.090997
2015.000000	18.088023
2014.000000	18.086217
2013.000000	18.070921
2012.000000	18.048615
2011.000000	18.047234
2010.000000	18.011863
2009.000000	17.990406
2008.000000	17.941545
2007.000000	17.909997
2006.000000	17.865810
2005.000000	17.819392
2004.000000	17.764157
2003.000000	17.710835
2002.000000	17.654538
2001.000000	17.597816
2000.000000	17.531535
1999.000000	17.460686
1998.000000	17.388244
1997.000000	17.293283
1996.000000	17.222859
1995.000000	17.145743
1994.000000	17.050995
1993.000000	16.974410
1992.000000	16.869358
1991.000000	16.777372
1990.000000	16.686022
1989.000000	16.598072
1988.000000	16.485691
1987.000000	16.373629
1986.000000	16.285466
1985.000000	16.184876
1984.000000	16.079611
1983.000000	15.979127
1982.000000	15.864728
1981.000000	15.751922
1980.000000	15.643896
1979.000000	15.557964
1978.000000	15.420303
1977.000000	15.330440
1976.000000	15.221352
1975.000000	15.122567
1974.000000	15.014329
1973.000000	14.922555
1972.000000	14.813679
1971.000000	14.716806
1970.000000	14.638522
1969.000000	14.520724
1968.000000	14.451787
1967.000000	14.338450
1966.000000	14.259953
1965.000000	14.186555
1964.000000	14.063658
1963.000000	13.985056
1962.000000	13.895618
1961.000000	13.817653
1960.000000	13.710370
1959.000000	13.620083
1958.000000	13.546048
1957.000000	13.455017
1956.000000	13.384380
1955.000000	13.301316
1954.000000	13.226962
1953.000000	13.143792
1952.000000	13.062427
1951.000000	12.982125
1950.000000	12.914250
1949.000000	12.841383
1948.000000	12.789229
1947.000000	12.724116
1946.000000	12.672174
1945.000000	12.620870
1944.000000	12.591447
1943.000000	12.555226
1942.000000	12.488732
1941.000000	12.473861
1940.000000	12.466638
1939.000000	12.451767
1938.000000	12.468550
1937.000000	12.454316
1936.000000	12.464514
1935.000000	12.469506
1934.000000	12.467488
1933.000000	12.499566
1932.000000	12.565423
1931.000000	12.575939
1930.000000	12.647319
1929.000000	12.720717
1928.000000	12.808986
1927.000000	12.898317
1926.000000	12.979363
1925.000000	13.090044
1924.000000	13.222713
1923.000000	13.349753
1922.000000	13.476261
1921.000000	13.634423
1920.000000	13.784618
1919.000000	13.951702
1918.000000	14.114113
1917.000000	14.304353
1916.000000	14.478342
1915.000000	14.675912
1914.000000	14.886440
1913.000000	15.130109
1912.000000	15.363900
1911.000000	15.629450
1910.000000	15.850388
1909.000000	16.081417
1908.000000	16.297256
1907.000000	16.600834
1906.000000	16.901118
1905.000000	17.243997
1904.000000	17.601534
1903.000000	17.899163
1902.000000	18.240448
1901.000000	18.576104
1900.000000	18.948300
1899.000000	19.360434
1898.000000	19.755573
1897.000000	20.152093
1896.000000	20.541603
1895.000000	20.899458
1894.000000	21.266980
1893.000000	21.670404
1892.000000	22.122053
1891.000000	22.652941
1890.000000	23.138261
1889.000000	23.625068
1888.000000	24.118780
1887.000000	24.584130
1886.000000	25.091650
1885.000000	25.611279
1884.000000	26.212486
1883.000000	26.829412
1882.000000	27.392486
1881.000000	28.004633
1880.000000	28.572167
1879.000000	29.084148
1878.000000	29.618861
1877.000000	30.175561
1876.000000	30.650684
1875.000000	31.133454
1874.000000	31.609533
1873.000000	32.061819
1872.000000	32.491798
1871.000000	32.892779
1870.000000	33.255627
1869.000000	33.575881
1868.000000	33.885088
1867.000000	34.122172
1866.000000	34.295523
1865.000000	34.450392
1864.000000	34.603455
1863.000000	34.734531
1862.000000	34.857959
1861.000000	35.022813
1860.000000	35.165891
1859.000000	35.293355
1858.000000	35.414977
1857.000000	35.519498
1856.000000	35.572714
1855.000000	35.594490
1854.000000	35.664276
1853.000000	35.696992
1852.000000	35.697948
1851.000000	35.723228
1850.000000	35.722591
1849.000000	35.721848
1848.000000	35.736081
1847.000000	35.770709
1846.000000	35.766885
1845.000000	35.700497
1844.000000	35.645050
1843.000000	35.594065
1842.000000	35.598420
1841.000000	35.649936
1840.000000	35.639208
1839.000000	35.620620
1838.000000	35.580256
1837.000000	35.549877
1836.000000	35.522366
1835.000000	35.497086
1834.000000	35.436328
1833.000000	35.358043
1832.000000	35.273386
1831.000000	35.214009
1830.000000	35.177150
1829.000000	35.130201
1828.000000	35.079215
1827.000000	35.006561
1826.000000	34.952495
1825.000000	34.896517
1824.000000	34.827686
1823.000000	34.786579
1822.000000	34.778081
1821.000000	34.775319
1820.000000	34.762254
1819.000000	34.758962
1818.000000	34.725396
1817.000000	34.690025
1816.000000	34.673242
1815.000000	34.667612
1814.000000	34.637658
1813.000000	34.614715
1812.000000	34.604305
1811.000000	34.596763
1810.000000	34.555125
1809.000000	34.504670
1808.000000	34.467600
1807.000000	34.433822
1806.000000	34.398663
1805.000000	34.351713
1804.000000	34.301153
1803.000000	34.240820
1802.000000	34.198438
1801.000000	34.160092
1800.000000	34.113355
1799.000000	34.059820
1798.000000	33.996726
1797.000000	33.940748
1796.000000	33.896241
1795.000000	33.864057
1794.000000	33.813814
1793.000000	33.759536
1792.000000	33.706532
1791.000000	33.660964
1790.000000	33.619325
1789.000000	33.556655
1788.000000	33.504820
1787.000000	33.464031
1786.000000	33.405504
1785.000000	33.348782
1784.000000	33.285369
1783.000000	33.226948
1782.000000	33.163216
1781.000000	33.093323
1780.000000	33.032353
1779.000000	32.957149
1778.000000	32.869198
1777.000000	32.790595
1776.000000	32.716985
1775.000000	32.630309
1774.000000	32.530250
1773.000000	32.423711
1772.000000	32.315791
1771.000000	32.212120
1770.000000	32.098146
1769.000000	31.988102
1768.000000	31.886662
1767.000000	31.782991
1766.000000	31.682082
1765.000000	31.608577
1764.000000	31.553343
1763.000000	31.537516
1762.000000	31.528381
1761.000000	31.534860
1760.000000	31.574905
1759.000000	31.626741
1758.000000	31.701626
1757.000000	31.762596
1756.000000	31.831108
1755.000000	31.902913
1754.000000	31.947207
1753.000000	31.983110
1752.000000	32.007009
1751.000000	32.022411
1750.000000	32.025598
1749.000000	32.015507
1748.000000	31.956661
1747.000000	31.906312
1746.000000	31.843218
1745.000000	31.741990
1744.000000	31.628653
1743.000000	31.485468
1742.000000	31.328050
1741.000000	31.149494
1740.000000	30.951605
1739.000000	30.740121
1738.000000	30.522157
1737.000000	30.327456
1736.000000	30.141145
1735.000000	29.986489
1734.000000	29.880269
1733.000000	29.823122
1732.000000	29.795824
1731.000000	29.801772
1730.000000	29.843941
1729.000000	29.923606
1728.000000	30.011875
1727.000000	30.083786
1726.000000	30.179172
1725.000000	30.265529
1724.000000	30.331279
1723.000000	30.394268
1722.000000	30.467772
1721.000000	30.521626
1720.000000	30.592794
1719.000000	30.689773
1718.000000	30.789195
1717.000000	30.880332
1716.000000	30.983684
1715.000000	31.102969
1714.000000	31.229902
1713.000000	31.353224
1712.000000	31.459656
1711.000000	31.555148
1710.000000	31.624616
1709.000000	31.673796
1708.000000	31.693766
1707.000000	31.712142
1706.000000	31.720321
1705.000000	31.710549
1704.000000	31.673053
1703.000000	31.619305
1702.000000	31.530612
1701.000000	31.435969
1700.000000	31.318702
1699.000000	31.166701
1698.000000	31.030315
1697.000000	30.900301
1696.000000	30.806827
1695.000000	30.743095
1694.000000	30.725038
1693.000000	30.743201
1692.000000	30.838587
1691.000000	30.955748
1690.000000	31.066429
1689.000000	31.192513
1688.000000	31.303725
1687.000000	31.397624
1686.000000	31.449141
1685.000000	31.524982
1684.000000	31.598061
1683.000000	31.760791
1682.000000	31.986190
1681.000000	32.315048
1680.000000	32.726545
1679.000000	33.199437
1678.000000	33.719703
1677.000000	34.211821
1676.000000	34.700965
1675.000000	35.087182
1674.000000	35.444294
1673.000000	35.790784
1672.000000	36.093193
1671.000000	36.343554
1670.000000	36.555888
1669.000000	36.776508
1668.000000	36.959525
1667.000000	37.112057
1666.000000	37.232723
1665.000000	37.366880
1664.000000	37.499867
1663.000000	37.589305
1662.000000	37.676511
1661.000000	37.785812
1660.000000	37.834142
1659.000000	37.907965
1658.000000	37.955870
1657.000000	38.007918
1656.000000	38.050300
1655.000000	38.087583
1654.000000	38.087902
1653.000000	38.106809
1652.000000	38.092470
1651.000000	38.089708
1650.000000	38.073669
1649.000000	38.040634
1648.000000	38.025020
1647.000000	38.017478
1646.000000	37.978177
1645.000000	37.938769
1644.000000	37.894688
1643.000000	37.851775
1642.000000	37.791866
1641.000000	37.767330
1640.000000	37.726966
1639.000000	37.678742
1638.000000	37.624039
1637.000000	37.555845
1636.000000	37.496468
1635.000000	37.450581
1634.000000	37.393010
1633.000000	37.308777
1632.000000	37.270325
1631.000000	37.177914
1630.000000	37.095062
1629.000000	37.029737
1628.000000	36.940830
1627.000000	36.854155
1626.000000	36.781075
1625.000000	36.696630
1624.000000	36.628437
1623.000000	36.554508
1622.000000	36.464327
1621.000000	36.390610
1620.000000	36.329852
1619.000000	36.251674
1618.000000	36.163936
1617.000000	36.108701
1616.000000	36.011298
1615.000000	35.969341
1614.000000	35.880965
1613.000000	35.795883
1612.000000	35.733319
1611.000000	35.655672
1610.000000	35.565173
1609.000000	35.504202
1608.000000	35.427087
1607.000000	35.333931
1606.000000	35.275192
