PE UV       SUBTECH     SPECTRUM    ASCII       PEDS        4.00        
   -1
CICIMAUCR0015-3.Sample.ASC
24/04/12
11:43:14.00
24/04/12
11:43:14.00
Vinicio Soto Monge
C. resplendens
250,000000
1
Lambda 1050
1050L1511233
PerkinElmer UV WinLab 6.3.2.0749 / 2.02.05 Lambda 900 UV/VIS/NIR, Aug  7 2015 09:38:08

0
0
3350/servo 860,8/2
0
0
UV/VIS
1
1
1
DoubleDePol,CommonBeamDepol,RBeamAtt,SBeamAtt,60mm sphere, WB InGaAs Detector
0
0
0
0
Program
Program
3350/servo 860,8/2
3350/0,2 860,8/0,2
3350/0,2 860,8/0,2
0
15.00
 
 
 
0
 
860,8
319,2
860,8
Front
100
on
S:100 R:100
0
0
0
0
 
0
 
 
 
0
 
 
0
0
0
0
0
 
 
 
 
0
0


0
0
#HDR
-1
-1
#GR
nm
%R
1.0
0.0
2500,000000
-1,000000
2251
8
93,394800
5,535300
#DATA
250.000000	5.537582
251.000000	5.531714
252.000000	5.511489
253.000000	5.500496
254.000000	5.514967
255.000000	5.451086
256.000000	5.458231
257.000000	5.462935
258.000000	5.431416
259.000000	5.445989
260.000000	5.413582
261.000000	5.389783
262.000000	5.368417
263.000000	5.346238
264.000000	5.346798
265.000000	5.319523
266.000000	5.300891
267.000000	5.282790
268.000000	5.257832
269.000000	5.240218
270.000000	5.250813
271.000000	5.235767
272.000000	5.196516
273.000000	5.194893
274.000000	5.194542
275.000000	5.213976
276.000000	5.206330
277.000000	5.185346
278.000000	5.162750
279.000000	5.146582
280.000000	5.172505
281.000000	5.148518
282.000000	5.175855
283.000000	5.170483
284.000000	5.154826
285.000000	5.126104
286.000000	5.128149
287.000000	5.097518
288.000000	5.110872
289.000000	5.108311
290.000000	5.055328
291.000000	5.077673
292.000000	5.084177
293.000000	5.083147
294.000000	5.066505
295.000000	5.081890
296.000000	5.057475
297.000000	5.059102
298.000000	5.001054
299.000000	5.043968
300.000000	5.046132
301.000000	5.004062
302.000000	5.006502
303.000000	5.019369
304.000000	4.996316
305.000000	4.999230
306.000000	4.966324
307.000000	4.993778
308.000000	4.997616
309.000000	4.968759
310.000000	4.958607
311.000000	4.956983
312.000000	4.959405
313.000000	4.960142
314.000000	4.960518
315.000000	4.966834
316.000000	4.988747
317.000000	5.242911
318.000000	5.253586
319.000000	5.195848
320.000000	5.195042
321.000000	5.190260
322.000000	5.069149
323.000000	5.320923
324.000000	5.258585
325.000000	5.155948
326.000000	5.117262
327.000000	5.185381
328.000000	5.181183
329.000000	5.041029
330.000000	5.131447
331.000000	5.112636
332.000000	5.142593
333.000000	5.081925
334.000000	5.065890
335.000000	5.123924
336.000000	5.119110
337.000000	5.090882
338.000000	5.122067
339.000000	5.120903
340.000000	5.087617
341.000000	5.141030
342.000000	5.253989
343.000000	5.184413
344.000000	5.171504
345.000000	5.166794
346.000000	5.176685
347.000000	5.174508
348.000000	5.210420
349.000000	5.224839
350.000000	5.245491
351.000000	5.284055
352.000000	5.275031
353.000000	5.294488
354.000000	5.399551
355.000000	5.466588
356.000000	5.542997
357.000000	5.613026
358.000000	5.646685
359.000000	5.703749
360.000000	5.778171
361.000000	5.845847
362.000000	5.941504
363.000000	5.941634
364.000000	5.992281
365.000000	6.066268
366.000000	6.152833
367.000000	6.248789
368.000000	6.311001
369.000000	6.395766
370.000000	6.463498
371.000000	6.555369
372.000000	6.644658
373.000000	6.745142
374.000000	6.827042
375.000000	6.981745
376.000000	7.302161
377.000000	7.370095
378.000000	7.535769
379.000000	7.725182
380.000000	7.919407
381.000000	8.124909
382.000000	8.338467
383.000000	8.565855
384.000000	8.801275
385.000000	9.047774
386.000000	9.307193
387.000000	9.579185
388.000000	9.855418
389.000000	10.140656
390.000000	10.444553
391.000000	10.750461
392.000000	11.074161
393.000000	11.397859
394.000000	11.729974
395.000000	12.065130
396.000000	12.401442
397.000000	12.737777
398.000000	13.073321
399.000000	13.415336
400.000000	13.760894
401.000000	14.101541
402.000000	14.435765
403.000000	14.774220
404.000000	15.102310
405.000000	15.435192
406.000000	15.747745
407.000000	16.056663
408.000000	16.359874
409.000000	16.643906
410.000000	16.936902
411.000000	17.225487
412.000000	17.496776
413.000000	17.753372
414.000000	18.000938
415.000000	18.233313
416.000000	18.457276
417.000000	18.677116
418.000000	18.884280
419.000000	19.078882
420.000000	19.254067
421.000000	19.423494
422.000000	19.588450
423.000000	19.733239
424.000000	19.865829
425.000000	19.983354
426.000000	20.092022
427.000000	20.187095
428.000000	20.261484
429.000000	20.325068
430.000000	20.373444
431.000000	20.408635
432.000000	20.433162
433.000000	20.436289
434.000000	20.426355
435.000000	20.404195
436.000000	20.372456
437.000000	20.331921
438.000000	20.275718
439.000000	20.197405
440.000000	20.109705
441.000000	20.018016
442.000000	19.916869
443.000000	19.816056
444.000000	19.701197
445.000000	19.559481
446.000000	19.426768
447.000000	19.298037
448.000000	19.186337
449.000000	19.093227
450.000000	19.002202
451.000000	18.909518
452.000000	18.848508
453.000000	18.813751
454.000000	18.808086
455.000000	18.844752
456.000000	18.904750
457.000000	19.000712
458.000000	19.132506
459.000000	19.302802
460.000000	19.523004
461.000000	19.790115
462.000000	20.087511
463.000000	20.434029
464.000000	20.815776
465.000000	21.223731
466.000000	21.659171
467.000000	22.123178
468.000000	22.602297
469.000000	23.089173
470.000000	23.589926
471.000000	24.085507
472.000000	24.571644
473.000000	25.053829
474.000000	25.514885
475.000000	25.953679
476.000000	26.358246
477.000000	26.750292
478.000000	27.106320
479.000000	27.429208
480.000000	27.736466
481.000000	28.008284
482.000000	28.246602
483.000000	28.455081
484.000000	28.626129
485.000000	28.760878
486.000000	28.857104
487.000000	28.941182
488.000000	29.017497
489.000000	29.082483
490.000000	29.143990
491.000000	29.197256
492.000000	29.255475
493.000000	29.319197
494.000000	29.400686
495.000000	29.513368
496.000000	29.651048
497.000000	29.826917
498.000000	30.046148
499.000000	30.327078
500.000000	30.678763
501.000000	31.095069
502.000000	31.590309
503.000000	32.152371
504.000000	32.793765
505.000000	33.496875
506.000000	34.260996
507.000000	35.101349
508.000000	35.995213
509.000000	36.961272
510.000000	37.984853
511.000000	39.068433
512.000000	40.184248
513.000000	41.347056
514.000000	42.552275
515.000000	43.785398
516.000000	45.028866
517.000000	46.266441
518.000000	47.506270
519.000000	48.750173
520.000000	49.986378
521.000000	51.196316
522.000000	52.386739
523.000000	53.536108
524.000000	54.654950
525.000000	55.722264
526.000000	56.746631
527.000000	57.729774
528.000000	58.675633
529.000000	59.581952
530.000000	60.461170
531.000000	61.314409
532.000000	62.133015
533.000000	62.918192
534.000000	63.685171
535.000000	64.432990
536.000000	65.129890
537.000000	65.819448
538.000000	66.475631
539.000000	67.101818
540.000000	67.739436
541.000000	68.363482
542.000000	68.961759
543.000000	69.546217
544.000000	70.099305
545.000000	70.630671
546.000000	71.149513
547.000000	71.657091
548.000000	72.141452
549.000000	72.588396
550.000000	73.032028
551.000000	73.451321
552.000000	73.856065
553.000000	74.260445
554.000000	74.615260
555.000000	74.955970
556.000000	75.299698
557.000000	75.634194
558.000000	75.934362
559.000000	76.206498
560.000000	76.421233
561.000000	76.673546
562.000000	76.928950
563.000000	77.150386
564.000000	77.356355
565.000000	77.540720
566.000000	77.704713
567.000000	77.874274
568.000000	78.003965
569.000000	78.121908
570.000000	78.219554
571.000000	78.316439
572.000000	78.412466
573.000000	78.472656
574.000000	78.555187
575.000000	78.593977
576.000000	78.635232
577.000000	78.659515
578.000000	78.682421
579.000000	78.673947
580.000000	78.636201
581.000000	78.589225
582.000000	78.557702
583.000000	78.470746
584.000000	78.379983
585.000000	78.252053
586.000000	78.115438
587.000000	77.984272
588.000000	77.832757
589.000000	77.636826
590.000000	77.406123
591.000000	77.196546
592.000000	76.926662
593.000000	76.690705
594.000000	76.427074
595.000000	76.107598
596.000000	75.810821
597.000000	75.503714
598.000000	75.149665
599.000000	74.775973
600.000000	74.393054
601.000000	73.964618
602.000000	73.522954
603.000000	73.066394
604.000000	72.535806
605.000000	72.025624
606.000000	71.471122
607.000000	70.910726
608.000000	70.280513
609.000000	69.671968
610.000000	69.027881
611.000000	68.354717
612.000000	67.690704
613.000000	66.996369
614.000000	66.276833
615.000000	65.529736
616.000000	64.797557
617.000000	64.017093
618.000000	63.243039
619.000000	62.422555
620.000000	61.570371
621.000000	60.702732
622.000000	59.816021
623.000000	58.937721
624.000000	58.029438
625.000000	57.171953
626.000000	56.294094
627.000000	55.460811
628.000000	54.647256
629.000000	53.848674
630.000000	53.123984
631.000000	52.434665
632.000000	51.820074
633.000000	51.245581
634.000000	50.748568
635.000000	50.327458
636.000000	49.961288
637.000000	49.693290
638.000000	49.503607
639.000000	49.397622
640.000000	49.340402
641.000000	49.396964
642.000000	49.521394
643.000000	49.703959
644.000000	49.985527
645.000000	50.332099
646.000000	50.765598
647.000000	51.214505
648.000000	51.720329
649.000000	52.307204
650.000000	52.941267
651.000000	53.604975
652.000000	54.309708
653.000000	55.018975
654.000000	55.736603
655.000000	56.447991
656.000000	57.137269
657.000000	57.820353
658.000000	58.462442
659.000000	59.108206
660.000000	59.710271
661.000000	60.280927
662.000000	60.796638
663.000000	61.291227
664.000000	61.775886
665.000000	62.210450
666.000000	62.623076
667.000000	62.983470
668.000000	63.339319
669.000000	63.697564
670.000000	64.017358
671.000000	64.334507
672.000000	64.611802
673.000000	64.868448
674.000000	65.114826
675.000000	65.344910
676.000000	65.526955
677.000000	65.705935
678.000000	65.861235
679.000000	65.986672
680.000000	66.076497
681.000000	66.171757
682.000000	66.286060
683.000000	66.359740
684.000000	66.418306
685.000000	66.478282
686.000000	66.495923
687.000000	66.505880
688.000000	66.502647
689.000000	66.519125
690.000000	66.506795
691.000000	66.519881
692.000000	66.547396
693.000000	66.508265
694.000000	66.456861
695.000000	66.423968
696.000000	66.375094
697.000000	66.315592
698.000000	66.235534
699.000000	66.181685
700.000000	66.099425
701.000000	66.025232
702.000000	65.975144
703.000000	65.914164
704.000000	65.855981
705.000000	65.803352
706.000000	65.751475
707.000000	65.735733
708.000000	65.743453
709.000000	65.763589
710.000000	65.821538
711.000000	65.891685
712.000000	65.968813
713.000000	66.087140
714.000000	66.261063
715.000000	66.445189
716.000000	66.657349
717.000000	66.896095
718.000000	67.133144
719.000000	67.420992
720.000000	67.785660
721.000000	68.137365
722.000000	68.480462
723.000000	68.859998
724.000000	69.297159
725.000000	69.757451
726.000000	70.217504
727.000000	70.683318
728.000000	71.156625
729.000000	71.635750
730.000000	72.121165
731.000000	72.646248
732.000000	73.138767
733.000000	73.638612
734.000000	74.120722
735.000000	74.572990
736.000000	75.026779
737.000000	75.483167
738.000000	75.935759
739.000000	76.355164
740.000000	76.767100
741.000000	77.160846
742.000000	77.565981
743.000000	77.957394
744.000000	78.310508
745.000000	78.632773
746.000000	78.917175
747.000000	79.198472
748.000000	79.445921
749.000000	79.665538
750.000000	79.857543
751.000000	80.046818
752.000000	80.178675
753.000000	80.254238
754.000000	80.379784
755.000000	80.453994
756.000000	80.482938
757.000000	80.545342
758.000000	80.599753
759.000000	80.633248
760.000000	80.635406
761.000000	80.627029
762.000000	80.619552
763.000000	80.580424
764.000000	80.533657
765.000000	80.474533
766.000000	80.392896
767.000000	80.344124
768.000000	80.338175
769.000000	80.254642
770.000000	80.165473
771.000000	80.142858
772.000000	80.087386
773.000000	79.989633
774.000000	79.960394
775.000000	79.970581
776.000000	79.962916
777.000000	79.998017
778.000000	80.036831
779.000000	80.150526
780.000000	80.225429
781.000000	80.276882
782.000000	80.353816
783.000000	80.467616
784.000000	80.574168
785.000000	80.611837
786.000000	80.706264
787.000000	80.798641
788.000000	80.862509
789.000000	80.937170
790.000000	81.007942
791.000000	81.068324
792.000000	81.091067
793.000000	81.135816
794.000000	81.194739
795.000000	81.209474
796.000000	81.130026
797.000000	81.104264
798.000000	81.125633
799.000000	81.087018
800.000000	80.976299
801.000000	80.857163
802.000000	80.785185
803.000000	80.712429
804.000000	80.472079
805.000000	80.323115
806.000000	80.210699
807.000000	80.050870
808.000000	79.885967
809.000000	79.792050
810.000000	79.606636
811.000000	79.388919
812.000000	79.251271
813.000000	79.154676
814.000000	79.052806
815.000000	79.044384
816.000000	78.897496
817.000000	78.807415
818.000000	78.817527
819.000000	78.809157
820.000000	78.749720
821.000000	78.674791
822.000000	78.584152
823.000000	78.651016
824.000000	78.579117
825.000000	78.551179
826.000000	78.523372
827.000000	78.455556
828.000000	78.358009
829.000000	78.286745
830.000000	78.157633
831.000000	77.979228
832.000000	77.838888
833.000000	77.501521
834.000000	77.359651
835.000000	77.102118
836.000000	76.775631
837.000000	76.477139
838.000000	76.178631
839.000000	75.829312
840.000000	75.377744
841.000000	75.034704
842.000000	74.646160
843.000000	74.258701
844.000000	73.726304
845.000000	73.389564
846.000000	72.939731
847.000000	72.366230
848.000000	72.051779
849.000000	71.491690
850.000000	71.061409
851.000000	70.524484
852.000000	69.948226
853.000000	69.741280
854.000000	69.335537
855.000000	68.742034
856.000000	68.281186
857.000000	68.143080
858.000000	68.885400
859.000000	67.885500
860.000000	67.981500
861.000000	68.027100
862.000000	68.103567
863.000000	68.070733
864.000000	68.082067
865.000000	68.040000
866.000000	68.041367
867.000000	67.991867
868.000000	67.949233
869.000000	67.904900
870.000000	67.855067
871.000000	67.809533
872.000000	67.748700
873.000000	67.721333
874.000000	67.646867
875.000000	67.577433
876.000000	67.527167
877.000000	67.425533
878.000000	67.289267
879.000000	67.238967
880.000000	67.123833
881.000000	66.992233
882.000000	66.887800
883.000000	66.756000
884.000000	66.607800
885.000000	66.441700
886.000000	66.273633
887.000000	66.082900
888.000000	65.941567
889.000000	65.756667
890.000000	65.553333
891.000000	65.336100
892.000000	65.133333
893.000000	64.907133
894.000000	64.685467
895.000000	64.436333
896.000000	64.214500
897.000000	63.990300
898.000000	63.730100
899.000000	63.480067
900.000000	63.256733
901.000000	63.022300
902.000000	62.776933
903.000000	62.553067
904.000000	62.302200
905.000000	62.101700
906.000000	61.909400
907.000000	61.693500
908.000000	61.510633
909.000000	61.333967
910.000000	61.177000
911.000000	61.051400
912.000000	60.895733
913.000000	60.764933
914.000000	60.631233
915.000000	60.506333
916.000000	60.409767
917.000000	60.284767
918.000000	60.183000
919.000000	60.080967
920.000000	59.990300
921.000000	59.909367
922.000000	59.789167
923.000000	59.674500
924.000000	59.579000
925.000000	59.487800
926.000000	59.408800
927.000000	59.328867
928.000000	59.213567
929.000000	59.109467
930.000000	59.037467
931.000000	58.937733
932.000000	58.838100
933.000000	58.756700
934.000000	58.634633
935.000000	58.549900
936.000000	58.442033
937.000000	58.346700
938.000000	58.272267
939.000000	58.147633
940.000000	58.064533
941.000000	57.983300
942.000000	57.894000
943.000000	57.809133
944.000000	57.734700
945.000000	57.671567
946.000000	57.579233
947.000000	57.515667
948.000000	57.447033
949.000000	57.379233
950.000000	57.330300
951.000000	57.262167
952.000000	57.203500
953.000000	57.152100
954.000000	57.102767
955.000000	57.052900
956.000000	57.011333
957.000000	56.975933
958.000000	56.923467
959.000000	56.873733
960.000000	56.830867
961.000000	56.798867
962.000000	56.777400
963.000000	56.746067
964.000000	56.711333
965.000000	56.700167
966.000000	56.683667
967.000000	56.677733
968.000000	56.676333
969.000000	56.666900
970.000000	56.663133
971.000000	56.670567
972.000000	56.670333
973.000000	56.666300
974.000000	56.660733
975.000000	56.667667
976.000000	56.672300
977.000000	56.681867
978.000000	56.684300
979.000000	56.682833
980.000000	56.687567
981.000000	56.689100
982.000000	56.687967
983.000000	56.686567
984.000000	56.693733
985.000000	56.699733
986.000000	56.695100
987.000000	56.701867
988.000000	56.710933
989.000000	56.709333
990.000000	56.713600
991.000000	56.714000
992.000000	56.712733
993.000000	56.731200
994.000000	56.746567
995.000000	56.737033
996.000000	56.743633
997.000000	56.760900
998.000000	56.772800
999.000000	56.781867
1000.000000	56.783767
1001.000000	56.782067
1002.000000	56.800833
1003.000000	56.819567
1004.000000	56.831067
1005.000000	56.838567
1006.000000	56.852733
1007.000000	56.860833
1008.000000	56.878400
1009.000000	56.892900
1010.000000	56.904433
1011.000000	56.923433
1012.000000	56.936700
1013.000000	56.964433
1014.000000	57.011067
1015.000000	57.052367
1016.000000	57.102667
1017.000000	57.162967
1018.000000	57.213867
1019.000000	57.278000
1020.000000	57.344867
1021.000000	57.413133
1022.000000	57.485633
1023.000000	57.542967
1024.000000	57.621300
1025.000000	57.698367
1026.000000	57.767933
1027.000000	57.849433
1028.000000	57.917100
1029.000000	57.984167
1030.000000	58.058267
1031.000000	58.128800
1032.000000	58.192767
1033.000000	58.267867
1034.000000	58.344333
1035.000000	58.413933
1036.000000	58.478833
1037.000000	58.548467
1038.000000	58.614933
1039.000000	58.685633
1040.000000	58.757767
1041.000000	58.818933
1042.000000	58.884067
1043.000000	58.955067
1044.000000	59.017967
1045.000000	59.086367
1046.000000	59.154900
1047.000000	59.224833
1048.000000	59.290133
1049.000000	59.362633
1050.000000	59.449967
1051.000000	59.527433
1052.000000	59.596667
1053.000000	59.672933
1054.000000	59.757900
1055.000000	59.849367
1056.000000	59.940800
1057.000000	60.019200
1058.000000	60.101200
1059.000000	60.183100
1060.000000	60.263733
1061.000000	60.339467
1062.000000	60.409233
1063.000000	60.491900
1064.000000	60.570833
1065.000000	60.633667
1066.000000	60.700800
1067.000000	60.767200
1068.000000	60.835300
1069.000000	60.899633
1070.000000	60.959567
1071.000000	61.024000
1072.000000	61.083900
1073.000000	61.147733
1074.000000	61.205233
1075.000000	61.261000
1076.000000	61.315767
1077.000000	61.374767
1078.000000	61.432967
1079.000000	61.480800
1080.000000	61.533033
1081.000000	61.586000
1082.000000	61.645467
1083.000000	61.705533
1084.000000	61.766000
1085.000000	61.816400
1086.000000	61.869933
1087.000000	61.942600
1088.000000	62.002133
1089.000000	62.066033
1090.000000	62.126333
1091.000000	62.182833
1092.000000	62.239767
1093.000000	62.295333
1094.000000	62.352133
1095.000000	62.416100
1096.000000	62.461033
1097.000000	62.513667
1098.000000	62.560033
1099.000000	62.607667
1100.000000	62.660200
1101.000000	62.712367
1102.000000	62.759700
1103.000000	62.803233
1104.000000	62.847700
1105.000000	62.898200
1106.000000	62.935900
1107.000000	62.971300
1108.000000	63.009333
1109.000000	63.043567
1110.000000	63.084733
1111.000000	63.134533
1112.000000	63.160667
1113.000000	63.195133
1114.000000	63.219100
1115.000000	63.262667
1116.000000	63.288733
1117.000000	63.326533
1118.000000	63.344200
1119.000000	63.360500
1120.000000	63.356300
1121.000000	63.348833
1122.000000	63.347367
1123.000000	63.303233
1124.000000	63.263933
1125.000000	63.210133
1126.000000	63.158867
1127.000000	63.075000
1128.000000	62.990400
1129.000000	62.879667
1130.000000	62.713000
1131.000000	62.527167
1132.000000	62.299633
1133.000000	62.070767
1134.000000	61.865933
1135.000000	61.578700
1136.000000	61.268367
1137.000000	60.923300
1138.000000	60.599300
1139.000000	60.277400
1140.000000	59.984767
1141.000000	59.695167
1142.000000	59.393733
1143.000000	59.112067
1144.000000	58.860500
1145.000000	58.653467
1146.000000	58.484567
1147.000000	58.392333
1148.000000	58.354900
1149.000000	58.378133
1150.000000	58.401700
1151.000000	58.422133
1152.000000	58.453167
1153.000000	58.428467
1154.000000	58.378433
1155.000000	58.261567
1156.000000	58.113767
1157.000000	57.888467
1158.000000	57.636367
1159.000000	57.359000
1160.000000	57.048700
1161.000000	56.744967
1162.000000	56.421333
1163.000000	56.072367
1164.000000	55.742300
1165.000000	55.398167
1166.000000	55.059667
