PE UV       SUBTECH     SPECTRUM    ASCII       PEDS        4.00        
   -1
CICIMAUCR0001-3.Sample.ASC
24/04/11
16:53:49.00
24/04/11
16:53:49.00
Vinicio Soto Monge
C. kalinini
250,000000
1
Lambda 1050
1050L1511233
PerkinElmer UV WinLab 6.3.2.0749 / 2.02.05 Lambda 900 UV/VIS/NIR, Aug  7 2015 09:38:08

0
0
3350/2 860,8/2
0
0
UV/VIS
1
1
1
DoubleDePol,CommonBeamDepol,RBeamAtt,SBeamAtt,60mm sphere, WB InGaAs Detector
0
0
0
0
Program
Program
3350/2 860,8/2
3350/0,2 860,8/0,2
3350/0,2 860,8/0,2
0
15.00
 
 
 
0
 
860,8
319,2
860,8
Front
100
on
S:100 R:100
0
0
0
0
 
0
 
 
 
0
 
 
0
0
0
0
0
 
 
 
 
0
0


0
0
#HDR
-1
-1
#GR
nm
%R
1.0
0.0
2400,000000
-1,000000
2151
8
102,016800
5,507100
#DATA
250.000000	4.096707
251.000000	4.105321
252.000000	4.098513
253.000000	4.064661
254.000000	4.064855
255.000000	4.072298
256.000000	4.060658
257.000000	4.041092
258.000000	4.025963
259.000000	4.013089
260.000000	3.979202
261.000000	3.971451
262.000000	3.957930
263.000000	3.941833
264.000000	3.920737
265.000000	3.924586
266.000000	3.898769
267.000000	3.893004
268.000000	3.913060
269.000000	3.893107
270.000000	3.850125
271.000000	3.845504
272.000000	3.841373
273.000000	3.819359
274.000000	3.823054
275.000000	3.805154
276.000000	3.788227
277.000000	3.805853
278.000000	3.800824
279.000000	3.816265
280.000000	3.814986
281.000000	3.816304
282.000000	3.792708
283.000000	3.767299
284.000000	3.767736
285.000000	3.776068
286.000000	3.768488
287.000000	3.763303
288.000000	3.777450
289.000000	3.793446
290.000000	3.781999
291.000000	3.771417
292.000000	3.778751
293.000000	3.769256
294.000000	3.756002
295.000000	3.766411
296.000000	3.795454
297.000000	3.809307
298.000000	3.806378
299.000000	3.765338
300.000000	3.766513
301.000000	3.759198
302.000000	3.756856
303.000000	3.753620
304.000000	3.747137
305.000000	3.755239
306.000000	3.755487
307.000000	3.743983
308.000000	3.766561
309.000000	3.767258
310.000000	3.765768
311.000000	3.770232
312.000000	3.742073
313.000000	3.736631
314.000000	3.736414
315.000000	3.729286
316.000000	3.881051
317.000000	4.069522
318.000000	4.005185
319.000000	3.899846
320.000000	4.004891
321.000000	4.070106
322.000000	3.986398
323.000000	3.975042
324.000000	4.005001
325.000000	4.043416
326.000000	3.983294
327.000000	3.941147
328.000000	3.938439
329.000000	3.947159
330.000000	3.926339
331.000000	3.872733
332.000000	3.939297
333.000000	3.950259
334.000000	3.881110
335.000000	3.881939
336.000000	3.892242
337.000000	3.905364
338.000000	3.935684
339.000000	3.906761
340.000000	3.862490
341.000000	3.866215
342.000000	3.924320
343.000000	3.921678
344.000000	3.928214
345.000000	3.924945
346.000000	3.858317
347.000000	3.844468
348.000000	3.882995
349.000000	3.923024
350.000000	3.948145
351.000000	3.961052
352.000000	3.994253
353.000000	3.974010
354.000000	3.997123
355.000000	3.999622
356.000000	4.012665
357.000000	4.038638
358.000000	4.062683
359.000000	4.064961
360.000000	4.075373
361.000000	4.133374
362.000000	4.123101
363.000000	4.151392
364.000000	4.172418
365.000000	4.169468
366.000000	4.184341
367.000000	4.223981
368.000000	4.250065
369.000000	4.214274
370.000000	4.222119
371.000000	4.277449
372.000000	4.252571
373.000000	4.181711
374.000000	4.221420
375.000000	4.362701
376.000000	4.446772
377.000000	4.478837
378.000000	4.503428
379.000000	4.517098
380.000000	4.540422
381.000000	4.564992
382.000000	4.589768
383.000000	4.624458
384.000000	4.660064
385.000000	4.691443
386.000000	4.725721
387.000000	4.756921
388.000000	4.793037
389.000000	4.827448
390.000000	4.856463
391.000000	4.896006
392.000000	4.931943
393.000000	4.979452
394.000000	5.028364
395.000000	5.065671
396.000000	5.114068
397.000000	5.160296
398.000000	5.209477
399.000000	5.269802
400.000000	5.328415
401.000000	5.393437
402.000000	5.453875
403.000000	5.530897
404.000000	5.600587
405.000000	5.677336
406.000000	5.763748
407.000000	5.856030
408.000000	5.950773
409.000000	6.043758
410.000000	6.154126
411.000000	6.258541
412.000000	6.378556
413.000000	6.492773
414.000000	6.616264
415.000000	6.751819
416.000000	6.891797
417.000000	7.041077
418.000000	7.197710
419.000000	7.360479
420.000000	7.535336
421.000000	7.712949
422.000000	7.889381
423.000000	8.088180
424.000000	8.282522
425.000000	8.490372
426.000000	8.707999
427.000000	8.928241
428.000000	9.164318
429.000000	9.411762
430.000000	9.660336
431.000000	9.904457
432.000000	10.160958
433.000000	10.431741
434.000000	10.706677
435.000000	10.979713
436.000000	11.260157
437.000000	11.543341
438.000000	11.805464
439.000000	12.094117
440.000000	12.382139
441.000000	12.665254
442.000000	12.962915
443.000000	13.249730
444.000000	13.532101
445.000000	13.783639
446.000000	14.044927
447.000000	14.297357
448.000000	14.566825
449.000000	14.828577
450.000000	15.059919
451.000000	15.300568
452.000000	15.533289
453.000000	15.755524
454.000000	15.976864
455.000000	16.200888
456.000000	16.421852
457.000000	16.629943
458.000000	16.843410
459.000000	17.026676
460.000000	17.225495
461.000000	17.425566
462.000000	17.618900
463.000000	17.807907
464.000000	18.009817
465.000000	18.184287
466.000000	18.366559
467.000000	18.553792
468.000000	18.732822
469.000000	18.923034
470.000000	19.097704
471.000000	19.292062
472.000000	19.486404
473.000000	19.682978
474.000000	19.863359
475.000000	20.045229
476.000000	20.238142
477.000000	20.439965
478.000000	20.635135
479.000000	20.835498
480.000000	21.060804
481.000000	21.318973
482.000000	21.595078
483.000000	21.816409
484.000000	22.013332
485.000000	22.226941
486.000000	22.417479
487.000000	22.617281
488.000000	22.802924
489.000000	23.007393
490.000000	23.209240
491.000000	23.428802
492.000000	23.649753
493.000000	23.889107
494.000000	24.136228
495.000000	24.367880
496.000000	24.625218
497.000000	24.872736
498.000000	25.143933
499.000000	25.436432
500.000000	25.709061
501.000000	26.039950
502.000000	26.356051
503.000000	26.672445
504.000000	27.037152
505.000000	27.363800
506.000000	27.706673
507.000000	28.064940
508.000000	28.429067
509.000000	28.818233
510.000000	29.202340
511.000000	29.596836
512.000000	30.013057
513.000000	30.466059
514.000000	30.922205
515.000000	31.377480
516.000000	31.855174
517.000000	32.333729
518.000000	32.834062
519.000000	33.325654
520.000000	33.822160
521.000000	34.337723
522.000000	34.864386
523.000000	35.411860
524.000000	35.945519
525.000000	36.459257
526.000000	36.989171
527.000000	37.503036
528.000000	38.027486
529.000000	38.540574
530.000000	39.026797
531.000000	39.514200
532.000000	39.979987
533.000000	40.430324
534.000000	40.864101
535.000000	41.296550
536.000000	41.689840
537.000000	42.062666
538.000000	42.400969
539.000000	42.724596
540.000000	43.042609
541.000000	43.339169
542.000000	43.604436
543.000000	43.876145
544.000000	44.101716
545.000000	44.332974
546.000000	44.539534
547.000000	44.694141
548.000000	44.862312
549.000000	44.997352
550.000000	45.123611
551.000000	45.242894
552.000000	45.344441
553.000000	45.443000
554.000000	45.515022
555.000000	45.597097
556.000000	45.680331
557.000000	45.719043
558.000000	45.760584
559.000000	45.784607
560.000000	45.731029
561.000000	45.777223
562.000000	45.810961
563.000000	45.833686
564.000000	45.844736
565.000000	45.854697
566.000000	45.860444
567.000000	45.860124
568.000000	45.821333
569.000000	45.790699
570.000000	45.752691
571.000000	45.691374
572.000000	45.619845
573.000000	45.529577
574.000000	45.436998
575.000000	45.363365
576.000000	45.275286
577.000000	45.143212
578.000000	45.014018
579.000000	44.871601
580.000000	44.719373
581.000000	44.561107
582.000000	44.356653
583.000000	44.161607
584.000000	43.958624
585.000000	43.740126
586.000000	43.502359
587.000000	43.257239
588.000000	43.007905
589.000000	42.745580
590.000000	42.470707
591.000000	42.180048
592.000000	41.869915
593.000000	41.570906
594.000000	41.277092
595.000000	40.965571
596.000000	40.652719
597.000000	40.349799
598.000000	40.028690
599.000000	39.727992
600.000000	39.425403
601.000000	39.133791
602.000000	38.855261
603.000000	38.577386
604.000000	38.315427
605.000000	38.083053
606.000000	37.869652
607.000000	37.673059
608.000000	37.501512
609.000000	37.364615
610.000000	37.232743
611.000000	37.124993
612.000000	37.054657
613.000000	37.015835
614.000000	36.999955
615.000000	36.996855
616.000000	36.989046
617.000000	37.002367
618.000000	37.021257
619.000000	37.048385
620.000000	37.099790
621.000000	37.162249
622.000000	37.239881
623.000000	37.320889
624.000000	37.410324
625.000000	37.526173
626.000000	37.659742
627.000000	37.819438
628.000000	37.989217
629.000000	38.162168
630.000000	38.327926
631.000000	38.511378
632.000000	38.710616
633.000000	38.915241
634.000000	39.105835
635.000000	39.287144
636.000000	39.462029
637.000000	39.619624
638.000000	39.765360
639.000000	39.897204
640.000000	40.025042
641.000000	40.124959
642.000000	40.198542
643.000000	40.280261
644.000000	40.349369
645.000000	40.410359
646.000000	40.470005
647.000000	40.524413
648.000000	40.590007
649.000000	40.681190
650.000000	40.786151
651.000000	40.896537
652.000000	41.027937
653.000000	41.170668
654.000000	41.339740
655.000000	41.543309
656.000000	41.758592
657.000000	41.997036
658.000000	42.232425
659.000000	42.489933
660.000000	42.775737
661.000000	43.038383
662.000000	43.302873
663.000000	43.582387
664.000000	43.868493
665.000000	44.127482
666.000000	44.379386
667.000000	44.618802
668.000000	44.864944
669.000000	45.114868
670.000000	45.397353
671.000000	45.652844
672.000000	45.896650
673.000000	46.144597
674.000000	46.420521
675.000000	46.710778
676.000000	47.007307
677.000000	47.306934
678.000000	47.601942
679.000000	47.919395
680.000000	48.213486
681.000000	48.571527
682.000000	48.922260
683.000000	49.243230
684.000000	49.579220
685.000000	49.908049
686.000000	50.219671
687.000000	50.521134
688.000000	50.805053
689.000000	51.091646
690.000000	51.405548
691.000000	51.677934
692.000000	51.942679
693.000000	52.216326
694.000000	52.455036
695.000000	52.688144
696.000000	52.943292
697.000000	53.218363
698.000000	53.482929
699.000000	53.777765
700.000000	54.072694
701.000000	54.356625
702.000000	54.640046
703.000000	54.949214
704.000000	55.225177
705.000000	55.541284
706.000000	55.852135
707.000000	56.181436
708.000000	56.495157
709.000000	56.815072
710.000000	57.138868
711.000000	57.425802
712.000000	57.707080
713.000000	58.031045
714.000000	58.285921
715.000000	58.543465
716.000000	58.818667
717.000000	59.066513
718.000000	59.277400
719.000000	59.488786
720.000000	59.717280
721.000000	59.928747
722.000000	60.118034
723.000000	60.325940
724.000000	60.494904
725.000000	60.643263
726.000000	60.824378
727.000000	60.956409
728.000000	61.130753
729.000000	61.319591
730.000000	61.417596
731.000000	61.587435
732.000000	61.741956
733.000000	61.891181
734.000000	61.970854
735.000000	62.140511
736.000000	62.257648
737.000000	62.343500
738.000000	62.438335
739.000000	62.591937
740.000000	62.656711
741.000000	62.748423
742.000000	62.821431
743.000000	62.912025
744.000000	62.974180
745.000000	63.051300
746.000000	63.053400
747.000000	63.136204
748.000000	63.158813
749.000000	63.201575
750.000000	63.208080
751.000000	63.245264
752.000000	63.313355
753.000000	63.303400
754.000000	63.335377
755.000000	63.391794
756.000000	63.319852
757.000000	63.414913
758.000000	63.364168
759.000000	63.435638
760.000000	63.410604
761.000000	63.389069
762.000000	63.354064
763.000000	63.339925
764.000000	63.331855
765.000000	63.341930
766.000000	63.319469
767.000000	63.208921
768.000000	63.213241
769.000000	63.093545
770.000000	62.986756
771.000000	62.979637
772.000000	62.930010
773.000000	62.857004
774.000000	62.768770
775.000000	62.625409
776.000000	62.566242
777.000000	62.451961
778.000000	62.310165
779.000000	62.277017
780.000000	62.156215
781.000000	62.015304
782.000000	61.906661
783.000000	61.788877
784.000000	61.592446
785.000000	61.487329
786.000000	61.448670
787.000000	61.294803
788.000000	61.234851
789.000000	60.974862
790.000000	60.807940
791.000000	60.696681
792.000000	60.559688
793.000000	60.318530
794.000000	60.162632
795.000000	60.016975
796.000000	59.926597
797.000000	59.687839
798.000000	59.545682
799.000000	59.344647
800.000000	59.060229
801.000000	58.898240
802.000000	58.686913
803.000000	58.390452
804.000000	58.242636
805.000000	58.034512
806.000000	57.832684
807.000000	57.639029
808.000000	57.422715
809.000000	57.254201
810.000000	56.956762
811.000000	56.676814
812.000000	56.482064
813.000000	56.358829
814.000000	56.184333
815.000000	55.895092
816.000000	55.644296
817.000000	55.548420
818.000000	55.380031
819.000000	55.121591
820.000000	54.841803
821.000000	54.604832
822.000000	54.380316
823.000000	54.139111
824.000000	54.023362
825.000000	53.811350
826.000000	53.595796
827.000000	53.425026
828.000000	53.112126
829.000000	53.002908
830.000000	52.788886
831.000000	52.591377
832.000000	52.310220
833.000000	52.199438
834.000000	52.035447
835.000000	51.856876
836.000000	51.682893
837.000000	51.535668
838.000000	51.370986
839.000000	51.222287
840.000000	51.059947
841.000000	50.852268
842.000000	50.761907
843.000000	50.796687
844.000000	50.534976
845.000000	50.451324
846.000000	50.268150
847.000000	50.096986
848.000000	50.031166
849.000000	49.879061
850.000000	49.967090
851.000000	49.828606
852.000000	49.740924
853.000000	49.628007
854.000000	49.488525
855.000000	49.380230
856.000000	49.405789
857.000000	49.514760
858.000000	48.722067
859.000000	49.842533
860.000000	49.669733
861.000000	50.163067
862.000000	50.287533
863.000000	49.691333
864.000000	49.011667
865.000000	48.924300
866.000000	49.162633
867.000000	49.246133
868.000000	48.924667
869.000000	49.000200
870.000000	48.619733
871.000000	48.752433
872.000000	48.438467
873.000000	48.263167
874.000000	48.037433
875.000000	47.969200
876.000000	48.065633
877.000000	47.911733
878.000000	47.648800
879.000000	47.607767
880.000000	47.753400
881.000000	47.685933
882.000000	47.624967
883.000000	47.174233
884.000000	47.113000
885.000000	47.372300
886.000000	47.049700
887.000000	46.868267
888.000000	46.869400
889.000000	46.760367
890.000000	46.493933
891.000000	46.329100
892.000000	46.372833
893.000000	46.389067
894.000000	46.537500
895.000000	46.517867
896.000000	46.245033
897.000000	46.188367
898.000000	46.204033
899.000000	46.041367
900.000000	45.952433
901.000000	46.026533
902.000000	46.045933
903.000000	45.890033
904.000000	45.904333
905.000000	45.824267
906.000000	45.726200
907.000000	45.665600
908.000000	45.711233
909.000000	45.558167
910.000000	45.528133
911.000000	45.607867
912.000000	45.466300
913.000000	45.425967
914.000000	45.412533
915.000000	45.325000
916.000000	45.315267
917.000000	45.364867
918.000000	45.284633
919.000000	45.207500
920.000000	45.226100
921.000000	45.121733
922.000000	45.144433
923.000000	45.249767
924.000000	45.230700
925.000000	45.168800
926.000000	45.055700
927.000000	45.055967
928.000000	45.104500
929.000000	45.094733
930.000000	45.137400
931.000000	45.124000
932.000000	45.115233
933.000000	45.118933
934.000000	45.105733
935.000000	45.037700
936.000000	44.985033
937.000000	45.025467
938.000000	45.031167
939.000000	45.023800
940.000000	44.988767
941.000000	45.031967
942.000000	45.098733
943.000000	45.053400
944.000000	45.035533
945.000000	45.002067
946.000000	44.929367
947.000000	44.897833
948.000000	44.963033
949.000000	45.021267
950.000000	44.981800
951.000000	44.950833
952.000000	44.956700
953.000000	44.959033
954.000000	44.945633
955.000000	44.917500
956.000000	44.882800
957.000000	44.894867
958.000000	44.930433
959.000000	44.962067
960.000000	44.926133
961.000000	44.918500
962.000000	44.930500
963.000000	44.886300
964.000000	44.941067
965.000000	44.920533
966.000000	44.886000
967.000000	44.898967
968.000000	44.861333
969.000000	44.939833
970.000000	44.932133
971.000000	44.923600
972.000000	44.906867
973.000000	44.946433
974.000000	44.930633
975.000000	44.909433
976.000000	44.907100
977.000000	44.935333
978.000000	44.933800
979.000000	44.928800
980.000000	44.951367
981.000000	44.947133
982.000000	44.951467
983.000000	44.903267
984.000000	44.945533
985.000000	44.982333
986.000000	44.980900
987.000000	44.971400
988.000000	44.970133
989.000000	44.993233
990.000000	45.019633
991.000000	45.029333
992.000000	45.043633
993.000000	45.020800
994.000000	45.041933
995.000000	45.070967
996.000000	45.075167
997.000000	45.057033
998.000000	45.128800
999.000000	45.134567
1000.000000	45.132133
1001.000000	45.150833
1002.000000	45.186167
1003.000000	45.185067
1004.000000	45.196167
1005.000000	45.182267
1006.000000	45.211133
1007.000000	45.283267
1008.000000	45.306967
1009.000000	45.325667
1010.000000	45.308567
1011.000000	45.325667
1012.000000	45.324200
1013.000000	45.353767
1014.000000	45.343267
1015.000000	45.349667
1016.000000	45.389867
1017.000000	45.426967
1018.000000	45.450233
1019.000000	45.464300
1020.000000	45.495567
1021.000000	45.493367
1022.000000	45.531233
1023.000000	45.524867
1024.000000	45.507467
1025.000000	45.543900
1026.000000	45.570767
1027.000000	45.595633
1028.000000	45.606900
1029.000000	45.642900
1030.000000	45.671167
1031.000000	45.704000
1032.000000	45.717733
1033.000000	45.751533
1034.000000	45.773300
1035.000000	45.780467
1036.000000	45.831767
1037.000000	45.859067
1038.000000	45.874933
1039.000000	45.893500
1040.000000	45.917967
1041.000000	45.898033
1042.000000	45.889567
1043.000000	45.933467
1044.000000	45.987667
1045.000000	46.000333
1046.000000	46.005933
1047.000000	46.079933
1048.000000	46.110200
1049.000000	46.172800
1050.000000	46.160300
1051.000000	46.202667
1052.000000	46.213267
1053.000000	46.242167
1054.000000	46.277800
1055.000000	46.313400
1056.000000	46.340033
1057.000000	46.430933
1058.000000	46.444133
1059.000000	46.481200
1060.000000	46.493000
1061.000000	46.541167
1062.000000	46.565600
1063.000000	46.620367
1064.000000	46.624900
1065.000000	46.647533
1066.000000	46.672400
1067.000000	46.718433
1068.000000	46.771633
1069.000000	46.795633
1070.000000	46.821367
1071.000000	46.820467
1072.000000	46.880300
1073.000000	46.895933
1074.000000	46.931300
1075.000000	46.945800
1076.000000	47.003167
1077.000000	46.990167
1078.000000	47.018467
1079.000000	47.042800
1080.000000	47.064600
1081.000000	47.116567
1082.000000	47.136833
1083.000000	47.182067
1084.000000	47.174100
1085.000000	47.237400
1086.000000	47.235100
1087.000000	47.282833
1088.000000	47.323567
1089.000000	47.348600
1090.000000	47.365533
1091.000000	47.387733
1092.000000	47.417400
1093.000000	47.463000
1094.000000	47.503100
1095.000000	47.518500
1096.000000	47.557800
1097.000000	47.577300
1098.000000	47.590433
1099.000000	47.615767
1100.000000	47.630733
1101.000000	47.657333
1102.000000	47.699167
1103.000000	47.730067
1104.000000	47.763833
1105.000000	47.786400
1106.000000	47.820500
1107.000000	47.822167
1108.000000	47.824567
1109.000000	47.837067
1110.000000	47.888600
1111.000000	47.910367
1112.000000	47.925933
1113.000000	47.951600
1114.000000	47.973400
1115.000000	48.009033
1116.000000	48.055833
1117.000000	48.051467
1118.000000	48.064900
1119.000000	48.104667
1120.000000	48.112500
1121.000000	48.109800
1122.000000	48.139300
1123.000000	48.126500
1124.000000	48.106233
1125.000000	48.117700
1126.000000	48.107300
1127.000000	48.087100
1128.000000	48.084567
1129.000000	48.064333
1130.000000	48.015833
1131.000000	47.976833
1132.000000	47.964133
1133.000000	47.957833
1134.000000	47.968233
1135.000000	47.903833
1136.000000	47.792800
1137.000000	47.743000
1138.000000	47.694267
1139.000000	47.660500
1140.000000	47.616800
1141.000000	47.573700
1142.000000	47.537167
1143.000000	47.528300
1144.000000	47.520467
1145.000000	47.503900
1146.000000	47.485700
1147.000000	47.454733
1148.000000	47.397067
1149.000000	47.364833
1150.000000	47.337000
1151.000000	47.310300
1152.000000	47.296333
1153.000000	47.248233
1154.000000	47.211200
1155.000000	47.184033
1156.000000	47.125167
1157.000000	47.073633
1158.000000	47.017400
1159.000000	46.955100
1160.000000	46.894200
1161.000000	46.826500
1162.000000	46.770200
1163.000000	46.691367
1164.000000	46.600900
1165.000000	46.538867
1166.000000	46.488733
1167.000000	46.435033
1168.000000	46.390367
