PE UV       SUBTECH     SPECTRUM    ASCII       PEDS        4.00        
   -1
CICIMAUCR0018-3.Sample.ASC
24/04/17
10:35:40.00
24/04/17
10:35:40.00
Vinicio Soto Monge
C. cupreomarginata
250,000000
1
Lambda 1050
1050L1511233
PerkinElmer UV WinLab 6.3.2.0749 / 2.02.05 Lambda 900 UV/VIS/NIR, Aug  7 2015 09:38:08

0
0
3350/servo 860,8/2
0
0
UV/VIS
1
1
1
DoubleDePol,CommonBeamDepol,RBeamAtt,SBeamAtt,60mm sphere, WB InGaAs Detector
0
0
0
0
Program
Program
3350/servo 860,8/2
3350/0,2 860,8/0,2
3350/0,2 860,8/0,2
0
15.00
 
 
 
0
 
860,8
319,2
860,8
Front
100
on
S:100 R:100
0
0
0
0
 
0
 
 
 
0
 
 
0
0
0
0
0
 
 
 
 
0
0


0
0
#HDR
-1
-1
#GR
nm
%R
1.0
0.0
2500,000000
-1,000000
2251
8
67,966100
4,192900
#DATA
250.000000	3.039617
251.000000	3.050091
252.000000	3.035750
253.000000	3.028574
254.000000	3.017588
255.000000	3.024298
256.000000	2.990784
257.000000	3.008491
258.000000	2.990538
259.000000	2.996181
260.000000	2.962430
261.000000	2.962148
262.000000	2.957626
263.000000	2.951506
264.000000	2.924818
265.000000	2.911627
266.000000	2.910390
267.000000	2.905163
268.000000	2.887637
269.000000	2.886254
270.000000	2.878162
271.000000	2.873000
272.000000	2.851907
273.000000	2.845731
274.000000	2.854309
275.000000	2.838491
276.000000	2.841891
277.000000	2.816939
278.000000	2.826224
279.000000	2.829581
280.000000	2.809733
281.000000	2.805884
282.000000	2.805422
283.000000	2.795138
284.000000	2.785980
285.000000	2.821720
286.000000	2.823309
287.000000	2.803369
288.000000	2.821101
289.000000	2.802185
290.000000	2.824586
291.000000	2.805580
292.000000	2.807904
293.000000	2.831000
294.000000	2.818062
295.000000	2.805848
296.000000	2.824838
297.000000	2.816782
298.000000	2.812702
299.000000	2.818783
300.000000	2.833149
301.000000	2.826933
302.000000	2.825897
303.000000	2.825196
304.000000	2.837086
305.000000	2.832345
306.000000	2.840325
307.000000	2.835966
308.000000	2.841884
309.000000	2.836068
310.000000	2.854906
311.000000	2.828154
312.000000	2.848556
313.000000	2.837919
314.000000	2.836019
315.000000	2.845242
316.000000	2.848871
317.000000	2.807525
318.000000	2.892933
319.000000	2.844919
320.000000	2.896711
321.000000	2.900284
322.000000	2.885837
323.000000	2.828825
324.000000	2.865939
325.000000	2.844478
326.000000	2.864704
327.000000	2.854467
328.000000	2.875514
329.000000	2.889906
330.000000	2.875165
331.000000	2.904608
332.000000	2.879724
333.000000	2.915648
334.000000	2.873786
335.000000	2.927503
336.000000	2.950280
337.000000	2.903617
338.000000	2.921708
339.000000	2.934847
340.000000	2.944437
341.000000	2.933959
342.000000	2.955553
343.000000	2.933080
344.000000	2.962340
345.000000	2.978008
346.000000	2.974215
347.000000	2.973127
348.000000	2.972042
349.000000	3.009014
350.000000	3.031788
351.000000	3.023934
352.000000	3.018006
353.000000	3.026450
354.000000	3.035603
355.000000	3.043695
356.000000	3.081297
357.000000	3.102485
358.000000	3.107741
359.000000	3.124290
360.000000	3.124671
361.000000	3.167865
362.000000	3.174996
363.000000	3.193939
364.000000	3.219955
365.000000	3.244644
366.000000	3.277701
367.000000	3.274189
368.000000	3.331751
369.000000	3.352102
370.000000	3.377438
371.000000	3.400241
372.000000	3.430869
373.000000	3.501393
374.000000	3.520854
375.000000	3.595445
376.000000	3.614491
377.000000	3.606092
378.000000	3.650941
379.000000	3.694278
380.000000	3.743864
381.000000	3.794811
382.000000	3.853194
383.000000	3.913980
384.000000	3.962873
385.000000	4.018775
386.000000	4.083889
387.000000	4.140394
388.000000	4.198938
389.000000	4.262764
390.000000	4.335112
391.000000	4.401109
392.000000	4.470666
393.000000	4.541666
394.000000	4.611619
395.000000	4.678558
396.000000	4.745155
397.000000	4.814990
398.000000	4.885610
399.000000	4.957324
400.000000	5.023339
401.000000	5.091039
402.000000	5.157888
403.000000	5.231227
404.000000	5.299055
405.000000	5.360680
406.000000	5.423770
407.000000	5.484429
408.000000	5.541495
409.000000	5.600331
410.000000	5.659484
411.000000	5.720514
412.000000	5.777085
413.000000	5.828109
414.000000	5.877157
415.000000	5.921326
416.000000	5.966872
417.000000	6.014685
418.000000	6.058907
419.000000	6.101606
420.000000	6.145779
421.000000	6.183523
422.000000	6.217953
423.000000	6.259951
424.000000	6.303229
425.000000	6.342572
426.000000	6.375621
427.000000	6.412622
428.000000	6.454289
429.000000	6.492104
430.000000	6.528783
431.000000	6.567275
432.000000	6.608687
433.000000	6.644348
434.000000	6.677839
435.000000	6.717597
436.000000	6.760025
437.000000	6.804783
438.000000	6.840016
439.000000	6.876193
440.000000	6.914427
441.000000	6.951969
442.000000	6.993237
443.000000	7.038767
444.000000	7.075486
445.000000	7.101919
446.000000	7.132174
447.000000	7.159767
448.000000	7.188406
449.000000	7.226820
450.000000	7.265264
451.000000	7.297272
452.000000	7.330021
453.000000	7.371162
454.000000	7.411448
455.000000	7.457610
456.000000	7.504761
457.000000	7.548233
458.000000	7.602443
459.000000	7.663172
460.000000	7.726179
461.000000	7.793650
462.000000	7.865445
463.000000	7.944426
464.000000	8.025375
465.000000	8.106873
466.000000	8.195903
467.000000	8.290899
468.000000	8.384939
469.000000	8.482586
470.000000	8.584940
471.000000	8.694171
472.000000	8.806833
473.000000	8.916076
474.000000	9.029216
475.000000	9.152788
476.000000	9.278060
477.000000	9.398980
478.000000	9.526235
479.000000	9.661000
480.000000	9.823034
481.000000	10.005011
482.000000	10.188884
483.000000	10.357059
484.000000	10.515589
485.000000	10.674201
486.000000	10.831362
487.000000	10.990172
488.000000	11.151809
489.000000	11.318671
490.000000	11.491172
491.000000	11.668372
492.000000	11.847101
493.000000	12.036382
494.000000	12.225207
495.000000	12.408536
496.000000	12.606960
497.000000	12.809841
498.000000	13.015772
499.000000	13.222674
500.000000	13.445117
501.000000	13.678439
502.000000	13.920886
503.000000	14.158213
504.000000	14.403777
505.000000	14.655717
506.000000	14.916837
507.000000	15.176571
508.000000	15.451973
509.000000	15.740794
510.000000	16.036745
511.000000	16.317242
512.000000	16.609912
513.000000	16.911430
514.000000	17.231016
515.000000	17.544996
516.000000	17.865240
517.000000	18.192291
518.000000	18.529420
519.000000	18.863579
520.000000	19.193432
521.000000	19.541849
522.000000	19.881256
523.000000	20.210462
524.000000	20.547952
525.000000	20.884462
526.000000	21.214636
527.000000	21.531223
528.000000	21.841865
529.000000	22.148255
530.000000	22.450037
531.000000	22.750226
532.000000	23.045987
533.000000	23.313457
534.000000	23.579424
535.000000	23.837656
536.000000	24.099166
537.000000	24.322356
538.000000	24.539300
539.000000	24.759526
540.000000	24.965580
541.000000	25.136931
542.000000	25.325759
543.000000	25.509258
544.000000	25.650105
545.000000	25.765063
546.000000	25.880479
547.000000	26.007658
548.000000	26.082626
549.000000	26.188264
550.000000	26.284772
551.000000	26.347614
552.000000	26.418967
553.000000	26.467985
554.000000	26.528405
555.000000	26.570654
556.000000	26.591026
557.000000	26.626599
558.000000	26.666806
559.000000	26.696297
560.000000	26.590023
561.000000	26.608811
562.000000	26.627246
563.000000	26.635990
564.000000	26.655622
565.000000	26.679214
566.000000	26.661951
567.000000	26.648718
568.000000	26.625200
569.000000	26.579383
570.000000	26.543519
571.000000	26.490774
572.000000	26.448946
573.000000	26.408171
574.000000	26.371844
575.000000	26.335155
576.000000	26.285195
577.000000	26.248650
578.000000	26.195314
579.000000	26.149000
580.000000	26.123067
581.000000	26.056103
582.000000	26.008737
583.000000	25.975421
584.000000	25.936023
585.000000	25.891891
586.000000	25.831287
587.000000	25.800826
588.000000	25.745933
589.000000	25.695380
590.000000	25.628517
591.000000	25.551849
592.000000	25.471700
593.000000	25.388052
594.000000	25.303818
595.000000	25.229351
596.000000	25.135557
597.000000	25.057360
598.000000	24.962269
599.000000	24.863713
600.000000	24.770931
601.000000	24.686669
602.000000	24.569518
603.000000	24.495530
604.000000	24.424712
605.000000	24.317007
606.000000	24.215995
607.000000	24.141157
608.000000	24.067333
609.000000	23.997078
610.000000	23.905736
611.000000	23.817809
612.000000	23.726586
613.000000	23.634643
614.000000	23.568309
615.000000	23.490947
616.000000	23.425491
617.000000	23.349604
618.000000	23.268156
619.000000	23.215454
620.000000	23.159650
621.000000	23.118032
622.000000	23.068752
623.000000	23.023418
624.000000	22.987832
625.000000	22.980403
626.000000	22.966953
627.000000	22.986289
628.000000	23.000364
629.000000	23.024169
630.000000	23.051848
631.000000	23.100625
632.000000	23.132372
633.000000	23.170572
634.000000	23.232597
635.000000	23.311449
636.000000	23.375201
637.000000	23.460967
638.000000	23.561759
639.000000	23.655541
640.000000	23.754279
641.000000	23.859323
642.000000	23.960905
643.000000	24.060477
644.000000	24.180500
645.000000	24.251111
646.000000	24.332653
647.000000	24.429984
648.000000	24.514109
649.000000	24.584082
650.000000	24.677794
651.000000	24.760167
652.000000	24.844876
653.000000	24.927958
654.000000	24.978088
655.000000	25.052207
656.000000	25.115826
657.000000	25.178716
658.000000	25.236221
659.000000	25.307509
660.000000	25.379221
661.000000	25.440119
662.000000	25.477651
663.000000	25.529016
664.000000	25.595068
665.000000	25.633597
666.000000	25.695011
667.000000	25.739348
668.000000	25.772242
669.000000	25.809920
670.000000	25.864292
671.000000	25.892358
672.000000	25.924798
673.000000	25.977422
674.000000	26.008375
675.000000	26.044339
676.000000	26.085129
677.000000	26.128858
678.000000	26.145170
679.000000	26.183057
680.000000	26.216882
681.000000	26.251988
682.000000	26.295073
683.000000	26.339857
684.000000	26.389398
685.000000	26.424281
686.000000	26.461455
687.000000	26.499898
688.000000	26.531924
689.000000	26.569915
690.000000	26.632259
691.000000	26.706668
692.000000	26.780721
693.000000	26.835720
694.000000	26.892930
695.000000	26.953919
696.000000	27.029276
697.000000	27.105556
698.000000	27.172139
699.000000	27.248037
700.000000	27.305911
701.000000	27.372259
702.000000	27.453690
703.000000	27.537397
704.000000	27.611901
705.000000	27.667825
706.000000	27.748619
707.000000	27.835566
708.000000	27.897455
709.000000	27.978431
710.000000	28.038352
711.000000	28.099505
712.000000	28.181321
713.000000	28.254405
714.000000	28.316418
715.000000	28.378516
716.000000	28.449872
717.000000	28.516219
718.000000	28.582060
719.000000	28.628775
720.000000	28.689742
721.000000	28.744587
722.000000	28.783376
723.000000	28.840289
724.000000	28.916635
725.000000	28.981951
726.000000	29.045539
727.000000	29.100798
728.000000	29.136008
729.000000	29.191710
730.000000	29.264314
731.000000	29.321326
732.000000	29.383218
733.000000	29.447330
734.000000	29.502519
735.000000	29.556026
736.000000	29.610424
737.000000	29.669880
738.000000	29.737235
739.000000	29.800661
740.000000	29.876884
741.000000	29.947926
742.000000	29.993242
743.000000	30.053240
744.000000	30.120633
745.000000	30.188144
746.000000	30.250264
747.000000	30.308357
748.000000	30.367574
749.000000	30.431710
750.000000	30.484556
751.000000	30.548762
752.000000	30.620453
753.000000	30.678546
754.000000	30.744087
755.000000	30.815525
756.000000	30.886167
757.000000	30.954343
758.000000	31.032970
759.000000	31.119976
760.000000	31.169948
761.000000	31.214789
762.000000	31.261427
763.000000	31.312061
764.000000	31.388249
765.000000	31.459100
766.000000	31.527300
767.000000	31.617035
768.000000	31.687964
769.000000	31.724062
770.000000	31.778652
771.000000	31.847784
772.000000	31.906450
773.000000	31.968127
774.000000	32.038043
775.000000	32.101076
776.000000	32.165725
777.000000	32.197102
778.000000	32.267880
779.000000	32.323968
780.000000	32.372422
781.000000	32.416365
782.000000	32.461928
783.000000	32.541186
784.000000	32.601550
785.000000	32.620874
786.000000	32.682501
787.000000	32.742800
788.000000	32.809433
789.000000	32.870466
790.000000	32.903587
791.000000	32.972787
792.000000	33.015914
793.000000	33.068018
794.000000	33.123289
795.000000	33.184165
796.000000	33.243213
797.000000	33.318769
798.000000	33.351630
799.000000	33.408177
800.000000	33.411861
801.000000	33.482237
802.000000	33.537291
803.000000	33.583032
804.000000	33.654344
805.000000	33.707993
806.000000	33.749746
807.000000	33.790436
808.000000	33.833909
809.000000	33.914308
810.000000	33.974284
811.000000	34.006896
812.000000	34.061027
813.000000	34.093981
814.000000	34.122236
815.000000	34.127560
816.000000	34.184133
817.000000	34.232087
818.000000	34.255951
819.000000	34.326610
820.000000	34.332535
821.000000	34.359056
822.000000	34.424845
823.000000	34.450443
824.000000	34.512579
825.000000	34.512517
826.000000	34.505198
827.000000	34.542623
828.000000	34.568875
829.000000	34.633922
830.000000	34.701813
831.000000	34.725076
832.000000	34.685339
833.000000	34.748647
834.000000	34.771280
835.000000	34.801775
836.000000	34.795443
837.000000	34.779337
838.000000	34.785373
839.000000	34.887942
840.000000	34.869971
841.000000	34.887580
842.000000	34.820576
843.000000	34.929177
844.000000	34.951342
845.000000	34.946637
846.000000	34.908735
847.000000	34.938324
848.000000	35.012950
849.000000	35.100240
850.000000	35.117522
851.000000	35.090341
852.000000	35.000163
853.000000	34.986476
854.000000	35.100610
855.000000	35.137504
856.000000	35.005797
857.000000	35.157927
858.000000	35.901500
859.000000	34.895933
860.000000	34.997400
861.000000	35.111333
862.000000	35.214500
863.000000	35.348567
864.000000	35.468533
865.000000	35.582600
866.000000	35.697467
867.000000	35.827500
868.000000	35.947933
869.000000	36.107033
870.000000	36.233367
871.000000	36.323867
872.000000	36.446333
873.000000	36.564033
874.000000	36.707100
875.000000	36.831833
876.000000	36.942500
877.000000	37.070400
878.000000	37.197400
879.000000	37.306567
880.000000	37.426467
881.000000	37.555267
882.000000	37.669500
883.000000	37.757000
884.000000	37.894633
885.000000	38.021667
886.000000	38.149933
887.000000	38.272633
888.000000	38.363600
889.000000	38.460167
890.000000	38.554133
891.000000	38.664333
892.000000	38.768567
893.000000	38.877700
894.000000	38.999667
895.000000	39.111133
896.000000	39.202600
897.000000	39.297767
898.000000	39.373600
899.000000	39.465633
900.000000	39.561833
901.000000	39.639333
902.000000	39.713600
903.000000	39.794367
904.000000	39.857000
905.000000	39.964867
906.000000	40.074133
907.000000	40.169767
908.000000	40.204067
909.000000	40.287500
910.000000	40.364367
911.000000	40.440700
912.000000	40.475867
913.000000	40.572267
914.000000	40.658200
915.000000	40.788700
916.000000	40.859200
917.000000	40.902333
918.000000	40.973400
919.000000	41.054233
920.000000	41.131667
921.000000	41.224900
922.000000	41.334000
923.000000	41.382167
924.000000	41.437400
925.000000	41.526600
926.000000	41.588800
927.000000	41.666700
928.000000	41.760100
929.000000	41.819233
930.000000	41.884667
931.000000	41.941233
932.000000	42.019900
933.000000	42.073133
934.000000	42.089533
935.000000	42.140400
936.000000	42.215567
937.000000	42.260233
938.000000	42.334433
939.000000	42.400100
940.000000	42.501267
941.000000	42.604200
942.000000	42.700467
943.000000	42.722300
944.000000	42.770867
945.000000	42.841700
946.000000	42.891800
947.000000	42.944867
948.000000	43.026633
949.000000	43.075667
950.000000	43.112800
951.000000	43.186033
952.000000	43.236200
953.000000	43.288467
954.000000	43.342533
955.000000	43.343800
956.000000	43.386200
957.000000	43.420933
958.000000	43.477733
959.000000	43.537567
960.000000	43.573900
961.000000	43.594533
962.000000	43.639400
963.000000	43.704233
964.000000	43.748600
965.000000	43.781567
966.000000	43.809067
967.000000	43.850367
968.000000	43.905967
969.000000	43.961733
970.000000	43.982367
971.000000	44.031867
972.000000	44.060233
973.000000	44.099367
974.000000	44.117367
975.000000	44.152400
976.000000	44.193400
977.000000	44.252567
978.000000	44.278067
979.000000	44.291133
980.000000	44.341467
981.000000	44.403000
982.000000	44.438067
983.000000	44.458367
984.000000	44.485133
985.000000	44.520433
986.000000	44.555367
987.000000	44.603700
988.000000	44.645833
989.000000	44.688000
990.000000	44.710767
991.000000	44.731500
992.000000	44.787867
993.000000	44.832033
994.000000	44.863333
995.000000	44.894633
996.000000	44.928933
997.000000	44.986333
998.000000	45.028500
999.000000	45.069000
1000.000000	45.094600
1001.000000	45.131333
1002.000000	45.185167
1003.000000	45.224033
1004.000000	45.254867
1005.000000	45.275767
1006.000000	45.295867
1007.000000	45.326533
1008.000000	45.356333
1009.000000	45.398500
1010.000000	45.440600
1011.000000	45.471067
1012.000000	45.492633
1013.000000	45.510500
1014.000000	45.550367
1015.000000	45.612267
1016.000000	45.646500
1017.000000	45.677300
1018.000000	45.720900
1019.000000	45.763967
1020.000000	45.811200
1021.000000	45.847700
1022.000000	45.873700
1023.000000	45.894467
1024.000000	45.931033
1025.000000	45.970600
1026.000000	46.009833
1027.000000	46.049300
1028.000000	46.077267
1029.000000	46.107467
1030.000000	46.149667
1031.000000	46.182867
1032.000000	46.206233
1033.000000	46.249333
1034.000000	46.293367
1035.000000	46.315300
1036.000000	46.337833
1037.000000	46.374900
1038.000000	46.419033
1039.000000	46.454367
1040.000000	46.472867
1041.000000	46.502100
1042.000000	46.530267
1043.000000	46.548767
1044.000000	46.572400
1045.000000	46.596900
1046.000000	46.641367
1047.000000	46.675000
1048.000000	46.695700
1049.000000	46.734967
1050.000000	46.777067
1051.000000	46.810967
1052.000000	46.835133
1053.000000	46.857767
1054.000000	46.906333
1055.000000	46.935400
1056.000000	46.947167
1057.000000	46.971200
1058.000000	47.025933
1059.000000	47.067833
1060.000000	47.082100
1061.000000	47.116233
1062.000000	47.142433
1063.000000	47.184533
1064.000000	47.231333
1065.000000	47.256133
1066.000000	47.274700
1067.000000	47.295700
1068.000000	47.326733
1069.000000	47.355400
1070.000000	47.378867
1071.000000	47.417000
1072.000000	47.460533
1073.000000	47.498633
1074.000000	47.519400
1075.000000	47.543767
1076.000000	47.561767
1077.000000	47.594567
1078.000000	47.633167
1079.000000	47.666867
1080.000000	47.696033
1081.000000	47.731133
1082.000000	47.767533
1083.000000	47.800200
1084.000000	47.819900
1085.000000	47.846600
1086.000000	47.859600
1087.000000	47.892300
1088.000000	47.918300
1089.000000	47.942367
1090.000000	47.963700
1091.000000	48.019100
1092.000000	48.047167
1093.000000	48.066767
1094.000000	48.095500
1095.000000	48.094967
1096.000000	48.122267
1097.000000	48.147333
1098.000000	48.172067
1099.000000	48.201400
1100.000000	48.210500
1101.000000	48.236200
1102.000000	48.247100
1103.000000	48.261933
1104.000000	48.288667
1105.000000	48.313667
1106.000000	48.341567
1107.000000	48.355767
1108.000000	48.365900
1109.000000	48.377967
1110.000000	48.396533
1111.000000	48.405633
1112.000000	48.423367
1113.000000	48.449133
1114.000000	48.437300
1115.000000	48.449500
1116.000000	48.479733
1117.000000	48.477800
1118.000000	48.480733
1119.000000	48.472300
1120.000000	48.479600
1121.000000	48.490433
1122.000000	48.505933
1123.000000	48.477900
1124.000000	48.460100
1125.000000	48.440300
1126.000000	48.431567
1127.000000	48.411500
1128.000000	48.425333
1129.000000	48.385433
1130.000000	48.319433
1131.000000	48.255867
1132.000000	48.218167
1133.000000	48.216333
1134.000000	48.167633
1135.000000	48.038433
1136.000000	47.946100
1137.000000	47.895567
1138.000000	47.818967
1139.000000	47.762867
1140.000000	47.693367
1141.000000	47.635000
1142.000000	47.549467
1143.000000	47.508300
1144.000000	47.459033
1145.000000	47.401967
1146.000000	47.349533
1147.000000	47.319733
1148.000000	47.288700
1149.000000	47.268200
1150.000000	47.250700
1151.000000	47.228600
1152.000000	47.231567
1153.000000	47.201133
1154.000000	47.175367
1155.000000	47.154300
1156.000000	47.102233
1157.000000	47.035200
1158.000000	46.952700
1159.000000	46.882433
1160.000000	46.797867
1161.000000	46.690200
1162.000000	46.603167
1163.000000	46.518100
1164.000000	46.448733
1165.000000	46.350367
1166.000000	46.269633
1167.000000	46.174967
1168.000000	46.095767
1169.000000	45.999867
1170.000000	45.892333
