PE UV       SUBTECH     SPECTRUM    ASCII       PEDS        4.00        
   -1
CICIMAUCR0116-1.ASC
24/04/03
16:59:00.00
24/04/03
16:59:00.00
Vinicio Soto Monge
C. kalinini
250,000000
1
Lambda 1050
1050L1511233
PerkinElmer UV WinLab 6.3.2.0749 / 2.02.05 Lambda 900 UV/VIS/NIR, Aug  7 2015 09:38:08

0
0
3350/servo 860,8/2
0
0
UV/VIS
1
1
1
DoubleDePol,CommonBeamDepol,RBeamAtt,SBeamAtt,60mm sphere, WB InGaAs Detector
0
0
0
0
Program
Program
3350/servo 860,8/2
3350/0,2 860,8/0,2
3350/0,2 860,8/0,2
0
15.00
 
 
 
0
 
860,8
319,2
860,8
Front
100
on
S:100 R:100
0
0
0
0
 
0
 
 
 
0
 
 
0
0
0
0
0
 
 
 
 
0
0


0
0
#HDR
-1
-1
#GR
nm
%R
1.0
0.0
2500,000000
-1,000000
2251
8
74,972100
3,970100
#DATA

250.000000	nan
251.000000	nan
252.000000	nan
253.000000	nan
254.000000	nan
255.000000	nan
256.000000	nan
257.000000	nan
258.000000	nan
259.000000	5.630711
260.000000	5.617228
261.000000	5.598774
262.000000	5.585435
263.000000	5.569104
264.000000	5.541298
265.000000	5.520170
266.000000	5.504225
267.000000	5.486553
268.000000	5.463437
269.000000	5.441875
270.000000	5.420844
271.000000	5.405382
272.000000	5.384168
273.000000	5.370559
274.000000	5.362133
275.000000	5.352819
276.000000	5.334780
277.000000	5.316683
278.000000	5.307330
279.000000	5.299030
280.000000	5.283654
281.000000	5.267469
282.000000	5.264004
283.000000	5.254342
284.000000	5.245704
285.000000	5.236139
286.000000	5.231593
287.000000	5.223785
288.000000	5.218148
289.000000	5.216903
290.000000	5.223621
291.000000	5.223138
292.000000	5.217386
293.000000	5.212232
294.000000	5.203420
295.000000	5.203603
296.000000	5.199877
297.000000	5.198796
298.000000	5.201354
299.000000	5.195727
300.000000	5.186992
301.000000	5.184965
302.000000	5.179039
303.000000	5.170584
304.000000	5.171328
305.000000	5.160460
306.000000	5.155788
307.000000	5.159794
308.000000	5.157950
309.000000	5.146079
310.000000	5.143868
311.000000	5.139158
312.000000	5.132952
313.000000	5.127152
314.000000	5.123117
315.000000	5.120598
316.000000	5.119787
317.000000	5.155943
318.000000	5.176028
319.000000	5.228031
320.000000	5.227616
321.000000	5.240810
322.000000	5.247383
323.000000	5.268221
324.000000	5.278462
325.000000	5.297543
326.000000	5.324037
327.000000	5.274147
328.000000	5.245434
329.000000	5.197300
330.000000	5.190950
331.000000	5.185583
332.000000	5.170170
333.000000	5.153752
334.000000	5.152488
335.000000	5.139303
336.000000	5.127934
337.000000	5.125559
338.000000	5.128957
339.000000	5.138917
340.000000	5.127547
341.000000	5.131273
342.000000	5.148096
343.000000	5.155846
344.000000	5.157217
345.000000	5.167506
346.000000	5.166454
347.000000	5.170942
348.000000	5.175102
349.000000	5.163008
350.000000	5.180922
351.000000	5.182427
352.000000	5.188344
353.000000	5.189502
354.000000	5.189164
355.000000	5.185400
356.000000	5.191818
357.000000	5.207570
358.000000	5.221507
359.000000	5.244729
360.000000	5.264341
361.000000	5.277738
362.000000	5.292833
363.000000	5.314434
364.000000	5.327589
365.000000	5.343476
366.000000	5.353688
367.000000	5.364980
368.000000	5.370761
369.000000	5.376823
370.000000	5.381060
371.000000	5.376330
372.000000	5.375433
373.000000	5.378377
374.000000	5.385490
375.000000	5.386243
376.000000	5.390316
377.000000	5.402660
378.000000	5.410420
379.000000	5.419831
380.000000	5.431210
381.000000	5.449375
382.000000	5.463978
383.000000	5.476834
384.000000	5.492846
385.000000	5.514939
386.000000	5.528934
387.000000	5.543479
388.000000	5.562753
389.000000	5.581092
390.000000	5.600270
391.000000	5.619177
392.000000	5.639089
393.000000	5.657823
394.000000	5.676403
395.000000	5.695233
396.000000	5.715338
397.000000	5.736156
398.000000	5.756589
399.000000	5.778325
400.000000	5.800968
401.000000	5.824161
402.000000	5.850163
403.000000	5.877458
404.000000	5.904676
405.000000	5.934278
406.000000	5.967238
407.000000	6.002515
408.000000	6.039694
409.000000	6.079700
410.000000	6.123345
411.000000	6.171797
412.000000	6.222816
413.000000	6.278661
414.000000	6.341233
415.000000	6.409490
416.000000	6.483374
417.000000	6.564622
418.000000	6.654007
419.000000	6.751537
420.000000	6.857185
421.000000	6.972813
422.000000	7.099511
423.000000	7.238351
424.000000	7.390713
425.000000	7.556385
426.000000	7.735753
427.000000	7.929723
428.000000	8.138848
429.000000	8.365914
430.000000	8.611029
431.000000	8.872562
432.000000	9.154634
433.000000	9.456598
434.000000	9.775336
435.000000	10.111738
436.000000	10.466593
437.000000	10.839796
438.000000	11.231077
439.000000	11.637000
440.000000	12.056445
441.000000	12.489238
442.000000	12.930476
443.000000	13.378867
444.000000	13.833366
445.000000	14.291235
446.000000	14.749885
447.000000	15.205890
448.000000	15.654657
449.000000	16.095461
450.000000	16.527443
451.000000	16.947940
452.000000	17.358669
453.000000	17.755509
454.000000	18.137911
455.000000	18.507408
456.000000	18.860014
457.000000	19.197091
458.000000	19.521650
459.000000	19.832368
460.000000	20.128599
461.000000	20.410294
462.000000	20.676691
463.000000	20.930232
464.000000	21.172037
465.000000	21.399615
466.000000	21.617291
467.000000	21.825382
468.000000	22.023648
469.000000	22.213912
470.000000	22.395548
471.000000	22.570669
472.000000	22.738233
473.000000	22.898644
474.000000	23.054771
475.000000	23.205444
476.000000	23.349950
477.000000	23.491222
478.000000	23.626780
479.000000	23.755313
480.000000	23.880003
481.000000	24.001046
482.000000	24.115737
483.000000	24.221858
484.000000	24.318703
485.000000	24.404835
486.000000	24.480553
487.000000	24.545094
488.000000	24.597609
489.000000	24.640241
490.000000	24.671174
491.000000	24.688190
492.000000	24.693518
493.000000	24.689812
494.000000	24.676174
495.000000	24.655819
496.000000	24.630705
497.000000	24.595399
498.000000	24.552516
499.000000	24.501603
500.000000	24.443944
501.000000	24.381159
502.000000	24.310431
503.000000	24.234067
504.000000	24.154913
505.000000	24.074823
506.000000	23.992822
507.000000	23.914218
508.000000	23.842139
509.000000	23.782221
510.000000	23.738518
511.000000	23.717738
512.000000	23.729233
513.000000	23.776218
514.000000	23.862842
515.000000	23.997185
516.000000	24.185886
517.000000	24.432101
518.000000	24.737858
519.000000	25.099740
520.000000	25.517727
521.000000	25.988519
522.000000	26.507744
523.000000	27.068480
524.000000	27.663229
525.000000	28.281606
526.000000	28.913610
527.000000	29.552197
528.000000	30.191827
529.000000	30.829951
530.000000	31.457892
531.000000	32.069358
532.000000	32.665024
533.000000	33.246261
534.000000	33.812827
535.000000	34.360987
536.000000	34.896108
537.000000	35.420042
538.000000	35.932809
539.000000	36.433975
540.000000	36.927748
541.000000	37.415951
542.000000	37.900005
543.000000	38.381578
544.000000	38.859280
545.000000	39.337765
546.000000	39.817484
547.000000	40.300457
548.000000	40.788052
549.000000	41.281343
550.000000	41.781321
551.000000	42.290469
552.000000	42.803179
553.000000	43.316303
554.000000	43.833433
555.000000	44.354047
556.000000	44.875520
557.000000	45.390787
558.000000	45.900369
559.000000	46.403466
560.000000	46.897036
561.000000	47.376929
562.000000	47.845685
563.000000	48.300030
564.000000	48.740448
565.000000	49.163223
566.000000	49.566433
567.000000	49.955668
568.000000	50.326825
569.000000	50.679490
570.000000	51.012300
571.000000	51.324823
572.000000	51.617164
573.000000	51.893947
574.000000	52.151552
575.000000	52.396561
576.000000	52.627024
577.000000	52.842606
578.000000	53.045108
579.000000	53.235489
580.000000	53.407782
581.000000	53.572643
582.000000	53.723702
583.000000	53.869974
584.000000	54.007830
585.000000	54.135715
586.000000	54.262645
587.000000	54.381332
588.000000	54.490068
589.000000	54.586750
590.000000	54.683325
591.000000	54.767363
592.000000	54.847356
593.000000	54.915343
594.000000	54.976380
595.000000	55.024456
596.000000	55.061711
597.000000	55.087298
598.000000	55.102721
599.000000	55.109941
600.000000	55.092954
601.000000	55.061441
602.000000	55.007382
603.000000	54.929270
604.000000	54.825688
605.000000	54.699829
606.000000	54.543481
607.000000	54.360996
608.000000	54.156215
609.000000	53.924873
610.000000	53.679671
611.000000	53.414953
612.000000	53.135622
613.000000	52.841100
614.000000	52.530363
615.000000	52.212174
616.000000	51.883591
617.000000	51.551697
618.000000	51.214079
619.000000	50.875632
620.000000	50.533999
621.000000	50.193274
622.000000	49.853215
623.000000	49.512538
624.000000	49.172449
625.000000	48.829427
626.000000	48.486463
627.000000	48.135719
628.000000	47.784039
629.000000	47.425014
630.000000	47.062379
631.000000	46.690112
632.000000	46.319669
633.000000	45.955645
634.000000	45.601533
635.000000	45.262246
636.000000	44.936065
637.000000	44.636563
638.000000	44.356894
639.000000	44.110862
640.000000	43.899161
641.000000	43.734194
642.000000	43.602477
643.000000	43.510843
644.000000	43.456639
645.000000	43.433089
646.000000	43.443542
647.000000	43.481309
648.000000	43.545734
649.000000	43.625554
650.000000	43.722264
651.000000	43.825393
652.000000	43.939023
653.000000	44.057285
654.000000	44.186039
655.000000	44.331047
656.000000	44.488032
657.000000	44.659978
658.000000	44.848177
659.000000	45.060553
660.000000	45.294424
661.000000	45.547840
662.000000	45.823349
663.000000	46.116346
664.000000	46.416013
665.000000	46.712456
666.000000	47.005097
667.000000	47.284466
668.000000	47.541501
669.000000	47.768374
670.000000	47.963957
671.000000	48.125575
672.000000	48.248876
673.000000	48.334207
674.000000	48.388430
675.000000	48.414171
676.000000	48.420396
677.000000	48.410687
678.000000	48.394829
679.000000	48.379840
680.000000	48.367206
681.000000	48.363702
682.000000	48.372437
683.000000	48.396132
684.000000	48.440530
685.000000	48.506413
686.000000	48.589032
687.000000	48.688888
688.000000	48.806292
689.000000	48.942893
690.000000	49.096799
691.000000	49.263822
692.000000	49.451442
693.000000	49.657410
694.000000	49.879129
695.000000	50.117527
696.000000	50.375614
697.000000	50.654964
698.000000	50.961851
699.000000	51.292046
700.000000	51.648716
701.000000	52.032266
702.000000	52.433893
703.000000	52.860451
704.000000	53.299933
705.000000	53.754433
706.000000	54.220824
707.000000	54.692175
708.000000	55.156346
709.000000	55.616599
710.000000	56.067412
711.000000	56.508920
712.000000	56.942379
713.000000	57.358726
714.000000	57.761512
715.000000	58.147716
716.000000	58.517348
717.000000	58.878052
718.000000	59.240774
719.000000	59.592068
720.000000	59.935978
721.000000	60.276645
722.000000	60.610933
723.000000	60.942537
724.000000	61.274711
725.000000	61.602928
726.000000	61.930546
727.000000	62.256263
728.000000	62.570523
729.000000	62.885478
730.000000	63.190869
731.000000	63.479639
732.000000	63.760687
733.000000	64.038280
734.000000	64.307573
735.000000	64.570921
736.000000	64.830137
737.000000	65.081584
738.000000	65.323746
739.000000	65.561323
740.000000	65.796101
741.000000	66.037443
742.000000	66.277925
743.000000	66.506169
744.000000	66.731170
745.000000	66.951963
746.000000	67.167747
747.000000	67.385750
748.000000	67.605047
749.000000	67.808177
750.000000	68.003818
751.000000	68.187596
752.000000	68.359040
753.000000	68.526671
754.000000	68.682788
755.000000	68.832824
756.000000	68.977455
757.000000	69.101383
758.000000	69.207301
759.000000	69.319541
760.000000	69.436752
761.000000	69.548712
762.000000	69.649823
763.000000	69.745578
764.000000	69.846168
765.000000	69.942927
766.000000	70.028229
767.000000	70.117980
768.000000	70.215559
769.000000	70.303023
770.000000	70.379793
771.000000	70.460819
772.000000	70.538342
773.000000	70.604920
774.000000	70.664828
775.000000	70.730160
776.000000	70.801622
777.000000	70.873054
778.000000	70.939043
779.000000	71.006644
780.000000	71.077391
781.000000	71.137367
782.000000	71.195325
783.000000	71.267877
784.000000	71.348276
785.000000	71.413319
786.000000	71.473932
787.000000	71.528696
788.000000	71.592397
789.000000	71.650298
790.000000	71.699763
791.000000	71.760723
792.000000	71.827494
793.000000	71.889506
794.000000	71.938325
795.000000	71.992403
796.000000	72.046405
797.000000	72.100648
798.000000	72.146252
799.000000	72.179792
800.000000	72.215320
801.000000	72.237432
802.000000	72.258868
803.000000	72.273983
804.000000	72.281231
805.000000	72.286154
806.000000	72.274774
807.000000	72.250819
808.000000	72.210735
809.000000	72.192928
810.000000	72.174165
811.000000	72.138753
812.000000	72.098698
813.000000	72.054927
814.000000	72.005877
815.000000	71.941008
816.000000	71.867800
817.000000	71.792951
818.000000	71.720254
819.000000	71.628061
820.000000	71.517761
821.000000	71.402519
822.000000	71.273253
823.000000	71.130591
824.000000	71.002725
825.000000	70.869358
826.000000	70.747717
827.000000	70.621540
828.000000	70.482642
829.000000	70.346205
830.000000	70.216515
831.000000	70.089643
832.000000	69.946778
833.000000	69.811847
834.000000	69.653027
835.000000	69.490917
836.000000	69.302525
837.000000	69.137770
838.000000	68.962997
839.000000	68.773089
840.000000	68.574573
841.000000	68.365178
842.000000	68.176207
843.000000	67.947548
844.000000	67.734814
845.000000	67.525864
846.000000	67.328940
847.000000	67.074820
848.000000	66.844153
849.000000	66.573297
850.000000	66.320065
851.000000	66.020021
852.000000	65.763150
853.000000	65.529926
854.000000	65.262573
855.000000	64.983879
856.000000	64.704539
857.000000	64.428586
858.000000	64.099810
859.000000	64.025009
860.000000	63.931158
861.000000	63.895671
862.000000	63.811178
863.000000	63.727868
864.000000	63.659547
865.000000	63.601885
866.000000	63.542757
867.000000	63.506127
868.000000	63.508950
869.000000	63.292920
870.000000	63.078690
871.000000	62.863270
872.000000	62.648860
873.000000	62.438890
874.000000	62.234900
875.000000	62.035580
876.000000	61.841650
877.000000	61.653770
878.000000	61.471040
879.000000	61.295360
880.000000	61.121360
881.000000	60.954570
882.000000	60.792080
883.000000	60.629840
884.000000	60.471610
885.000000	60.313770
886.000000	60.156890
887.000000	59.999260
888.000000	59.842590
889.000000	59.685040
890.000000	59.525140
891.000000	59.365450
892.000000	59.201660
893.000000	59.037500
894.000000	58.866980
895.000000	58.695190
896.000000	58.519710
897.000000	58.341390
898.000000	58.157350
899.000000	57.972830
900.000000	57.784690
901.000000	57.589750
902.000000	57.393970
903.000000	57.197810
904.000000	57.002780
905.000000	56.806580
906.000000	56.614930
907.000000	56.423120
908.000000	56.237770
909.000000	56.054310
910.000000	55.878220
911.000000	55.710270
912.000000	55.551350
913.000000	55.401440
914.000000	55.258300
915.000000	55.124210
916.000000	54.994350
917.000000	54.873530
918.000000	54.757480
919.000000	54.642510
920.000000	54.531140
921.000000	54.419220
922.000000	54.304690
923.000000	54.187830
924.000000	54.067690
925.000000	53.942560
926.000000	53.814620
927.000000	53.681090
928.000000	53.543860
929.000000	53.404230
930.000000	53.261340
931.000000	53.118310
932.000000	52.974350
933.000000	52.826980
934.000000	52.681580
935.000000	52.534580
936.000000	52.387660
937.000000	52.241490
938.000000	52.095160
939.000000	51.950650
940.000000	51.803260
941.000000	51.654730
942.000000	51.505980
943.000000	51.359400
944.000000	51.210900
945.000000	51.061900
946.000000	50.911670
947.000000	50.762450
948.000000	50.613850
949.000000	50.468860
950.000000	50.326060
951.000000	50.184990
952.000000	50.047920
953.000000	49.914950
954.000000	49.785620
955.000000	49.658590
956.000000	49.535920
957.000000	49.415580
958.000000	49.295820
959.000000	49.175450
960.000000	49.055350
961.000000	48.933090
962.000000	48.806570
963.000000	48.674930
964.000000	48.540710
965.000000	48.404750
966.000000	48.263200
967.000000	48.118460
968.000000	47.971960
969.000000	47.823430
970.000000	47.675450
971.000000	47.527470
972.000000	47.381280
973.000000	47.238240
974.000000	47.095000
975.000000	46.953080
976.000000	46.814410
977.000000	46.677280
978.000000	46.540520
979.000000	46.403230
980.000000	46.264570
981.000000	46.125860
982.000000	45.983880
983.000000	45.836180
984.000000	45.686090
985.000000	45.533640
986.000000	45.376660
987.000000	45.216010
988.000000	45.052630
989.000000	44.887760
990.000000	44.722310
991.000000	44.558480
992.000000	44.396060
993.000000	44.236540
994.000000	44.079160
995.000000	43.926870
996.000000	43.781420
997.000000	43.641860
998.000000	43.507600
999.000000	43.379140
1000.000000	43.256450
1001.000000	43.137780
1002.000000	43.023170
1003.000000	42.910970
1004.000000	42.804240
1005.000000	42.699100
1006.000000	42.591360
1007.000000	42.483570
1008.000000	42.374790
1009.000000	42.263200
1010.000000	42.150540
1011.000000	42.037480
1012.000000	41.923760
1013.000000	41.812230
1014.000000	41.701410
1015.000000	41.594390
1016.000000	41.493050
1017.000000	41.396000
1018.000000	41.306470
1019.000000	41.226110
1020.000000	41.151390
1021.000000	41.081290
1022.000000	41.016530
1023.000000	40.956350
1024.000000	40.902480
1025.000000	40.853250
1026.000000	40.807280
1027.000000	40.764690
1028.000000	40.722530
1029.000000	40.681620
1030.000000	40.643510
1031.000000	40.606400
1032.000000	40.570510
1033.000000	40.537100
1034.000000	40.502730
1035.000000	40.466690
1036.000000	40.431140
1037.000000	40.396770
1038.000000	40.364590
1039.000000	40.333560
1040.000000	40.301380
1041.000000	40.270220
1042.000000	40.242650
1043.000000	40.215980
1044.000000	40.190200
1045.000000	40.166600
1046.000000	40.145310
1047.000000	40.125010
1048.000000	40.105060
1049.000000	40.086520
1050.000000	40.071750
1051.000000	40.059060
1052.000000	40.047140
1053.000000	40.037160
1054.000000	40.030390
1055.000000	40.026590
1056.000000	40.026370
1057.000000	40.030310
1058.000000	40.038440
1059.000000	40.050340
1060.000000	40.064520
1061.000000	40.080620
1062.000000	40.098820
1063.000000	40.119080
1064.000000	40.139650
1065.000000	40.160110
1066.000000	40.180230
1067.000000	40.199550
1068.000000	40.217360
1069.000000	40.231850
1070.000000	40.246080
1071.000000	40.260730
1072.000000	40.276080
1073.000000	40.291810
1074.000000	40.306880
1075.000000	40.321890
1076.000000	40.337370
1077.000000	40.353650
1078.000000	40.372140
1079.000000	40.393960
1080.000000	40.414340
1081.000000	40.437130
1082.000000	40.460600
1083.000000	40.484090
1084.000000	40.510730
1085.000000	40.537960
1086.000000	40.566710
1087.000000	40.597040
1088.000000	40.628080
1089.000000	40.659340
1090.000000	40.693380
1091.000000	40.724780
1092.000000	40.755910
1093.000000	40.787290
1094.000000	40.817550
1095.000000	40.847830
1096.000000	40.876640
1097.000000	40.901990
1098.000000	40.924240
1099.000000	40.945450
1100.000000	40.965880
1101.000000	40.986710
1102.000000	41.004300
1103.000000	41.018860
1104.000000	41.030080
1105.000000	41.039620
1106.000000	41.046710
1107.000000	41.053380
1108.000000	41.058280
1109.000000	41.060190
1110.000000	41.058800
1111.000000	41.052050
1112.000000	41.043750
1113.000000	41.034480
1114.000000	41.022490
1115.000000	41.008090
1116.000000	40.989090
1117.000000	40.966730
1118.000000	40.941730
1119.000000	40.912000
1120.000000	40.877180
1121.000000	40.838310
1122.000000	40.794060
1123.000000	40.741730
1124.000000	40.679570
1125.000000	40.608230
1126.000000	40.527030
1127.000000	40.434180
1128.000000	40.326880
1129.000000	40.200560
1130.000000	40.054910
1131.000000	39.884110
1132.000000	39.680970
1133.000000	39.450510
1134.000000	39.196710
1135.000000	38.910610
1136.000000	38.595560
1137.000000	38.250690
1138.000000	37.880630
1139.000000	37.493810
1140.000000	37.094320
1141.000000	36.692490
1142.000000	36.295720
1143.000000	35.902060
1144.000000	35.514670
1145.000000	35.144550
1146.000000	34.799760
1147.000000	34.485800
1148.000000	34.209050
1149.000000	33.970320
1150.000000	33.766390
1151.000000	33.592480
1152.000000	33.448800
1153.000000	33.328780
1154.000000	33.228650
1155.000000	33.134540
1156.000000	33.035070
1157.000000	32.920540
1158.000000	32.783290
1159.000000	32.617730
1160.000000	32.419340
1161.000000	32.191740
1162.000000	31.932650
1163.000000	31.646170
1164.000000	31.334250
1165.000000	31.003630
1166.000000	30.661670
1167.000000	30.315960
1168.000000	29.967470
1169.000000	29.617520
1170.000000	29.269510
1171.000000	28.925220
