PE UV       SUBTECH     SPECTRUM    ASCII       PEDS        4.00        
   -1
CICIMAUCR0104-1.ASC
24/04/03
17:14:03.00
24/04/03
17:14:03.00
Vinicio Soto Monge
C. resplendens
250,000000
1
Lambda 1050
1050L1511233
PerkinElmer UV WinLab 6.3.2.0749 / 2.02.05 Lambda 900 UV/VIS/NIR, Aug  7 2015 09:38:08

0
0
3350/servo 860,8/2
0
0
UV/VIS
1
1
1
DoubleDePol,CommonBeamDepol,RBeamAtt,SBeamAtt,60mm sphere, WB InGaAs Detector
0
0
0
0
Program
Program
3350/servo 860,8/2
3350/0,2 860,8/0,2
3350/0,2 860,8/0,2
0
15.00
 
 
 
0
 
860,8
319,2
860,8
Front
100
on
S:100 R:100
0
0
0
0
 
0
 
 
 
0
 
 
0
0
0
0
0
 
 
 
 
0
0


0
0
#HDR
-1
-1
#GR
nm
%R
1.0
0.0
2500,000000
-1,000000
2251
8
71,310100
3,418100
#DATA

250.000000	nan
251.000000	nan
252.000000	nan
253.000000	nan
254.000000	nan
255.000000	nan
256.000000	nan
257.000000	nan
258.000000	nan
259.000000	5.189026
260.000000	5.182921
261.000000	5.170332
262.000000	5.161397
263.000000	5.151676
264.000000	5.142896
265.000000	5.131305
266.000000	5.116517
267.000000	5.103433
268.000000	5.085853
269.000000	5.069882
270.000000	5.056411
271.000000	5.046400
272.000000	5.036728
273.000000	5.027124
274.000000	5.018102
275.000000	5.011434
276.000000	5.009331
277.000000	5.003216
278.000000	4.996500
279.000000	4.990763
280.000000	4.985210
281.000000	4.978310
282.000000	4.970905
283.000000	4.963337
284.000000	4.960032
285.000000	4.954208
286.000000	4.947462
287.000000	4.940669
288.000000	4.938469
289.000000	4.936114
290.000000	4.926878
291.000000	4.924678
292.000000	4.923593
293.000000	4.919503
294.000000	4.906847
295.000000	4.898745
296.000000	4.895837
297.000000	4.889024
298.000000	4.879071
299.000000	4.865891
300.000000	4.858119
301.000000	4.849794
302.000000	4.840849
303.000000	4.835684
304.000000	4.834308
305.000000	4.829830
306.000000	4.821070
307.000000	4.821864
308.000000	4.823803
309.000000	4.820604
310.000000	4.821293
311.000000	4.812648
312.000000	4.804701
313.000000	4.794690
314.000000	4.789428
315.000000	4.781200
316.000000	4.779019
317.000000	4.798731
318.000000	4.808393
319.000000	4.815691
320.000000	4.830470
321.000000	4.848195
322.000000	4.861007
323.000000	4.864215
324.000000	4.884266
325.000000	4.892969
326.000000	4.906469
327.000000	4.879159
328.000000	4.874992
329.000000	4.876387
330.000000	4.864089
331.000000	4.857092
332.000000	4.847740
333.000000	4.855367
334.000000	4.843766
335.000000	4.838407
336.000000	4.835674
337.000000	4.842962
338.000000	4.830150
339.000000	4.825721
340.000000	4.816001
341.000000	4.793197
342.000000	4.802869
343.000000	4.803247
344.000000	4.795678
345.000000	4.803160
346.000000	4.802423
347.000000	4.808626
348.000000	4.817222
349.000000	4.824393
350.000000	4.840326
351.000000	4.868799
352.000000	4.877114
353.000000	4.886495
354.000000	4.904259
355.000000	4.921897
356.000000	4.939438
357.000000	4.952822
358.000000	4.970062
359.000000	4.987013
360.000000	5.008420
361.000000	5.034403
362.000000	5.054589
363.000000	5.070299
364.000000	5.089420
365.000000	5.107407
366.000000	5.122583
367.000000	5.140454
368.000000	5.163858
369.000000	5.187408
370.000000	5.208234
371.000000	5.220339
372.000000	5.235970
373.000000	5.264560
374.000000	5.296802
375.000000	5.323540
376.000000	5.356374
377.000000	5.387871
378.000000	5.419629
379.000000	5.454857
380.000000	5.496771
381.000000	5.544975
382.000000	5.597395
383.000000	5.655262
384.000000	5.714204
385.000000	5.782682
386.000000	5.856684
387.000000	5.941686
388.000000	6.034664
389.000000	6.135259
390.000000	6.244344
391.000000	6.365135
392.000000	6.497488
393.000000	6.636839
394.000000	6.786810
395.000000	6.951639
396.000000	7.129115
397.000000	7.320749
398.000000	7.526261
399.000000	7.746223
400.000000	7.978939
401.000000	8.225930
402.000000	8.488843
403.000000	8.767108
404.000000	9.061624
405.000000	9.368749
406.000000	9.686767
407.000000	10.018033
408.000000	10.361626
409.000000	10.715685
410.000000	11.081462
411.000000	11.455379
412.000000	11.833976
413.000000	12.217740
414.000000	12.604575
415.000000	12.993358
416.000000	13.384894
417.000000	13.776274
418.000000	14.164302
419.000000	14.550691
420.000000	14.932477
421.000000	15.308207
422.000000	15.678305
423.000000	16.040641
424.000000	16.393625
425.000000	16.738817
426.000000	17.073465
427.000000	17.395950
428.000000	17.708590
429.000000	18.011353
430.000000	18.304223
431.000000	18.586073
432.000000	18.855130
433.000000	19.112888
434.000000	19.360509
435.000000	19.594872
436.000000	19.817780
437.000000	20.029592
438.000000	20.229057
439.000000	20.415080
440.000000	20.586828
441.000000	20.745561
442.000000	20.892315
443.000000	21.026132
444.000000	21.146187
445.000000	21.252044
446.000000	21.342822
447.000000	21.418714
448.000000	21.475912
449.000000	21.516150
450.000000	21.540465
451.000000	21.546677
452.000000	21.536249
453.000000	21.508755
454.000000	21.464156
455.000000	21.405195
456.000000	21.332714
457.000000	21.245997
458.000000	21.149133
459.000000	21.043305
460.000000	20.931778
461.000000	20.818294
462.000000	20.703210
463.000000	20.590831
464.000000	20.484944
465.000000	20.390571
466.000000	20.311704
467.000000	20.255010
468.000000	20.222554
469.000000	20.216671
470.000000	20.240492
471.000000	20.297293
472.000000	20.391366
473.000000	20.522440
474.000000	20.689691
475.000000	20.891724
476.000000	21.128374
477.000000	21.394593
478.000000	21.689865
479.000000	22.008697
480.000000	22.345933
481.000000	22.697007
482.000000	23.054943
483.000000	23.415748
484.000000	23.774905
485.000000	24.128829
486.000000	24.470813
487.000000	24.797892
488.000000	25.106374
489.000000	25.394785
490.000000	25.661304
491.000000	25.901869
492.000000	26.116996
493.000000	26.306265
494.000000	26.469970
495.000000	26.609843
496.000000	26.725179
497.000000	26.819154
498.000000	26.893748
499.000000	26.951750
500.000000	26.995797
501.000000	27.029474
502.000000	27.059158
503.000000	27.088687
504.000000	27.122325
505.000000	27.164589
506.000000	27.221389
507.000000	27.298900
508.000000	27.400599
509.000000	27.532536
510.000000	27.701212
511.000000	27.912326
512.000000	28.169851
513.000000	28.475716
514.000000	28.834563
515.000000	29.245239
516.000000	29.712705
517.000000	30.234336
518.000000	30.811740
519.000000	31.444364
520.000000	32.129496
521.000000	32.866572
522.000000	33.649711
523.000000	34.479319
524.000000	35.346491
525.000000	36.249637
526.000000	37.185083
527.000000	38.146715
528.000000	39.130647
529.000000	40.132546
530.000000	41.145813
531.000000	42.165050
532.000000	43.184403
533.000000	44.202758
534.000000	45.216229
535.000000	46.220037
536.000000	47.209677
537.000000	48.182154
538.000000	49.136169
539.000000	50.064812
540.000000	50.969915
541.000000	51.848949
542.000000	52.706158
543.000000	53.531812
544.000000	54.327307
545.000000	55.094117
546.000000	55.833916
547.000000	56.546959
548.000000	57.229183
549.000000	57.888778
550.000000	58.521509
551.000000	59.126174
552.000000	59.703113
553.000000	60.256666
554.000000	60.784839
555.000000	61.294356
556.000000	61.776068
557.000000	62.235975
558.000000	62.675744
559.000000	63.088329
560.000000	63.492764
561.000000	63.880374
562.000000	64.249726
563.000000	64.599347
564.000000	64.933191
565.000000	65.246528
566.000000	65.548265
567.000000	65.833788
568.000000	66.108767
569.000000	66.375751
570.000000	66.615783
571.000000	66.844273
572.000000	67.061260
573.000000	67.268042
574.000000	67.461479
575.000000	67.649160
576.000000	67.824590
577.000000	67.990999
578.000000	68.143645
579.000000	68.283335
580.000000	68.413691
581.000000	68.530151
582.000000	68.635194
583.000000	68.727881
584.000000	68.811536
585.000000	68.881410
586.000000	68.937115
587.000000	68.981394
588.000000	69.015663
589.000000	69.038834
590.000000	69.048196
591.000000	69.050832
592.000000	69.036944
593.000000	69.012513
594.000000	68.977925
595.000000	68.926619
596.000000	68.867135
597.000000	68.794169
598.000000	68.700397
599.000000	68.596749
600.000000	68.475531
601.000000	68.339873
602.000000	68.187275
603.000000	68.014141
604.000000	67.816382
605.000000	67.596953
606.000000	67.359925
607.000000	67.097719
608.000000	66.815587
609.000000	66.504024
610.000000	66.171905
611.000000	65.809715
612.000000	65.425109
613.000000	65.018513
614.000000	64.596808
615.000000	64.149936
616.000000	63.675783
617.000000	63.178671
618.000000	62.666673
619.000000	62.134508
620.000000	61.573250
621.000000	60.992425
622.000000	60.389349
623.000000	59.759623
624.000000	59.096471
625.000000	58.410545
626.000000	57.699082
627.000000	56.960416
628.000000	56.191833
629.000000	55.396009
630.000000	54.586587
631.000000	53.759779
632.000000	52.921885
633.000000	52.083535
634.000000	51.256485
635.000000	50.452636
636.000000	49.673606
637.000000	48.940997
638.000000	48.261971
639.000000	47.647062
640.000000	47.099943
641.000000	46.624956
642.000000	46.234671
643.000000	45.927333
644.000000	45.705336
645.000000	45.562070
646.000000	45.495685
647.000000	45.498825
648.000000	45.567090
649.000000	45.703485
650.000000	45.897775
651.000000	46.148090
652.000000	46.446405
653.000000	46.779008
654.000000	47.148593
655.000000	47.547581
656.000000	47.969266
657.000000	48.407901
658.000000	48.858001
659.000000	49.305474
660.000000	49.752124
661.000000	50.191815
662.000000	50.617309
663.000000	51.036561
664.000000	51.438932
665.000000	51.818305
666.000000	52.182356
667.000000	52.525048
668.000000	52.848658
669.000000	53.153660
670.000000	53.441538
671.000000	53.716556
672.000000	53.973083
673.000000	54.213435
674.000000	54.438214
675.000000	54.652671
676.000000	54.855858
677.000000	55.048219
678.000000	55.225801
679.000000	55.395243
680.000000	55.552415
681.000000	55.692744
682.000000	55.829003
683.000000	55.954495
684.000000	56.065838
685.000000	56.165754
686.000000	56.257268
687.000000	56.340507
688.000000	56.418395
689.000000	56.490236
690.000000	56.560275
691.000000	56.621921
692.000000	56.677655
693.000000	56.736878
694.000000	56.799551
695.000000	56.864947
696.000000	56.929908
697.000000	57.003590
698.000000	57.088670
699.000000	57.173449
700.000000	57.265980
701.000000	57.375336
702.000000	57.491873
703.000000	57.620854
704.000000	57.760679
705.000000	57.914828
706.000000	58.086722
707.000000	58.269372
708.000000	58.459892
709.000000	58.668603
710.000000	58.892063
711.000000	59.131369
712.000000	59.387877
713.000000	59.655384
714.000000	59.938009
715.000000	60.228979
716.000000	60.523156
717.000000	60.821171
718.000000	61.121716
719.000000	61.432349
720.000000	61.745008
721.000000	62.051241
722.000000	62.353384
723.000000	62.646011
724.000000	62.926805
725.000000	63.202802
726.000000	63.475833
727.000000	63.745123
728.000000	64.005507
729.000000	64.247740
730.000000	64.476036
731.000000	64.696483
732.000000	64.905532
733.000000	65.098562
734.000000	65.283384
735.000000	65.456683
736.000000	65.616404
737.000000	65.766870
738.000000	65.904069
739.000000	66.030210
740.000000	66.151098
741.000000	66.259950
742.000000	66.359208
743.000000	66.462245
744.000000	66.560621
745.000000	66.655333
746.000000	66.747468
747.000000	66.829834
748.000000	66.913663
749.000000	66.991290
750.000000	67.052974
751.000000	67.125281
752.000000	67.199894
753.000000	67.258109
754.000000	67.310422
755.000000	67.355050
756.000000	67.390249
757.000000	67.419904
758.000000	67.449201
759.000000	67.476035
760.000000	67.508782
761.000000	67.527583
762.000000	67.533446
763.000000	67.536024
764.000000	67.534115
765.000000	67.534348
766.000000	67.529609
767.000000	67.518473
768.000000	67.503820
769.000000	67.478885
770.000000	67.436902
771.000000	67.390384
772.000000	67.357715
773.000000	67.325511
774.000000	67.285360
775.000000	67.235295
776.000000	67.178515
777.000000	67.124467
778.000000	67.066222
779.000000	67.019317
780.000000	66.980125
781.000000	66.937164
782.000000	66.885994
783.000000	66.839418
784.000000	66.803348
785.000000	66.770514
786.000000	66.749658
787.000000	66.727271
788.000000	66.701938
789.000000	66.680356
790.000000	66.659762
791.000000	66.639905
792.000000	66.611946
793.000000	66.569634
794.000000	66.519850
795.000000	66.471636
796.000000	66.408856
797.000000	66.341589
798.000000	66.272181
799.000000	66.193158
800.000000	66.104512
801.000000	65.999634
802.000000	65.894940
803.000000	65.796166
804.000000	65.696259
805.000000	65.573229
806.000000	65.446788
807.000000	65.309967
808.000000	65.165044
809.000000	65.011932
810.000000	64.831142
811.000000	64.663562
812.000000	64.474941
813.000000	64.286117
814.000000	64.087127
815.000000	63.874986
816.000000	63.652049
817.000000	63.442146
818.000000	63.220246
819.000000	62.986164
820.000000	62.770699
821.000000	62.524202
822.000000	62.291390
823.000000	62.053208
824.000000	61.810956
825.000000	61.572697
826.000000	61.336309
827.000000	61.084492
828.000000	60.839323
829.000000	60.601093
830.000000	60.384135
831.000000	60.181695
832.000000	59.973285
833.000000	59.759012
834.000000	59.555748
835.000000	59.374687
836.000000	59.193073
837.000000	59.034863
838.000000	58.891724
839.000000	58.767395
840.000000	58.625273
841.000000	58.499103
842.000000	58.388788
843.000000	58.307439
844.000000	58.220984
845.000000	58.158185
846.000000	58.098438
847.000000	58.034040
848.000000	57.990681
849.000000	57.947807
850.000000	57.939560
851.000000	57.886035
852.000000	57.839944
853.000000	57.840516
854.000000	57.818788
855.000000	57.779160
856.000000	57.746152
857.000000	57.752500
858.000000	57.682054
859.000000	57.787098
860.000000	57.886057
861.000000	58.048681
862.000000	58.210478
863.000000	58.324526
864.000000	58.480819
865.000000	58.645020
866.000000	58.822846
867.000000	58.959987
868.000000	59.152700
869.000000	59.166400
870.000000	59.166700
871.000000	59.148220
872.000000	59.118990
873.000000	59.074670
874.000000	59.017520
875.000000	58.947110
876.000000	58.871250
877.000000	58.792750
878.000000	58.710140
879.000000	58.624840
880.000000	58.537320
881.000000	58.454930
882.000000	58.371550
883.000000	58.289100
884.000000	58.207540
885.000000	58.130320
886.000000	58.055960
887.000000	57.983460
888.000000	57.915710
889.000000	57.847670
890.000000	57.784010
891.000000	57.716740
892.000000	57.650850
893.000000	57.584610
894.000000	57.520150
895.000000	57.451700
896.000000	57.379240
897.000000	57.304400
898.000000	57.225890
899.000000	57.146310
900.000000	57.062850
901.000000	56.979150
902.000000	56.897900
903.000000	56.817110
904.000000	56.735740
905.000000	56.651980
906.000000	56.569640
907.000000	56.487230
908.000000	56.407150
909.000000	56.332630
910.000000	56.257040
911.000000	56.183130
912.000000	56.107670
913.000000	56.036850
914.000000	55.969050
915.000000	55.906250
916.000000	55.846500
917.000000	55.793790
918.000000	55.738750
919.000000	55.680200
920.000000	55.623170
921.000000	55.566520
922.000000	55.507090
923.000000	55.443150
924.000000	55.375770
925.000000	55.306580
926.000000	55.232470
927.000000	55.151990
928.000000	55.072320
929.000000	54.993060
930.000000	54.911000
931.000000	54.829180
932.000000	54.746750
933.000000	54.666310
934.000000	54.586180
935.000000	54.507050
936.000000	54.431760
937.000000	54.358000
938.000000	54.287310
939.000000	54.217720
940.000000	54.155230
941.000000	54.093430
942.000000	54.039640
943.000000	53.988020
944.000000	53.940440
945.000000	53.901790
946.000000	53.864610
947.000000	53.832570
948.000000	53.803760
949.000000	53.779620
950.000000	53.756210
951.000000	53.734970
952.000000	53.712350
953.000000	53.689800
954.000000	53.663920
955.000000	53.632660
956.000000	53.600290
957.000000	53.563250
958.000000	53.520370
959.000000	53.471290
960.000000	53.418360
961.000000	53.359780
962.000000	53.293210
963.000000	53.219280
964.000000	53.143710
965.000000	53.064400
966.000000	52.983470
967.000000	52.899700
968.000000	52.815170
969.000000	52.729670
970.000000	52.642170
971.000000	52.554900
972.000000	52.468520
973.000000	52.384630
974.000000	52.298740
975.000000	52.212530
976.000000	52.125560
977.000000	52.039180
978.000000	51.952050
979.000000	51.864270
980.000000	51.776970
981.000000	51.687380
982.000000	51.599070
983.000000	51.511780
984.000000	51.424130
985.000000	51.334890
986.000000	51.244500
987.000000	51.154730
988.000000	51.067020
989.000000	50.978730
990.000000	50.889930
991.000000	50.803700
992.000000	50.718590
993.000000	50.633680
994.000000	50.550600
995.000000	50.470720
996.000000	50.393770
997.000000	50.319390
998.000000	50.245950
999.000000	50.175540
1000.000000	50.108440
1001.000000	50.043460
1002.000000	49.980490
1003.000000	49.919730
1004.000000	49.860010
1005.000000	49.800790
1006.000000	49.742180
1007.000000	49.682610
1008.000000	49.622830
1009.000000	49.563710
1010.000000	49.505500
1011.000000	49.448140
1012.000000	49.393360
1013.000000	49.342920
1014.000000	49.298580
1015.000000	49.261440
1016.000000	49.232300
1017.000000	49.211780
1018.000000	49.202600
1019.000000	49.203950
1020.000000	49.215290
1021.000000	49.236680
1022.000000	49.266060
1023.000000	49.301830
1024.000000	49.345020
1025.000000	49.394150
1026.000000	49.446650
1027.000000	49.502920
1028.000000	49.559930
1029.000000	49.618900
1030.000000	49.678010
1031.000000	49.735760
1032.000000	49.793070
1033.000000	49.848100
1034.000000	49.899190
1035.000000	49.945600
1036.000000	49.990080
1037.000000	50.032410
1038.000000	50.071250
1039.000000	50.106660
1040.000000	50.139910
1041.000000	50.172370
1042.000000	50.203310
1043.000000	50.233270
1044.000000	50.262640
1045.000000	50.291470
1046.000000	50.319080
1047.000000	50.345760
1048.000000	50.373010
1049.000000	50.400360
1050.000000	50.427090
1051.000000	50.453570
1052.000000	50.480110
1053.000000	50.508650
1054.000000	50.539380
1055.000000	50.572520
1056.000000	50.609230
1057.000000	50.650250
1058.000000	50.694010
1059.000000	50.739040
1060.000000	50.786730
1061.000000	50.838310
1062.000000	50.892740
1063.000000	50.947380
1064.000000	51.003880
1065.000000	51.061320
1066.000000	51.118660
1067.000000	51.174170
1068.000000	51.230760
1069.000000	51.288580
1070.000000	51.344790
1071.000000	51.399620
1072.000000	51.454630
1073.000000	51.510540
1074.000000	51.564000
1075.000000	51.619650
1076.000000	51.675530
1077.000000	51.731830
1078.000000	51.787000
1079.000000	51.842290
1080.000000	51.899660
1081.000000	51.959460
1082.000000	52.019870
1083.000000	52.080960
1084.000000	52.145910
1085.000000	52.209800
1086.000000	52.274100
1087.000000	52.340250
1088.000000	52.405920
1089.000000	52.472980
1090.000000	52.539790
1091.000000	52.603760
1092.000000	52.666220
1093.000000	52.727590
1094.000000	52.786330
1095.000000	52.843870
1096.000000	52.898820
1097.000000	52.948270
1098.000000	52.996720
1099.000000	53.041660
1100.000000	53.082860
1101.000000	53.121200
1102.000000	53.155980
1103.000000	53.187690
1104.000000	53.215370
1105.000000	53.239700
1106.000000	53.260180
1107.000000	53.278400
1108.000000	53.293380
1109.000000	53.303210
1110.000000	53.311260
1111.000000	53.317160
1112.000000	53.321500
1113.000000	53.321700
1114.000000	53.321030
1115.000000	53.318450
1116.000000	53.317190
1117.000000	53.314470
1118.000000	53.307240
1119.000000	53.296330
1120.000000	53.280460
1121.000000	53.256690
1122.000000	53.224630
1123.000000	53.184670
1124.000000	53.132330
1125.000000	53.069020
1126.000000	52.991170
1127.000000	52.897500
1128.000000	52.788700
1129.000000	52.659070
1130.000000	52.502960
1131.000000	52.317230
1132.000000	52.095530
1133.000000	51.838230
1134.000000	51.549670
1135.000000	51.220290
1136.000000	50.848470
1137.000000	50.436700
1138.000000	49.984090
1139.000000	49.503560
1140.000000	49.001300
1141.000000	48.483810
1142.000000	47.960840
1143.000000	47.433290
1144.000000	46.906100
1145.000000	46.393040
1146.000000	45.907320
1147.000000	45.463360
1148.000000	45.073390
1149.000000	44.735270
1150.000000	44.452630
1151.000000	44.224960
1152.000000	44.045640
1153.000000	43.912740
1154.000000	43.810920
1155.000000	43.725650
1156.000000	43.640710
1157.000000	43.535010
1158.000000	43.395420
1159.000000	43.211390
1160.000000	42.974810
1161.000000	42.686800
1162.000000	42.350120
1163.000000	41.964460
1164.000000	41.538780
1165.000000	41.081990
1166.000000	40.600650
1167.000000	40.105550
1168.000000	39.602030
1169.000000	39.094230
