PE UV       SUBTECH     SPECTRUM    ASCII       PEDS        4.00        
   -1
CICIMAUCR0012-1.Sample.ASC
24/03/08
11:02:51.00
24/03/08
11:02:51.00
Vinicio Soto Monge
C. cupreomarginata
250,000000
1
Lambda 1050
1050L1511233
PerkinElmer UV WinLab 6.3.2.0749 / 2.02.05 Lambda 900 UV/VIS/NIR, Aug  7 2015 09:38:08

0
0
3350/servo 860,8/2
0
0
UV/VIS
1
1
1
DoubleDePol,CommonBeamDepol,RBeamAtt,SBeamAtt,60mm sphere, WB InGaAs Detector
0
0
0
0
Program
Program
3350/servo 860,8/2
3350/0,2 860,8/0,2
3350/0,2 860,8/0,2
0
15.00
 
 
 
0
 
860,8
319,2
860,8
Front
100
on
S:100 R:100
0
0
0
0
 
0
 
 
 
0
 
 
0
0
0
0
0
 
 
 
 
0
0


0
0
#HDR
-1
-1
#GR
nm
%R
1.0
0.0
2500,000000
-1,000000
2251
8
25,165700
2,391800
#DATA

250.000000	nan
251.000000	nan
252.000000	nan
253.000000	nan
254.000000	nan
255.000000	nan
256.000000	nan
257.000000	nan
258.000000	nan
259.000000	2.724652
260.000000	2.716777
261.000000	2.710491
262.000000	2.704344
263.000000	2.690898
264.000000	2.680451
265.000000	2.672149
266.000000	2.662486
267.000000	2.656845
268.000000	2.648950
269.000000	2.640062
270.000000	2.631830
271.000000	2.626517
272.000000	2.616189
273.000000	2.614044
274.000000	2.604739
275.000000	2.598304
276.000000	2.588770
277.000000	2.577956
278.000000	2.570557
279.000000	2.564470
280.000000	2.558223
281.000000	2.551391
282.000000	2.548799
283.000000	2.539454
284.000000	2.541510
285.000000	2.533834
286.000000	2.532850
287.000000	2.532811
288.000000	2.531579
289.000000	2.524300
290.000000	2.522056
291.000000	2.519742
292.000000	2.513992
293.000000	2.513416
294.000000	2.502879
295.000000	2.499444
296.000000	2.496931
297.000000	2.494061
298.000000	2.484210
299.000000	2.485769
300.000000	2.484269
301.000000	2.480426
302.000000	2.478073
303.000000	2.470356
304.000000	2.467576
305.000000	2.466851
306.000000	2.464746
307.000000	2.462471
308.000000	2.463733
309.000000	2.464686
310.000000	2.466066
311.000000	2.461955
312.000000	2.457367
313.000000	2.459164
314.000000	2.458569
315.000000	2.460406
316.000000	2.460892
317.000000	2.495670
318.000000	2.547280
319.000000	2.546952
320.000000	2.570975
321.000000	2.573527
322.000000	2.611462
323.000000	2.626835
324.000000	2.652307
325.000000	2.690550
326.000000	2.725526
327.000000	2.717582
328.000000	2.685784
329.000000	2.690252
330.000000	2.683499
331.000000	2.712795
332.000000	2.695645
333.000000	2.699339
334.000000	2.697462
335.000000	2.670997
336.000000	2.643210
337.000000	2.616159
338.000000	2.618602
339.000000	2.624143
340.000000	2.620251
341.000000	2.613835
342.000000	2.618294
343.000000	2.615801
344.000000	2.611134
345.000000	2.612058
346.000000	2.612644
347.000000	2.625792
348.000000	2.613071
349.000000	2.615474
350.000000	2.611432
351.000000	2.597112
352.000000	2.589962
353.000000	2.585642
354.000000	2.580419
355.000000	2.573904
356.000000	2.578055
357.000000	2.580965
358.000000	2.591084
359.000000	2.595344
360.000000	2.600181
361.000000	2.607877
362.000000	2.608979
363.000000	2.616437
364.000000	2.615871
365.000000	2.617718
366.000000	2.621323
367.000000	2.622068
368.000000	2.624988
369.000000	2.626825
370.000000	2.625137
371.000000	2.619000
372.000000	2.614302
373.000000	2.607043
374.000000	2.604679
375.000000	2.610082
376.000000	2.611085
377.000000	2.584798
378.000000	2.555979
379.000000	2.529732
380.000000	2.510844
381.000000	2.499950
382.000000	2.489413
383.000000	2.481379
384.000000	2.477675
385.000000	2.469542
386.000000	2.460316
387.000000	2.482869
388.000000	2.505581
389.000000	2.531281
390.000000	2.558859
391.000000	2.588363
392.000000	2.621124
393.000000	2.658047
394.000000	2.699349
395.000000	2.745209
396.000000	2.793502
397.000000	2.845738
398.000000	2.905531
399.000000	2.969435
400.000000	3.037996
401.000000	3.112805
402.000000	3.193730
403.000000	3.280207
404.000000	3.371132
405.000000	3.466001
406.000000	3.568009
407.000000	3.674635
408.000000	3.784350
409.000000	3.899198
410.000000	4.018526
411.000000	4.141260
412.000000	4.267350
413.000000	4.395307
414.000000	4.524903
415.000000	4.656873
416.000000	4.789160
417.000000	4.921527
418.000000	5.054062
419.000000	5.184909
420.000000	5.314128
421.000000	5.440983
422.000000	5.563766
423.000000	5.682825
424.000000	5.799790
425.000000	5.914430
426.000000	6.025078
427.000000	6.132280
428.000000	6.235540
429.000000	6.335761
430.000000	6.432138
431.000000	6.524961
432.000000	6.616532
433.000000	6.705303
434.000000	6.789614
435.000000	6.868325
436.000000	6.944315
437.000000	7.016760
438.000000	7.085510
439.000000	7.149732
440.000000	7.209406
441.000000	7.266081
442.000000	7.318247
443.000000	7.365666
444.000000	7.408626
445.000000	7.446978
446.000000	7.479601
447.000000	7.506384
448.000000	7.525660
449.000000	7.538609
450.000000	7.545998
451.000000	7.544578
452.000000	7.534727
453.000000	7.517527
454.000000	7.493733
455.000000	7.463692
456.000000	7.426849
457.000000	7.386222
458.000000	7.344345
459.000000	7.300491
460.000000	7.256031
461.000000	7.214471
462.000000	7.176754
463.000000	7.144975
464.000000	7.121181
465.000000	7.107288
466.000000	7.105729
467.000000	7.116226
468.000000	7.139652
469.000000	7.177051
470.000000	7.228860
471.000000	7.294999
472.000000	7.375160
473.000000	7.468141
474.000000	7.572523
475.000000	7.686468
476.000000	7.807692
477.000000	7.935729
478.000000	8.069426
479.000000	8.206947
480.000000	8.345500
481.000000	8.483358
482.000000	8.619797
483.000000	8.756394
484.000000	8.893031
485.000000	9.029012
486.000000	9.163613
487.000000	9.294669
488.000000	9.421583
489.000000	9.544814
490.000000	9.666832
491.000000	9.786984
492.000000	9.904038
493.000000	10.017456
494.000000	10.125840
495.000000	10.231831
496.000000	10.338179
497.000000	10.445977
498.000000	10.556417
499.000000	10.670243
500.000000	10.787256
501.000000	10.909225
502.000000	11.037510
503.000000	11.174723
504.000000	11.323177
505.000000	11.480699
506.000000	11.647624
507.000000	11.822097
508.000000	12.002161
509.000000	12.188322
510.000000	12.380015
511.000000	12.575124
512.000000	12.772735
513.000000	12.969900
514.000000	13.163976
515.000000	13.354437
516.000000	13.537808
517.000000	13.715041
518.000000	13.887627
519.000000	14.057095
520.000000	14.224219
521.000000	14.392763
522.000000	14.564992
523.000000	14.743517
524.000000	14.931694
525.000000	15.131480
526.000000	15.348079
527.000000	15.584430
528.000000	15.840851
529.000000	16.119885
530.000000	16.421401
531.000000	16.746116
532.000000	17.091566
533.000000	17.454177
534.000000	17.832328
535.000000	18.220471
536.000000	18.615207
537.000000	19.012505
538.000000	19.408811
539.000000	19.799525
540.000000	20.182205
541.000000	20.550446
542.000000	20.907297
543.000000	21.251476
544.000000	21.582189
545.000000	21.903110
546.000000	22.208728
547.000000	22.498040
548.000000	22.772485
549.000000	23.026980
550.000000	23.258544
551.000000	23.468986
552.000000	23.652685
553.000000	23.807803
554.000000	23.934687
555.000000	24.034084
556.000000	24.112100
557.000000	24.172012
558.000000	24.218150
559.000000	24.258489
560.000000	24.238240
561.000000	24.214982
562.000000	24.201208
563.000000	24.202221
564.000000	24.218776
565.000000	24.250047
566.000000	24.294448
567.000000	24.347607
568.000000	24.405761
569.000000	24.462217
570.000000	24.571127
571.000000	24.673503
572.000000	24.756047
573.000000	24.815642
574.000000	24.848363
575.000000	24.854252
576.000000	24.832137
577.000000	24.789891
578.000000	24.727099
579.000000	24.648299
580.000000	24.562825
581.000000	24.472794
582.000000	24.387806
583.000000	24.308172
584.000000	24.240176
585.000000	24.185001
586.000000	24.146490
587.000000	24.122338
588.000000	24.110014
589.000000	24.109438
590.000000	24.112676
591.000000	24.120521
592.000000	24.122557
593.000000	24.115069
594.000000	24.097234
595.000000	24.065753
596.000000	24.015702
597.000000	23.945939
598.000000	23.862958
599.000000	23.761029
600.000000	23.645306
601.000000	23.515353
602.000000	23.375697
603.000000	23.232565
604.000000	23.081519
605.000000	22.926123
606.000000	22.770608
607.000000	22.615878
608.000000	22.455924
609.000000	22.298154
610.000000	22.135449
611.000000	21.969715
612.000000	21.799026
613.000000	21.625159
614.000000	21.444767
615.000000	21.257653
616.000000	21.060270
617.000000	20.851536
618.000000	20.635096
619.000000	20.407275
620.000000	20.174310
621.000000	19.936410
622.000000	19.695173
623.000000	19.449129
624.000000	19.203275
625.000000	18.957499
626.000000	18.717166
627.000000	18.481808
628.000000	18.247989
629.000000	18.019612
630.000000	17.799637
631.000000	17.585669
632.000000	17.382387
633.000000	17.188709
634.000000	17.010144
635.000000	16.850806
636.000000	16.708032
637.000000	16.589697
638.000000	16.498801
639.000000	16.436536
640.000000	16.400855
641.000000	16.393377
642.000000	16.413010
643.000000	16.459664
644.000000	16.528623
645.000000	16.619122
646.000000	16.725510
647.000000	16.839842
648.000000	16.962884
649.000000	17.089898
650.000000	17.220904
651.000000	17.353062
652.000000	17.484564
653.000000	17.615402
654.000000	17.746100
655.000000	17.872786
656.000000	17.999790
657.000000	18.130578
658.000000	18.261375
659.000000	18.391925
660.000000	18.522672
661.000000	18.653093
662.000000	18.777614
663.000000	18.899295
664.000000	19.012545
665.000000	19.114007
666.000000	19.208438
667.000000	19.291708
668.000000	19.364539
669.000000	19.427451
670.000000	19.477919
671.000000	19.517929
672.000000	19.552180
673.000000	19.580245
674.000000	19.602569
675.000000	19.621507
676.000000	19.635479
677.000000	19.647813
678.000000	19.662183
679.000000	19.678281
680.000000	19.695481
681.000000	19.713495
682.000000	19.732175
683.000000	19.747200
684.000000	19.762156
685.000000	19.778710
686.000000	19.799495
687.000000	19.816139
688.000000	19.826189
689.000000	19.834719
690.000000	19.842644
691.000000	19.850400
692.000000	19.859636
693.000000	19.872595
694.000000	19.890441
695.000000	19.914165
696.000000	19.937731
697.000000	19.967265
698.000000	20.006620
699.000000	20.050246
700.000000	20.100327
701.000000	20.156932
702.000000	20.215185
703.000000	20.274799
704.000000	20.335277
705.000000	20.392955
706.000000	20.453443
707.000000	20.513147
708.000000	20.569811
709.000000	20.625026
710.000000	20.676427
711.000000	20.725366
712.000000	20.775804
713.000000	20.822439
714.000000	20.868587
715.000000	20.916244
716.000000	20.960059
717.000000	21.004251
718.000000	21.048730
719.000000	21.088691
720.000000	21.126001
721.000000	21.159905
722.000000	21.188863
723.000000	21.216838
724.000000	21.241337
725.000000	21.257603
726.000000	21.269093
727.000000	21.274833
728.000000	21.273860
729.000000	21.274684
730.000000	21.274883
731.000000	21.272599
732.000000	21.269838
733.000000	21.268030
734.000000	21.265816
735.000000	21.270305
736.000000	21.279570
737.000000	21.295737
738.000000	21.320941
739.000000	21.345251
740.000000	21.367457
741.000000	21.394041
742.000000	21.426257
743.000000	21.459405
744.000000	21.491313
745.000000	21.521581
746.000000	21.546259
747.000000	21.562685
748.000000	21.575386
749.000000	21.591325
750.000000	21.612299
751.000000	21.632399
752.000000	21.649291
753.000000	21.668447
754.000000	21.690434
755.000000	21.713642
756.000000	21.746493
757.000000	21.785441
758.000000	21.821003
759.000000	21.852831
760.000000	21.881262
761.000000	21.906675
762.000000	21.928880
763.000000	21.949774
764.000000	21.968782
765.000000	21.981324
766.000000	21.987581
767.000000	21.992884
768.000000	21.996916
769.000000	22.004423
770.000000	22.018018
771.000000	22.036599
772.000000	22.054683
773.000000	22.077920
774.000000	22.105736
775.000000	22.141507
776.000000	22.182342
777.000000	22.224319
778.000000	22.272781
779.000000	22.325751
780.000000	22.378176
781.000000	22.424433
782.000000	22.471763
783.000000	22.516918
784.000000	22.565549
785.000000	22.615858
786.000000	22.659354
787.000000	22.706446
788.000000	22.754838
789.000000	22.803767
790.000000	22.849220
791.000000	22.901892
792.000000	22.968805
793.000000	23.032729
794.000000	23.093277
795.000000	23.151749
796.000000	23.215634
797.000000	23.271464
798.000000	23.327404
799.000000	23.379729
800.000000	23.433096
801.000000	23.484230
802.000000	23.523684
803.000000	23.563328
804.000000	23.603399
805.000000	23.641413
806.000000	23.678415
807.000000	23.715089
808.000000	23.759082
809.000000	23.814466
810.000000	23.866950
811.000000	23.915501
812.000000	23.956247
813.000000	24.003775
814.000000	24.047898
815.000000	24.095307
816.000000	24.142935
817.000000	24.188010
818.000000	24.227544
819.000000	24.249700
820.000000	24.273941
821.000000	24.299383
822.000000	24.336643
823.000000	24.368610
824.000000	24.389574
825.000000	24.409435
826.000000	24.423964
827.000000	24.446696
828.000000	24.457351
829.000000	24.470589
830.000000	24.480241
831.000000	24.484700
832.000000	24.489328
833.000000	24.484502
834.000000	24.480738
835.000000	24.473916
836.000000	24.466795
837.000000	24.457163
838.000000	24.439635
839.000000	24.419495
840.000000	24.406645
841.000000	24.396625
842.000000	24.382295
843.000000	24.372533
844.000000	24.374549
845.000000	24.351529
846.000000	24.318669
847.000000	24.289999
848.000000	24.257227
849.000000	24.215230
850.000000	24.156053
851.000000	24.104751
852.000000	24.045177
853.000000	23.992484
854.000000	23.947756
855.000000	23.907547
856.000000	23.865758
857.000000	23.818677
858.000000	23.818945
859.000000	23.848382
860.000000	23.885094
861.000000	23.915184
862.000000	23.955537
863.000000	23.994930
864.000000	24.024149
865.000000	24.076251
866.000000	24.146654
867.000000	24.220011
868.000000	24.262880
869.000000	24.289670
870.000000	24.320160
871.000000	24.354730
872.000000	24.383400
873.000000	24.410520
874.000000	24.435540
875.000000	24.461460
876.000000	24.484490
877.000000	24.504230
878.000000	24.526720
879.000000	24.543470
880.000000	24.557780
881.000000	24.569420
882.000000	24.580440
883.000000	24.589880
884.000000	24.598120
885.000000	24.598640
886.000000	24.591040
887.000000	24.580430
888.000000	24.562470
889.000000	24.542880
890.000000	24.519810
891.000000	24.489490
892.000000	24.454870
893.000000	24.414230
894.000000	24.368430
895.000000	24.321910
896.000000	24.273910
897.000000	24.221120
898.000000	24.164850
899.000000	24.107970
900.000000	24.049870
901.000000	23.989830
902.000000	23.928060
903.000000	23.861370
904.000000	23.795930
905.000000	23.729650
906.000000	23.665470
907.000000	23.598920
908.000000	23.535450
909.000000	23.472630
910.000000	23.415360
911.000000	23.362370
912.000000	23.312940
913.000000	23.268990
914.000000	23.226140
915.000000	23.189930
916.000000	23.158360
917.000000	23.131400
918.000000	23.106280
919.000000	23.083340
920.000000	23.061340
921.000000	23.040570
922.000000	23.022390
923.000000	23.003270
924.000000	22.988330
925.000000	22.967790
926.000000	22.946170
927.000000	22.927840
928.000000	22.909420
929.000000	22.891150
930.000000	22.871080
931.000000	22.850830
932.000000	22.832640
933.000000	22.815900
934.000000	22.798960
935.000000	22.783630
936.000000	22.770540
937.000000	22.757210
938.000000	22.745320
939.000000	22.732780
940.000000	22.720410
941.000000	22.708590
942.000000	22.696190
943.000000	22.684230
944.000000	22.671630
945.000000	22.658720
946.000000	22.644460
947.000000	22.632370
948.000000	22.619220
949.000000	22.608440
950.000000	22.599630
951.000000	22.591250
952.000000	22.582590
953.000000	22.575590
954.000000	22.567730
955.000000	22.561470
956.000000	22.555910
957.000000	22.549110
958.000000	22.542120
959.000000	22.533760
960.000000	22.524130
961.000000	22.514450
962.000000	22.505460
963.000000	22.493300
964.000000	22.483410
965.000000	22.471870
966.000000	22.459190
967.000000	22.448070
968.000000	22.438980
969.000000	22.432620
970.000000	22.426760
971.000000	22.423490
972.000000	22.418720
973.000000	22.418000
974.000000	22.416320
975.000000	22.418130
976.000000	22.421280
977.000000	22.425950
978.000000	22.429440
979.000000	22.432640
980.000000	22.437170
981.000000	22.441540
982.000000	22.450480
983.000000	22.458820
984.000000	22.468080
985.000000	22.478190
986.000000	22.489690
987.000000	22.500030
988.000000	22.511880
989.000000	22.525110
990.000000	22.540340
991.000000	22.556140
992.000000	22.569350
993.000000	22.584160
994.000000	22.600920
995.000000	22.616640
996.000000	22.633120
997.000000	22.651540
998.000000	22.671760
999.000000	22.691540
1000.000000	22.710440
1001.000000	22.729210
1002.000000	22.748500
1003.000000	22.767120
1004.000000	22.786790
1005.000000	22.809770
1006.000000	22.831010
1007.000000	22.849810
1008.000000	22.867550
1009.000000	22.885650
1010.000000	22.904530
1011.000000	22.923210
1012.000000	22.940910
1013.000000	22.959600
1014.000000	22.976280
1015.000000	22.990190
1016.000000	23.005390
1017.000000	23.021780
1018.000000	23.038620
1019.000000	23.057590
1020.000000	23.076800
1021.000000	23.095880
1022.000000	23.117950
1023.000000	23.141000
1024.000000	23.163530
1025.000000	23.186960
1026.000000	23.210280
1027.000000	23.234320
1028.000000	23.258990
1029.000000	23.280470
1030.000000	23.301690
1031.000000	23.323860
1032.000000	23.343980
1033.000000	23.362630
1034.000000	23.380640
1035.000000	23.397470
1036.000000	23.412110
1037.000000	23.425750
1038.000000	23.439800
1039.000000	23.453570
1040.000000	23.464740
1041.000000	23.475790
1042.000000	23.487140
1043.000000	23.495700
1044.000000	23.504650
1045.000000	23.513550
1046.000000	23.523360
1047.000000	23.532370
1048.000000	23.540110
1049.000000	23.548080
1050.000000	23.557540
1051.000000	23.566440
1052.000000	23.572940
1053.000000	23.581590
1054.000000	23.591920
1055.000000	23.602160
1056.000000	23.613230
1057.000000	23.626700
1058.000000	23.640640
1059.000000	23.657290
1060.000000	23.672520
1061.000000	23.687560
1062.000000	23.707430
1063.000000	23.728720
1064.000000	23.750420
1065.000000	23.771280
1066.000000	23.791010
1067.000000	23.811750
1068.000000	23.832780
1069.000000	23.850980
1070.000000	23.872330
1071.000000	23.896330
1072.000000	23.918010
1073.000000	23.938700
1074.000000	23.959150
1075.000000	23.981690
1076.000000	24.006420
1077.000000	24.029460
1078.000000	24.052200
1079.000000	24.076530
1080.000000	24.099620
1081.000000	24.121430
1082.000000	24.144270
1083.000000	24.166700
1084.000000	24.189290
1085.000000	24.213450
1086.000000	24.236250
1087.000000	24.258800
1088.000000	24.282120
1089.000000	24.305180
1090.000000	24.327030
1091.000000	24.348260
1092.000000	24.368860
1093.000000	24.387770
1094.000000	24.407090
1095.000000	24.427520
1096.000000	24.446910
1097.000000	24.464650
1098.000000	24.482800
1099.000000	24.500290
1100.000000	24.516980
1101.000000	24.531860
1102.000000	24.545660
1103.000000	24.560080
1104.000000	24.572340
1105.000000	24.579400
1106.000000	24.585790
1107.000000	24.595150
1108.000000	24.600660
1109.000000	24.603050
1110.000000	24.606280
1111.000000	24.609370
1112.000000	24.609970
1113.000000	24.609980
1114.000000	24.609630
1115.000000	24.610370
1116.000000	24.611150
1117.000000	24.609500
1118.000000	24.608150
1119.000000	24.607430
1120.000000	24.604700
1121.000000	24.599350
1122.000000	24.594090
1123.000000	24.588560
1124.000000	24.580680
1125.000000	24.571090
1126.000000	24.557880
1127.000000	24.538360
1128.000000	24.515000
1129.000000	24.486140
1130.000000	24.454010
1131.000000	24.414400
1132.000000	24.365670
1133.000000	24.306660
1134.000000	24.239600
1135.000000	24.163930
1136.000000	24.081450
1137.000000	23.992500
1138.000000	23.893720
1139.000000	23.786440
1140.000000	23.672910
1141.000000	23.558950
1142.000000	23.443310
1143.000000	23.326530
1144.000000	23.209780
1145.000000	23.093690
1146.000000	22.983060
1147.000000	22.881960
1148.000000	22.791510
1149.000000	22.714170
1150.000000	22.646090
1151.000000	22.588870
1152.000000	22.542280
1153.000000	22.509290
1154.000000	22.484360
1155.000000	22.464600
1156.000000	22.444380
1157.000000	22.420410
1158.000000	22.390970
1159.000000	22.350810
1160.000000	22.301070
1161.000000	22.238960
1162.000000	22.167250
1163.000000	22.082410
1164.000000	21.984680
1165.000000	21.878340
1166.000000	21.766440
1167.000000	21.647050
1168.000000	21.524200
1169.000000	21.403090
1170.000000	21.280960
1171.000000	21.159860
1172.000000	21.038280
1173.000000	20.916740
