PE UV       SUBTECH     SPECTRUM    ASCII       PEDS        4.00        
   -1
CICIMAUCR0100-1.ASC
24/04/03
15:40:25.00
24/04/03
15:40:25.00
Vinicio Soto Monge
C. cupreomarginata
250,000000
1
Lambda 1050
1050L1511233
PerkinElmer UV WinLab 6.3.2.0749 / 2.02.05 Lambda 900 UV/VIS/NIR, Aug  7 2015 09:38:08

0
0
3350/servo 860,8/2
0
0
UV/VIS
1
1
1
DoubleDePol,CommonBeamDepol,RBeamAtt,SBeamAtt,60mm sphere, WB InGaAs Detector
0
0
0
0
Program
Program
3350/servo 860,8/2
3350/0,2 860,8/0,2
3350/0,2 860,8/0,2
0
15.00
 
 
 
0
 
860,8
319,2
860,8
Front
100
on
S:100 R:100
0
0
0
0
 
0
 
 
 
0
 
 
0
0
0
0
0
 
 
 
 
0
0


0
0
#HDR
-1
-1
#GR
nm
%R
1.0
0.0
2500,000000
-1,000000
2251
8
57,680700
4,945700
#DATA

250.000000	nan
251.000000	nan
252.000000	nan
253.000000	nan
254.000000	nan
255.000000	nan
256.000000	nan
257.000000	nan
258.000000	nan
259.000000	5.235325
260.000000	5.226030
261.000000	5.214909
262.000000	5.200790
263.000000	5.193636
264.000000	5.175103
265.000000	5.166664
266.000000	5.144154
267.000000	5.126906
268.000000	5.107726
269.000000	5.081972
270.000000	5.063515
271.000000	5.052821
272.000000	5.034526
273.000000	5.013691
274.000000	4.998116
275.000000	4.983684
276.000000	4.975578
277.000000	4.959519
278.000000	4.953534
279.000000	4.947931
280.000000	4.936238
281.000000	4.923547
282.000000	4.918695
283.000000	4.916706
284.000000	4.908905
285.000000	4.894215
286.000000	4.889401
287.000000	4.885815
288.000000	4.872419
289.000000	4.869670
290.000000	4.868519
291.000000	4.870155
292.000000	4.864028
293.000000	4.850328
294.000000	4.843706
295.000000	4.847169
296.000000	4.845590
297.000000	4.840167
298.000000	4.840434
299.000000	4.832689
300.000000	4.826001
301.000000	4.821520
302.000000	4.810684
303.000000	4.811388
304.000000	4.805137
305.000000	4.796736
306.000000	4.793273
307.000000	4.791494
308.000000	4.794396
309.000000	4.790562
310.000000	4.787109
311.000000	4.782922
312.000000	4.779136
313.000000	4.772372
314.000000	4.773589
315.000000	4.774826
316.000000	4.775587
317.000000	4.839806
318.000000	4.869841
319.000000	4.936343
320.000000	5.006945
321.000000	5.077900
322.000000	5.130416
323.000000	5.167254
324.000000	5.182429
325.000000	5.229218
326.000000	5.227991
327.000000	5.187614
328.000000	5.160233
329.000000	5.118096
330.000000	5.088061
331.000000	5.045153
332.000000	5.017249
333.000000	5.003254
334.000000	5.002616
335.000000	4.973228
336.000000	4.972895
337.000000	4.961536
338.000000	4.964732
339.000000	4.955979
340.000000	4.936200
341.000000	4.909390
342.000000	4.890895
343.000000	4.873589
344.000000	4.864247
345.000000	4.851099
346.000000	4.870507
347.000000	4.870126
348.000000	4.865617
349.000000	4.847550
350.000000	4.839168
351.000000	4.855113
352.000000	4.863039
353.000000	4.878603
354.000000	4.897317
355.000000	4.911740
356.000000	4.904367
357.000000	4.908524
358.000000	4.917077
359.000000	4.935296
360.000000	4.943126
361.000000	4.940986
362.000000	4.952573
363.000000	4.941014
364.000000	4.935372
365.000000	4.930264
366.000000	4.930692
367.000000	4.932328
368.000000	4.936942
369.000000	4.942946
370.000000	4.939197
371.000000	4.941300
372.000000	4.935116
373.000000	4.935468
374.000000	4.931891
375.000000	4.947103
376.000000	4.972715
377.000000	4.988203
378.000000	5.001827
379.000000	5.018019
380.000000	5.042736
381.000000	5.064561
382.000000	5.095681
383.000000	5.134555
384.000000	5.170346
385.000000	5.193465
386.000000	5.204776
387.000000	5.226972
388.000000	5.252032
389.000000	5.279774
390.000000	5.311484
391.000000	5.344478
392.000000	5.380336
393.000000	5.420170
394.000000	5.463363
395.000000	5.512084
396.000000	5.565628
397.000000	5.627477
398.000000	5.695273
399.000000	5.769196
400.000000	5.847856
401.000000	5.934042
402.000000	6.028772
403.000000	6.133386
404.000000	6.248713
405.000000	6.371309
406.000000	6.503200
407.000000	6.643834
408.000000	6.792478
409.000000	6.949714
410.000000	7.116292
411.000000	7.292260
412.000000	7.475478
413.000000	7.665128
414.000000	7.860428
415.000000	8.060057
416.000000	8.264453
417.000000	8.472521
418.000000	8.683396
419.000000	8.898248
420.000000	9.115516
421.000000	9.332565
422.000000	9.549452
423.000000	9.764818
424.000000	9.977947
425.000000	10.190458
426.000000	10.400144
427.000000	10.606585
428.000000	10.811019
429.000000	11.011343
430.000000	11.206139
431.000000	11.396216
432.000000	11.583364
433.000000	11.767362
434.000000	11.945490
435.000000	12.119451
436.000000	12.289244
437.000000	12.452578
438.000000	12.611032
439.000000	12.765385
440.000000	12.915913
441.000000	13.063321
442.000000	13.203688
443.000000	13.337510
444.000000	13.467308
445.000000	13.589380
446.000000	13.703366
447.000000	13.811814
448.000000	13.911643
449.000000	14.002272
450.000000	14.084282
451.000000	14.153771
452.000000	14.213651
453.000000	14.262714
454.000000	14.299419
455.000000	14.326857
456.000000	14.343316
457.000000	14.350061
458.000000	14.350442
459.000000	14.343525
460.000000	14.329968
461.000000	14.315250
462.000000	14.300170
463.000000	14.286061
464.000000	14.276804
465.000000	14.275472
466.000000	14.284967
467.000000	14.304908
468.000000	14.336675
469.000000	14.384320
470.000000	14.449509
471.000000	14.532527
472.000000	14.632851
473.000000	14.751470
474.000000	14.889868
475.000000	15.045791
476.000000	15.217449
477.000000	15.404910
478.000000	15.607422
479.000000	15.822293
480.000000	16.047543
481.000000	16.281270
482.000000	16.521571
483.000000	16.767105
484.000000	17.012667
485.000000	17.255328
486.000000	17.496466
487.000000	17.733980
488.000000	17.964824
489.000000	18.190160
490.000000	18.408560
491.000000	18.617418
492.000000	18.819254
493.000000	19.014945
494.000000	19.208267
495.000000	19.400599
496.000000	19.591333
497.000000	19.783941
498.000000	19.979146
499.000000	20.177006
500.000000	20.381468
501.000000	20.598651
502.000000	20.827421
503.000000	21.068198
504.000000	21.320248
505.000000	21.584981
506.000000	21.861644
507.000000	22.148896
508.000000	22.448003
509.000000	22.759705
510.000000	23.083338
511.000000	23.413288
512.000000	23.748034
513.000000	24.086118
514.000000	24.427694
515.000000	24.770060
516.000000	25.111360
517.000000	25.452213
518.000000	25.791830
519.000000	26.127954
520.000000	26.457895
521.000000	26.783174
522.000000	27.107711
523.000000	27.432029
524.000000	27.756328
525.000000	28.086744
526.000000	28.427949
527.000000	28.782417
528.000000	29.155132
529.000000	29.549301
530.000000	29.972116
531.000000	30.428914
532.000000	30.920276
533.000000	31.451568
534.000000	32.028565
535.000000	32.649820
536.000000	33.317132
537.000000	34.029796
538.000000	34.786110
539.000000	35.584970
540.000000	36.418375
541.000000	37.284735
542.000000	38.178601
543.000000	39.086956
544.000000	40.005243
545.000000	40.925509
546.000000	41.840905
547.000000	42.741487
548.000000	43.619150
549.000000	44.468918
550.000000	45.289203
551.000000	46.072251
552.000000	46.813010
553.000000	47.518254
554.000000	48.180951
555.000000	48.803605
556.000000	49.385492
557.000000	49.925489
558.000000	50.428506
559.000000	50.893486
560.000000	51.336880
561.000000	51.746147
562.000000	52.121840
563.000000	52.463873
564.000000	52.771123
565.000000	53.045864
566.000000	53.288182
567.000000	53.502995
568.000000	53.689048
569.000000	53.853372
570.000000	53.978450
571.000000	54.082865
572.000000	54.174084
573.000000	54.250718
574.000000	54.317353
575.000000	54.377671
576.000000	54.437247
577.000000	54.493988
578.000000	54.548569
579.000000	54.601066
580.000000	54.653183
581.000000	54.697984
582.000000	54.735212
583.000000	54.761384
584.000000	54.778366
585.000000	54.776787
586.000000	54.753098
587.000000	54.707317
588.000000	54.645429
589.000000	54.558463
590.000000	54.448464
591.000000	54.319104
592.000000	54.174731
593.000000	54.019313
594.000000	53.852744
595.000000	53.684501
596.000000	53.517618
597.000000	53.356539
598.000000	53.195507
599.000000	53.048899
600.000000	52.909369
601.000000	52.778429
602.000000	52.652647
603.000000	52.529233
604.000000	52.410880
605.000000	52.286477
606.000000	52.150381
607.000000	52.005809
608.000000	51.851969
609.000000	51.677504
610.000000	51.489425
611.000000	51.283554
612.000000	51.058818
613.000000	50.823959
614.000000	50.570386
615.000000	50.306719
616.000000	50.030760
617.000000	49.743917
618.000000	49.452859
619.000000	49.149348
620.000000	48.837122
621.000000	48.517827
622.000000	48.184681
623.000000	47.837682
624.000000	47.472397
625.000000	47.090644
626.000000	46.698844
627.000000	46.287645
628.000000	45.852776
629.000000	45.399640
630.000000	44.927115
631.000000	44.440443
632.000000	43.944334
633.000000	43.434990
634.000000	42.923354
635.000000	42.413610
636.000000	41.901612
637.000000	41.398967
638.000000	40.911762
639.000000	40.442653
640.000000	39.997718
641.000000	39.580840
642.000000	39.197954
643.000000	38.859166
644.000000	38.568945
645.000000	38.329253
646.000000	38.151201
647.000000	38.029842
648.000000	37.968269
649.000000	37.975642
650.000000	38.042467
651.000000	38.169391
652.000000	38.351239
653.000000	38.576918
654.000000	38.841888
655.000000	39.137760
656.000000	39.454191
657.000000	39.785311
658.000000	40.120228
659.000000	40.452261
660.000000	40.778739
661.000000	41.092877
662.000000	41.394676
663.000000	41.679397
664.000000	41.947622
665.000000	42.197684
666.000000	42.428338
667.000000	42.642029
668.000000	42.842962
669.000000	43.027340
670.000000	43.194718
671.000000	43.347653
672.000000	43.483711
673.000000	43.605935
674.000000	43.710121
675.000000	43.793292
676.000000	43.862410
677.000000	43.914755
678.000000	43.942241
679.000000	43.953753
680.000000	43.954019
681.000000	43.932165
682.000000	43.895832
683.000000	43.847492
684.000000	43.790228
685.000000	43.728730
686.000000	43.662638
687.000000	43.592539
688.000000	43.526732
689.000000	43.458613
690.000000	43.388772
691.000000	43.326970
692.000000	43.272284
693.000000	43.224286
694.000000	43.179362
695.000000	43.136036
696.000000	43.097039
697.000000	43.067374
698.000000	43.045426
699.000000	43.033838
700.000000	43.026275
701.000000	43.030213
702.000000	43.045540
703.000000	43.069239
704.000000	43.103936
705.000000	43.156348
706.000000	43.221128
707.000000	43.294052
708.000000	43.378420
709.000000	43.469249
710.000000	43.577527
711.000000	43.689904
712.000000	43.804689
713.000000	43.923346
714.000000	44.044496
715.000000	44.164247
716.000000	44.282295
717.000000	44.400266
718.000000	44.510028
719.000000	44.615793
720.000000	44.707241
721.000000	44.797166
722.000000	44.885635
723.000000	44.971812
724.000000	45.054963
725.000000	45.124595
726.000000	45.185407
727.000000	45.240188
728.000000	45.291221
729.000000	45.334442
730.000000	45.379728
731.000000	45.419562
732.000000	45.446848
733.000000	45.465924
734.000000	45.475390
735.000000	45.480242
736.000000	45.481878
737.000000	45.481079
738.000000	45.470195
739.000000	45.454421
740.000000	45.438552
741.000000	45.417393
742.000000	45.393866
743.000000	45.367522
744.000000	45.340740
745.000000	45.317945
746.000000	45.292923
747.000000	45.260272
748.000000	45.228867
749.000000	45.198803
750.000000	45.160224
751.000000	45.117336
752.000000	45.074913
753.000000	45.032253
754.000000	44.983266
755.000000	44.935469
756.000000	44.894787
757.000000	44.860471
758.000000	44.829437
759.000000	44.801827
760.000000	44.789307
761.000000	44.778870
762.000000	44.767435
763.000000	44.762830
764.000000	44.770612
765.000000	44.788308
766.000000	44.802427
767.000000	44.818990
768.000000	44.842937
769.000000	44.876207
770.000000	44.907974
771.000000	44.948855
772.000000	45.000039
773.000000	45.056666
774.000000	45.123434
775.000000	45.186092
776.000000	45.264391
777.000000	45.361014
778.000000	45.460872
779.000000	45.560767
780.000000	45.661281
781.000000	45.763802
782.000000	45.871461
783.000000	45.986046
784.000000	46.097292
785.000000	46.213504
786.000000	46.325529
787.000000	46.429991
788.000000	46.544006
789.000000	46.662158
790.000000	46.790196
791.000000	46.928917
792.000000	47.067487
793.000000	47.212145
794.000000	47.363434
795.000000	47.511346
796.000000	47.666651
797.000000	47.829937
798.000000	47.993709
799.000000	48.161286
800.000000	48.316657
801.000000	48.463798
802.000000	48.616134
803.000000	48.761820
804.000000	48.901797
805.000000	49.043830
806.000000	49.189325
807.000000	49.328446
808.000000	49.472781
809.000000	49.626344
810.000000	49.786139
811.000000	49.948788
812.000000	50.101371
813.000000	50.250644
814.000000	50.405767
815.000000	50.558979
816.000000	50.696264
817.000000	50.819896
818.000000	50.934510
819.000000	51.041588
820.000000	51.141265
821.000000	51.222970
822.000000	51.311030
823.000000	51.398853
824.000000	51.474460
825.000000	51.543968
826.000000	51.608710
827.000000	51.690167
828.000000	51.761959
829.000000	51.835777
830.000000	51.890824
831.000000	51.960037
832.000000	52.024523
833.000000	52.079103
834.000000	52.132590
835.000000	52.177867
836.000000	52.254016
837.000000	52.306646
838.000000	52.346738
839.000000	52.378990
840.000000	52.432401
841.000000	52.480046
842.000000	52.527235
843.000000	52.573063
844.000000	52.615647
845.000000	52.663644
846.000000	52.684965
847.000000	52.735132
848.000000	52.760201
849.000000	52.788276
850.000000	52.838347
851.000000	52.872341
852.000000	52.869924
853.000000	52.873406
854.000000	52.897762
855.000000	52.912175
856.000000	52.879000
857.000000	52.892034
858.000000	52.797628
859.000000	52.928556
860.000000	53.036285
861.000000	53.167335
862.000000	53.335122
863.000000	53.500141
864.000000	53.651315
865.000000	53.819471
866.000000	54.029001
867.000000	54.173456
868.000000	54.458300
869.000000	54.504350
870.000000	54.545080
871.000000	54.576850
872.000000	54.601610
873.000000	54.622180
874.000000	54.638230
875.000000	54.653440
876.000000	54.671990
877.000000	54.687570
878.000000	54.707620
879.000000	54.728230
880.000000	54.751180
881.000000	54.776860
882.000000	54.802260
883.000000	54.824190
884.000000	54.843920
885.000000	54.861220
886.000000	54.876270
887.000000	54.889090
888.000000	54.893170
889.000000	54.893360
890.000000	54.887070
891.000000	54.871710
892.000000	54.852770
893.000000	54.832950
894.000000	54.807580
895.000000	54.774560
896.000000	54.734420
897.000000	54.690150
898.000000	54.641870
899.000000	54.587860
900.000000	54.528310
901.000000	54.466240
902.000000	54.400150
903.000000	54.328200
904.000000	54.255460
905.000000	54.179200
906.000000	54.103330
907.000000	54.026170
908.000000	53.952360
909.000000	53.882970
910.000000	53.822460
911.000000	53.765240
912.000000	53.713650
913.000000	53.673170
914.000000	53.639600
915.000000	53.616560
916.000000	53.600420
917.000000	53.591580
918.000000	53.586200
919.000000	53.585170
920.000000	53.579660
921.000000	53.575810
922.000000	53.570470
923.000000	53.559260
924.000000	53.544790
925.000000	53.528390
926.000000	53.504800
927.000000	53.477600
928.000000	53.447230
929.000000	53.416010
930.000000	53.384090
931.000000	53.350530
932.000000	53.319190
933.000000	53.285960
934.000000	53.252310
935.000000	53.217690
936.000000	53.186100
937.000000	53.150740
938.000000	53.115440
939.000000	53.074880
940.000000	53.033060
941.000000	52.990850
942.000000	52.946380
943.000000	52.903320
944.000000	52.855000
945.000000	52.806790
946.000000	52.760110
947.000000	52.715650
948.000000	52.670900
949.000000	52.628020
950.000000	52.588730
951.000000	52.545660
952.000000	52.501640
953.000000	52.452970
954.000000	52.408170
955.000000	52.357770
956.000000	52.298570
957.000000	52.235330
958.000000	52.167140
959.000000	52.088060
960.000000	51.999320
961.000000	51.904980
962.000000	51.802580
963.000000	51.697030
964.000000	51.583710
965.000000	51.466800
966.000000	51.348870
967.000000	51.231270
968.000000	51.113100
969.000000	50.998260
970.000000	50.885550
971.000000	50.775760
972.000000	50.668420
973.000000	50.563990
974.000000	50.461820
975.000000	50.360300
976.000000	50.260480
977.000000	50.161070
978.000000	50.061060
979.000000	49.961850
980.000000	49.864510
981.000000	49.769440
982.000000	49.676000
983.000000	49.584650
984.000000	49.495680
985.000000	49.411250
986.000000	49.328920
987.000000	49.246950
988.000000	49.169300
989.000000	49.097620
990.000000	49.030120
991.000000	48.966500
992.000000	48.904180
993.000000	48.843810
994.000000	48.788270
995.000000	48.733680
996.000000	48.681620
997.000000	48.631900
998.000000	48.582680
999.000000	48.533850
1000.000000	48.484190
1001.000000	48.432820
1002.000000	48.381470
1003.000000	48.329060
1004.000000	48.274420
1005.000000	48.217950
1006.000000	48.158240
1007.000000	48.095760
1008.000000	48.030960
1009.000000	47.960520
1010.000000	47.887930
1011.000000	47.814680
1012.000000	47.739020
1013.000000	47.662300
1014.000000	47.584310
1015.000000	47.508500
1016.000000	47.436500
1017.000000	47.367960
1018.000000	47.303290
1019.000000	47.245230
1020.000000	47.191160
1021.000000	47.141060
1022.000000	47.096650
1023.000000	47.057620
1024.000000	47.024250
1025.000000	46.993920
1026.000000	46.966330
1027.000000	46.941750
1028.000000	46.920520
1029.000000	46.901480
1030.000000	46.883160
1031.000000	46.865570
1032.000000	46.849560
1033.000000	46.834940
1034.000000	46.820940
1035.000000	46.807590
1036.000000	46.793410
1037.000000	46.780900
1038.000000	46.770240
1039.000000	46.758880
1040.000000	46.748580
1041.000000	46.740210
1042.000000	46.733850
1043.000000	46.728740
1044.000000	46.725170
1045.000000	46.723190
1046.000000	46.724750
1047.000000	46.728930
1048.000000	46.733510
1049.000000	46.741200
1050.000000	46.752910
1051.000000	46.767800
1052.000000	46.784830
1053.000000	46.806900
1054.000000	46.832980
1055.000000	46.863650
1056.000000	46.899670
1057.000000	46.938110
1058.000000	46.980780
1059.000000	47.027380
1060.000000	47.076260
1061.000000	47.127780
1062.000000	47.180830
1063.000000	47.233530
1064.000000	47.285530
1065.000000	47.337150
1066.000000	47.385970
1067.000000	47.434610
1068.000000	47.482220
1069.000000	47.528430
1070.000000	47.573400
1071.000000	47.617280
1072.000000	47.661040
1073.000000	47.704680
1074.000000	47.746370
1075.000000	47.787570
1076.000000	47.829230
1077.000000	47.868820
1078.000000	47.909710
1079.000000	47.949900
1080.000000	47.990190
1081.000000	48.029640
1082.000000	48.070240
1083.000000	48.109880
1084.000000	48.150850
1085.000000	48.192310
1086.000000	48.234060
1087.000000	48.278520
1088.000000	48.321760
1089.000000	48.366010
1090.000000	48.409110
1091.000000	48.452550
1092.000000	48.494700
1093.000000	48.537040
1094.000000	48.580390
1095.000000	48.621590
1096.000000	48.662070
1097.000000	48.700000
1098.000000	48.736480
1099.000000	48.770510
1100.000000	48.802890
1101.000000	48.834480
1102.000000	48.864150
1103.000000	48.890430
1104.000000	48.912050
1105.000000	48.933040
1106.000000	48.952500
1107.000000	48.969110
1108.000000	48.983830
1109.000000	48.997520
1110.000000	49.009760
1111.000000	49.018010
1112.000000	49.026190
1113.000000	49.034180
1114.000000	49.041440
1115.000000	49.046880
1116.000000	49.051300
1117.000000	49.054260
1118.000000	49.054690
1119.000000	49.052090
1120.000000	49.045090
1121.000000	49.031850
1122.000000	49.011780
1123.000000	48.981760
1124.000000	48.944620
1125.000000	48.899280
1126.000000	48.840770
1127.000000	48.771400
1128.000000	48.687370
1129.000000	48.586100
1130.000000	48.465630
1131.000000	48.324660
1132.000000	48.158550
1133.000000	47.970140
1134.000000	47.750000
1135.000000	47.498610
1136.000000	47.215740
1137.000000	46.899260
1138.000000	46.551520
1139.000000	46.178320
1140.000000	45.785060
1141.000000	45.380370
1142.000000	44.963580
1143.000000	44.537680
1144.000000	44.115840
1145.000000	43.702100
1146.000000	43.308920
1147.000000	42.947780
1148.000000	42.629470
1149.000000	42.356510
1150.000000	42.130480
1151.000000	41.944790
1152.000000	41.802790
1153.000000	41.700260
1154.000000	41.624640
1155.000000	41.564960
1156.000000	41.508550
1157.000000	41.438200
1158.000000	41.338090
1159.000000	41.200780
1160.000000	41.019890
1161.000000	40.802310
1162.000000	40.543100
1163.000000	40.242250
1164.000000	39.908980
1165.000000	39.549880
1166.000000	39.170540
1167.000000	38.781160
1168.000000	38.385690
1169.000000	37.990550
1170.000000	37.596470
