PE UV       SUBTECH     SPECTRUM    ASCII       PEDS        4.00        
   -1
CICIMAUCR0001-1.Sample.ASC
24/03/08
10:42:50.00
24/03/08
10:42:50.00
Vinicio Soto Monge
C. kalinini
250,000000
1
Lambda 1050
1050L1511233
PerkinElmer UV WinLab 6.3.2.0749 / 2.02.05 Lambda 900 UV/VIS/NIR, Aug  7 2015 09:38:08

0
0
3350/servo 860,8/2
0
0
UV/VIS
1
1
1
DoubleDePol,CommonBeamDepol,RBeamAtt,SBeamAtt,60mm sphere, WB InGaAs Detector
0
0
0
0
Program
Program
3350/servo 860,8/2
3350/0,2 860,8/0,2
3350/0,2 860,8/0,2
0
15.00
 
 
 
0
 
860,8
319,2
860,8
Front
100
on
S:100 R:100
0
0
0
0
 
0
 
 
 
0
 
 
0
0
0
0
0
 
 
 
 
0
0


0
0
#HDR
-1
-1
#GR
nm
%R
1.0
0.0
2500,000000
-1,000000
2251
8
36,425100
2,679800
#DATA

250.000000	nan
251.000000	nan
252.000000	nan
253.000000	nan
254.000000	nan
255.000000	nan
256.000000	nan
257.000000	nan
258.000000	nan
259.000000	2.805899
260.000000	2.804697
261.000000	2.800948
262.000000	2.792287
263.000000	2.788500
264.000000	2.782839
265.000000	2.771953
266.000000	2.764030
267.000000	2.753788
268.000000	2.745496
269.000000	2.727908
270.000000	2.717126
271.000000	2.708161
272.000000	2.701109
273.000000	2.693252
274.000000	2.685821
275.000000	2.677908
276.000000	2.667883
277.000000	2.655701
278.000000	2.649018
279.000000	2.649453
280.000000	2.648080
281.000000	2.646812
282.000000	2.639116
283.000000	2.635169
284.000000	2.631335
285.000000	2.629006
286.000000	2.632556
287.000000	2.638349
288.000000	2.637488
289.000000	2.632878
290.000000	2.626517
291.000000	2.621821
292.000000	2.626744
293.000000	2.625343
294.000000	2.629744
295.000000	2.625125
296.000000	2.619994
297.000000	2.618309
298.000000	2.618215
299.000000	2.619691
300.000000	2.621074
301.000000	2.616776
302.000000	2.610519
303.000000	2.609667
304.000000	2.601602
305.000000	2.598857
306.000000	2.594654
307.000000	2.587459
308.000000	2.586390
309.000000	2.585396
310.000000	2.582471
311.000000	2.583796
312.000000	2.588756
313.000000	2.590044
314.000000	2.594578
315.000000	2.601630
316.000000	2.604801
317.000000	2.634335
318.000000	2.685462
319.000000	2.737724
320.000000	2.798459
321.000000	2.835802
322.000000	2.884628
323.000000	2.919539
324.000000	2.943394
325.000000	2.958123
326.000000	3.010707
327.000000	3.028077
328.000000	2.998079
329.000000	2.974149
330.000000	2.935527
331.000000	2.906732
332.000000	2.874102
333.000000	2.862515
334.000000	2.869937
335.000000	2.875588
336.000000	2.829413
337.000000	2.803731
338.000000	2.792921
339.000000	2.790564
340.000000	2.792476
341.000000	2.805000
342.000000	2.795770
343.000000	2.777094
344.000000	2.756959
345.000000	2.759771
346.000000	2.775655
347.000000	2.780435
348.000000	2.784042
349.000000	2.775721
350.000000	2.774490
351.000000	2.777898
352.000000	2.789239
353.000000	2.805776
354.000000	2.813746
355.000000	2.814769
356.000000	2.812213
357.000000	2.816312
358.000000	2.823260
359.000000	2.830132
360.000000	2.827188
361.000000	2.827264
362.000000	2.828759
363.000000	2.820250
364.000000	2.817788
365.000000	2.807679
366.000000	2.799973
367.000000	2.798544
368.000000	2.797474
369.000000	2.784098
370.000000	2.786446
371.000000	2.786825
372.000000	2.775948
373.000000	2.762923
374.000000	2.741889
375.000000	2.734837
376.000000	2.740630
377.000000	2.713671
378.000000	2.687649
379.000000	2.670723
380.000000	2.646026
381.000000	2.620913
382.000000	2.607281
383.000000	2.605767
384.000000	2.609033
385.000000	2.603419
386.000000	2.589353
387.000000	2.598696
388.000000	2.608427
389.000000	2.619038
390.000000	2.628798
391.000000	2.640015
392.000000	2.652804
393.000000	2.663359
394.000000	2.673137
395.000000	2.682906
396.000000	2.693518
397.000000	2.704044
398.000000	2.713803
399.000000	2.723241
400.000000	2.732480
401.000000	2.741198
402.000000	2.748885
403.000000	2.757243
404.000000	2.766813
405.000000	2.776971
406.000000	2.786380
407.000000	2.797029
408.000000	2.809610
409.000000	2.823051
410.000000	2.837818
411.000000	2.852690
412.000000	2.869691
413.000000	2.887752
414.000000	2.905880
415.000000	2.926213
416.000000	2.948997
417.000000	2.973467
418.000000	2.999603
419.000000	3.028390
420.000000	3.060186
421.000000	3.095192
422.000000	3.132905
423.000000	3.175351
424.000000	3.222795
425.000000	3.274148
426.000000	3.330632
427.000000	3.392257
428.000000	3.459986
429.000000	3.533746
430.000000	3.613772
431.000000	3.701211
432.000000	3.796506
433.000000	3.899146
434.000000	4.009767
435.000000	4.127828
436.000000	4.254143
437.000000	4.387653
438.000000	4.528584
439.000000	4.678423
440.000000	4.835456
441.000000	4.998547
442.000000	5.167024
443.000000	5.340878
444.000000	5.519967
445.000000	5.704556
446.000000	5.892609
447.000000	6.084013
448.000000	6.277462
449.000000	6.471101
450.000000	6.666424
451.000000	6.861841
452.000000	7.056332
453.000000	7.249856
454.000000	7.440872
455.000000	7.627581
456.000000	7.810968
457.000000	7.991637
458.000000	8.168189
459.000000	8.340056
460.000000	8.505295
461.000000	8.665632
462.000000	8.822106
463.000000	8.973422
464.000000	9.120051
465.000000	9.262686
466.000000	9.399424
467.000000	9.529942
468.000000	9.656220
469.000000	9.778266
470.000000	9.895494
471.000000	10.007563
472.000000	10.114227
473.000000	10.215429
474.000000	10.310383
475.000000	10.399658
476.000000	10.485165
477.000000	10.566942
478.000000	10.644271
479.000000	10.717586
480.000000	10.786877
481.000000	10.852335
482.000000	10.914755
483.000000	10.976019
484.000000	11.038457
485.000000	11.101833
486.000000	11.165407
487.000000	11.230468
488.000000	11.296674
489.000000	11.364470
490.000000	11.436014
491.000000	11.511307
492.000000	11.588778
493.000000	11.666816
494.000000	11.744874
495.000000	11.823934
496.000000	11.903743
497.000000	11.982870
498.000000	12.061306
499.000000	12.140045
500.000000	12.220999
501.000000	12.301915
502.000000	12.384128
503.000000	12.470297
504.000000	12.557168
505.000000	12.644890
506.000000	12.733795
507.000000	12.822890
508.000000	12.916093
509.000000	13.011729
510.000000	13.106494
511.000000	13.203275
512.000000	13.303748
513.000000	13.405868
514.000000	13.511358
515.000000	13.621127
516.000000	13.737910
517.000000	13.864964
518.000000	14.000878
519.000000	14.147725
520.000000	14.309406
521.000000	14.489091
522.000000	14.686904
523.000000	14.908004
524.000000	15.155513
525.000000	15.427635
526.000000	15.724586
527.000000	16.046565
528.000000	16.393800
529.000000	16.765448
530.000000	17.160733
531.000000	17.575640
532.000000	18.007199
533.000000	18.449247
534.000000	18.898876
535.000000	19.355217
536.000000	19.810839
537.000000	20.263990
538.000000	20.710230
539.000000	21.145983
540.000000	21.567857
541.000000	21.971151
542.000000	22.355824
543.000000	22.721347
544.000000	23.066906
545.000000	23.391603
546.000000	23.698389
547.000000	23.986385
548.000000	24.256008
549.000000	24.509680
550.000000	24.745944
551.000000	24.968472
552.000000	25.178553
553.000000	25.376243
554.000000	25.561740
555.000000	25.739873
556.000000	25.910868
557.000000	26.072691
558.000000	26.227338
559.000000	26.372151
560.000000	26.439047
561.000000	26.491234
562.000000	26.536917
563.000000	26.576798
564.000000	26.609030
565.000000	26.635128
566.000000	26.653729
567.000000	26.667369
568.000000	26.674128
569.000000	26.674819
570.000000	26.740325
571.000000	26.809626
572.000000	26.869527
573.000000	26.923645
574.000000	26.976182
575.000000	27.022953
576.000000	27.064084
577.000000	27.100500
578.000000	27.134530
579.000000	27.165418
580.000000	27.190418
581.000000	27.210742
582.000000	27.229731
583.000000	27.237663
584.000000	27.239405
585.000000	27.234464
586.000000	27.221278
587.000000	27.198824
588.000000	27.165570
589.000000	27.121931
590.000000	27.068135
591.000000	27.003520
592.000000	26.923011
593.000000	26.830915
594.000000	26.721250
595.000000	26.594632
596.000000	26.451278
597.000000	26.293090
598.000000	26.119312
599.000000	25.928977
600.000000	25.723516
601.000000	25.499472
602.000000	25.262319
603.000000	25.013105
604.000000	24.754672
605.000000	24.483970
606.000000	24.207570
607.000000	23.924297
608.000000	23.638970
609.000000	23.354969
610.000000	23.072056
611.000000	22.795826
612.000000	22.525778
613.000000	22.266483
614.000000	22.011467
615.000000	21.764156
616.000000	21.523528
617.000000	21.289877
618.000000	21.060703
619.000000	20.839830
620.000000	20.629191
621.000000	20.423503
622.000000	20.227725
623.000000	20.043695
624.000000	19.877092
625.000000	19.731645
626.000000	19.608908
627.000000	19.515478
628.000000	19.450351
629.000000	19.412411
630.000000	19.402898
631.000000	19.424206
632.000000	19.473174
633.000000	19.548221
634.000000	19.643677
635.000000	19.754762
636.000000	19.877461
637.000000	20.003493
638.000000	20.132108
639.000000	20.259948
640.000000	20.384654
641.000000	20.499809
642.000000	20.605355
643.000000	20.696495
644.000000	20.773918
645.000000	20.838306
646.000000	20.889934
647.000000	20.928565
648.000000	20.956755
649.000000	20.978641
650.000000	20.993134
651.000000	21.005477
652.000000	21.016127
653.000000	21.029796
654.000000	21.046977
655.000000	21.064621
656.000000	21.084775
657.000000	21.109737
658.000000	21.138230
659.000000	21.164063
660.000000	21.193133
661.000000	21.221901
662.000000	21.252665
663.000000	21.279861
664.000000	21.306158
665.000000	21.335730
666.000000	21.370016
667.000000	21.407029
668.000000	21.450667
669.000000	21.503639
670.000000	21.567450
671.000000	21.645309
672.000000	21.740150
673.000000	21.855712
674.000000	21.990963
675.000000	22.145402
676.000000	22.321973
677.000000	22.517675
678.000000	22.729280
679.000000	22.961861
680.000000	23.207279
681.000000	23.465533
682.000000	23.729144
683.000000	23.996504
684.000000	24.264821
685.000000	24.527183
686.000000	24.777343
687.000000	25.021047
688.000000	25.256166
689.000000	25.474965
690.000000	25.682026
691.000000	25.872096
692.000000	26.047474
693.000000	26.212893
694.000000	26.367058
695.000000	26.513858
696.000000	26.651978
697.000000	26.783026
698.000000	26.915353
699.000000	27.046392
700.000000	27.171883
701.000000	27.301957
702.000000	27.440105
703.000000	27.579304
704.000000	27.720074
705.000000	27.868133
706.000000	28.024721
707.000000	28.186913
708.000000	28.350714
709.000000	28.517175
710.000000	28.685283
711.000000	28.850703
712.000000	29.010102
713.000000	29.165602
714.000000	29.317930
715.000000	29.460716
716.000000	29.600322
717.000000	29.734684
718.000000	29.860289
719.000000	29.977470
720.000000	30.096619
721.000000	30.218136
722.000000	30.338289
723.000000	30.453226
724.000000	30.567718
725.000000	30.689016
726.000000	30.810637
727.000000	30.929909
728.000000	31.050602
729.000000	31.178337
730.000000	31.301482
731.000000	31.421985
732.000000	31.541721
733.000000	31.664459
734.000000	31.788994
735.000000	31.910577
736.000000	32.029726
737.000000	32.147532
738.000000	32.259535
739.000000	32.366615
740.000000	32.473705
741.000000	32.571243
742.000000	32.659392
743.000000	32.745722
744.000000	32.829393
745.000000	32.907999
746.000000	32.981778
747.000000	33.050397
748.000000	33.119680
749.000000	33.188574
750.000000	33.258348
751.000000	33.332108
752.000000	33.406862
753.000000	33.478548
754.000000	33.543287
755.000000	33.606123
756.000000	33.669527
757.000000	33.734521
758.000000	33.802658
759.000000	33.867699
760.000000	33.926218
761.000000	33.984037
762.000000	34.045529
763.000000	34.104408
764.000000	34.162416
765.000000	34.217613
766.000000	34.272024
767.000000	34.321494
768.000000	34.357086
769.000000	34.384339
770.000000	34.408932
771.000000	34.427627
772.000000	34.439621
773.000000	34.448860
774.000000	34.454161
775.000000	34.453527
776.000000	34.444051
777.000000	34.438144
778.000000	34.432758
779.000000	34.426567
780.000000	34.417575
781.000000	34.404350
782.000000	34.388750
783.000000	34.377268
784.000000	34.369723
785.000000	34.368663
786.000000	34.367717
787.000000	34.356471
788.000000	34.341647
789.000000	34.322582
790.000000	34.305487
791.000000	34.297156
792.000000	34.289640
793.000000	34.267357
794.000000	34.232721
795.000000	34.197195
796.000000	34.161157
797.000000	34.126710
798.000000	34.096958
799.000000	34.071977
800.000000	34.044857
801.000000	34.004115
802.000000	33.954276
803.000000	33.904702
804.000000	33.862673
805.000000	33.810297
806.000000	33.755961
807.000000	33.698010
808.000000	33.637550
809.000000	33.567179
810.000000	33.489122
811.000000	33.408585
812.000000	33.325472
813.000000	33.235459
814.000000	33.141366
815.000000	33.040297
816.000000	32.928380
817.000000	32.811227
818.000000	32.679251
819.000000	32.548705
820.000000	32.406713
821.000000	32.246434
822.000000	32.084687
823.000000	31.920848
824.000000	31.741626
825.000000	31.565500
826.000000	31.388390
827.000000	31.207521
828.000000	31.021683
829.000000	30.820756
830.000000	30.621959
831.000000	30.434455
832.000000	30.231407
833.000000	30.035232
834.000000	29.849015
835.000000	29.662798
836.000000	29.468469
837.000000	29.270581
838.000000	29.092069
839.000000	28.919767
840.000000	28.752928
841.000000	28.587489
842.000000	28.425647
843.000000	28.246208
844.000000	28.085105
845.000000	27.917830
846.000000	27.759188
847.000000	27.633544
848.000000	27.509983
849.000000	27.374486
850.000000	27.241620
851.000000	27.096978
852.000000	26.979921
853.000000	26.878889
854.000000	26.749062
855.000000	26.617265
856.000000	26.504827
857.000000	26.419386
858.000000	26.266216
859.000000	26.268361
860.000000	26.273574
861.000000	26.301121
862.000000	26.330621
863.000000	26.386219
864.000000	26.473907
865.000000	26.595048
866.000000	26.726019
867.000000	26.832062
868.000000	27.013120
869.000000	27.077880
870.000000	27.153350
871.000000	27.241330
872.000000	27.332470
873.000000	27.418300
874.000000	27.501000
875.000000	27.580550
876.000000	27.654090
877.000000	27.721560
878.000000	27.791370
879.000000	27.862970
880.000000	27.931800
881.000000	27.996620
882.000000	28.057340
883.000000	28.110570
884.000000	28.165820
885.000000	28.212890
886.000000	28.259030
887.000000	28.297700
888.000000	28.330130
889.000000	28.351950
890.000000	28.371880
891.000000	28.386990
892.000000	28.401240
893.000000	28.411920
894.000000	28.411550
895.000000	28.410210
896.000000	28.399880
897.000000	28.387630
898.000000	28.369040
899.000000	28.350820
900.000000	28.332770
901.000000	28.311990
902.000000	28.287110
903.000000	28.261880
904.000000	28.236110
905.000000	28.206520
906.000000	28.178950
907.000000	28.150220
908.000000	28.123030
909.000000	28.093330
910.000000	28.061300
911.000000	28.031780
912.000000	28.001860
913.000000	27.974030
914.000000	27.947980
915.000000	27.920920
916.000000	27.892380
917.000000	27.865300
918.000000	27.839670
919.000000	27.812660
920.000000	27.786520
921.000000	27.758750
922.000000	27.733290
923.000000	27.708030
924.000000	27.684490
925.000000	27.661260
926.000000	27.639140
927.000000	27.616840
928.000000	27.593790
929.000000	27.577520
930.000000	27.561350
931.000000	27.549070
932.000000	27.537360
933.000000	27.526900
934.000000	27.514340
935.000000	27.507820
936.000000	27.502440
937.000000	27.498020
938.000000	27.499610
939.000000	27.495620
940.000000	27.493100
941.000000	27.490550
942.000000	27.489270
943.000000	27.482390
944.000000	27.477650
945.000000	27.472170
946.000000	27.465300
947.000000	27.458230
948.000000	27.448780
949.000000	27.443190
950.000000	27.437080
951.000000	27.431650
952.000000	27.422080
953.000000	27.417570
954.000000	27.413400
955.000000	27.407230
956.000000	27.400920
957.000000	27.394700
958.000000	27.386690
959.000000	27.377730
960.000000	27.368850
961.000000	27.358470
962.000000	27.350760
963.000000	27.342460
964.000000	27.333970
965.000000	27.325510
966.000000	27.319240
967.000000	27.311840
968.000000	27.304050
969.000000	27.298230
970.000000	27.292810
971.000000	27.287830
972.000000	27.282040
973.000000	27.277240
974.000000	27.272940
975.000000	27.268910
976.000000	27.262580
977.000000	27.256730
978.000000	27.253160
979.000000	27.248430
980.000000	27.242680
981.000000	27.238050
982.000000	27.234620
983.000000	27.231460
984.000000	27.228820
985.000000	27.225190
986.000000	27.223690
987.000000	27.222070
988.000000	27.218830
989.000000	27.216710
990.000000	27.214830
991.000000	27.213010
992.000000	27.210640
993.000000	27.207730
994.000000	27.205330
995.000000	27.204540
996.000000	27.204150
997.000000	27.204160
998.000000	27.204020
999.000000	27.202030
1000.000000	27.201520
1001.000000	27.200850
1002.000000	27.202100
1003.000000	27.204680
1004.000000	27.204300
1005.000000	27.202420
1006.000000	27.199730
1007.000000	27.198160
1008.000000	27.195990
1009.000000	27.194110
1010.000000	27.191430
1011.000000	27.188460
1012.000000	27.183750
1013.000000	27.177010
1014.000000	27.170490
1015.000000	27.165840
1016.000000	27.163350
1017.000000	27.160120
1018.000000	27.157570
1019.000000	27.154540
1020.000000	27.151320
1021.000000	27.148090
1022.000000	27.145140
1023.000000	27.143730
1024.000000	27.142890
1025.000000	27.140840
1026.000000	27.136570
1027.000000	27.133050
1028.000000	27.130640
1029.000000	27.131380
1030.000000	27.133020
1031.000000	27.133180
1032.000000	27.133400
1033.000000	27.135140
1034.000000	27.138050
1035.000000	27.141430
1036.000000	27.144740
1037.000000	27.147240
1038.000000	27.149210
1039.000000	27.149040
1040.000000	27.148910
1041.000000	27.150760
1042.000000	27.151870
1043.000000	27.151540
1044.000000	27.151510
1045.000000	27.150020
1046.000000	27.149140
1047.000000	27.149680
1048.000000	27.150850
1049.000000	27.151640
1050.000000	27.152640
1051.000000	27.154200
1052.000000	27.157000
1053.000000	27.159880
1054.000000	27.162590
1055.000000	27.168000
1056.000000	27.174090
1057.000000	27.179620
1058.000000	27.184950
1059.000000	27.191880
1060.000000	27.198180
1061.000000	27.203360
1062.000000	27.206490
1063.000000	27.208670
1064.000000	27.211240
1065.000000	27.214110
1066.000000	27.217490
1067.000000	27.220640
1068.000000	27.223610
1069.000000	27.226780
1070.000000	27.230850
1071.000000	27.234890
1072.000000	27.241400
1073.000000	27.248850
1074.000000	27.255610
1075.000000	27.262760
1076.000000	27.267900
1077.000000	27.272690
1078.000000	27.278740
1079.000000	27.285150
1080.000000	27.290950
1081.000000	27.296530
1082.000000	27.300680
1083.000000	27.304980
1084.000000	27.308340
1085.000000	27.310420
1086.000000	27.315110
1087.000000	27.321760
1088.000000	27.326940
1089.000000	27.331070
1090.000000	27.334710
1091.000000	27.338610
1092.000000	27.344440
1093.000000	27.350270
1094.000000	27.356070
1095.000000	27.361420
1096.000000	27.366280
1097.000000	27.368220
1098.000000	27.369680
1099.000000	27.371860
1100.000000	27.375940
1101.000000	27.380030
1102.000000	27.382910
1103.000000	27.384970
1104.000000	27.386920
1105.000000	27.389120
1106.000000	27.390810
1107.000000	27.393340
1108.000000	27.396570
1109.000000	27.398420
1110.000000	27.399650
1111.000000	27.399270
1112.000000	27.399670
1113.000000	27.399840
1114.000000	27.399920
1115.000000	27.399340
1116.000000	27.396810
1117.000000	27.396300
1118.000000	27.395740
1119.000000	27.395830
1120.000000	27.394290
1121.000000	27.394760
1122.000000	27.394000
1123.000000	27.392430
1124.000000	27.389420
1125.000000	27.387520
1126.000000	27.383490
1127.000000	27.378150
1128.000000	27.369540
1129.000000	27.356130
1130.000000	27.340370
1131.000000	27.320490
1132.000000	27.296770
1133.000000	27.268230
1134.000000	27.240790
1135.000000	27.211530
1136.000000	27.181010
1137.000000	27.143830
1138.000000	27.102570
1139.000000	27.060180
1140.000000	27.017740
1141.000000	26.975240
1142.000000	26.932280
1143.000000	26.891170
1144.000000	26.845960
1145.000000	26.802420
1146.000000	26.759920
1147.000000	26.719910
1148.000000	26.686590
1149.000000	26.654920
1150.000000	26.621940
1151.000000	26.588980
1152.000000	26.557010
1153.000000	26.523800
1154.000000	26.496710
1155.000000	26.464330
1156.000000	26.429210
1157.000000	26.395460
1158.000000	26.356960
1159.000000	26.314560
1160.000000	26.274190
1161.000000	26.231310
1162.000000	26.183860
1163.000000	26.137910
1164.000000	26.081190
1165.000000	26.025290
1166.000000	25.968940
1167.000000	25.908750
1168.000000	25.848690
1169.000000	25.791740
1170.000000	25.731510
1171.000000	25.671300
1172.000000	25.616020
