PE UV       SUBTECH     SPECTRUM    ASCII       PEDS        4.00        
   -1
CICIMAUCR0101-1.ASC
24/04/03
16:31:32.00
24/04/03
16:31:32.00
Vinicio Soto Monge
C. resplendens
250,000000
1
Lambda 1050
1050L1511233
PerkinElmer UV WinLab 6.3.2.0749 / 2.02.05 Lambda 900 UV/VIS/NIR, Aug  7 2015 09:38:08

0
0
3350/servo 860,8/2
0
0
UV/VIS
1
1
1
DoubleDePol,CommonBeamDepol,RBeamAtt,SBeamAtt,60mm sphere, WB InGaAs Detector
0
0
0
0
Program
Program
3350/servo 860,8/2
3350/0,2 860,8/0,2
3350/0,2 860,8/0,2
0
15.00
 
 
 
0
 
860,8
319,2
860,8
Front
100
on
S:100 R:100
0
0
0
0
 
0
 
 
 
0
 
 
0
0
0
0
0
 
 
 
 
0
0


0
0
#HDR
-1
-1
#GR
nm
%R
1.0
0.0
2500,000000
-1,000000
2251
8
72,895300
3,379900
#DATA

250.000000	nan
251.000000	nan
252.000000	nan
253.000000	nan
254.000000	nan
255.000000	nan
256.000000	nan
257.000000	nan
258.000000	nan
259.000000	5.113307
260.000000	5.107520
261.000000	5.097614
262.000000	5.085915
263.000000	5.074523
264.000000	5.060837
265.000000	5.050246
266.000000	5.037668
267.000000	5.022168
268.000000	5.010179
269.000000	4.996473
270.000000	4.979748
271.000000	4.963158
272.000000	4.950975
273.000000	4.934395
274.000000	4.924701
275.000000	4.910320
276.000000	4.902228
277.000000	4.890306
278.000000	4.875597
279.000000	4.865671
280.000000	4.855370
281.000000	4.848223
282.000000	4.837430
283.000000	4.833629
284.000000	4.826087
285.000000	4.820097
286.000000	4.806863
287.000000	4.800912
288.000000	4.793505
289.000000	4.784206
290.000000	4.774146
291.000000	4.768832
292.000000	4.762446
293.000000	4.756341
294.000000	4.746637
295.000000	4.738632
296.000000	4.736924
297.000000	4.730366
298.000000	4.726440
299.000000	4.723267
300.000000	4.720354
301.000000	4.718492
302.000000	4.713621
303.000000	4.710245
304.000000	4.708548
305.000000	4.705374
306.000000	4.700050
307.000000	4.696588
308.000000	4.691244
309.000000	4.688775
310.000000	4.685833
311.000000	4.677769
312.000000	4.680161
313.000000	4.674673
314.000000	4.671230
315.000000	4.665626
316.000000	4.664266
317.000000	4.657774
318.000000	4.671047
319.000000	4.680152
320.000000	4.680113
321.000000	4.687415
322.000000	4.691688
323.000000	4.699269
324.000000	4.699944
325.000000	4.706204
326.000000	4.709165
327.000000	4.717904
328.000000	4.699954
329.000000	4.686740
330.000000	4.695411
331.000000	4.697851
332.000000	4.691823
333.000000	4.683209
334.000000	4.685736
335.000000	4.689122
336.000000	4.686961
337.000000	4.684859
338.000000	4.688707
339.000000	4.686913
340.000000	4.679004
341.000000	4.674962
342.000000	4.673554
343.000000	4.677895
344.000000	4.671818
345.000000	4.660041
346.000000	4.660755
347.000000	4.659395
348.000000	4.659752
349.000000	4.666397
350.000000	4.667709
351.000000	4.669426
352.000000	4.672879
353.000000	4.671268
354.000000	4.679467
355.000000	4.690974
356.000000	4.701989
357.000000	4.714296
358.000000	4.723836
359.000000	4.732285
360.000000	4.742027
361.000000	4.749888
362.000000	4.762832
363.000000	4.781496
364.000000	4.800999
365.000000	4.818824
366.000000	4.829347
367.000000	4.841230
368.000000	4.859817
369.000000	4.875558
370.000000	4.893701
371.000000	4.908468
372.000000	4.923534
373.000000	4.942738
374.000000	4.956830
375.000000	4.973073
376.000000	4.990271
377.000000	5.003166
378.000000	5.015436
379.000000	5.028736
380.000000	5.043253
381.000000	5.059226
382.000000	5.072035
383.000000	5.081680
384.000000	5.094451
385.000000	5.111234
386.000000	5.130062
387.000000	5.154329
388.000000	5.179340
389.000000	5.205855
390.000000	5.232197
391.000000	5.261548
392.000000	5.293377
393.000000	5.325265
394.000000	5.359005
395.000000	5.391867
396.000000	5.426860
397.000000	5.464680
398.000000	5.505441
399.000000	5.548296
400.000000	5.592944
401.000000	5.640959
402.000000	5.691925
403.000000	5.746943
404.000000	5.806513
405.000000	5.871455
406.000000	5.941934
407.000000	6.018905
408.000000	6.102058
409.000000	6.192155
410.000000	6.292072
411.000000	6.401335
412.000000	6.519260
413.000000	6.647862
414.000000	6.788106
415.000000	6.941410
416.000000	7.106906
417.000000	7.284767
418.000000	7.475293
419.000000	7.680711
420.000000	7.900559
421.000000	8.132511
422.000000	8.379492
423.000000	8.641557
424.000000	8.916509
425.000000	9.203189
426.000000	9.502120
427.000000	9.814013
428.000000	10.136806
429.000000	10.467808
430.000000	10.805647
431.000000	11.153191
432.000000	11.506260
433.000000	11.862485
434.000000	12.222470
435.000000	12.585793
436.000000	12.951113
437.000000	13.315294
438.000000	13.678241
439.000000	14.039230
440.000000	14.396399
441.000000	14.746470
442.000000	15.091997
443.000000	15.431872
444.000000	15.761880
445.000000	16.083139
446.000000	16.394271
447.000000	16.694214
448.000000	16.983364
449.000000	17.263331
450.000000	17.533152
451.000000	17.792372
452.000000	18.041098
453.000000	18.278153
454.000000	18.506421
455.000000	18.723076
456.000000	18.927395
457.000000	19.123109
458.000000	19.308649
459.000000	19.482015
460.000000	19.646247
461.000000	19.801104
462.000000	19.944348
463.000000	20.076741
464.000000	20.195996
465.000000	20.303745
466.000000	20.401945
467.000000	20.488156
468.000000	20.562194
469.000000	20.624889
470.000000	20.674775
471.000000	20.712845
472.000000	20.739814
473.000000	20.755247
474.000000	20.761314
475.000000	20.758314
476.000000	20.745225
477.000000	20.724323
478.000000	20.699486
479.000000	20.672547
480.000000	20.643890
481.000000	20.614385
482.000000	20.588217
483.000000	20.568290
484.000000	20.557699
485.000000	20.557304
486.000000	20.571704
487.000000	20.604624
488.000000	20.655523
489.000000	20.727236
490.000000	20.824655
491.000000	20.949611
492.000000	21.102742
493.000000	21.286342
494.000000	21.498994
495.000000	21.738837
496.000000	22.004866
497.000000	22.293177
498.000000	22.599255
499.000000	22.921045
500.000000	23.249847
501.000000	23.581716
502.000000	23.912013
503.000000	24.235134
504.000000	24.546594
505.000000	24.845678
506.000000	25.128211
507.000000	25.390065
508.000000	25.631239
509.000000	25.848424
510.000000	26.043281
511.000000	26.218779
512.000000	26.376693
513.000000	26.520468
514.000000	26.654973
515.000000	26.784771
516.000000	26.916556
517.000000	27.060784
518.000000	27.223839
519.000000	27.414269
520.000000	27.640926
521.000000	27.910003
522.000000	28.228514
523.000000	28.604241
524.000000	29.042952
525.000000	29.551033
526.000000	30.129893
527.000000	30.777851
528.000000	31.500900
529.000000	32.299047
530.000000	33.167008
531.000000	34.099439
532.000000	35.092057
533.000000	36.136577
534.000000	37.221250
535.000000	38.339210
536.000000	39.476345
537.000000	40.627978
538.000000	41.779638
539.000000	42.922397
540.000000	44.046568
541.000000	45.152047
542.000000	46.230519
543.000000	47.280942
544.000000	48.300856
545.000000	49.284437
546.000000	50.234615
547.000000	51.147870
548.000000	52.023200
549.000000	52.863045
550.000000	53.672342
551.000000	54.445556
552.000000	55.187346
553.000000	55.893977
554.000000	56.572097
555.000000	57.223586
556.000000	57.852766
557.000000	58.458497
558.000000	59.048111
559.000000	59.617874
560.000000	60.194718
561.000000	60.760777
562.000000	61.310372
563.000000	61.850708
564.000000	62.375794
565.000000	62.888987
566.000000	63.384606
567.000000	63.871487
568.000000	64.340929
569.000000	64.799047
570.000000	65.214156
571.000000	65.606926
572.000000	65.979451
573.000000	66.325576
574.000000	66.654832
575.000000	66.956955
576.000000	67.241050
577.000000	67.495891
578.000000	67.732445
579.000000	67.948695
580.000000	68.143571
581.000000	68.329544
582.000000	68.504029
583.000000	68.665715
584.000000	68.815450
585.000000	68.958549
586.000000	69.097462
587.000000	69.237504
588.000000	69.370543
589.000000	69.496290
590.000000	69.620311
591.000000	69.732824
592.000000	69.837631
593.000000	69.938734
594.000000	70.023083
595.000000	70.098829
596.000000	70.155331
597.000000	70.194964
598.000000	70.219435
599.000000	70.221856
600.000000	70.212278
601.000000	70.183602
602.000000	70.137053
603.000000	70.070934
604.000000	69.996250
605.000000	69.903355
606.000000	69.799667
607.000000	69.672569
608.000000	69.534611
609.000000	69.383834
610.000000	69.217239
611.000000	69.030253
612.000000	68.825790
613.000000	68.604582
614.000000	68.355528
615.000000	68.084521
616.000000	67.784308
617.000000	67.460223
618.000000	67.100314
619.000000	66.709155
620.000000	66.274870
621.000000	65.801484
622.000000	65.288320
623.000000	64.726947
624.000000	64.116992
625.000000	63.457776
626.000000	62.745724
627.000000	61.982223
628.000000	61.165103
629.000000	60.295136
630.000000	59.373653
631.000000	58.409228
632.000000	57.403058
633.000000	56.366428
634.000000	55.307923
635.000000	54.232132
636.000000	53.157528
637.000000	52.099650
638.000000	51.068141
639.000000	50.074761
640.000000	49.140267
641.000000	48.273319
642.000000	47.483206
643.000000	46.781271
644.000000	46.183025
645.000000	45.692392
646.000000	45.309894
647.000000	45.040614
648.000000	44.887329
649.000000	44.850194
650.000000	44.929267
651.000000	45.118124
652.000000	45.411229
653.000000	45.801434
654.000000	46.278553
655.000000	46.832990
656.000000	47.450469
657.000000	48.121105
658.000000	48.831228
659.000000	49.569101
660.000000	50.316755
661.000000	51.060358
662.000000	51.796967
663.000000	52.514624
664.000000	53.201203
665.000000	53.856830
666.000000	54.481157
667.000000	55.060663
668.000000	55.597757
669.000000	56.092566
670.000000	56.550096
671.000000	56.977320
672.000000	57.363734
673.000000	57.718386
674.000000	58.041960
675.000000	58.328727
676.000000	58.589009
677.000000	58.825022
678.000000	59.031000
679.000000	59.210983
680.000000	59.363207
681.000000	59.490729
682.000000	59.600040
683.000000	59.685518
684.000000	59.753981
685.000000	59.813030
686.000000	59.854688
687.000000	59.885361
688.000000	59.914094
689.000000	59.939539
690.000000	59.967154
691.000000	59.989434
692.000000	60.004800
693.000000	60.018033
694.000000	60.028315
695.000000	60.035655
696.000000	60.034575
697.000000	60.028643
698.000000	60.018583
699.000000	60.006227
700.000000	59.983638
701.000000	59.963450
702.000000	59.946638
703.000000	59.939944
704.000000	59.949946
705.000000	59.971157
706.000000	60.013153
707.000000	60.073967
708.000000	60.159608
709.000000	60.274581
710.000000	60.420526
711.000000	60.592127
712.000000	60.786270
713.000000	61.002038
714.000000	61.237935
715.000000	61.489757
716.000000	61.749691
717.000000	62.024142
718.000000	62.306231
719.000000	62.584337
720.000000	62.867005
721.000000	63.140915
722.000000	63.410659
723.000000	63.672821
724.000000	63.913271
725.000000	64.138009
726.000000	64.356294
727.000000	64.557507
728.000000	64.737856
729.000000	64.899562
730.000000	65.033768
731.000000	65.154827
732.000000	65.261216
733.000000	65.351082
734.000000	65.433271
735.000000	65.513298
736.000000	65.582292
737.000000	65.641582
738.000000	65.699937
739.000000	65.766567
740.000000	65.839699
741.000000	65.917161
742.000000	66.005088
743.000000	66.095505
744.000000	66.190811
745.000000	66.283715
746.000000	66.385137
747.000000	66.494545
748.000000	66.595455
749.000000	66.676437
750.000000	66.745788
751.000000	66.801210
752.000000	66.840670
753.000000	66.867928
754.000000	66.874352
755.000000	66.864822
756.000000	66.831159
757.000000	66.768792
758.000000	66.692295
759.000000	66.605158
760.000000	66.498750
761.000000	66.376620
762.000000	66.231370
763.000000	66.066405
764.000000	65.883749
765.000000	65.686250
766.000000	65.485703
767.000000	65.287529
768.000000	65.084869
769.000000	64.876982
770.000000	64.680264
771.000000	64.507486
772.000000	64.351789
773.000000	64.210706
774.000000	64.098897
775.000000	64.017277
776.000000	63.949808
777.000000	63.904908
778.000000	63.888878
779.000000	63.915335
780.000000	63.965327
781.000000	64.011847
782.000000	64.071909
783.000000	64.143227
784.000000	64.212848
785.000000	64.277829
786.000000	64.341151
787.000000	64.385818
788.000000	64.409816
789.000000	64.408639
790.000000	64.380369
791.000000	64.340331
792.000000	64.269042
793.000000	64.175057
794.000000	64.062138
795.000000	63.918701
796.000000	63.748296
797.000000	63.564599
798.000000	63.365489
799.000000	63.144050
800.000000	62.913998
801.000000	62.677897
802.000000	62.451829
803.000000	62.226608
804.000000	61.994704
805.000000	61.778763
806.000000	61.583713
807.000000	61.403836
808.000000	61.236209
809.000000	61.078892
810.000000	60.929379
811.000000	60.793784
812.000000	60.662655
813.000000	60.544055
814.000000	60.430808
815.000000	60.311032
816.000000	60.193387
817.000000	60.075568
818.000000	59.973462
819.000000	59.876352
820.000000	59.779088
821.000000	59.661452
822.000000	59.537393
823.000000	59.417935
824.000000	59.322773
825.000000	59.238414
826.000000	59.136279
827.000000	59.026987
828.000000	58.929376
829.000000	58.830269
830.000000	58.745312
831.000000	58.695976
832.000000	58.662690
833.000000	58.636329
834.000000	58.618996
835.000000	58.604017
836.000000	58.618360
837.000000	58.655118
838.000000	58.698118
839.000000	58.754987
840.000000	58.838391
841.000000	58.908426
842.000000	58.978596
843.000000	59.046992
844.000000	59.113478
845.000000	59.191113
846.000000	59.261795
847.000000	59.329621
848.000000	59.388516
849.000000	59.401721
850.000000	59.357593
851.000000	59.322243
852.000000	59.294165
853.000000	59.263801
854.000000	59.213095
855.000000	59.113941
856.000000	59.051930
857.000000	58.967485
858.000000	58.791302
859.000000	58.856369
860.000000	58.952386
861.000000	59.040797
862.000000	59.122800
863.000000	59.198152
864.000000	59.277698
865.000000	59.393115
866.000000	59.467439
867.000000	59.552430
868.000000	59.711550
869.000000	59.664180
870.000000	59.612100
871.000000	59.554450
872.000000	59.491900
873.000000	59.428730
874.000000	59.367330
875.000000	59.310240
876.000000	59.256000
877.000000	59.205280
878.000000	59.161580
879.000000	59.124880
880.000000	59.087770
881.000000	59.055220
882.000000	59.022030
883.000000	58.992770
884.000000	58.960550
885.000000	58.928040
886.000000	58.892790
887.000000	58.855820
888.000000	58.808670
889.000000	58.752230
890.000000	58.690950
891.000000	58.621570
892.000000	58.542170
893.000000	58.453110
894.000000	58.357360
895.000000	58.249640
896.000000	58.130860
897.000000	57.999080
898.000000	57.860790
899.000000	57.715930
900.000000	57.563030
901.000000	57.398780
902.000000	57.232470
903.000000	57.060090
904.000000	56.885240
905.000000	56.708320
906.000000	56.533010
907.000000	56.366960
908.000000	56.199870
909.000000	56.041400
910.000000	55.889180
911.000000	55.750240
912.000000	55.620720
913.000000	55.501060
914.000000	55.390900
915.000000	55.294170
916.000000	55.208210
917.000000	55.128770
918.000000	55.057940
919.000000	54.989240
920.000000	54.926500
921.000000	54.862700
922.000000	54.800610
923.000000	54.740280
924.000000	54.682620
925.000000	54.618050
926.000000	54.553590
927.000000	54.484660
928.000000	54.418010
929.000000	54.352810
930.000000	54.285230
931.000000	54.220950
932.000000	54.155240
933.000000	54.088490
934.000000	54.019560
935.000000	53.956320
936.000000	53.889860
937.000000	53.825360
938.000000	53.762940
939.000000	53.700980
940.000000	53.638940
941.000000	53.572070
942.000000	53.506940
943.000000	53.442470
944.000000	53.377290
945.000000	53.310410
946.000000	53.243180
947.000000	53.174000
948.000000	53.099900
949.000000	53.022380
950.000000	52.942790
951.000000	52.863690
952.000000	52.782450
953.000000	52.695930
954.000000	52.606080
955.000000	52.513030
956.000000	52.415120
957.000000	52.313910
958.000000	52.208970
959.000000	52.099090
960.000000	51.984060
961.000000	51.862080
962.000000	51.735360
963.000000	51.606480
964.000000	51.474730
965.000000	51.341870
966.000000	51.212970
967.000000	51.085010
968.000000	50.960570
969.000000	50.840060
970.000000	50.724280
971.000000	50.618220
972.000000	50.516840
973.000000	50.421490
974.000000	50.331230
975.000000	50.247410
976.000000	50.164510
977.000000	50.085430
978.000000	50.009160
979.000000	49.935900
980.000000	49.864210
981.000000	49.788730
982.000000	49.712840
983.000000	49.633720
984.000000	49.552990
985.000000	49.467830
986.000000	49.380120
987.000000	49.290890
988.000000	49.200120
989.000000	49.106890
990.000000	49.013430
991.000000	48.922930
992.000000	48.833470
993.000000	48.747440
994.000000	48.662520
995.000000	48.578190
996.000000	48.498430
997.000000	48.418500
998.000000	48.339600
999.000000	48.264720
1000.000000	48.191710
1001.000000	48.117820
1002.000000	48.044890
1003.000000	47.974290
1004.000000	47.905050
1005.000000	47.837030
1006.000000	47.766200
1007.000000	47.697560
1008.000000	47.629420
1009.000000	47.559320
1010.000000	47.489300
1011.000000	47.421340
1012.000000	47.355920
1013.000000	47.293270
1014.000000	47.236200
1015.000000	47.187790
1016.000000	47.150370
1017.000000	47.121760
1018.000000	47.102870
1019.000000	47.094500
1020.000000	47.096670
1021.000000	47.110430
1022.000000	47.133090
1023.000000	47.163710
1024.000000	47.200560
1025.000000	47.241080
1026.000000	47.285510
1027.000000	47.333300
1028.000000	47.383360
1029.000000	47.434990
1030.000000	47.486650
1031.000000	47.537210
1032.000000	47.587190
1033.000000	47.637330
1034.000000	47.686550
1035.000000	47.734580
1036.000000	47.780170
1037.000000	47.823100
1038.000000	47.864660
1039.000000	47.905730
1040.000000	47.947360
1041.000000	47.987820
1042.000000	48.026410
1043.000000	48.062840
1044.000000	48.099700
1045.000000	48.138920
1046.000000	48.178020
1047.000000	48.218050
1048.000000	48.260070
1049.000000	48.303710
1050.000000	48.347790
1051.000000	48.394250
1052.000000	48.445710
1053.000000	48.502470
1054.000000	48.562040
1055.000000	48.624460
1056.000000	48.690630
1057.000000	48.762070
1058.000000	48.836330
1059.000000	48.912870
1060.000000	48.991260
1061.000000	49.071830
1062.000000	49.151530
1063.000000	49.228010
1064.000000	49.303170
1065.000000	49.375860
1066.000000	49.445310
1067.000000	49.510030
1068.000000	49.571160
1069.000000	49.629050
1070.000000	49.684360
1071.000000	49.737100
1072.000000	49.787700
1073.000000	49.837100
1074.000000	49.884260
1075.000000	49.929160
1076.000000	49.973360
1077.000000	50.017550
1078.000000	50.060490
1079.000000	50.104170
1080.000000	50.147970
1081.000000	50.190190
1082.000000	50.232810
1083.000000	50.276840
1084.000000	50.322200
1085.000000	50.369590
1086.000000	50.418830
1087.000000	50.468370
1088.000000	50.519830
1089.000000	50.570120
1090.000000	50.621960
1091.000000	50.676450
1092.000000	50.732430
1093.000000	50.785670
1094.000000	50.837770
1095.000000	50.889270
1096.000000	50.938840
1097.000000	50.987760
1098.000000	51.034700
1099.000000	51.080540
1100.000000	51.125160
1101.000000	51.164980
1102.000000	51.199040
1103.000000	51.232240
1104.000000	51.262670
1105.000000	51.288250
1106.000000	51.312060
1107.000000	51.333070
1108.000000	51.351100
1109.000000	51.366510
1110.000000	51.376800
1111.000000	51.385360
1112.000000	51.393780
1113.000000	51.400050
1114.000000	51.404290
1115.000000	51.408590
1116.000000	51.411290
1117.000000	51.411020
1118.000000	51.406480
1119.000000	51.395930
1120.000000	51.379960
1121.000000	51.354030
1122.000000	51.317470
1123.000000	51.268170
1124.000000	51.207160
1125.000000	51.130130
1126.000000	51.037650
1127.000000	50.927810
1128.000000	50.797020
1129.000000	50.640250
1130.000000	50.452790
1131.000000	50.229270
1132.000000	49.964980
1133.000000	49.661900
1134.000000	49.317740
1135.000000	48.926090
1136.000000	48.485660
1137.000000	47.996770
1138.000000	47.467870
1139.000000	46.907330
1140.000000	46.323280
1141.000000	45.724370
1142.000000	45.120830
1143.000000	44.513710
1144.000000	43.909120
1145.000000	43.323440
1146.000000	42.773400
1147.000000	42.274920
1148.000000	41.833070
1149.000000	41.455170
1150.000000	41.141470
1151.000000	40.889300
1152.000000	40.694840
1153.000000	40.550380
1154.000000	40.443100
1155.000000	40.357480
1156.000000	40.270760
1157.000000	40.157400
1158.000000	40.004460
1159.000000	39.800560
1160.000000	39.535610
1161.000000	39.219360
1162.000000	38.843460
1163.000000	38.415040
1164.000000	37.941740
1165.000000	37.435390
1166.000000	36.904140
1167.000000	36.364340
1168.000000	35.820690
1169.000000	35.275240
1170.000000	34.732610
