PE UV       SUBTECH     SPECTRUM    ASCII       PEDS        4.00        
   -1
CICIMAUCR0008-3.Sample.ASC
24/04/17
09:22:08.00
24/04/17
09:22:08.00
Vinicio Soto Monge
C. kalinini
250,000000
1
Lambda 1050
1050L1511233
PerkinElmer UV WinLab 6.3.2.0749 / 2.02.05 Lambda 900 UV/VIS/NIR, Aug  7 2015 09:38:08

0
0
3350/servo 860,8/2
0
0
UV/VIS
1
1
1
DoubleDePol,CommonBeamDepol,RBeamAtt,SBeamAtt,60mm sphere, WB InGaAs Detector
0
0
0
0
Program
Program
3350/servo 860,8/2
3350/0,2 860,8/0,2
3350/0,2 860,8/0,2
0
15.00
 
 
 
0
 
860,8
319,2
860,8
Front
100
on
S:100 R:100
0
0
0
0
 
0
 
 
 
0
 
 
0
0
0
0
0
 
 
 
 
0
0


0
0
#HDR
-1
-1
#GR
nm
%R
1.0
0.0
2500,000000
-1,000000
2251
8
72,513700
4,506200
#DATA
250.000000	3.469879
251.000000	3.490376
252.000000	3.485254
253.000000	3.489157
254.000000	3.476275
255.000000	3.500421
256.000000	3.479198
257.000000	3.462241
258.000000	3.479926
259.000000	3.471948
260.000000	3.465292
261.000000	3.449928
262.000000	3.443213
263.000000	3.421962
264.000000	3.414556
265.000000	3.397163
266.000000	3.393873
267.000000	3.379532
268.000000	3.395888
269.000000	3.379822
270.000000	3.363992
271.000000	3.338494
272.000000	3.356325
273.000000	3.348832
274.000000	3.358368
275.000000	3.344956
276.000000	3.336111
277.000000	3.351121
278.000000	3.327097
279.000000	3.311193
280.000000	3.308213
281.000000	3.332850
282.000000	3.328170
283.000000	3.318697
284.000000	3.309051
285.000000	3.323841
286.000000	3.296431
287.000000	3.315437
288.000000	3.295263
289.000000	3.282415
290.000000	3.316943
291.000000	3.291174
292.000000	3.328421
293.000000	3.290397
294.000000	3.332294
295.000000	3.310871
296.000000	3.318400
297.000000	3.331699
298.000000	3.335929
299.000000	3.334262
300.000000	3.285839
301.000000	3.301909
302.000000	3.312850
303.000000	3.329870
304.000000	3.325928
305.000000	3.301852
306.000000	3.302045
307.000000	3.302109
308.000000	3.351117
309.000000	3.342285
310.000000	3.333616
311.000000	3.329285
312.000000	3.319065
313.000000	3.318470
314.000000	3.322393
315.000000	3.336991
316.000000	3.366728
317.000000	3.512096
318.000000	3.478511
319.000000	3.517597
320.000000	3.461074
321.000000	3.545950
322.000000	3.551626
323.000000	3.514457
324.000000	3.528334
325.000000	3.626414
326.000000	3.442455
327.000000	3.487240
328.000000	3.530463
329.000000	3.464636
330.000000	3.495679
331.000000	3.561528
332.000000	3.555650
333.000000	3.560998
334.000000	3.592714
335.000000	3.613540
336.000000	3.603688
337.000000	3.596919
338.000000	3.572008
339.000000	3.618635
340.000000	3.695571
341.000000	3.679185
342.000000	3.626291
343.000000	3.640104
344.000000	3.666014
345.000000	3.689316
346.000000	3.677179
347.000000	3.741052
348.000000	3.771386
349.000000	3.776499
350.000000	3.784474
351.000000	3.786883
352.000000	3.808979
353.000000	3.822423
354.000000	3.925177
355.000000	3.886025
356.000000	3.911137
357.000000	3.973906
358.000000	3.993314
359.000000	4.021119
360.000000	4.060918
361.000000	4.102444
362.000000	4.149426
363.000000	4.167726
364.000000	4.225782
365.000000	4.255517
366.000000	4.335391
367.000000	4.352668
368.000000	4.410211
369.000000	4.452713
370.000000	4.479139
371.000000	4.547860
372.000000	4.639760
373.000000	4.681716
374.000000	4.754102
375.000000	4.822240
376.000000	4.868844
377.000000	4.790430
378.000000	4.880042
379.000000	4.979341
380.000000	5.073795
381.000000	5.180608
382.000000	5.284079
383.000000	5.400497
384.000000	5.516493
385.000000	5.646662
386.000000	5.781637
387.000000	5.923484
388.000000	6.063831
389.000000	6.202714
390.000000	6.357893
391.000000	6.520665
392.000000	6.680185
393.000000	6.845469
394.000000	7.027399
395.000000	7.202918
396.000000	7.376410
397.000000	7.556545
398.000000	7.742746
399.000000	7.918578
400.000000	8.099511
401.000000	8.294207
402.000000	8.480000
403.000000	8.670714
404.000000	8.856319
405.000000	9.041835
406.000000	9.225859
407.000000	9.406481
408.000000	9.583635
409.000000	9.766645
410.000000	9.939051
411.000000	10.113190
412.000000	10.285382
413.000000	10.455566
414.000000	10.621176
415.000000	10.778635
416.000000	10.928715
417.000000	11.075643
418.000000	11.214055
419.000000	11.346772
420.000000	11.490349
421.000000	11.620630
422.000000	11.739720
423.000000	11.854419
424.000000	11.968663
425.000000	12.076747
426.000000	12.175430
427.000000	12.274426
428.000000	12.362936
429.000000	12.442838
430.000000	12.522981
431.000000	12.608923
432.000000	12.693743
433.000000	12.757623
434.000000	12.817150
435.000000	12.883535
436.000000	12.941123
437.000000	13.004371
438.000000	13.066741
439.000000	13.118404
440.000000	13.172729
441.000000	13.222004
442.000000	13.272254
443.000000	13.324822
444.000000	13.362554
445.000000	13.372471
446.000000	13.384426
447.000000	13.412495
448.000000	13.445735
449.000000	13.480389
450.000000	13.527157
451.000000	13.568524
452.000000	13.602186
453.000000	13.650283
454.000000	13.695493
455.000000	13.740620
456.000000	13.792358
457.000000	13.850187
458.000000	13.912930
459.000000	13.978951
460.000000	14.054694
461.000000	14.144479
462.000000	14.240390
463.000000	14.336009
464.000000	14.435728
465.000000	14.553904
466.000000	14.684475
467.000000	14.826021
468.000000	14.970433
469.000000	15.124264
470.000000	15.298177
471.000000	15.477102
472.000000	15.661592
473.000000	15.859046
474.000000	16.066260
475.000000	16.287443
476.000000	16.513709
477.000000	16.750160
478.000000	16.982381
479.000000	17.220098
480.000000	17.507436
481.000000	17.830981
482.000000	18.157614
483.000000	18.472847
484.000000	18.756179
485.000000	19.035280
486.000000	19.310456
487.000000	19.587755
488.000000	19.863553
489.000000	20.137858
490.000000	20.418651
491.000000	20.694452
492.000000	20.953439
493.000000	21.204626
494.000000	21.471182
495.000000	21.736916
496.000000	21.990527
497.000000	22.242493
498.000000	22.499575
499.000000	22.756366
500.000000	23.011257
501.000000	23.272054
502.000000	23.545804
503.000000	23.826530
504.000000	24.127585
505.000000	24.410375
506.000000	24.679095
507.000000	24.962068
508.000000	25.250991
509.000000	25.550647
510.000000	25.838847
511.000000	26.145080
512.000000	26.437637
513.000000	26.738238
514.000000	27.046071
515.000000	27.358629
516.000000	27.659930
517.000000	27.933294
518.000000	28.232335
519.000000	28.517982
520.000000	28.804175
521.000000	29.086042
522.000000	29.348151
523.000000	29.613137
524.000000	29.886761
525.000000	30.149005
526.000000	30.382048
527.000000	30.628618
528.000000	30.888415
529.000000	31.124204
530.000000	31.334748
531.000000	31.533300
532.000000	31.739286
533.000000	31.947126
534.000000	32.137452
535.000000	32.309619
536.000000	32.481213
537.000000	32.660912
538.000000	32.833241
539.000000	32.992253
540.000000	33.130681
541.000000	33.269649
542.000000	33.407166
543.000000	33.527694
544.000000	33.660607
545.000000	33.773350
546.000000	33.854148
547.000000	33.960874
548.000000	34.061903
549.000000	34.145040
550.000000	34.228928
551.000000	34.301630
552.000000	34.354789
553.000000	34.400046
554.000000	34.449913
555.000000	34.485914
556.000000	34.522541
557.000000	34.544713
558.000000	34.550962
559.000000	34.562603
560.000000	34.195585
561.000000	34.181155
562.000000	34.190785
563.000000	34.192964
564.000000	34.194952
565.000000	34.183419
566.000000	34.154842
567.000000	34.130170
568.000000	34.086200
569.000000	34.064662
570.000000	34.041109
571.000000	34.001424
572.000000	33.946915
573.000000	33.906306
574.000000	33.842257
575.000000	33.784417
576.000000	33.709029
577.000000	33.651786
578.000000	33.552856
579.000000	33.483687
580.000000	33.419750
581.000000	33.323857
582.000000	33.230520
583.000000	33.128558
584.000000	33.031484
585.000000	32.920634
586.000000	32.818408
587.000000	32.727789
588.000000	32.622202
589.000000	32.538735
590.000000	32.453538
591.000000	32.363820
592.000000	32.274618
593.000000	32.178367
594.000000	32.112845
595.000000	32.032639
596.000000	31.948519
597.000000	31.883108
598.000000	31.818733
599.000000	31.743427
600.000000	31.674800
601.000000	31.627517
602.000000	31.576298
603.000000	31.554354
604.000000	31.514122
605.000000	31.489923
606.000000	31.470983
607.000000	31.459391
608.000000	31.464820
609.000000	31.491728
610.000000	31.526951
611.000000	31.560061
612.000000	31.608251
613.000000	31.656594
614.000000	31.706829
615.000000	31.786327
616.000000	31.877869
617.000000	31.992956
618.000000	32.090989
619.000000	32.205439
620.000000	32.346477
621.000000	32.459495
622.000000	32.566548
623.000000	32.701091
624.000000	32.849879
625.000000	33.008304
626.000000	33.144638
627.000000	33.305009
628.000000	33.467478
629.000000	33.631435
630.000000	33.807907
631.000000	33.973089
632.000000	34.140411
633.000000	34.317097
634.000000	34.494853
635.000000	34.685295
636.000000	34.854984
637.000000	35.043824
638.000000	35.234112
639.000000	35.425729
640.000000	35.621175
641.000000	35.811450
642.000000	35.984070
643.000000	36.196159
644.000000	36.385967
645.000000	36.577437
646.000000	36.772266
647.000000	36.929678
648.000000	37.119350
649.000000	37.277906
650.000000	37.463407
651.000000	37.626123
652.000000	37.798306
653.000000	37.958825
654.000000	38.139980
655.000000	38.314178
656.000000	38.494867
657.000000	38.674484
658.000000	38.838306
659.000000	39.026081
660.000000	39.210133
661.000000	39.383903
662.000000	39.585250
663.000000	39.778413
664.000000	39.967453
665.000000	40.188653
666.000000	40.401397
667.000000	40.599668
668.000000	40.797555
669.000000	40.987550
670.000000	41.199461
671.000000	41.432836
672.000000	41.642068
673.000000	41.857565
674.000000	42.076725
675.000000	42.290484
676.000000	42.503465
677.000000	42.719078
678.000000	42.931627
679.000000	43.142698
680.000000	43.341158
681.000000	43.528602
682.000000	43.719821
683.000000	43.911303
684.000000	44.112843
685.000000	44.304757
686.000000	44.477544
687.000000	44.608575
688.000000	44.716546
689.000000	44.887040
690.000000	45.066045
691.000000	45.232190
692.000000	45.420831
693.000000	45.581079
694.000000	45.738793
695.000000	45.877208
696.000000	46.030494
697.000000	46.141929
698.000000	46.238874
699.000000	46.393617
700.000000	46.549562
701.000000	46.664747
702.000000	46.824376
703.000000	46.960696
704.000000	47.086020
705.000000	47.197508
706.000000	47.299851
707.000000	47.415675
708.000000	47.522930
709.000000	47.637097
710.000000	47.761723
711.000000	47.832816
712.000000	47.905866
713.000000	48.005967
714.000000	48.121968
715.000000	48.233521
716.000000	48.280643
717.000000	48.344099
718.000000	48.403859
719.000000	48.492685
720.000000	48.553809
721.000000	48.620637
722.000000	48.685615
723.000000	48.738427
724.000000	48.794455
725.000000	48.825428
726.000000	48.879488
727.000000	48.946178
728.000000	48.979295
729.000000	48.996850
730.000000	49.042907
731.000000	49.095971
732.000000	49.122386
733.000000	49.117763
734.000000	49.095409
735.000000	49.092431
736.000000	49.099903
737.000000	49.096618
738.000000	49.085345
739.000000	49.093041
740.000000	49.071291
741.000000	49.031723
742.000000	49.015346
743.000000	48.987076
744.000000	48.934978
745.000000	48.850335
746.000000	48.782918
747.000000	48.725035
748.000000	48.678354
749.000000	48.621150
750.000000	48.566127
751.000000	48.479004
752.000000	48.372067
753.000000	48.286970
754.000000	48.212435
755.000000	48.124823
756.000000	47.997077
757.000000	47.905211
758.000000	47.811406
759.000000	47.708613
760.000000	47.606229
761.000000	47.466446
762.000000	47.307268
763.000000	47.189332
764.000000	47.058155
765.000000	46.901878
766.000000	46.790717
767.000000	46.639409
768.000000	46.498868
769.000000	46.402177
770.000000	46.305823
771.000000	46.126278
772.000000	45.950109
773.000000	45.799167
774.000000	45.644862
775.000000	45.519109
776.000000	45.349843
777.000000	45.182762
778.000000	45.048123
779.000000	44.893876
780.000000	44.725557
781.000000	44.561146
782.000000	44.420745
783.000000	44.249530
784.000000	44.080231
785.000000	43.934658
786.000000	43.810560
787.000000	43.691275
788.000000	43.542383
789.000000	43.381203
790.000000	43.229388
791.000000	43.121709
792.000000	42.990901
793.000000	42.827470
794.000000	42.724536
795.000000	42.609178
796.000000	42.449713
797.000000	42.335535
798.000000	42.213938
799.000000	42.153745
800.000000	42.077812
801.000000	41.954689
802.000000	41.807064
803.000000	41.753699
804.000000	41.659201
805.000000	41.537527
806.000000	41.431597
807.000000	41.327080
808.000000	41.261469
809.000000	41.172587
810.000000	41.072235
811.000000	40.989416
812.000000	40.914866
813.000000	40.878392
814.000000	40.810385
815.000000	40.734702
816.000000	40.678750
817.000000	40.629759
818.000000	40.572133
819.000000	40.500917
820.000000	40.460313
821.000000	40.451195
822.000000	40.393783
823.000000	40.316980
824.000000	40.265699
825.000000	40.188394
826.000000	40.196051
827.000000	40.199004
828.000000	40.186110
829.000000	40.140665
830.000000	40.174456
831.000000	40.097536
832.000000	40.043724
833.000000	40.008661
834.000000	40.044393
835.000000	39.966517
836.000000	39.942897
837.000000	39.846096
838.000000	39.905828
839.000000	39.907933
840.000000	39.868386
841.000000	39.795959
842.000000	39.638146
843.000000	39.537769
844.000000	39.528398
845.000000	39.536148
846.000000	39.445878
847.000000	39.366467
848.000000	39.380619
849.000000	39.174416
850.000000	39.101024
851.000000	39.150495
852.000000	39.037529
853.000000	38.942800
854.000000	38.763948
855.000000	38.817242
856.000000	38.766449
857.000000	38.727887
858.000000	38.741233
859.000000	38.822800
860.000000	38.691800
861.000000	38.563267
862.000000	38.451767
863.000000	38.316033
864.000000	38.197500
865.000000	38.101067
866.000000	37.963867
867.000000	37.838133
868.000000	37.708767
869.000000	37.595733
870.000000	37.471033
871.000000	37.368900
872.000000	37.276900
873.000000	37.138633
874.000000	37.040433
875.000000	36.964633
876.000000	36.868933
877.000000	36.778400
878.000000	36.706033
879.000000	36.629033
880.000000	36.529300
881.000000	36.453133
882.000000	36.385633
883.000000	36.333800
884.000000	36.282733
885.000000	36.231733
886.000000	36.129200
887.000000	36.055733
888.000000	36.008367
889.000000	35.973067
890.000000	35.908800
891.000000	35.863200
892.000000	35.830500
893.000000	35.758267
894.000000	35.704700
895.000000	35.646800
896.000000	35.613733
897.000000	35.588033
898.000000	35.519333
899.000000	35.493133
900.000000	35.456067
901.000000	35.399600
902.000000	35.377733
903.000000	35.340533
904.000000	35.315167
905.000000	35.289967
906.000000	35.257833
907.000000	35.241667
908.000000	35.219367
909.000000	35.216533
910.000000	35.222267
911.000000	35.240067
912.000000	35.232633
913.000000	35.214667
914.000000	35.232967
915.000000	35.265567
916.000000	35.298867
917.000000	35.329700
918.000000	35.317000
919.000000	35.346100
920.000000	35.371933
921.000000	35.391300
922.000000	35.415867
923.000000	35.455433
924.000000	35.493267
925.000000	35.508100
926.000000	35.555500
927.000000	35.595433
928.000000	35.638900
929.000000	35.687267
930.000000	35.740167
931.000000	35.766967
932.000000	35.800233
933.000000	35.837933
934.000000	35.874000
935.000000	35.900733
936.000000	35.951867
937.000000	35.985533
938.000000	36.030433
939.000000	36.076833
940.000000	36.124367
941.000000	36.192133
942.000000	36.240667
943.000000	36.278967
944.000000	36.352167
945.000000	36.416000
946.000000	36.504600
947.000000	36.557100
948.000000	36.615600
949.000000	36.673200
950.000000	36.735433
951.000000	36.792433
952.000000	36.850300
953.000000	36.899900
954.000000	36.958100
955.000000	37.032500
956.000000	37.067733
957.000000	37.115400
958.000000	37.157167
959.000000	37.216567
960.000000	37.268067
961.000000	37.326167
962.000000	37.366400
963.000000	37.417367
964.000000	37.486667
965.000000	37.547367
966.000000	37.600533
967.000000	37.651533
968.000000	37.708367
969.000000	37.784133
970.000000	37.835000
971.000000	37.883400
972.000000	37.944533
973.000000	37.989967
974.000000	38.033800
975.000000	38.093400
976.000000	38.161200
977.000000	38.215900
978.000000	38.270267
979.000000	38.321700
980.000000	38.375200
981.000000	38.419500
982.000000	38.467533
983.000000	38.525600
984.000000	38.568133
985.000000	38.620367
986.000000	38.687267
987.000000	38.738900
988.000000	38.781100
989.000000	38.825733
990.000000	38.879800
991.000000	38.933033
992.000000	38.974733
993.000000	39.031933
994.000000	39.096033
995.000000	39.135233
996.000000	39.196467
997.000000	39.255067
998.000000	39.293367
999.000000	39.336267
1000.000000	39.388767
1001.000000	39.441167
1002.000000	39.498667
1003.000000	39.556900
1004.000000	39.601967
1005.000000	39.645667
1006.000000	39.684633
1007.000000	39.733733
1008.000000	39.779767
1009.000000	39.824100
1010.000000	39.879767
1011.000000	39.933867
1012.000000	39.986600
1013.000000	40.035633
1014.000000	40.085567
1015.000000	40.154567
1016.000000	40.226000
1017.000000	40.273067
1018.000000	40.339300
1019.000000	40.413700
1020.000000	40.483167
1021.000000	40.549833
1022.000000	40.618500
1023.000000	40.692567
1024.000000	40.751733
1025.000000	40.817167
1026.000000	40.890900
1027.000000	40.956300
1028.000000	41.027267
1029.000000	41.091333
1030.000000	41.159300
1031.000000	41.230933
1032.000000	41.292000
1033.000000	41.353033
1034.000000	41.418067
1035.000000	41.475533
1036.000000	41.520600
1037.000000	41.584967
1038.000000	41.654633
1039.000000	41.708567
1040.000000	41.758200
1041.000000	41.811533
1042.000000	41.862000
1043.000000	41.917900
1044.000000	41.973133
1045.000000	42.026867
1046.000000	42.089333
1047.000000	42.148067
1048.000000	42.199633
1049.000000	42.255433
1050.000000	42.327400
1051.000000	42.388300
1052.000000	42.439567
1053.000000	42.487600
1054.000000	42.551633
1055.000000	42.623900
1056.000000	42.682567
1057.000000	42.743567
1058.000000	42.811000
1059.000000	42.875333
1060.000000	42.939767
1061.000000	42.995700
1062.000000	43.054200
1063.000000	43.130267
1064.000000	43.183000
1065.000000	43.247400
1066.000000	43.311433
1067.000000	43.369000
1068.000000	43.437067
1069.000000	43.496000
1070.000000	43.555033
1071.000000	43.618000
1072.000000	43.675567
1073.000000	43.734433
1074.000000	43.791467
1075.000000	43.841367
1076.000000	43.898900
1077.000000	43.961333
1078.000000	44.015567
1079.000000	44.060333
1080.000000	44.116067
1081.000000	44.170000
1082.000000	44.224033
1083.000000	44.278000
1084.000000	44.330367
1085.000000	44.374600
1086.000000	44.447500
1087.000000	44.500733
1088.000000	44.547533
1089.000000	44.597833
1090.000000	44.649833
1091.000000	44.695067
1092.000000	44.741167
1093.000000	44.780367
1094.000000	44.832733
1095.000000	44.880967
1096.000000	44.926033
1097.000000	44.969800
1098.000000	45.015100
1099.000000	45.042833
1100.000000	45.097033
1101.000000	45.127000
1102.000000	45.156767
1103.000000	45.184500
1104.000000	45.213333
1105.000000	45.251167
1106.000000	45.279500
1107.000000	45.316300
1108.000000	45.343767
1109.000000	45.372100
1110.000000	45.393800
1111.000000	45.427300
1112.000000	45.464767
1113.000000	45.495600
1114.000000	45.524333
1115.000000	45.548200
1116.000000	45.580533
1117.000000	45.609567
1118.000000	45.629967
1119.000000	45.642700
1120.000000	45.643500
1121.000000	45.645467
1122.000000	45.651333
1123.000000	45.637333
1124.000000	45.637933
1125.000000	45.614833
1126.000000	45.602867
1127.000000	45.567567
1128.000000	45.546267
1129.000000	45.480267
1130.000000	45.382500
1131.000000	45.297933
1132.000000	45.191333
1133.000000	45.103300
1134.000000	45.017200
1135.000000	44.836467
1136.000000	44.656133
1137.000000	44.492333
1138.000000	44.346900
1139.000000	44.200833
1140.000000	44.050267
1141.000000	43.902033
1142.000000	43.752600
1143.000000	43.627133
1144.000000	43.502433
1145.000000	43.397667
1146.000000	43.319967
1147.000000	43.274267
1148.000000	43.262333
1149.000000	43.249967
1150.000000	43.256033
1151.000000	43.256533
1152.000000	43.263100
1153.000000	43.244933
1154.000000	43.194167
1155.000000	43.132700
1156.000000	43.037567
1157.000000	42.918433
1158.000000	42.762833
1159.000000	42.590600
1160.000000	42.430067
1161.000000	42.265867
1162.000000	42.070900
1163.000000	41.900133
1164.000000	41.709567
1165.000000	41.521667
1166.000000	41.324867
1167.000000	41.136767
