PE UV       SUBTECH     SPECTRUM    ASCII       PEDS        4.00        
   -1
CICIMAUCR0141-3.Sample.ASC
24/04/22
09:38:58.00
24/04/22
09:38:58.00
Vinicio Soto Monge
C. kalinini
250,000000
1
Lambda 1050
1050L1511233
PerkinElmer UV WinLab 6.3.2.0749 / 2.02.05 Lambda 900 UV/VIS/NIR, Aug  7 2015 09:38:08

0
0
3350/servo 860,8/2
0
0
UV/VIS
1
1
1
DoubleDePol,CommonBeamDepol,RBeamAtt,SBeamAtt,60mm sphere, WB InGaAs Detector
0
0
0
0
Program
Program
3350/servo 860,8/2
3350/0,2 860,8/0,2
3350/0,2 860,8/0,2
0
15.00
 
 
 
0
 
860,8
319,2
860,8
Front
100
on
S:100 R:100
0
0
0
0
 
0
 
 
 
0
 
 
0
0
0
0
0
 
 
 
 
0
0


0
0
#HDR
-1
-1
#GR
nm
%R
1.0
0.0
2500,000000
-1,000000
2251
8
96,279600
5,742600
#DATA
250.000000	6.186394
251.000000	6.185418
252.000000	6.178206
253.000000	6.152346
254.000000	6.164803
255.000000	6.150449
256.000000	6.121582
257.000000	6.114350
258.000000	6.077552
259.000000	6.108213
260.000000	6.072932
261.000000	6.052085
262.000000	6.048256
263.000000	6.018738
264.000000	5.972123
265.000000	5.946093
266.000000	5.933855
267.000000	5.917036
268.000000	5.923485
269.000000	5.878227
270.000000	5.865782
271.000000	5.855172
272.000000	5.808302
273.000000	5.787434
274.000000	5.814059
275.000000	5.819860
276.000000	5.799499
277.000000	5.794611
278.000000	5.801216
279.000000	5.773157
280.000000	5.781023
281.000000	5.768632
282.000000	5.770471
283.000000	5.730056
284.000000	5.763881
285.000000	5.743676
286.000000	5.756245
287.000000	5.740049
288.000000	5.722411
289.000000	5.723696
290.000000	5.710309
291.000000	5.711657
292.000000	5.735627
293.000000	5.707692
294.000000	5.706800
295.000000	5.717044
296.000000	5.704502
297.000000	5.702441
298.000000	5.699979
299.000000	5.694059
300.000000	5.672885
301.000000	5.657233
302.000000	5.687420
303.000000	5.690047
304.000000	5.643234
305.000000	5.669103
306.000000	5.702608
307.000000	5.685348
308.000000	5.679284
309.000000	5.678392
310.000000	5.663875
311.000000	5.683937
312.000000	5.639050
313.000000	5.680875
314.000000	5.626647
315.000000	5.664641
316.000000	5.704956
317.000000	5.942526
318.000000	5.863450
319.000000	5.975392
320.000000	5.919830
321.000000	5.863573
322.000000	5.973823
323.000000	5.826689
324.000000	5.905387
325.000000	5.839660
326.000000	5.733648
327.000000	5.804489
328.000000	5.766434
329.000000	5.771872
330.000000	5.809906
331.000000	5.859793
332.000000	5.775013
333.000000	5.768740
334.000000	5.810597
335.000000	5.687315
336.000000	5.774162
337.000000	5.750836
338.000000	5.748537
339.000000	5.722472
340.000000	5.735796
341.000000	5.781370
342.000000	5.779364
343.000000	5.783408
344.000000	5.815894
345.000000	5.729374
346.000000	5.809384
347.000000	5.798157
348.000000	5.824717
349.000000	5.797495
350.000000	5.810653
351.000000	5.784620
352.000000	5.805503
353.000000	5.856499
354.000000	5.873899
355.000000	5.866659
356.000000	5.865622
357.000000	5.895242
358.000000	5.943961
359.000000	5.940983
360.000000	5.975892
361.000000	6.022724
362.000000	6.010079
363.000000	5.981682
364.000000	6.033869
365.000000	6.045046
366.000000	6.035074
367.000000	6.055814
368.000000	6.091240
369.000000	6.046206
370.000000	6.024666
371.000000	6.060347
372.000000	6.100964
373.000000	6.122463
374.000000	6.093685
375.000000	6.181120
376.000000	6.326843
377.000000	6.314900
378.000000	6.336332
379.000000	6.363718
380.000000	6.389479
381.000000	6.421121
382.000000	6.456959
383.000000	6.494968
384.000000	6.539602
385.000000	6.581567
386.000000	6.625265
387.000000	6.663247
388.000000	6.711468
389.000000	6.766093
390.000000	6.822385
391.000000	6.893761
392.000000	6.955144
393.000000	7.023745
394.000000	7.103315
395.000000	7.187936
396.000000	7.288322
397.000000	7.382923
398.000000	7.483520
399.000000	7.595778
400.000000	7.724225
401.000000	7.860147
402.000000	8.016328
403.000000	8.187769
404.000000	8.364157
405.000000	8.551025
406.000000	8.755805
407.000000	8.977320
408.000000	9.216650
409.000000	9.473654
410.000000	9.746951
411.000000	10.047966
412.000000	10.369999
413.000000	10.706200
414.000000	11.059841
415.000000	11.437887
416.000000	11.834001
417.000000	12.243899
418.000000	12.675001
419.000000	13.120839
420.000000	13.582981
421.000000	14.058576
422.000000	14.551139
423.000000	15.050110
424.000000	15.557808
425.000000	16.072971
426.000000	16.587314
427.000000	17.111733
428.000000	17.625257
429.000000	18.126924
430.000000	18.632615
431.000000	19.147399
432.000000	19.660936
433.000000	20.156868
434.000000	20.638853
435.000000	21.121356
436.000000	21.583193
437.000000	22.027233
438.000000	22.460265
439.000000	22.883429
440.000000	23.288269
441.000000	23.677012
442.000000	24.071491
443.000000	24.443498
444.000000	24.790354
445.000000	25.129923
446.000000	25.456511
447.000000	25.763361
448.000000	26.046034
449.000000	26.332228
450.000000	26.610360
451.000000	26.855079
452.000000	27.103557
453.000000	27.337164
454.000000	27.557306
455.000000	27.776155
456.000000	27.972930
457.000000	28.148823
458.000000	28.311452
459.000000	28.471802
460.000000	28.618965
461.000000	28.746987
462.000000	28.838433
463.000000	28.934264
464.000000	29.020010
465.000000	29.076388
466.000000	29.124429
467.000000	29.153802
468.000000	29.153412
469.000000	29.136454
470.000000	29.098833
471.000000	29.045406
472.000000	28.968637
473.000000	28.879818
474.000000	28.768121
475.000000	28.647284
476.000000	28.497411
477.000000	28.328626
478.000000	28.161311
479.000000	27.983610
480.000000	27.806822
481.000000	27.641642
482.000000	27.469316
483.000000	27.301552
484.000000	27.131258
485.000000	26.983345
486.000000	26.866855
487.000000	26.780789
488.000000	26.730233
489.000000	26.720804
490.000000	26.764252
491.000000	26.839117
492.000000	26.974560
493.000000	27.191474
494.000000	27.453804
495.000000	27.757119
496.000000	28.110232
497.000000	28.528183
498.000000	28.983576
499.000000	29.489398
500.000000	30.035276
501.000000	30.606370
502.000000	31.207623
503.000000	31.842671
504.000000	32.479954
505.000000	33.126581
506.000000	33.777238
507.000000	34.428626
508.000000	35.080484
509.000000	35.732538
510.000000	36.366316
511.000000	37.011285
512.000000	37.643339
513.000000	38.278812
514.000000	38.903502
515.000000	39.534611
516.000000	40.166588
517.000000	40.805850
518.000000	41.431686
519.000000	42.081410
520.000000	42.744384
521.000000	43.408074
522.000000	44.100217
523.000000	44.817400
524.000000	45.556843
525.000000	46.298673
526.000000	47.074805
527.000000	47.846547
528.000000	48.648324
529.000000	49.471289
530.000000	50.320134
531.000000	51.189835
532.000000	52.081658
533.000000	53.008476
534.000000	53.925649
535.000000	54.836325
536.000000	55.767399
537.000000	56.679293
538.000000	57.574640
539.000000	58.454970
540.000000	59.346105
541.000000	60.212689
542.000000	61.048312
543.000000	61.852574
544.000000	62.644602
545.000000	63.384060
546.000000	64.098793
547.000000	64.765726
548.000000	65.410327
549.000000	66.025943
550.000000	66.624165
551.000000	67.178254
552.000000	67.717733
553.000000	68.228854
554.000000	68.717456
555.000000	69.160298
556.000000	69.612058
557.000000	70.038919
558.000000	70.446748
559.000000	70.815587
560.000000	71.169493
561.000000	71.517333
562.000000	71.829809
563.000000	72.153419
564.000000	72.463513
565.000000	72.754057
566.000000	72.998944
567.000000	73.250746
568.000000	73.479526
569.000000	73.684121
570.000000	73.867572
571.000000	74.020347
572.000000	74.165883
573.000000	74.338655
574.000000	74.468879
575.000000	74.588176
576.000000	74.710926
577.000000	74.792468
578.000000	74.861974
579.000000	74.901501
580.000000	74.927905
581.000000	74.907476
582.000000	74.871779
583.000000	74.821566
584.000000	74.771769
585.000000	74.689136
586.000000	74.550246
587.000000	74.433626
588.000000	74.227381
589.000000	74.046959
590.000000	73.801829
591.000000	73.508524
592.000000	73.210997
593.000000	72.878003
594.000000	72.509602
595.000000	72.112518
596.000000	71.751106
597.000000	71.322112
598.000000	70.909332
599.000000	70.481587
600.000000	70.018202
601.000000	69.573089
602.000000	69.036738
603.000000	68.553364
604.000000	68.021564
605.000000	67.525460
606.000000	66.994001
607.000000	66.489231
608.000000	65.946359
609.000000	65.423386
610.000000	64.934386
611.000000	64.408662
612.000000	63.914421
613.000000	63.418294
614.000000	62.912197
615.000000	62.434649
616.000000	61.978926
617.000000	61.517569
618.000000	61.101717
619.000000	60.670876
620.000000	60.313182
621.000000	59.975906
622.000000	59.662831
623.000000	59.414485
624.000000	59.180601
625.000000	59.013367
626.000000	58.847523
627.000000	58.735780
628.000000	58.659051
629.000000	58.603572
630.000000	58.526001
631.000000	58.475740
632.000000	58.465913
633.000000	58.440036
634.000000	58.417315
635.000000	58.425496
636.000000	58.423576
637.000000	58.419743
638.000000	58.431952
639.000000	58.447851
640.000000	58.476856
641.000000	58.518136
642.000000	58.589622
643.000000	58.668802
644.000000	58.741937
645.000000	58.854647
646.000000	58.944889
647.000000	59.074925
648.000000	59.192850
649.000000	59.330568
650.000000	59.472624
651.000000	59.570701
652.000000	59.680300
653.000000	59.801086
654.000000	59.867935
655.000000	59.954234
656.000000	60.015655
657.000000	60.045831
658.000000	60.113126
659.000000	60.148744
660.000000	60.187569
661.000000	60.232634
662.000000	60.335542
663.000000	60.421306
664.000000	60.516758
665.000000	60.651889
666.000000	60.812859
667.000000	61.005944
668.000000	61.208217
669.000000	61.458282
670.000000	61.726079
671.000000	62.028507
672.000000	62.324947
673.000000	62.655458
674.000000	62.933697
675.000000	63.277661
676.000000	63.616784
677.000000	63.952430
678.000000	64.301338
679.000000	64.666742
680.000000	65.055750
681.000000	65.416116
682.000000	65.795298
683.000000	66.182705
684.000000	66.569206
685.000000	66.998041
686.000000	67.411784
687.000000	67.831028
688.000000	68.225906
689.000000	68.645856
690.000000	69.068698
691.000000	69.497806
692.000000	69.897279
693.000000	70.276987
694.000000	70.630619
695.000000	70.986572
696.000000	71.352952
697.000000	71.667242
698.000000	71.950350
699.000000	72.302479
700.000000	72.590577
701.000000	72.866293
702.000000	73.135837
703.000000	73.416256
704.000000	73.698190
705.000000	73.974876
706.000000	74.261859
707.000000	74.537550
708.000000	74.864195
709.000000	75.161972
710.000000	75.455281
711.000000	75.780890
712.000000	76.133634
713.000000	76.493182
714.000000	76.858371
715.000000	77.245586
716.000000	77.646469
717.000000	78.050125
718.000000	78.501707
719.000000	78.905673
720.000000	79.317431
721.000000	79.789850
722.000000	80.246117
723.000000	80.687782
724.000000	81.186195
725.000000	81.662398
726.000000	82.138051
727.000000	82.614435
728.000000	83.098317
729.000000	83.609312
730.000000	84.090091
731.000000	84.561635
732.000000	85.067756
733.000000	85.567814
734.000000	86.046968
735.000000	86.520396
736.000000	86.993949
737.000000	87.451897
738.000000	87.831413
739.000000	88.285041
740.000000	88.721621
741.000000	89.041190
742.000000	89.410462
743.000000	89.819582
744.000000	90.151553
745.000000	90.446588
746.000000	90.771146
747.000000	91.058696
748.000000	91.346263
749.000000	91.642124
750.000000	91.866464
751.000000	92.114217
752.000000	92.381542
753.000000	92.590321
754.000000	92.790300
755.000000	92.976207
756.000000	93.148059
757.000000	93.322848
758.000000	93.487893
759.000000	93.652971
760.000000	93.774974
761.000000	93.896607
762.000000	94.029996
763.000000	94.166972
764.000000	94.266002
765.000000	94.345006
766.000000	94.370959
767.000000	94.423512
768.000000	94.468346
769.000000	94.481074
770.000000	94.514282
771.000000	94.554475
772.000000	94.543286
773.000000	94.569538
774.000000	94.528599
775.000000	94.464860
776.000000	94.481712
777.000000	94.484108
778.000000	94.457546
779.000000	94.436254
780.000000	94.385059
781.000000	94.318826
782.000000	94.288550
783.000000	94.253553
784.000000	94.161596
785.000000	94.133392
786.000000	94.030664
787.000000	93.962688
788.000000	93.946392
789.000000	93.813363
790.000000	93.717771
791.000000	93.635084
792.000000	93.527026
793.000000	93.467691
794.000000	93.450871
795.000000	93.349347
796.000000	93.240414
797.000000	93.189827
798.000000	93.148938
799.000000	93.139024
800.000000	92.935941
801.000000	92.886062
802.000000	92.851814
803.000000	92.735300
804.000000	92.600840
805.000000	92.559989
806.000000	92.418958
807.000000	92.234619
808.000000	92.228518
809.000000	92.044213
810.000000	91.921736
811.000000	91.760036
812.000000	91.646884
813.000000	91.426336
814.000000	91.289792
815.000000	91.135223
816.000000	90.906501
817.000000	90.677308
818.000000	90.377152
819.000000	90.185193
820.000000	90.011484
821.000000	89.670291
822.000000	89.411791
823.000000	89.063127
824.000000	88.843503
825.000000	88.426064
826.000000	88.125132
827.000000	87.835397
828.000000	87.444169
829.000000	87.102113
830.000000	86.634126
831.000000	86.225973
832.000000	85.850818
833.000000	85.483099
834.000000	85.032025
835.000000	84.568639
836.000000	84.080496
837.000000	83.642930
838.000000	83.252513
839.000000	82.795662
840.000000	82.465476
841.000000	81.966268
842.000000	81.461332
843.000000	81.185337
844.000000	80.633099
845.000000	80.107470
846.000000	79.637336
847.000000	79.404639
848.000000	78.881025
849.000000	78.464790
850.000000	77.914050
851.000000	77.764064
852.000000	77.147257
853.000000	77.038663
854.000000	76.604044
855.000000	75.990327
856.000000	75.656942
857.000000	75.099960
858.000000	75.593933
859.000000	75.096967
860.000000	74.936300
861.000000	74.825500
862.000000	74.721867
863.000000	74.547767
864.000000	74.397467
865.000000	74.214300
866.000000	74.057700
867.000000	73.862033
868.000000	73.703000
869.000000	73.513733
870.000000	73.351133
871.000000	73.163400
872.000000	73.004533
873.000000	72.817000
874.000000	72.631567
875.000000	72.467667
876.000000	72.312167
877.000000	72.155167
878.000000	72.004133
879.000000	71.844500
880.000000	71.691833
881.000000	71.554300
882.000000	71.408000
883.000000	71.259533
884.000000	71.138667
885.000000	71.012433
886.000000	70.861600
887.000000	70.729000
888.000000	70.585433
889.000000	70.454767
890.000000	70.324500
891.000000	70.214467
892.000000	70.086233
893.000000	69.955367
894.000000	69.840967
895.000000	69.722867
896.000000	69.589200
897.000000	69.480400
898.000000	69.366000
899.000000	69.233900
900.000000	69.119667
901.000000	69.017433
902.000000	68.902767
903.000000	68.789933
904.000000	68.633067
905.000000	68.504800
906.000000	68.386767
907.000000	68.271500
908.000000	68.154967
909.000000	68.008000
910.000000	67.864633
911.000000	67.724600
912.000000	67.626533
913.000000	67.490533
914.000000	67.338500
915.000000	67.224400
916.000000	67.101700
917.000000	66.976367
918.000000	66.867833
919.000000	66.758933
920.000000	66.631433
921.000000	66.529800
922.000000	66.383700
923.000000	66.284033
924.000000	66.161533
925.000000	66.047300
926.000000	65.927667
927.000000	65.789967
928.000000	65.679400
929.000000	65.577167
930.000000	65.457300
931.000000	65.349533
932.000000	65.239767
933.000000	65.093533
934.000000	64.985500
935.000000	64.868167
936.000000	64.750167
937.000000	64.631433
938.000000	64.518833
939.000000	64.389067
940.000000	64.281267
941.000000	64.160633
942.000000	64.032933
943.000000	63.920700
944.000000	63.806667
945.000000	63.683367
946.000000	63.564900
947.000000	63.451667
948.000000	63.308600
949.000000	63.188367
950.000000	63.071867
951.000000	62.936367
952.000000	62.826733
953.000000	62.705500
954.000000	62.598600
955.000000	62.476600
956.000000	62.350567
957.000000	62.232867
958.000000	62.128733
959.000000	62.022700
960.000000	61.905067
961.000000	61.801100
962.000000	61.682567
963.000000	61.588600
964.000000	61.470767
965.000000	61.364067
966.000000	61.277967
967.000000	61.165400
968.000000	61.068067
969.000000	60.971433
970.000000	60.883067
971.000000	60.792767
972.000000	60.701200
973.000000	60.621133
974.000000	60.539700
975.000000	60.462200
976.000000	60.379567
977.000000	60.315367
978.000000	60.241333
979.000000	60.172833
980.000000	60.094033
981.000000	60.031167
982.000000	59.960300
983.000000	59.896033
984.000000	59.831267
985.000000	59.769133
986.000000	59.706367
987.000000	59.652967
988.000000	59.598033
989.000000	59.553567
990.000000	59.495067
991.000000	59.456500
992.000000	59.415967
993.000000	59.377300
994.000000	59.333433
995.000000	59.302833
996.000000	59.267167
997.000000	59.231233
998.000000	59.203233
999.000000	59.179033
1000.000000	59.150567
1001.000000	59.126767
1002.000000	59.110067
1003.000000	59.096100
1004.000000	59.076833
1005.000000	59.062067
1006.000000	59.053267
1007.000000	59.035267
1008.000000	59.020233
1009.000000	59.018500
1010.000000	59.021300
1011.000000	59.028633
1012.000000	59.023033
1013.000000	59.022500
1014.000000	59.031500
1015.000000	59.040333
1016.000000	59.052000
1017.000000	59.074833
1018.000000	59.096433
1019.000000	59.109767
1020.000000	59.130133
1021.000000	59.163300
1022.000000	59.186333
1023.000000	59.217467
1024.000000	59.260100
1025.000000	59.286967
1026.000000	59.322600
1027.000000	59.366400
1028.000000	59.398533
1029.000000	59.438533
1030.000000	59.487000
1031.000000	59.536200
1032.000000	59.581700
1033.000000	59.634733
1034.000000	59.690300
1035.000000	59.736933
1036.000000	59.785633
1037.000000	59.842800
1038.000000	59.898133
1039.000000	59.955100
1040.000000	60.010533
1041.000000	60.064867
1042.000000	60.120367
1043.000000	60.177600
1044.000000	60.241067
1045.000000	60.300533
1046.000000	60.362233
1047.000000	60.433133
1048.000000	60.495833
1049.000000	60.557500
1050.000000	60.623200
1051.000000	60.688200
1052.000000	60.756333
1053.000000	60.831133
1054.000000	60.905267
1055.000000	60.973100
1056.000000	61.043000
1057.000000	61.114800
1058.000000	61.180700
1059.000000	61.259567
1060.000000	61.335800
1061.000000	61.410600
1062.000000	61.488867
1063.000000	61.564833
1064.000000	61.637367
1065.000000	61.702767
1066.000000	61.777900
1067.000000	61.863300
1068.000000	61.935233
1069.000000	62.004767
1070.000000	62.076767
1071.000000	62.150167
1072.000000	62.222667
1073.000000	62.291167
1074.000000	62.369333
1075.000000	62.453067
1076.000000	62.530200
1077.000000	62.602133
1078.000000	62.680633
1079.000000	62.758867
1080.000000	62.844700
1081.000000	62.923133
1082.000000	63.000500
1083.000000	63.083533
1084.000000	63.165233
1085.000000	63.248633
1086.000000	63.323233
1087.000000	63.407267
1088.000000	63.485733
1089.000000	63.562967
1090.000000	63.640267
1091.000000	63.723033
1092.000000	63.803467
1093.000000	63.886600
1094.000000	63.965133
1095.000000	64.037733
1096.000000	64.118567
1097.000000	64.191867
1098.000000	64.271633
1099.000000	64.345500
1100.000000	64.418433
1101.000000	64.486867
1102.000000	64.557067
1103.000000	64.632767
1104.000000	64.691500
1105.000000	64.759000
1106.000000	64.827300
1107.000000	64.898967
1108.000000	64.963333
1109.000000	65.028333
1110.000000	65.086667
1111.000000	65.144900
1112.000000	65.203733
1113.000000	65.257400
1114.000000	65.318400
1115.000000	65.379400
1116.000000	65.432633
1117.000000	65.488167
1118.000000	65.540333
1119.000000	65.591533
1120.000000	65.627467
1121.000000	65.669700
1122.000000	65.717133
1123.000000	65.764667
1124.000000	65.789533
1125.000000	65.789300
1126.000000	65.807967
1127.000000	65.808667
1128.000000	65.807567
1129.000000	65.809400
1130.000000	65.795933
1131.000000	65.757100
1132.000000	65.722667
1133.000000	65.687467
1134.000000	65.687900
1135.000000	65.664700
1136.000000	65.616867
1137.000000	65.553100
1138.000000	65.478267
1139.000000	65.435333
1140.000000	65.389833
1141.000000	65.364867
1142.000000	65.342600
1143.000000	65.305233
1144.000000	65.303200
1145.000000	65.305533
1146.000000	65.293200
1147.000000	65.286867
1148.000000	65.267300
1149.000000	65.256533
1150.000000	65.236900
1151.000000	65.220167
1152.000000	65.193900
1153.000000	65.172667
1154.000000	65.118500
1155.000000	65.064633
1156.000000	65.012067
1157.000000	64.939033
1158.000000	64.847700
1159.000000	64.768633
1160.000000	64.664167
1161.000000	64.573333
1162.000000	64.479600
1163.000000	64.372233
1164.000000	64.281400
1165.000000	64.162833
1166.000000	64.072767
1167.000000	63.966200
