PE UV       SUBTECH     SPECTRUM    ASCII       PEDS        4.00        
   -1
CICIMAUCR0098-1.ASC
24/04/03
14:55:53.00
24/04/03
14:55:53.00
Vinicio Soto Monge
C. cupreomarginata
250,000000
1
Lambda 1050
1050L1511233
PerkinElmer UV WinLab 6.3.2.0749 / 2.02.05 Lambda 900 UV/VIS/NIR, Aug  7 2015 09:38:08

0
0
3350/servo 860,8/2
0
0
UV/VIS
1
1
1
DoubleDePol,CommonBeamDepol,RBeamAtt,SBeamAtt,60mm sphere, WB InGaAs Detector
0
0
0
0
Program
Program
3350/servo 860,8/2
3350/0,2 860,8/0,2
3350/0,2 860,8/0,2
0
15.00
 
 
 
0
 
860,8
319,2
860,8
Front
100
on
S:100 R:100
0
0
0
0
 
0
 
 
 
0
 
 
0
0
0
0
0
 
 
 
 
0
0


0
0
#HDR
-1
-1
#GR
nm
%R
1.0
0.0
2500,000000
-1,000000
2251
8
55,162100
5,208800
#DATA

250.000000	nan
251.000000	nan
252.000000	nan
253.000000	nan
254.000000	nan
255.000000	nan
256.000000	nan
257.000000	nan
258.000000	nan
259.000000	5.564732
260.000000	5.545184
261.000000	5.521092
262.000000	5.501836
263.000000	5.490482
264.000000	5.473351
265.000000	5.453606
266.000000	5.433728
267.000000	5.409176
268.000000	5.385620
269.000000	5.362545
270.000000	5.343768
271.000000	5.323966
272.000000	5.311831
273.000000	5.293685
274.000000	5.277194
275.000000	5.263347
276.000000	5.249067
277.000000	5.239011
278.000000	5.226650
279.000000	5.211034
280.000000	5.200225
281.000000	5.181750
282.000000	5.169041
283.000000	5.155184
284.000000	5.138609
285.000000	5.131864
286.000000	5.119728
287.000000	5.109494
288.000000	5.104131
289.000000	5.099315
290.000000	5.092975
291.000000	5.098741
292.000000	5.088149
293.000000	5.089287
294.000000	5.091196
295.000000	5.084687
296.000000	5.082156
297.000000	5.079457
298.000000	5.064716
299.000000	5.058610
300.000000	5.054575
301.000000	5.050116
302.000000	5.052232
303.000000	5.042872
304.000000	5.042505
305.000000	5.039354
306.000000	5.038865
307.000000	5.029664
308.000000	5.031988
309.000000	5.032477
310.000000	5.033916
311.000000	5.026494
312.000000	5.022647
313.000000	5.020671
314.000000	5.019599
315.000000	5.012647
316.000000	5.007699
317.000000	5.035572
318.000000	5.051461
319.000000	5.085054
320.000000	5.129088
321.000000	5.147432
322.000000	5.179322
323.000000	5.184750
324.000000	5.212200
325.000000	5.236348
326.000000	5.248286
327.000000	5.232586
328.000000	5.222003
329.000000	5.194750
330.000000	5.156134
331.000000	5.142964
332.000000	5.134055
333.000000	5.130255
334.000000	5.099023
335.000000	5.081234
336.000000	5.065308
337.000000	5.045638
338.000000	5.043483
339.000000	5.034782
340.000000	5.025318
341.000000	5.023907
342.000000	5.007802
343.000000	5.011462
344.000000	5.008734
345.000000	5.005422
346.000000	5.017172
347.000000	5.030737
348.000000	5.034095
349.000000	5.024256
350.000000	5.026786
351.000000	5.026156
352.000000	5.019947
353.000000	5.012525
354.000000	5.013070
355.000000	5.023136
356.000000	5.017915
357.000000	5.016918
358.000000	5.015319
359.000000	5.033164
360.000000	5.032289
361.000000	5.031555
362.000000	5.033804
363.000000	5.042957
364.000000	5.045685
365.000000	5.046353
366.000000	5.057933
367.000000	5.067246
368.000000	5.074066
369.000000	5.078817
370.000000	5.092457
371.000000	5.106502
372.000000	5.113623
373.000000	5.120838
374.000000	5.132136
375.000000	5.145664
376.000000	5.152484
377.000000	5.152164
378.000000	5.153331
379.000000	5.155598
380.000000	5.156275
381.000000	5.158015
382.000000	5.167385
383.000000	5.173500
384.000000	5.181750
385.000000	5.183048
386.000000	5.188598
387.000000	5.205305
388.000000	5.222727
389.000000	5.240723
390.000000	5.260910
391.000000	5.281314
392.000000	5.302367
393.000000	5.323853
394.000000	5.345866
395.000000	5.368330
396.000000	5.391622
397.000000	5.416748
398.000000	5.444010
399.000000	5.473389
400.000000	5.504583
401.000000	5.537865
402.000000	5.573330
403.000000	5.612078
404.000000	5.656169
405.000000	5.703430
406.000000	5.754784
407.000000	5.809166
408.000000	5.869833
409.000000	5.935542
410.000000	6.006283
411.000000	6.084230
412.000000	6.169685
413.000000	6.262900
414.000000	6.362926
415.000000	6.470110
416.000000	6.584585
417.000000	6.706511
418.000000	6.834147
419.000000	6.969233
420.000000	7.112710
421.000000	7.263252
422.000000	7.419589
423.000000	7.582426
424.000000	7.751425
425.000000	7.926454
426.000000	8.107861
427.000000	8.295335
428.000000	8.487579
429.000000	8.682494
430.000000	8.879865
431.000000	9.079268
432.000000	9.280345
433.000000	9.482870
434.000000	9.687249
435.000000	9.892381
436.000000	10.097418
437.000000	10.301722
438.000000	10.505396
439.000000	10.710151
440.000000	10.913674
441.000000	11.116520
442.000000	11.319638
443.000000	11.518834
444.000000	11.712715
445.000000	11.904018
446.000000	12.093740
447.000000	12.278552
448.000000	12.457278
449.000000	12.630397
450.000000	12.798662
451.000000	12.962939
452.000000	13.121072
453.000000	13.273402
454.000000	13.423379
455.000000	13.570074
456.000000	13.709826
457.000000	13.845834
458.000000	13.979208
459.000000	14.109591
460.000000	14.236944
461.000000	14.357854
462.000000	14.473486
463.000000	14.586438
464.000000	14.693528
465.000000	14.793507
466.000000	14.888434
467.000000	14.977868
468.000000	15.061506
469.000000	15.138974
470.000000	15.210732
471.000000	15.279234
472.000000	15.343729
473.000000	15.404066
474.000000	15.461045
475.000000	15.513180
476.000000	15.561551
477.000000	15.604777
478.000000	15.643656
479.000000	15.677014
480.000000	15.702921
481.000000	15.720936
482.000000	15.731679
483.000000	15.735846
484.000000	15.734087
485.000000	15.728433
486.000000	15.721152
487.000000	15.716025
488.000000	15.716279
489.000000	15.727831
490.000000	15.756015
491.000000	15.806202
492.000000	15.883105
493.000000	15.991164
494.000000	16.134068
495.000000	16.314854
496.000000	16.534933
497.000000	16.795294
498.000000	17.095089
499.000000	17.430312
500.000000	17.796907
501.000000	18.191950
502.000000	18.611479
503.000000	19.046436
504.000000	19.494750
505.000000	19.953093
506.000000	20.413619
507.000000	20.874680
508.000000	21.331527
509.000000	21.783370
510.000000	22.232992
511.000000	22.679049
512.000000	23.121795
513.000000	23.567373
514.000000	24.016309
515.000000	24.469346
516.000000	24.932524
517.000000	25.405805
518.000000	25.894288
519.000000	26.402320
520.000000	26.930115
521.000000	27.479284
522.000000	28.052648
523.000000	28.648617
524.000000	29.266551
525.000000	29.907326
526.000000	30.568392
527.000000	31.252901
528.000000	31.958594
529.000000	32.682303
530.000000	33.424515
531.000000	34.180725
532.000000	34.950650
533.000000	35.730462
534.000000	36.515467
535.000000	37.302043
536.000000	38.092297
537.000000	38.879616
538.000000	39.660539
539.000000	40.434801
540.000000	41.197294
541.000000	41.948227
542.000000	42.680401
543.000000	43.391353
544.000000	44.073369
545.000000	44.724605
546.000000	45.331590
547.000000	45.890325
548.000000	46.395835
549.000000	46.841149
550.000000	47.223539
551.000000	47.547840
552.000000	47.816695
553.000000	48.039992
554.000000	48.230138
555.000000	48.395844
556.000000	48.549717
557.000000	48.698358
558.000000	48.847668
559.000000	49.001832
560.000000	49.158235
561.000000	49.313339
562.000000	49.461304
563.000000	49.594019
564.000000	49.701872
565.000000	49.776668
566.000000	49.810261
567.000000	49.804946
568.000000	49.763404
569.000000	49.686265
570.000000	49.581997
571.000000	49.457973
572.000000	49.324947
573.000000	49.192777
574.000000	49.078387
575.000000	48.984372
576.000000	48.926246
577.000000	48.900000
578.000000	48.907291
579.000000	48.944082
580.000000	49.007523
581.000000	49.085358
582.000000	49.166758
583.000000	49.242033
584.000000	49.291185
585.000000	49.309558
586.000000	49.284497
587.000000	49.213887
588.000000	49.091077
589.000000	48.918833
590.000000	48.697013
591.000000	48.432429
592.000000	48.139548
593.000000	47.820336
594.000000	47.489986
595.000000	47.153785
596.000000	46.821874
597.000000	46.495871
598.000000	46.187327
599.000000	45.890175
600.000000	45.606089
601.000000	45.333132
602.000000	45.062546
603.000000	44.788282
604.000000	44.500396
605.000000	44.200215
606.000000	43.873920
607.000000	43.521002
608.000000	43.124125
609.000000	42.695377
610.000000	42.229471
611.000000	41.728091
612.000000	41.195460
613.000000	40.646912
614.000000	40.087499
615.000000	39.514408
616.000000	38.943321
617.000000	38.378969
618.000000	37.841174
619.000000	37.325382
620.000000	36.845045
621.000000	36.406495
622.000000	36.012440
623.000000	35.665412
624.000000	35.376707
625.000000	35.153279
626.000000	34.995080
627.000000	34.904075
628.000000	34.873860
629.000000	34.909456
630.000000	35.001759
631.000000	35.142104
632.000000	35.325128
633.000000	35.537231
634.000000	35.764939
635.000000	36.002008
636.000000	36.235709
637.000000	36.460812
638.000000	36.674278
639.000000	36.871047
640.000000	37.050055
641.000000	37.211763
642.000000	37.359267
643.000000	37.491512
644.000000	37.613983
645.000000	37.731036
646.000000	37.846047
647.000000	37.956948
648.000000	38.069109
649.000000	38.181100
650.000000	38.296930
651.000000	38.415196
652.000000	38.532766
653.000000	38.649725
654.000000	38.762864
655.000000	38.871075
656.000000	38.970884
657.000000	39.063563
658.000000	39.144568
659.000000	39.219787
660.000000	39.278487
661.000000	39.323481
662.000000	39.352314
663.000000	39.374045
664.000000	39.385267
665.000000	39.383151
666.000000	39.371316
667.000000	39.357281
668.000000	39.342935
669.000000	39.322738
670.000000	39.310594
671.000000	39.309201
672.000000	39.327527
673.000000	39.356848
674.000000	39.406603
675.000000	39.476206
676.000000	39.567700
677.000000	39.675976
678.000000	39.797657
679.000000	39.934201
680.000000	40.082071
681.000000	40.238493
682.000000	40.395742
683.000000	40.557902
684.000000	40.718792
685.000000	40.876643
686.000000	41.035595
687.000000	41.193701
688.000000	41.354788
689.000000	41.517795
690.000000	41.680547
691.000000	41.845247
692.000000	42.005413
693.000000	42.161909
694.000000	42.318340
695.000000	42.480632
696.000000	42.637693
697.000000	42.792675
698.000000	42.947197
699.000000	43.098049
700.000000	43.238234
701.000000	43.371956
702.000000	43.511031
703.000000	43.648139
704.000000	43.779105
705.000000	43.900476
706.000000	44.016654
707.000000	44.129727
708.000000	44.229932
709.000000	44.322394
710.000000	44.409165
711.000000	44.484225
712.000000	44.545982
713.000000	44.598427
714.000000	44.640317
715.000000	44.674644
716.000000	44.707794
717.000000	44.732479
718.000000	44.755460
719.000000	44.780173
720.000000	44.808554
721.000000	44.840623
722.000000	44.874479
723.000000	44.909191
724.000000	44.949727
725.000000	44.992171
726.000000	45.030882
727.000000	45.073599
728.000000	45.113984
729.000000	45.144388
730.000000	45.168978
731.000000	45.189777
732.000000	45.211969
733.000000	45.239522
734.000000	45.268863
735.000000	45.301873
736.000000	45.339275
737.000000	45.382802
738.000000	45.435454
739.000000	45.498933
740.000000	45.566673
741.000000	45.641404
742.000000	45.724233
743.000000	45.803074
744.000000	45.876760
745.000000	45.948405
746.000000	46.019654
747.000000	46.082682
748.000000	46.140808
749.000000	46.197373
750.000000	46.256328
751.000000	46.305978
752.000000	46.347116
753.000000	46.391978
754.000000	46.440039
755.000000	46.488665
756.000000	46.532078
757.000000	46.574138
758.000000	46.613977
759.000000	46.657108
760.000000	46.703749
761.000000	46.753456
762.000000	46.804480
763.000000	46.856445
764.000000	46.903819
765.000000	46.945898
766.000000	46.998700
767.000000	47.055076
768.000000	47.115207
769.000000	47.174754
770.000000	47.231921
771.000000	47.292399
772.000000	47.352097
773.000000	47.412058
774.000000	47.473345
775.000000	47.538348
776.000000	47.602072
777.000000	47.660810
778.000000	47.719398
779.000000	47.779368
780.000000	47.840401
781.000000	47.896844
782.000000	47.957003
783.000000	48.016954
784.000000	48.070095
785.000000	48.115748
786.000000	48.161852
787.000000	48.210581
788.000000	48.255763
789.000000	48.286157
790.000000	48.301736
791.000000	48.310672
792.000000	48.316570
793.000000	48.317436
794.000000	48.322064
795.000000	48.337182
796.000000	48.345018
797.000000	48.346739
798.000000	48.353936
799.000000	48.376259
800.000000	48.414687
801.000000	48.467856
802.000000	48.512897
803.000000	48.551626
804.000000	48.598154
805.000000	48.644597
806.000000	48.697709
807.000000	48.758903
808.000000	48.818130
809.000000	48.870678
810.000000	48.924393
811.000000	48.971447
812.000000	49.032066
813.000000	49.106458
814.000000	49.191291
815.000000	49.283594
816.000000	49.383243
817.000000	49.485602
818.000000	49.583079
819.000000	49.695607
820.000000	49.814814
821.000000	49.926768
822.000000	50.023031
823.000000	50.121890
824.000000	50.206122
825.000000	50.285273
826.000000	50.353051
827.000000	50.420086
828.000000	50.487319
829.000000	50.528362
830.000000	50.574551
831.000000	50.633506
832.000000	50.688923
833.000000	50.763343
834.000000	50.832786
835.000000	50.895635
836.000000	50.954279
837.000000	50.997401
838.000000	51.054088
839.000000	51.111349
840.000000	51.147049
841.000000	51.167933
842.000000	51.193709
843.000000	51.190990
844.000000	51.208327
845.000000	51.232720
846.000000	51.262813
847.000000	51.281505
848.000000	51.283189
849.000000	51.297084
850.000000	51.309736
851.000000	51.354279
852.000000	51.382481
853.000000	51.413120
854.000000	51.468039
855.000000	51.486580
856.000000	51.461840
857.000000	51.506514
858.000000	51.369180
859.000000	51.503513
860.000000	51.644377
861.000000	51.764816
862.000000	51.913189
863.000000	52.061752
864.000000	52.178020
865.000000	52.325119
866.000000	52.510572
867.000000	52.648282
868.000000	52.967910
869.000000	53.010920
870.000000	53.047870
871.000000	53.080440
872.000000	53.102230
873.000000	53.115940
874.000000	53.117280
875.000000	53.112110
876.000000	53.100270
877.000000	53.083210
878.000000	53.064860
879.000000	53.038250
880.000000	53.009510
881.000000	52.973050
882.000000	52.931880
883.000000	52.886110
884.000000	52.835240
885.000000	52.781050
886.000000	52.724800
887.000000	52.661670
888.000000	52.588420
889.000000	52.512780
890.000000	52.432710
891.000000	52.348380
892.000000	52.258130
893.000000	52.161970
894.000000	52.063310
895.000000	51.957850
896.000000	51.848510
897.000000	51.733310
898.000000	51.618000
899.000000	51.498590
900.000000	51.374020
901.000000	51.250270
902.000000	51.123520
903.000000	50.999250
904.000000	50.874890
905.000000	50.754230
906.000000	50.633100
907.000000	50.520770
908.000000	50.415230
909.000000	50.317090
910.000000	50.226860
911.000000	50.140250
912.000000	50.062710
913.000000	49.990830
914.000000	49.926800
915.000000	49.869660
916.000000	49.815520
917.000000	49.766730
918.000000	49.716420
919.000000	49.666200
920.000000	49.615680
921.000000	49.565990
922.000000	49.513320
923.000000	49.458950
924.000000	49.399930
925.000000	49.333890
926.000000	49.269790
927.000000	49.201430
928.000000	49.130480
929.000000	49.058410
930.000000	48.983430
931.000000	48.910210
932.000000	48.835920
933.000000	48.759680
934.000000	48.684550
935.000000	48.610700
936.000000	48.533440
937.000000	48.453290
938.000000	48.376230
939.000000	48.301790
940.000000	48.228750
941.000000	48.153650
942.000000	48.083140
943.000000	48.016930
944.000000	47.953250
945.000000	47.892900
946.000000	47.838760
947.000000	47.788860
948.000000	47.743460
949.000000	47.700130
950.000000	47.658950
951.000000	47.623290
952.000000	47.588410
953.000000	47.553850
954.000000	47.519830
955.000000	47.484770
956.000000	47.448250
957.000000	47.411090
958.000000	47.369750
959.000000	47.322670
960.000000	47.273090
961.000000	47.220740
962.000000	47.165280
963.000000	47.104830
964.000000	47.041580
965.000000	46.978920
966.000000	46.915860
967.000000	46.855390
968.000000	46.796510
969.000000	46.739200
970.000000	46.682410
971.000000	46.623780
972.000000	46.566460
973.000000	46.511710
974.000000	46.456880
975.000000	46.401650
976.000000	46.343550
977.000000	46.281290
978.000000	46.218000
979.000000	46.154140
980.000000	46.090470
981.000000	46.025280
982.000000	45.957640
983.000000	45.889090
984.000000	45.821270
985.000000	45.751620
986.000000	45.682680
987.000000	45.613250
988.000000	45.542170
989.000000	45.471320
990.000000	45.399910
991.000000	45.331020
992.000000	45.265090
993.000000	45.201000
994.000000	45.138150
995.000000	45.076470
996.000000	45.017200
997.000000	44.959850
998.000000	44.904900
999.000000	44.852700
1000.000000	44.804110
1001.000000	44.755360
1002.000000	44.708170
1003.000000	44.661580
1004.000000	44.616940
1005.000000	44.575250
1006.000000	44.533300
1007.000000	44.493060
1008.000000	44.454380
1009.000000	44.415220
1010.000000	44.375370
1011.000000	44.337340
1012.000000	44.302110
1013.000000	44.272240
1014.000000	44.246230
1015.000000	44.224180
1016.000000	44.209590
1017.000000	44.203850
1018.000000	44.206870
1019.000000	44.219760
1020.000000	44.242090
1021.000000	44.272230
1022.000000	44.309110
1023.000000	44.351460
1024.000000	44.398950
1025.000000	44.454350
1026.000000	44.514630
1027.000000	44.574830
1028.000000	44.636300
1029.000000	44.698220
1030.000000	44.759220
1031.000000	44.822460
1032.000000	44.885410
1033.000000	44.946110
1034.000000	45.005590
1035.000000	45.060830
1036.000000	45.114530
1037.000000	45.166510
1038.000000	45.214320
1039.000000	45.260270
1040.000000	45.304880
1041.000000	45.346630
1042.000000	45.386190
1043.000000	45.424130
1044.000000	45.459520
1045.000000	45.492520
1046.000000	45.523450
1047.000000	45.554630
1048.000000	45.586280
1049.000000	45.616880
1050.000000	45.647450
1051.000000	45.677740
1052.000000	45.707660
1053.000000	45.738610
1054.000000	45.772470
1055.000000	45.809190
1056.000000	45.846870
1057.000000	45.885190
1058.000000	45.925800
1059.000000	45.968620
1060.000000	46.012530
1061.000000	46.055950
1062.000000	46.099900
1063.000000	46.143490
1064.000000	46.186060
1065.000000	46.228380
1066.000000	46.268730
1067.000000	46.307400
1068.000000	46.344770
1069.000000	46.380120
1070.000000	46.412840
1071.000000	46.446210
1072.000000	46.479610
1073.000000	46.513560
1074.000000	46.545120
1075.000000	46.574670
1076.000000	46.605140
1077.000000	46.635570
1078.000000	46.666600
1079.000000	46.698830
1080.000000	46.731350
1081.000000	46.764320
1082.000000	46.798260
1083.000000	46.833750
1084.000000	46.871810
1085.000000	46.912110
1086.000000	46.953380
1087.000000	46.996350
1088.000000	47.041400
1089.000000	47.086210
1090.000000	47.133780
1091.000000	47.180700
1092.000000	47.227420
1093.000000	47.274760
1094.000000	47.321190
1095.000000	47.366740
1096.000000	47.412240
1097.000000	47.456860
1098.000000	47.497020
1099.000000	47.536280
1100.000000	47.574930
1101.000000	47.613420
1102.000000	47.650160
1103.000000	47.684180
1104.000000	47.717340
1105.000000	47.748570
1106.000000	47.776200
1107.000000	47.804050
1108.000000	47.831690
1109.000000	47.857480
1110.000000	47.879900
1111.000000	47.902150
1112.000000	47.923810
1113.000000	47.943550
1114.000000	47.961900
1115.000000	47.979100
1116.000000	47.997260
1117.000000	48.012280
1118.000000	48.026070
1119.000000	48.035870
1120.000000	48.042000
1121.000000	48.041630
1122.000000	48.034070
1123.000000	48.019010
1124.000000	47.994780
1125.000000	47.961690
1126.000000	47.916990
1127.000000	47.861480
1128.000000	47.789360
1129.000000	47.701800
1130.000000	47.594580
1131.000000	47.462110
1132.000000	47.302740
1133.000000	47.116340
1134.000000	46.904680
1135.000000	46.660500
1136.000000	46.379030
1137.000000	46.059790
1138.000000	45.709290
1139.000000	45.331400
1140.000000	44.932540
1141.000000	44.519350
1142.000000	44.094440
1143.000000	43.659750
1144.000000	43.222060
1145.000000	42.790430
1146.000000	42.384350
1147.000000	42.011560
1148.000000	41.680930
1149.000000	41.397420
1150.000000	41.162120
1151.000000	40.972480
1152.000000	40.828170
1153.000000	40.724990
1154.000000	40.649320
1155.000000	40.592930
1156.000000	40.534630
1157.000000	40.461330
1158.000000	40.357170
1159.000000	40.211920
1160.000000	40.019890
1161.000000	39.784580
1162.000000	39.504430
1163.000000	39.181080
1164.000000	38.821580
1165.000000	38.430720
1166.000000	38.019820
1167.000000	37.593550
1168.000000	37.163860
1169.000000	36.731310
1170.000000	36.297580
