PE UV       SUBTECH     SPECTRUM    ASCII       PEDS        4.00        
   -1
CICIMAUCR0012-3.Sample.ASC
24/04/12
09:39:08.00
24/04/12
09:39:08.00
Vinicio Soto Monge
C. cupreomarginata
250,000000
1
Lambda 1050
1050L1511233
PerkinElmer UV WinLab 6.3.2.0749 / 2.02.05 Lambda 900 UV/VIS/NIR, Aug  7 2015 09:38:08

0
0
3350/servo 860,8/2
0
0
UV/VIS
1
1
1
DoubleDePol,CommonBeamDepol,RBeamAtt,SBeamAtt,60mm sphere, WB InGaAs Detector
0
0
0
0
Program
Program
3350/servo 860,8/2
3350/0,2 860,8/0,2
3350/0,2 860,8/0,2
0
15.00
 
 
 
0
 
860,8
319,2
860,8
Front
100
on
S:100 R:100
0
0
0
0
 
0
 
 
 
0
 
 
0
0
0
0
0
 
 
 
 
0
0


0
0
#HDR
-1
-1
#GR
nm
%R
1.0
0.0
2500,000000
-1,000000
2251
8
59,329800
5,000400
#DATA
250.000000	4.415584
251.000000	4.434484
252.000000	4.402920
253.000000	4.393428
254.000000	4.421971
255.000000	4.380797
256.000000	4.394289
257.000000	4.386259
258.000000	4.385102
259.000000	4.363914
260.000000	4.361637
261.000000	4.345804
262.000000	4.306447
263.000000	4.275630
264.000000	4.243579
265.000000	4.234531
266.000000	4.227043
267.000000	4.219181
268.000000	4.214258
269.000000	4.212045
270.000000	4.206609
271.000000	4.201883
272.000000	4.165358
273.000000	4.171223
274.000000	4.158380
275.000000	4.139419
276.000000	4.123975
277.000000	4.123353
278.000000	4.117895
279.000000	4.112725
280.000000	4.095996
281.000000	4.097073
282.000000	4.097658
283.000000	4.100771
284.000000	4.076016
285.000000	4.085337
286.000000	4.091887
287.000000	4.119720
288.000000	4.101120
289.000000	4.068120
290.000000	4.074702
291.000000	4.101056
292.000000	4.090225
293.000000	4.066662
294.000000	4.082542
295.000000	4.065452
296.000000	4.039220
297.000000	4.043398
298.000000	4.046029
299.000000	4.040921
300.000000	4.060530
301.000000	4.056433
302.000000	4.051030
303.000000	4.033981
304.000000	4.060686
305.000000	4.059044
306.000000	4.031651
307.000000	4.027969
308.000000	4.054025
309.000000	4.046788
310.000000	4.031305
311.000000	4.045336
312.000000	4.025874
313.000000	4.031155
314.000000	4.045814
315.000000	4.039442
316.000000	4.142757
317.000000	4.336136
318.000000	4.154767
319.000000	4.159470
320.000000	4.219681
321.000000	4.220727
322.000000	4.214948
323.000000	4.232521
324.000000	4.141945
325.000000	4.183142
326.000000	4.255595
327.000000	4.186010
328.000000	4.123802
329.000000	4.150090
330.000000	4.167412
331.000000	4.089631
332.000000	4.086857
333.000000	4.103092
334.000000	4.059113
335.000000	4.074948
336.000000	4.099059
337.000000	4.066625
338.000000	4.037530
339.000000	4.060593
340.000000	4.044305
341.000000	4.073908
342.000000	4.071315
343.000000	4.057916
344.000000	4.042392
345.000000	4.034994
346.000000	4.056925
347.000000	4.057088
348.000000	4.043950
349.000000	4.039578
350.000000	4.086321
351.000000	4.068887
352.000000	4.118433
353.000000	4.121911
354.000000	4.137383
355.000000	4.126544
356.000000	4.158100
357.000000	4.163930
358.000000	4.180064
359.000000	4.181016
360.000000	4.179789
361.000000	4.223484
362.000000	4.258671
363.000000	4.223974
364.000000	4.256489
365.000000	4.275986
366.000000	4.319030
367.000000	4.376216
368.000000	4.351427
369.000000	4.349173
370.000000	4.400184
371.000000	4.449394
372.000000	4.482444
373.000000	4.497785
374.000000	4.547283
375.000000	4.693023
376.000000	4.748966
377.000000	4.782502
378.000000	4.836616
379.000000	4.911417
380.000000	4.997000
381.000000	5.075964
382.000000	5.152951
383.000000	5.240675
384.000000	5.335203
385.000000	5.430045
386.000000	5.538243
387.000000	5.638661
388.000000	5.747029
389.000000	5.866533
390.000000	5.983603
391.000000	6.099982
392.000000	6.234225
393.000000	6.371984
394.000000	6.490014
395.000000	6.619995
396.000000	6.760842
397.000000	6.897134
398.000000	7.027667
399.000000	7.172360
400.000000	7.314063
401.000000	7.458069
402.000000	7.595031
403.000000	7.728498
404.000000	7.871689
405.000000	8.004540
406.000000	8.138890
407.000000	8.269124
408.000000	8.403004
409.000000	8.537980
410.000000	8.667482
411.000000	8.793188
412.000000	8.908137
413.000000	9.031090
414.000000	9.145072
415.000000	9.256404
416.000000	9.367372
417.000000	9.466718
418.000000	9.574138
419.000000	9.662836
420.000000	9.757401
421.000000	9.853782
422.000000	9.944098
423.000000	10.030822
424.000000	10.112228
425.000000	10.199890
426.000000	10.277473
427.000000	10.349230
428.000000	10.425580
429.000000	10.492238
430.000000	10.565551
431.000000	10.642754
432.000000	10.719762
433.000000	10.793176
434.000000	10.865715
435.000000	10.947118
436.000000	11.026148
437.000000	11.092225
438.000000	11.179005
439.000000	11.265864
440.000000	11.346781
441.000000	11.435997
442.000000	11.510381
443.000000	11.594031
444.000000	11.692626
445.000000	11.763085
446.000000	11.817398
447.000000	11.898889
448.000000	11.979096
449.000000	12.052631
450.000000	12.127974
451.000000	12.205980
452.000000	12.287982
453.000000	12.376149
454.000000	12.462304
455.000000	12.559727
456.000000	12.656469
457.000000	12.759621
458.000000	12.859192
459.000000	12.970232
460.000000	13.090807
461.000000	13.214697
462.000000	13.352278
463.000000	13.500840
464.000000	13.663703
465.000000	13.834583
466.000000	14.015263
467.000000	14.202564
468.000000	14.398830
469.000000	14.611909
470.000000	14.839111
471.000000	15.070728
472.000000	15.315050
473.000000	15.580523
474.000000	15.856801
475.000000	16.129949
476.000000	16.433423
477.000000	16.732611
478.000000	17.048334
479.000000	17.354071
480.000000	17.713627
481.000000	18.102483
482.000000	18.491329
483.000000	18.856337
484.000000	19.195201
485.000000	19.541473
486.000000	19.882362
487.000000	20.234634
488.000000	20.583845
489.000000	20.926324
490.000000	21.296089
491.000000	21.671246
492.000000	22.043234
493.000000	22.404655
494.000000	22.783404
495.000000	23.192303
496.000000	23.591157
497.000000	23.985936
498.000000	24.394038
499.000000	24.826050
500.000000	25.262033
501.000000	25.702944
502.000000	26.151865
503.000000	26.631731
504.000000	27.118561
505.000000	27.598974
506.000000	28.087370
507.000000	28.590803
508.000000	29.111167
509.000000	29.643590
510.000000	30.197253
511.000000	30.747475
512.000000	31.312034
513.000000	31.875842
514.000000	32.447011
515.000000	33.001566
516.000000	33.575434
517.000000	34.147356
518.000000	34.691016
519.000000	35.251065
520.000000	35.805877
521.000000	36.366514
522.000000	36.931558
523.000000	37.460888
524.000000	37.977963
525.000000	38.495946
526.000000	38.985220
527.000000	39.433255
528.000000	39.885367
529.000000	40.297643
530.000000	40.706726
531.000000	41.083164
532.000000	41.447756
533.000000	41.793320
534.000000	42.097473
535.000000	42.376811
536.000000	42.606222
537.000000	42.810553
538.000000	43.014728
539.000000	43.187090
540.000000	43.339245
541.000000	43.459303
542.000000	43.563827
543.000000	43.651040
544.000000	43.720449
545.000000	43.773674
546.000000	43.788362
547.000000	43.779794
548.000000	43.772198
549.000000	43.775177
550.000000	43.750625
551.000000	43.683594
552.000000	43.635038
553.000000	43.570260
554.000000	43.478539
555.000000	43.393297
556.000000	43.306684
557.000000	43.169326
558.000000	43.034025
559.000000	42.872626
560.000000	42.620599
561.000000	42.484933
562.000000	42.344788
563.000000	42.208650
564.000000	42.039307
565.000000	41.886699
566.000000	41.732627
567.000000	41.551486
568.000000	41.372130
569.000000	41.193537
570.000000	41.004928
571.000000	40.825413
572.000000	40.651735
573.000000	40.464278
574.000000	40.259969
575.000000	40.063121
576.000000	39.862968
577.000000	39.665945
578.000000	39.459486
579.000000	39.258422
580.000000	39.036560
581.000000	38.829009
582.000000	38.628900
583.000000	38.420653
584.000000	38.207480
585.000000	38.003508
586.000000	37.821150
587.000000	37.620640
588.000000	37.447169
589.000000	37.285937
590.000000	37.127303
591.000000	36.960139
592.000000	36.802522
593.000000	36.633883
594.000000	36.477202
595.000000	36.344017
596.000000	36.197000
597.000000	36.068427
598.000000	35.940849
599.000000	35.803600
600.000000	35.664236
601.000000	35.511420
602.000000	35.376131
603.000000	35.227789
604.000000	35.063830
605.000000	34.916988
606.000000	34.790301
607.000000	34.665769
608.000000	34.521695
609.000000	34.408157
610.000000	34.305573
611.000000	34.205276
612.000000	34.124285
613.000000	34.044873
614.000000	33.984505
615.000000	33.949303
616.000000	33.928154
617.000000	33.895294
618.000000	33.885303
619.000000	33.890477
620.000000	33.906739
621.000000	33.900193
622.000000	33.910021
623.000000	33.933852
624.000000	33.975450
625.000000	34.026057
626.000000	34.086491
627.000000	34.143716
628.000000	34.221486
629.000000	34.319055
630.000000	34.411448
631.000000	34.524194
632.000000	34.637948
633.000000	34.769638
634.000000	34.903470
635.000000	35.040114
636.000000	35.190959
637.000000	35.354487
638.000000	35.540393
639.000000	35.704228
640.000000	35.846312
641.000000	36.017862
642.000000	36.176538
643.000000	36.331082
644.000000	36.497856
645.000000	36.664511
646.000000	36.802915
647.000000	36.930054
648.000000	37.061834
649.000000	37.196997
650.000000	37.327055
651.000000	37.452734
652.000000	37.578887
653.000000	37.691061
654.000000	37.772442
655.000000	37.886193
656.000000	37.994953
657.000000	38.092714
658.000000	38.183570
659.000000	38.276240
660.000000	38.350995
661.000000	38.457674
662.000000	38.556532
663.000000	38.640886
664.000000	38.714267
665.000000	38.792384
666.000000	38.862074
667.000000	38.939980
668.000000	39.010632
669.000000	39.088268
670.000000	39.164879
671.000000	39.202746
672.000000	39.273326
673.000000	39.364745
674.000000	39.436380
675.000000	39.498981
676.000000	39.539436
677.000000	39.593236
678.000000	39.646825
679.000000	39.714203
680.000000	39.783997
681.000000	39.857879
682.000000	39.935854
683.000000	40.018335
684.000000	40.089921
685.000000	40.153391
686.000000	40.252729
687.000000	40.316975
688.000000	40.349824
689.000000	40.415397
690.000000	40.495109
691.000000	40.567654
692.000000	40.648270
693.000000	40.719445
694.000000	40.794601
695.000000	40.863937
696.000000	40.936183
697.000000	41.001120
698.000000	41.062383
699.000000	41.118108
700.000000	41.171191
701.000000	41.244125
702.000000	41.322922
703.000000	41.395528
704.000000	41.456040
705.000000	41.505367
706.000000	41.535322
707.000000	41.624983
708.000000	41.682939
709.000000	41.746848
710.000000	41.816014
711.000000	41.867872
712.000000	41.931522
713.000000	41.982205
714.000000	42.042432
715.000000	42.082749
716.000000	42.134605
717.000000	42.185227
718.000000	42.226148
719.000000	42.282035
720.000000	42.329031
721.000000	42.358245
722.000000	42.451922
723.000000	42.520773
724.000000	42.575869
725.000000	42.625502
726.000000	42.698448
727.000000	42.753638
728.000000	42.818626
729.000000	42.879967
730.000000	42.948762
731.000000	43.016698
732.000000	43.116296
733.000000	43.158402
734.000000	43.223676
735.000000	43.277425
736.000000	43.362443
737.000000	43.421940
738.000000	43.477819
739.000000	43.518994
740.000000	43.589608
741.000000	43.678174
742.000000	43.766269
743.000000	43.797421
744.000000	43.895548
745.000000	43.959381
746.000000	44.046786
747.000000	44.078603
748.000000	44.161535
749.000000	44.207434
750.000000	44.266709
751.000000	44.381009
752.000000	44.414715
753.000000	44.499425
754.000000	44.526841
755.000000	44.605044
756.000000	44.681338
757.000000	44.724442
758.000000	44.821537
759.000000	44.884393
760.000000	44.938499
761.000000	44.946883
762.000000	45.043185
763.000000	45.066445
764.000000	45.073268
765.000000	45.192867
766.000000	45.246051
767.000000	45.311371
768.000000	45.353728
769.000000	45.419022
770.000000	45.502543
771.000000	45.553649
772.000000	45.601833
773.000000	45.679869
774.000000	45.711246
775.000000	45.809209
776.000000	45.867214
777.000000	45.889963
778.000000	45.987599
779.000000	45.982653
780.000000	46.093692
781.000000	46.109812
782.000000	46.110711
783.000000	46.228550
784.000000	46.283651
785.000000	46.294637
786.000000	46.330180
787.000000	46.419032
788.000000	46.384681
789.000000	46.430671
790.000000	46.471586
791.000000	46.481878
792.000000	46.536348
793.000000	46.574776
794.000000	46.600282
795.000000	46.669454
796.000000	46.690643
797.000000	46.681000
798.000000	46.687559
799.000000	46.692288
800.000000	46.670695
801.000000	46.687840
802.000000	46.650464
803.000000	46.700754
804.000000	46.713055
805.000000	46.682311
806.000000	46.687850
807.000000	46.626867
808.000000	46.545711
809.000000	46.541611
810.000000	46.602200
811.000000	46.597257
812.000000	46.548561
813.000000	46.536141
814.000000	46.519553
815.000000	46.528168
816.000000	46.558160
817.000000	46.406082
818.000000	46.438869
819.000000	46.378327
820.000000	46.311263
821.000000	46.261865
822.000000	46.253027
823.000000	46.218293
824.000000	46.170453
825.000000	46.188118
826.000000	46.105904
827.000000	46.040265
828.000000	45.972335
829.000000	45.974382
830.000000	45.918006
831.000000	45.825782
832.000000	45.763061
833.000000	45.684852
834.000000	45.608157
835.000000	45.581209
836.000000	45.632776
837.000000	45.477319
838.000000	45.387842
839.000000	45.378282
840.000000	45.331909
841.000000	45.111124
842.000000	45.132229
843.000000	45.011781
844.000000	45.008540
845.000000	44.804949
846.000000	44.744636
847.000000	44.617351
848.000000	44.543413
849.000000	44.550263
850.000000	44.396984
851.000000	44.343631
852.000000	44.233855
853.000000	44.149398
854.000000	44.106429
855.000000	44.115279
856.000000	44.025187
857.000000	43.866200
858.000000	43.871667
859.000000	44.258933
860.000000	43.733467
861.000000	43.921700
862.000000	44.251933
863.000000	43.961400
864.000000	43.601767
865.000000	43.630167
866.000000	43.895967
867.000000	43.908167
868.000000	43.941500
869.000000	44.022767
870.000000	43.807767
871.000000	43.802167
872.000000	43.805867
873.000000	44.101233
874.000000	43.661033
875.000000	43.862167
876.000000	44.117800
877.000000	43.871467
878.000000	43.395933
879.000000	43.299367
880.000000	43.713800
881.000000	43.576000
882.000000	43.507167
883.000000	43.341567
884.000000	43.427500
885.000000	43.491267
886.000000	43.516733
887.000000	43.656767
888.000000	43.794633
889.000000	43.547000
890.000000	43.445767
891.000000	43.474567
892.000000	43.400000
893.000000	43.493567
894.000000	43.449833
895.000000	43.461633
896.000000	43.384533
897.000000	43.400467
898.000000	43.358700
899.000000	43.540767
900.000000	43.506900
901.000000	43.381000
902.000000	43.352900
903.000000	43.299667
904.000000	43.295300
905.000000	43.422100
906.000000	43.361000
907.000000	43.330700
908.000000	43.319467
909.000000	43.404433
910.000000	43.491267
911.000000	43.530933
912.000000	43.590367
913.000000	43.620800
914.000000	43.705600
915.000000	43.710767
916.000000	43.739867
917.000000	43.769067
918.000000	43.816567
919.000000	43.913367
920.000000	44.011467
921.000000	43.968700
922.000000	44.004333
923.000000	44.129533
924.000000	44.099767
925.000000	44.154800
926.000000	44.266467
927.000000	44.285667
928.000000	44.324567
929.000000	44.337600
930.000000	44.355867
931.000000	44.446433
932.000000	44.541633
933.000000	44.563367
934.000000	44.592600
935.000000	44.660100
936.000000	44.693267
937.000000	44.699133
938.000000	44.699000
939.000000	44.736133
940.000000	44.828533
941.000000	44.888833
942.000000	44.967867
943.000000	45.014833
944.000000	45.076833
945.000000	45.147033
946.000000	45.149600
947.000000	45.168867
948.000000	45.213100
949.000000	45.266000
950.000000	45.299767
951.000000	45.349233
952.000000	45.461133
953.000000	45.504000
954.000000	45.512667
955.000000	45.596333
956.000000	45.644933
957.000000	45.661967
958.000000	45.687767
959.000000	45.707967
960.000000	45.807033
961.000000	45.814967
962.000000	45.856700
963.000000	45.868533
964.000000	45.859900
965.000000	45.930033
966.000000	45.991100
967.000000	46.041600
968.000000	46.081600
969.000000	46.109800
970.000000	46.153233
971.000000	46.173733
972.000000	46.222367
973.000000	46.299000
974.000000	46.373867
975.000000	46.415367
976.000000	46.455200
977.000000	46.500300
978.000000	46.547800
979.000000	46.550933
980.000000	46.618633
981.000000	46.656933
982.000000	46.696000
983.000000	46.734367
984.000000	46.783233
985.000000	46.822100
986.000000	46.849300
987.000000	46.874033
988.000000	46.931833
989.000000	46.963433
990.000000	47.011400
991.000000	47.052733
992.000000	47.111633
993.000000	47.137800
994.000000	47.218100
995.000000	47.220133
996.000000	47.265500
997.000000	47.315033
998.000000	47.344333
999.000000	47.408767
1000.000000	47.461433
1001.000000	47.509800
1002.000000	47.521733
1003.000000	47.548367
1004.000000	47.619833
1005.000000	47.644000
1006.000000	47.711967
1007.000000	47.742533
1008.000000	47.744033
1009.000000	47.756500
1010.000000	47.823467
1011.000000	47.895067
1012.000000	47.938833
1013.000000	47.963467
1014.000000	48.029767
1015.000000	48.081367
1016.000000	48.142533
1017.000000	48.198767
1018.000000	48.255900
1019.000000	48.309433
1020.000000	48.363633
1021.000000	48.404100
1022.000000	48.483267
1023.000000	48.557467
1024.000000	48.639333
1025.000000	48.682133
1026.000000	48.761600
1027.000000	48.830500
1028.000000	48.883000
1029.000000	48.926400
1030.000000	48.976000
1031.000000	49.058633
1032.000000	49.132933
1033.000000	49.172567
1034.000000	49.252367
1035.000000	49.283167
1036.000000	49.325633
1037.000000	49.390733
1038.000000	49.437933
1039.000000	49.491767
1040.000000	49.551567
1041.000000	49.585433
1042.000000	49.603233
1043.000000	49.651100
1044.000000	49.717233
1045.000000	49.766633
1046.000000	49.799533
1047.000000	49.830967
1048.000000	49.877200
1049.000000	49.921467
1050.000000	49.966800
1051.000000	50.027400
1052.000000	50.061433
1053.000000	50.116567
1054.000000	50.184967
1055.000000	50.241000
1056.000000	50.302867
1057.000000	50.365400
1058.000000	50.391533
1059.000000	50.463833
1060.000000	50.509133
1061.000000	50.555100
1062.000000	50.613767
1063.000000	50.651367
1064.000000	50.694133
1065.000000	50.732267
1066.000000	50.804900
1067.000000	50.858000
1068.000000	50.937033
1069.000000	50.971367
1070.000000	51.020067
1071.000000	51.077100
1072.000000	51.113867
1073.000000	51.157800
1074.000000	51.229933
1075.000000	51.275333
1076.000000	51.309067
1077.000000	51.381267
1078.000000	51.429767
1079.000000	51.470633
1080.000000	51.515133
1081.000000	51.584233
1082.000000	51.599467
1083.000000	51.656567
1084.000000	51.694367
1085.000000	51.761267
1086.000000	51.795033
1087.000000	51.848033
1088.000000	51.891467
1089.000000	51.953100
1090.000000	51.982233
1091.000000	52.036700
1092.000000	52.066333
1093.000000	52.086500
1094.000000	52.135233
1095.000000	52.174667
1096.000000	52.210767
1097.000000	52.258833
1098.000000	52.285867
1099.000000	52.325267
1100.000000	52.351367
1101.000000	52.377233
1102.000000	52.415267
1103.000000	52.443400
1104.000000	52.449200
1105.000000	52.477267
1106.000000	52.501033
1107.000000	52.531100
1108.000000	52.546533
1109.000000	52.562333
1110.000000	52.577100
1111.000000	52.602633
1112.000000	52.628433
1113.000000	52.638067
1114.000000	52.653267
1115.000000	52.658000
1116.000000	52.682000
1117.000000	52.693467
1118.000000	52.695833
1119.000000	52.704367
1120.000000	52.698900
1121.000000	52.682233
1122.000000	52.693300
1123.000000	52.681100
1124.000000	52.632800
1125.000000	52.575667
1126.000000	52.514267
1127.000000	52.454200
1128.000000	52.408933
1129.000000	52.310133
1130.000000	52.166833
1131.000000	52.035833
1132.000000	51.874133
1133.000000	51.687067
1134.000000	51.522900
1135.000000	51.309833
1136.000000	51.030800
1137.000000	50.775267
1138.000000	50.525900
1139.000000	50.304067
1140.000000	50.082233
1141.000000	49.852367
1142.000000	49.615633
1143.000000	49.410133
1144.000000	49.219567
1145.000000	49.055300
1146.000000	48.926533
1147.000000	48.840567
1148.000000	48.809533
1149.000000	48.793200
1150.000000	48.782800
1151.000000	48.763700
1152.000000	48.748333
1153.000000	48.728000
1154.000000	48.649467
1155.000000	48.532333
1156.000000	48.388867
1157.000000	48.214433
1158.000000	47.993833
1159.000000	47.758233
1160.000000	47.523767
1161.000000	47.277300
1162.000000	47.006933
1163.000000	46.732833
1164.000000	46.451367
1165.000000	46.190800
1166.000000	45.921400
1167.000000	45.644167
