PE UV       SUBTECH     SPECTRUM    ASCII       PEDS        4.00        
   -1
INBUCR0143-1.Sample.ASC
24/04/29
12:58:45.00
24/04/29
12:58:45.00
Vinicio Soto Monge
C. kalinini
250,000000
1
Lambda 1050
1050L1511233
PerkinElmer UV WinLab 6.3.2.0749 / 2.02.05 Lambda 900 UV/VIS/NIR, Aug  7 2015 09:38:08

0
0
3350/servo 860,8/2
0
0
UV/VIS
1
1
1
DoubleDePol,CommonBeamDepol,RBeamAtt,SBeamAtt,60mm sphere, WB InGaAs Detector
0
0
0
0
Program
Program
3350/servo 860,8/2
3350/0,2 860,8/0,2
3350/0,2 860,8/0,2
0
15.00
 
 
 
0
 
860,8
319,2
860,8
Front
100
on
S:100 R:100
0
0
0
0
 
0
 
 
 
0
 
 
0
0
0
0
0
 
 
 
 
0
0


0
0
#HDR
-1
-1
#GR
nm
%R
1.0
0.0
2500,000000
-1,000000
2251
8
70,853600
4,079500
#DATA
2482.000000	11.259180
2481.000000	11.267539
2480.000000	11.292903
2479.000000	11.250630
2478.000000	11.276279
2477.000000	11.343252
2476.000000	11.334417
2475.000000	11.313803
2474.000000	11.377545
2473.000000	11.380490
2472.000000	11.403384
2471.000000	11.433403
2470.000000	11.443378
2469.000000	11.458007
2468.000000	11.515005
2467.000000	11.560889
2466.000000	11.578463
2465.000000	11.645626
2464.000000	11.638691
2463.000000	11.657880
2462.000000	11.732262
2461.000000	11.821464
2460.000000	11.844738
2459.000000	11.903921
2458.000000	11.940115
2457.000000	11.973744
2456.000000	12.056391
2455.000000	12.114718
2454.000000	12.147967
2453.000000	12.207435
2452.000000	12.275073
2451.000000	12.356485
2450.000000	12.432482
2449.000000	12.524344
2448.000000	12.580486
2447.000000	12.660379
2446.000000	12.737991
2445.000000	12.820638
2444.000000	12.903475
2443.000000	12.968547
2442.000000	13.050244
2441.000000	13.140491
2440.000000	13.214778
2439.000000	13.272821
2438.000000	13.371808
2437.000000	13.453695
2436.000000	13.521807
2435.000000	13.600179
2434.000000	13.694131
2433.000000	13.759394
2432.000000	13.835296
2431.000000	13.891914
2430.000000	13.973516
2429.000000	14.049798
2428.000000	14.103376
2427.000000	14.167214
2426.000000	14.242261
2425.000000	14.302869
2424.000000	14.353407
2423.000000	14.413160
2422.000000	14.485452
2421.000000	14.550050
2420.000000	14.580829
2419.000000	14.630607
2418.000000	14.688365
2417.000000	14.728073
2416.000000	14.766927
2415.000000	14.809010
2414.000000	14.836464
2413.000000	14.877028
2412.000000	14.917401
2411.000000	14.948750
2410.000000	14.976964
2409.000000	14.992354
2408.000000	15.025127
2407.000000	15.039852
2406.000000	15.071771
2405.000000	15.115469
2404.000000	15.130574
2403.000000	15.143683
2402.000000	15.152043
2401.000000	15.185957
2400.000000	15.202296
2399.000000	15.212271
2398.000000	15.244949
2397.000000	15.258629
2396.000000	15.266229
2395.000000	15.285228
2394.000000	15.276963
2393.000000	15.284373
2392.000000	15.301282
2391.000000	15.307457
2390.000000	15.316672
2389.000000	15.314962
2388.000000	15.306127
2387.000000	15.312112
2386.000000	15.310022
2385.000000	15.308597
2384.000000	15.310497
2383.000000	15.300237
2382.000000	15.284088
2381.000000	15.279433
2380.000000	15.272023
2379.000000	15.255874
2378.000000	15.233740
2377.000000	15.232885
2376.000000	15.230890
2375.000000	15.215500
2374.000000	15.203246
2373.000000	15.195171
2372.000000	15.179212
2371.000000	15.152613
2370.000000	15.141308
2369.000000	15.134848
2368.000000	15.133328
2367.000000	15.136178
2366.000000	15.124494
2365.000000	15.109674
2364.000000	15.101030
2363.000000	15.106539
2362.000000	15.095045
2361.000000	15.072341
2360.000000	15.061511
2359.000000	15.047927
2358.000000	15.027977
2357.000000	15.010403
2356.000000	14.985514
2355.000000	14.963475
2354.000000	14.953120
2353.000000	14.928706
2352.000000	14.900302
2351.000000	14.868003
2350.000000	14.841974
2349.000000	14.835039
2348.000000	14.827155
2347.000000	14.802740
2346.000000	14.791341
2345.000000	14.779846
2344.000000	14.760087
2343.000000	14.749257
2342.000000	14.747262
2341.000000	14.735673
2340.000000	14.717434
2339.000000	14.716009
2338.000000	14.716959
2337.000000	14.707649
2336.000000	14.707839
2335.000000	14.698244
2334.000000	14.687035
2333.000000	14.702139
2332.000000	14.729688
2331.000000	14.743653
2330.000000	14.752487
2329.000000	14.759897
2328.000000	14.768827
2327.000000	14.775761
2326.000000	14.782981
2325.000000	14.794001
2324.000000	14.804070
2323.000000	14.819935
2322.000000	14.813950
2321.000000	14.793336
2320.000000	14.780606
2319.000000	14.771012
2318.000000	14.773292
2317.000000	14.753342
2316.000000	14.721803
2315.000000	14.697294
2314.000000	14.671265
2313.000000	14.628992
2312.000000	14.596408
2311.000000	14.571044
2310.000000	14.538460
2309.000000	14.499512
2308.000000	14.460943
2307.000000	14.448023
2306.000000	14.430924
2305.000000	14.412305
2304.000000	14.399195
2303.000000	14.377061
2302.000000	14.365471
2301.000000	14.365376
2300.000000	14.367276
2299.000000	14.379721
2298.000000	14.379531
2297.000000	14.370601
2296.000000	14.392355
2295.000000	14.401475
2294.000000	14.429879
2293.000000	14.443464
2292.000000	14.456953
2291.000000	14.474242
2290.000000	14.500177
2289.000000	14.518606
2288.000000	14.548150
2287.000000	14.572089
2286.000000	14.611892
2285.000000	14.634312
2284.000000	14.663001
2283.000000	14.696819
2282.000000	14.717719
2281.000000	14.740708
2280.000000	14.783646
2279.000000	14.797231
2278.000000	14.841689
2277.000000	14.869998
2276.000000	14.892797
2275.000000	14.933741
2274.000000	14.970599
2273.000000	14.983709
2272.000000	15.004988
2271.000000	15.028737
2270.000000	15.062841
2269.000000	15.103785
2268.000000	15.134468
2267.000000	15.201441
2266.000000	15.243144
2265.000000	15.324176
2264.000000	15.375950
2263.000000	15.445392
2262.000000	15.523859
2261.000000	15.635670
2260.000000	15.708817
2259.000000	15.826518
2258.000000	15.923130
2257.000000	16.046435
2256.000000	16.171071
2255.000000	16.286206
2254.000000	16.409132
2253.000000	16.548872
2252.000000	16.649093
2251.000000	16.802418
2250.000000	16.921828
2249.000000	17.042189
2248.000000	17.150105
2247.000000	17.250991
2246.000000	17.347793
2245.000000	17.445259
2244.000000	17.528191
2243.000000	17.618153
2242.000000	17.692820
2241.000000	17.747348
2240.000000	17.811661
2239.000000	17.870939
2238.000000	17.902572
2237.000000	17.943231
2236.000000	17.947221
2235.000000	17.994054
2234.000000	18.014478
2233.000000	17.990539
2232.000000	17.987309
2231.000000	17.974865
2230.000000	17.976100
2229.000000	17.948456
2228.000000	17.921667
2227.000000	17.882148
2226.000000	17.851559
2225.000000	17.813656
2224.000000	17.753333
2223.000000	17.724074
2222.000000	17.680091
2221.000000	17.617203
2220.000000	17.560775
2219.000000	17.493137
2218.000000	17.440699
2217.000000	17.383701
2216.000000	17.337438
2215.000000	17.286995
2214.000000	17.232467
2213.000000	17.165779
2212.000000	17.112581
2211.000000	17.080852
2210.000000	17.026799
2209.000000	16.985856
2208.000000	16.939973
2207.000000	16.889719
2206.000000	16.848681
2205.000000	16.821417
2204.000000	16.779713
2203.000000	16.748175
2202.000000	16.731550
2201.000000	16.675217
2200.000000	16.667238
2199.000000	16.630284
2198.000000	16.602450
2197.000000	16.588390
2196.000000	16.551627
2195.000000	16.532247
2194.000000	16.504223
2193.000000	16.489689
2192.000000	16.469740
2191.000000	16.443521
2190.000000	16.433736
2189.000000	16.417302
2188.000000	16.403337
2187.000000	16.384908
2186.000000	16.361349
2185.000000	16.345864
2184.000000	16.319170
2183.000000	16.309576
2182.000000	16.303876
2181.000000	16.272242
2180.000000	16.262647
2179.000000	16.261792
2178.000000	16.259227
2177.000000	16.248588
2176.000000	16.245643
2175.000000	16.255048
2174.000000	16.257042
2173.000000	16.269487
2172.000000	16.275852
2171.000000	16.295611
2170.000000	16.308816
2169.000000	16.338265
2168.000000	16.359734
2167.000000	16.377213
2166.000000	16.416257
2165.000000	16.455395
2164.000000	16.498049
2163.000000	16.546117
2162.000000	16.582406
2161.000000	16.628574
2160.000000	16.668377
2159.000000	16.738010
2158.000000	16.816952
2157.000000	16.872715
2156.000000	16.935508
2155.000000	17.033829
2154.000000	17.105457
2153.000000	17.184019
2152.000000	17.274360
2151.000000	17.370212
2150.000000	17.438894
2149.000000	17.527526
2148.000000	17.626228
2147.000000	17.706690
2146.000000	17.801116
2145.000000	17.890793
2144.000000	17.970590
2143.000000	18.057322
2142.000000	18.144434
2141.000000	18.236010
2140.000000	18.318752
2139.000000	18.400639
2138.000000	18.478632
2137.000000	18.562038
2136.000000	18.622646
2135.000000	18.697979
2134.000000	18.769986
2133.000000	18.825654
2132.000000	18.886167
2131.000000	18.958744
2130.000000	19.002442
2129.000000	19.067705
2128.000000	19.123278
2127.000000	19.166881
2126.000000	19.214000
2125.000000	19.259883
2124.000000	19.298262
2123.000000	19.337115
2122.000000	19.358774
2121.000000	19.390788
2120.000000	19.422137
2119.000000	19.436767
2118.000000	19.452916
2117.000000	19.473435
2116.000000	19.497184
2115.000000	19.502029
2114.000000	19.519414
2113.000000	19.537273
2112.000000	19.528153
2111.000000	19.529768
2110.000000	19.544303
2109.000000	19.553232
2108.000000	19.548388
2107.000000	19.545728
2106.000000	19.552187
2105.000000	19.547248
2104.000000	19.540978
2103.000000	19.542783
2102.000000	19.548293
2101.000000	19.554087
2100.000000	19.564727
2099.000000	19.560072
2098.000000	19.564537
2097.000000	19.571947
2096.000000	19.578216
2095.000000	19.589711
2094.000000	19.593321
2093.000000	19.607380
2092.000000	19.635024
2091.000000	19.650509
2090.000000	19.667133
2089.000000	19.665423
2088.000000	19.671408
2087.000000	19.690217
2086.000000	19.686892
2085.000000	19.666943
2084.000000	19.656304
2083.000000	19.642244
2082.000000	19.611940
2081.000000	19.599591
2080.000000	19.569572
2079.000000	19.523403
2078.000000	19.473720
2077.000000	19.418052
2076.000000	19.356210
2075.000000	19.292467
2074.000000	19.210105
2073.000000	19.133253
2072.000000	19.056305
2071.000000	18.966629
2070.000000	18.881797
2069.000000	18.783000
2068.000000	18.676034
2067.000000	18.579043
2066.000000	18.477872
2065.000000	18.371665
2064.000000	18.269164
2063.000000	18.177587
2062.000000	18.088766
2061.000000	17.981420
2060.000000	17.893358
2059.000000	17.816696
2058.000000	17.752383
2057.000000	17.713814
2056.000000	17.680661
2055.000000	17.646367
2054.000000	17.645797
2053.000000	17.646367
2052.000000	17.669641
2051.000000	17.708495
2050.000000	17.764543
2049.000000	17.831420
2048.000000	17.923472
2047.000000	18.004979
2046.000000	18.104440
2045.000000	18.223566
2044.000000	18.346111
2043.000000	18.470842
2042.000000	18.589207
2041.000000	18.700068
2040.000000	18.835913
2039.000000	18.976508
2038.000000	19.085089
2037.000000	19.184551
2036.000000	19.303201
2035.000000	19.404468
2034.000000	19.516564
2033.000000	19.603296
2032.000000	19.709027
2031.000000	19.785689
2030.000000	19.864916
2029.000000	19.947278
2028.000000	20.019285
2027.000000	20.089393
2026.000000	20.158265
2025.000000	20.218873
2024.000000	20.251742
2023.000000	20.311400
2022.000000	20.374382
2021.000000	20.416561
2020.000000	20.464439
2019.000000	20.507378
2018.000000	20.537016
2017.000000	20.567985
2016.000000	20.611969
2015.000000	20.610829
2014.000000	20.611494
2013.000000	20.630683
2012.000000	20.645788
2011.000000	20.640848
2010.000000	20.635813
2009.000000	20.640468
2008.000000	20.620328
2007.000000	20.597339
2006.000000	20.574540
2005.000000	20.561716
2004.000000	20.540341
2003.000000	20.512127
2002.000000	20.465294
2001.000000	20.420836
2000.000000	20.378942
1999.000000	20.327074
1998.000000	20.251362
1997.000000	20.199969
1996.000000	20.152660
1995.000000	20.117037
1994.000000	20.034105
1993.000000	19.964092
1992.000000	19.887240
1991.000000	19.837272
1990.000000	19.754530
1989.000000	19.673783
1988.000000	19.607475
1987.000000	19.530623
1986.000000	19.441706
1985.000000	19.365899
1984.000000	19.289997
1983.000000	19.205545
1982.000000	19.141137
1981.000000	19.066280
1980.000000	18.981068
1979.000000	18.901176
1978.000000	18.824894
1977.000000	18.763716
1976.000000	18.672614
1975.000000	18.588922
1974.000000	18.525275
1973.000000	18.459157
1972.000000	18.384775
1971.000000	18.317232
1970.000000	18.253205
1969.000000	18.179962
1968.000000	18.138544
1967.000000	18.047062
1966.000000	17.972205
1965.000000	17.913782
1964.000000	17.862389
1963.000000	17.760458
1962.000000	17.710489
1961.000000	17.645892
1960.000000	17.554410
1959.000000	17.479553
1958.000000	17.396621
1957.000000	17.342758
1956.000000	17.290320
1955.000000	17.211283
1954.000000	17.129206
1953.000000	17.079333
1952.000000	17.015495
1951.000000	16.948142
1950.000000	16.872715
1949.000000	16.830157
1948.000000	16.769074
1947.000000	16.703431
1946.000000	16.661728
1945.000000	16.613944
1944.000000	16.571861
1943.000000	16.551722
1942.000000	16.511728
1941.000000	16.475819
1940.000000	16.457865
1939.000000	16.469455
1938.000000	16.451690
1937.000000	16.458625
1936.000000	16.443521
1935.000000	16.442856
1934.000000	16.478099
1933.000000	16.492444
1932.000000	16.510873
1931.000000	16.560366
1930.000000	16.622969
1929.000000	16.677402
1928.000000	16.755489
1927.000000	16.859890
1926.000000	16.924773
1925.000000	17.012740
1924.000000	17.082182
1923.000000	17.178984
1922.000000	17.340573
1921.000000	17.513942
1920.000000	17.668596
1919.000000	17.816031
1918.000000	17.953681
1917.000000	18.082496
1916.000000	18.227176
1915.000000	18.418784
1914.000000	18.681829
1913.000000	18.956179
1912.000000	19.222549
1911.000000	19.428502
1910.000000	19.618685
1909.000000	19.841927
1908.000000	20.132521
1907.000000	20.475174
1906.000000	20.881854
1905.000000	21.287299
1904.000000	21.677260
1903.000000	22.040242
1902.000000	22.426308
1901.000000	22.840683
1900.000000	23.347204
1899.000000	23.858380
1898.000000	24.299734
1897.000000	24.676491
1896.000000	25.011068
1895.000000	25.355526
1894.000000	25.730477
1893.000000	26.218094
1892.000000	26.781234
1891.000000	27.277591
1890.000000	27.713150
1889.000000	28.109380
1888.000000	28.469132
1887.000000	28.812830
1886.000000	29.172487
1885.000000	29.541833
1884.000000	29.938539
1883.000000	30.273117
1882.000000	30.559721
1881.000000	30.788663
1880.000000	30.986066
1879.000000	31.204083
1878.000000	31.424570
1877.000000	31.630142
1876.000000	31.878083
1875.000000	32.105790
1874.000000	32.384320
1873.000000	32.660950
1872.000000	32.901481
1871.000000	33.147997
1870.000000	33.364494
1869.000000	33.497394
1868.000000	33.536058
1867.000000	33.561612
1866.000000	33.518483
1865.000000	33.477350
1864.000000	33.425387
1863.000000	33.426147
1862.000000	33.501194
1861.000000	33.592201
1860.000000	33.690997
1859.000000	33.814018
1858.000000	33.876050
1857.000000	33.872915
1856.000000	33.879755
1855.000000	33.937133
1854.000000	33.977792
1853.000000	33.970857
1852.000000	33.920889
1851.000000	33.843087
1850.000000	33.811263
1849.000000	33.899229
1848.000000	34.080863
1847.000000	34.163890
1846.000000	34.086848
1845.000000	33.919939
1844.000000	33.734980
1843.000000	33.712656
1842.000000	33.801763
1841.000000	33.842802
1840.000000	33.852111
1839.000000	33.838052
1838.000000	33.809933
1837.000000	33.829597
1836.000000	33.842707
1835.000000	33.760155
1834.000000	33.633619
1833.000000	33.519718
1832.000000	33.455881
1831.000000	33.436976
1830.000000	33.439351
1829.000000	33.436216
1828.000000	33.425672
1827.000000	33.418927
1826.000000	33.401163
1825.000000	33.321841
1824.000000	33.213259
1823.000000	33.182861
1822.000000	33.252683
1821.000000	33.370194
1820.000000	33.437166
1819.000000	33.408857
1818.000000	33.329630
1817.000000	33.267407
1816.000000	33.258668
1815.000000	33.253633
1814.000000	33.229219
1813.000000	33.207370
1812.000000	33.210600
1811.000000	33.205090
1810.000000	33.169276
1809.000000	33.117978
1808.000000	33.071430
1807.000000	33.066015
1806.000000	33.061360
1805.000000	33.034571
1804.000000	33.002937
1803.000000	32.978903
1802.000000	32.995812
1801.000000	32.998852
1800.000000	32.981278
1799.000000	32.948124
1798.000000	32.909556
1797.000000	32.883336
1796.000000	32.862057
1795.000000	32.859017
1794.000000	32.853128
1793.000000	32.845433
1792.000000	32.831373
1791.000000	32.829473
1790.000000	32.832323
1789.000000	32.836313
1788.000000	32.835078
1787.000000	32.833748
1786.000000	32.840018
1785.000000	32.836978
1784.000000	32.840683
1783.000000	32.831183
1782.000000	32.811804
1781.000000	32.790620
1780.000000	32.778270
1779.000000	32.753856
1778.000000	32.732007
1777.000000	32.701323
1776.000000	32.657720
1775.000000	32.608512
1774.000000	32.564908
1773.000000	32.531184
1772.000000	32.474756
1771.000000	32.405884
1770.000000	32.343566
1769.000000	32.282388
1768.000000	32.234225
1767.000000	32.202306
1766.000000	32.179412
1765.000000	32.152908
1764.000000	32.109875
1763.000000	32.093060
1762.000000	32.086696
1761.000000	32.069121
1760.000000	32.070166
1759.000000	32.072446
1758.000000	32.071876
1757.000000	32.077576
1756.000000	32.086981
1755.000000	32.086221
1754.000000	32.087266
1753.000000	32.065701
1752.000000	32.060951
1751.000000	32.034637
1750.000000	32.002054
1749.000000	31.985524
1748.000000	31.954080
1747.000000	31.898412
1746.000000	31.846734
1745.000000	31.767222
1744.000000	31.695405
1743.000000	31.619598
1742.000000	31.547685
1741.000000	31.461238
1740.000000	31.378306
1739.000000	31.278370
1738.000000	31.191638
1737.000000	31.121056
1736.000000	31.042779
1735.000000	30.975236
1734.000000	30.902564
1733.000000	30.827991
1732.000000	30.782298
1731.000000	30.711146
1730.000000	30.667257
1729.000000	30.632679
1728.000000	30.595440
1727.000000	30.583660
1726.000000	30.569221
1725.000000	30.567796
1724.000000	30.594205
1723.000000	30.635908
1722.000000	30.747909
1721.000000	30.870455
1720.000000	31.023114
1719.000000	31.210447
1718.000000	31.424475
1717.000000	31.614278
1716.000000	31.793346
1715.000000	31.993884
1714.000000	32.167253
1713.000000	32.337011
1712.000000	32.488151
1711.000000	32.599487
1710.000000	32.712533
1709.000000	32.844008
1708.000000	32.935585
1707.000000	33.016522
1706.000000	33.081784
1705.000000	33.150277
1704.000000	33.216109
1703.000000	33.268547
1702.000000	33.320606
1701.000000	33.340935
1700.000000	33.347585
1699.000000	33.371429
1698.000000	33.374374
1697.000000	33.371144
1696.000000	33.341410
1695.000000	33.301511
1694.000000	33.247173
1693.000000	33.190365
1692.000000	33.135647
1691.000000	33.075134
1690.000000	33.047301
1689.000000	33.031911
1688.000000	33.061455
1687.000000	33.159111
1686.000000	33.263893
1685.000000	33.422442
1684.000000	33.593436
1683.000000	33.771649
1682.000000	33.944828
1681.000000	34.131211
1680.000000	34.314839
1679.000000	34.498183
1678.000000	34.660627
1677.000000	34.831810
1676.000000	34.967181
1675.000000	35.097516
1674.000000	35.236876
1673.000000	35.378136
1672.000000	35.500681
1671.000000	35.660940
1670.000000	35.814930
1669.000000	35.946785
1668.000000	36.117209
1667.000000	36.270438
1666.000000	36.406283
1665.000000	36.535478
1664.000000	36.671703
1663.000000	36.798999
1662.000000	36.913660
1661.000000	37.009036
1660.000000	37.111062
1659.000000	37.208244
1658.000000	37.284716
1657.000000	37.355298
1656.000000	37.418186
1655.000000	37.455710
1654.000000	37.501403
1653.000000	37.543107
1652.000000	37.556121
1651.000000	37.595450
1650.000000	37.603144
1649.000000	37.616064
1648.000000	37.619199
1647.000000	37.625564
1646.000000	37.626229
1645.000000	37.634018
1644.000000	37.637248
1643.000000	37.638483
1642.000000	37.627749
1641.000000	37.618724
1640.000000	37.620054
1639.000000	37.615494
1638.000000	37.603049
1637.000000	37.587945
1636.000000	37.563246
1635.000000	37.552701
1634.000000	37.541397
1633.000000	37.529427
1632.000000	37.505393
1631.000000	37.478224
1630.000000	37.449725
1629.000000	37.426736
1628.000000	37.405742
1627.000000	37.373728
1626.000000	37.334684
1625.000000	37.315780
1624.000000	37.288041
1623.000000	37.250232
1622.000000	37.215559
1621.000000	37.177275
1620.000000	37.154951
1619.000000	37.128922
1618.000000	37.100898
1617.000000	37.069644
1616.000000	37.053020
1615.000000	37.028605
1614.000000	36.997637
1613.000000	36.950138
1612.000000	36.908815
1611.000000	36.864831
1610.000000	36.827593
1609.000000	36.788074
1608.000000	36.734496
1607.000000	36.684433
1606.000000	36.647384
