PE UV       SUBTECH     SPECTRUM    ASCII       PEDS        4.00        
   -1
CICIMAUCR0108-1.Sample.ASC
24/04/19
15:08:26.00
24/04/19
15:08:26.00
Vinicio Soto Monge
C. resplendens
250,000000
1
Lambda 1050
1050L1511233
PerkinElmer UV WinLab 6.3.2.0749 / 2.02.05 Lambda 900 UV/VIS/NIR, Aug  7 2015 09:38:08

0
0
3350/servo 860,8/2
0
0
UV/VIS
1
1
1
DoubleDePol,CommonBeamDepol,RBeamAtt,SBeamAtt,60mm sphere, WB InGaAs Detector
0
0
0
0
Program
Program
3350/servo 860,8/2
3350/0,2 860,8/0,2
3350/0,2 860,8/0,2
0
15.00
 
 
 
0
 
860,8
319,2
860,8
Front
100
on
S:100 R:100
0
0
0
0
 
0
 
 
 
0
 
 
0
0
0
0
0
 
 
 
 
0
0


0
0
#HDR
-1
-1
#GR
nm
%R
1.0
0.0
2500,000000
-1,000000
2251
8
90,129700
4,967600
#DATA
2482.000000	7.547654
2481.000000	7.566060
2480.000000	7.552821
2479.000000	7.526665
2478.000000	7.567136
2477.000000	7.526773
2476.000000	7.596198
2475.000000	7.560032
2474.000000	7.523113
2473.000000	7.563262
2472.000000	7.515256
2471.000000	7.556803
2470.000000	7.543241
2469.000000	7.518377
2468.000000	7.506753
2467.000000	7.509444
2466.000000	7.505461
2465.000000	7.593292
2464.000000	7.561862
2463.000000	7.608146
2462.000000	7.623861
2461.000000	7.634517
2460.000000	7.640975
2459.000000	7.691671
2458.000000	7.703081
2457.000000	7.748718
2456.000000	7.822019
2455.000000	7.867872
2454.000000	7.892843
2453.000000	7.939557
2452.000000	7.957640
2451.000000	8.045148
2450.000000	8.091647
2449.000000	8.143420
2448.000000	8.220487
2447.000000	8.258698
2446.000000	8.316176
2445.000000	8.377313
2444.000000	8.439527
2443.000000	8.496789
2442.000000	8.515410
2441.000000	8.548024
2440.000000	8.617772
2439.000000	8.665455
2438.000000	8.715505
2437.000000	8.765879
2436.000000	8.809041
2435.000000	8.852849
2434.000000	8.899348
2433.000000	8.931639
2432.000000	8.961346
2431.000000	9.004939
2430.000000	9.026466
2429.000000	9.053267
2428.000000	9.084805
2427.000000	9.106762
2426.000000	9.137223
2425.000000	9.157782
2424.000000	9.177802
2423.000000	9.218166
2422.000000	9.243460
2421.000000	9.282209
2420.000000	9.307288
2419.000000	9.312240
2418.000000	9.328600
2417.000000	9.343777
2416.000000	9.357770
2415.000000	9.399102
2414.000000	9.399425
2413.000000	9.399102
2412.000000	9.421383
2411.000000	9.440865
2410.000000	9.448937
2409.000000	9.468635
2408.000000	9.497158
2407.000000	9.511797
2406.000000	9.528911
2405.000000	9.526866
2404.000000	9.544949
2403.000000	9.566045
2402.000000	9.582944
2401.000000	9.603287
2400.000000	9.620294
2399.000000	9.633103
2398.000000	9.664640
2397.000000	9.672928
2396.000000	9.691441
2395.000000	9.698007
2394.000000	9.719427
2393.000000	9.748704
2392.000000	9.751825
2391.000000	9.763019
2390.000000	9.780779
2389.000000	9.788421
2388.000000	9.806504
2387.000000	9.824587
2386.000000	9.819743
2385.000000	9.817053
2384.000000	9.809949
2383.000000	9.813285
2382.000000	9.800800
2381.000000	9.785300
2380.000000	9.772707
2379.000000	9.768832
2378.000000	9.748704
2377.000000	9.731267
2376.000000	9.705003
2375.000000	9.690796
2374.000000	9.674327
2373.000000	9.637946
2372.000000	9.612652
2371.000000	9.586819
2370.000000	9.540213
2369.000000	9.511151
2368.000000	9.474555
2367.000000	9.407497
2366.000000	9.358631
2365.000000	9.311594
2364.000000	9.242491
2363.000000	9.182753
2362.000000	9.136900
2361.000000	9.066184
2360.000000	9.003109
2359.000000	8.945093
2358.000000	8.883310
2357.000000	8.849835
2356.000000	8.820450
2355.000000	8.785792
2354.000000	8.755223
2353.000000	8.738755
2352.000000	8.737463
2351.000000	8.738755
2350.000000	8.745213
2349.000000	8.790420
2348.000000	8.831537
2347.000000	8.863182
2346.000000	8.891813
2345.000000	8.934222
2344.000000	8.961346
2343.000000	9.000203
2342.000000	9.055851
2341.000000	9.099120
2340.000000	9.121401
2339.000000	9.125491
2338.000000	9.128720
2337.000000	9.140775
2336.000000	9.137008
2335.000000	9.109130
2334.000000	9.091801
2333.000000	9.070812
2332.000000	9.032709
2331.000000	8.991269
2330.000000	8.939496
2329.000000	8.892351
2328.000000	8.825617
2327.000000	8.766094
2326.000000	8.723901
2325.000000	8.649524
2324.000000	8.558249
2323.000000	8.474293
2322.000000	8.387646
2321.000000	8.303905
2320.000000	8.236202
2319.000000	8.160319
2318.000000	8.061078
2317.000000	7.956348
2316.000000	7.863458
2315.000000	7.774336
2314.000000	7.692640
2313.000000	7.602872
2312.000000	7.536568
2311.000000	7.460684
2310.000000	7.418922
2309.000000	7.372423
2308.000000	7.327216
2307.000000	7.320973
2306.000000	7.312039
2305.000000	7.312577
2304.000000	7.344653
2303.000000	7.391044
2302.000000	7.441310
2301.000000	7.492329
2300.000000	7.549807
2299.000000	7.632902
2298.000000	7.696730
2297.000000	7.775520
2296.000000	7.855278
2295.000000	7.928255
2294.000000	8.003924
2293.000000	8.026742
2292.000000	8.055912
2291.000000	8.108438
2290.000000	8.144281
2289.000000	8.125014
2288.000000	8.122000
2287.000000	8.128997
2286.000000	8.102841
2285.000000	8.061401
2284.000000	8.055912
2283.000000	8.022652
2282.000000	7.992406
2281.000000	7.935036
2280.000000	7.892305
2279.000000	7.854202
2278.000000	7.829553
2277.000000	7.775305
2276.000000	7.755715
2275.000000	7.720303
2274.000000	7.706740
2273.000000	7.680262
2272.000000	7.681231
2271.000000	7.685213
2270.000000	7.721809
2269.000000	7.746028
2268.000000	7.800384
2267.000000	7.862597
2266.000000	7.943109
2265.000000	8.043641
2264.000000	8.154937
2263.000000	8.282593
2262.000000	8.444155
2261.000000	8.615404
2260.000000	8.767601
2259.000000	8.973832
2258.000000	9.183184
2257.000000	9.394473
2256.000000	9.612221
2255.000000	9.805643
2254.000000	10.044810
2253.000000	10.259006
2252.000000	10.445647
2251.000000	10.638208
2250.000000	10.815807
2249.000000	10.997928
2248.000000	11.150125
2247.000000	11.307704
2246.000000	11.444187
2245.000000	11.565600
2244.000000	11.701652
2243.000000	11.824680
2242.000000	11.947600
2241.000000	12.033171
2240.000000	12.114544
2239.000000	12.233589
2238.000000	12.299140
2237.000000	12.386110
2236.000000	12.468021
2235.000000	12.541751
2234.000000	12.596538
2233.000000	12.637978
2232.000000	12.692657
2231.000000	12.729791
2230.000000	12.786516
2229.000000	12.816223
2228.000000	12.851958
2227.000000	12.897058
2226.000000	12.889416
2225.000000	12.924505
2224.000000	12.924290
2223.000000	12.927626
2222.000000	12.930102
2221.000000	12.952383
2220.000000	12.926550
2219.000000	12.940005
2218.000000	12.915248
2217.000000	12.913849
2216.000000	12.923106
2215.000000	12.921384
2214.000000	12.901148
2213.000000	12.887586
2212.000000	12.874131
2211.000000	12.858632
2210.000000	12.860139
2209.000000	12.848945
2208.000000	12.829678
2207.000000	12.834844
2206.000000	12.812564
2205.000000	12.797710
2204.000000	12.792974
2203.000000	12.797279
2202.000000	12.785332
2201.000000	12.787377
2200.000000	12.783287
2199.000000	12.760252
2198.000000	12.766172
2197.000000	12.744322
2196.000000	12.757992
2195.000000	12.772092
2194.000000	12.768218
2193.000000	12.758853
2192.000000	12.753471
2191.000000	12.755732
2190.000000	12.754332
2189.000000	12.744215
2188.000000	12.718813
2187.000000	12.716229
2186.000000	12.715261
2185.000000	12.695133
2184.000000	12.693088
2183.000000	12.668439
2182.000000	12.669623
2181.000000	12.663380
2180.000000	12.643575
2179.000000	12.622371
2178.000000	12.642929
2177.000000	12.634964
2176.000000	12.629475
2175.000000	12.627214
2174.000000	12.629367
2173.000000	12.635718
2172.000000	12.638624
2171.000000	12.630336
2170.000000	12.651432
2169.000000	12.667685
2168.000000	12.674789
2167.000000	12.701698
2166.000000	12.708372
2165.000000	12.719889
2164.000000	12.703851
2163.000000	12.731729
2162.000000	12.753579
2161.000000	12.781349
2160.000000	12.810949
2159.000000	12.806213
2158.000000	12.811918
2157.000000	12.848299
2156.000000	12.867350
2155.000000	12.879513
2154.000000	12.905884
2153.000000	12.925366
2152.000000	12.951091
2151.000000	12.973479
2150.000000	13.005986
2149.000000	13.044089
2148.000000	13.063033
2147.000000	13.088865
2146.000000	13.095323
2145.000000	13.106948
2144.000000	13.118358
2143.000000	13.133857
2142.000000	13.140531
2141.000000	13.162165
2140.000000	13.169485
2139.000000	13.182509
2138.000000	13.183047
2137.000000	13.188644
2136.000000	13.199946
2135.000000	13.201991
2134.000000	13.202637
2133.000000	13.219213
2132.000000	13.203928
2131.000000	13.208557
2130.000000	13.208664
2129.000000	13.199623
2128.000000	13.188536
2127.000000	13.179818
2126.000000	13.166794
2125.000000	13.168731
2124.000000	13.164749
2123.000000	13.137409
2122.000000	13.112438
2121.000000	13.089726
2120.000000	13.086174
2119.000000	13.056897
2118.000000	13.014381
2117.000000	12.980368
2116.000000	12.956365
2115.000000	12.922245
2114.000000	12.894690
2113.000000	12.880051
2112.000000	12.870364
2111.000000	12.848406
2110.000000	12.810303
2109.000000	12.778443
2108.000000	12.756162
2107.000000	12.738295
2106.000000	12.718490
2105.000000	12.678449
2104.000000	12.643144
2103.000000	12.619895
2102.000000	12.613867
2101.000000	12.584483
2100.000000	12.540783
2099.000000	12.530127
2098.000000	12.525498
2097.000000	12.490732
2096.000000	12.465760
2095.000000	12.439928
2094.000000	12.423675
2093.000000	12.435837
2092.000000	12.403762
2091.000000	12.380190
2090.000000	12.384818
2089.000000	12.363398
2088.000000	12.349298
2087.000000	12.331323
2086.000000	12.319913
2085.000000	12.318837
2084.000000	12.307212
2083.000000	12.287084
2082.000000	12.276536
2081.000000	12.259637
2080.000000	12.241877
2079.000000	12.234558
2078.000000	12.214753
2077.000000	12.216583
2076.000000	12.198177
2075.000000	12.188382
2074.000000	12.183000
2073.000000	12.164918
2072.000000	12.177080
2071.000000	12.166317
2070.000000	12.136286
2069.000000	12.118849
2068.000000	12.131766
2067.000000	12.122186
2066.000000	12.105180
2065.000000	12.114867
2064.000000	12.108731
2063.000000	12.105502
2062.000000	12.112606
2061.000000	12.116051
2060.000000	12.129290
2059.000000	12.136717
2058.000000	12.165779
2057.000000	12.204635
2056.000000	12.226270
2055.000000	12.257700
2054.000000	12.293650
2053.000000	12.353819
2052.000000	12.420445
2051.000000	12.489117
2050.000000	12.578563
2049.000000	12.654016
2048.000000	12.729253
2047.000000	12.833553
2046.000000	12.944633
2045.000000	13.033110
2044.000000	13.159475
2043.000000	13.258823
2042.000000	13.363122
2041.000000	13.502403
2040.000000	13.605734
2039.000000	13.713262
2038.000000	13.822190
2037.000000	13.909375
2036.000000	14.006785
2035.000000	14.119157
2034.000000	14.219044
2033.000000	14.313656
2032.000000	14.403209
2031.000000	14.490071
2030.000000	14.585437
2029.000000	14.671976
2028.000000	14.719982
2027.000000	14.775307
2026.000000	14.850006
2025.000000	14.935900
2024.000000	15.014797
2023.000000	15.057851
2022.000000	15.144068
2021.000000	15.184647
2020.000000	15.235343
2019.000000	15.309504
2018.000000	15.369458
2017.000000	15.405300
2016.000000	15.465038
2015.000000	15.491732
2014.000000	15.545550
2013.000000	15.581608
2012.000000	15.586344
2011.000000	15.631444
2010.000000	15.661582
2009.000000	15.683109
2008.000000	15.693119
2007.000000	15.702914
2006.000000	15.727455
2005.000000	15.727563
2004.000000	15.726271
2003.000000	15.725841
2002.000000	15.725302
2001.000000	15.727132
2000.000000	15.709049
1999.000000	15.707327
1998.000000	15.675575
1997.000000	15.657061
1996.000000	15.615621
1995.000000	15.604535
1994.000000	15.579994
1993.000000	15.527037
1992.000000	15.512291
1991.000000	15.477201
1990.000000	15.422092
1989.000000	15.385280
1988.000000	15.339750
1987.000000	15.292498
1986.000000	15.246430
1985.000000	15.188737
1984.000000	15.128461
1983.000000	15.058605
1982.000000	15.033848
1981.000000	14.954521
1980.000000	14.901026
1979.000000	14.847961
1978.000000	14.782518
1977.000000	14.735374
1976.000000	14.672837
1975.000000	14.613530
1974.000000	14.575104
1973.000000	14.529251
1972.000000	14.434208
1971.000000	14.392338
1970.000000	14.355311
1969.000000	14.302462
1968.000000	14.247567
1967.000000	14.184385
1966.000000	14.149403
1965.000000	14.066416
1964.000000	14.039076
1963.000000	13.969974
1962.000000	13.915510
1961.000000	13.862553
1960.000000	13.805829
1959.000000	13.779566
1958.000000	13.707019
1957.000000	13.670100
1956.000000	13.617681
1955.000000	13.564939
1954.000000	13.503049
1953.000000	13.439328
1952.000000	13.407683
1951.000000	13.369257
1950.000000	13.315224
1949.000000	13.277013
1948.000000	13.248812
1947.000000	13.181970
1946.000000	13.163134
1945.000000	13.125677
1944.000000	13.098014
1943.000000	13.092310
1942.000000	13.098983
1941.000000	13.074442
1940.000000	13.088327
1939.000000	13.072182
1938.000000	13.062817
1937.000000	13.074980
1936.000000	13.118465
1935.000000	13.119864
1934.000000	13.164103
1933.000000	13.206296
1932.000000	13.275937
1931.000000	13.334060
1930.000000	13.365813
1929.000000	13.443418
1928.000000	13.501757
1927.000000	13.594001
1926.000000	13.674513
1925.000000	13.765788
1924.000000	13.903778
1923.000000	14.017334
1922.000000	14.117758
1921.000000	14.222703
1920.000000	14.358217
1919.000000	14.461978
1918.000000	14.610085
1917.000000	14.799848
1916.000000	14.962271
1915.000000	15.106503
1914.000000	15.277214
1913.000000	15.445987
1912.000000	15.593018
1911.000000	15.759961
1910.000000	15.961348
1909.000000	16.161121
1908.000000	16.326665
1907.000000	16.531173
1906.000000	16.718245
1905.000000	16.902518
1904.000000	17.103905
1903.000000	17.301417
1902.000000	17.524762
1901.000000	17.736589
1900.000000	17.921293
1899.000000	18.104597
1898.000000	18.305876
1897.000000	18.538155
1896.000000	18.742556
1895.000000	18.964609
1894.000000	19.185371
1893.000000	19.369536
1892.000000	19.578888
1891.000000	19.785980
1890.000000	20.012553
1889.000000	20.222228
1888.000000	20.439653
1887.000000	20.722736
1886.000000	21.005065
1885.000000	21.298697
1884.000000	21.660569
1883.000000	22.027392
1882.000000	22.426615
1881.000000	22.820132
1880.000000	23.189754
1879.000000	23.578428
1878.000000	23.931366
1877.000000	24.247278
1876.000000	24.545322
1875.000000	24.824530
1874.000000	25.064451
1873.000000	25.294900
1872.000000	25.498870
1871.000000	25.658817
1870.000000	25.815966
1869.000000	25.955677
1868.000000	26.038557
1867.000000	26.116378
1866.000000	26.190970
1865.000000	26.262332
1864.000000	26.314644
1863.000000	26.340261
1862.000000	26.369538
1861.000000	26.384930
1860.000000	26.381270
1859.000000	26.365125
1858.000000	26.349087
1857.000000	26.329605
1856.000000	26.301943
1855.000000	26.260395
1854.000000	26.183005
1853.000000	26.088285
1852.000000	26.037265
1851.000000	26.014339
1850.000000	26.011756
1849.000000	25.956754
1848.000000	25.840722
1847.000000	25.737069
1846.000000	25.647408
1845.000000	25.598649
1844.000000	25.591437
1843.000000	25.607905
1842.000000	25.583257
1841.000000	25.525779
1840.000000	25.464534
1839.000000	25.415775
1838.000000	25.377672
1837.000000	25.321271
1836.000000	25.253460
1835.000000	25.187694
1834.000000	25.120960
1833.000000	25.061760
1832.000000	25.018490
1831.000000	24.950895
1830.000000	24.872213
1829.000000	24.793208
1828.000000	24.693752
1827.000000	24.622390
1826.000000	24.552534
1825.000000	24.496994
1824.000000	24.471592
1823.000000	24.477404
1822.000000	24.482678
1821.000000	24.439516
1820.000000	24.383868
1819.000000	24.342428
1818.000000	24.332203
1817.000000	24.334571
1816.000000	24.335863
1815.000000	24.326821
1814.000000	24.335863
1813.000000	24.329512
1812.000000	24.300343
1811.000000	24.260087
1810.000000	24.228011
1809.000000	24.204008
1808.000000	24.166982
1807.000000	24.131892
1806.000000	24.077967
1805.000000	24.021458
1804.000000	23.967855
1803.000000	23.933842
1802.000000	23.906072
1801.000000	23.852900
1800.000000	23.794884
1799.000000	23.739774
1798.000000	23.695643
1797.000000	23.658724
1796.000000	23.626649
1795.000000	23.569386
1794.000000	23.506957
1793.000000	23.471007
1792.000000	23.419449
1791.000000	23.360034
1790.000000	23.297282
1789.000000	23.236145
1788.000000	23.178560
1787.000000	23.106444
1786.000000	23.036803
1785.000000	22.938316
1784.000000	22.854791
1783.000000	22.770619
1782.000000	22.690861
1781.000000	22.633599
1780.000000	22.549212
1779.000000	22.463426
1778.000000	22.362571
1777.000000	22.267744
1776.000000	22.163444
1775.000000	22.046336
1774.000000	21.922340
1773.000000	21.801142
1772.000000	21.671655
1771.000000	21.538940
1770.000000	21.406225
1769.000000	21.281905
1768.000000	21.171255
1767.000000	21.087730
1766.000000	20.998069
1765.000000	20.942206
1764.000000	20.918526
1763.000000	20.893339
1762.000000	20.915405
1761.000000	20.965994
1760.000000	21.039939
1759.000000	21.114747
1758.000000	21.167919
1757.000000	21.219369
1756.000000	21.271142
1755.000000	21.298158
1754.000000	21.312797
1753.000000	21.323345
1752.000000	21.298158
1751.000000	21.260486
1750.000000	21.204407
1749.000000	21.149405
1748.000000	21.074598
1747.000000	20.996132
1746.000000	20.888280
1745.000000	20.737267
1744.000000	20.576351
1743.000000	20.397029
1742.000000	20.202962
1741.000000	19.980155
1740.000000	19.765206
1739.000000	19.549826
1738.000000	19.361786
1737.000000	19.189030
1736.000000	19.060513
1735.000000	19.001743
1734.000000	18.987643
1733.000000	19.005403
1732.000000	19.071169
1731.000000	19.171916
1730.000000	19.270080
1729.000000	19.387296
1728.000000	19.501605
1727.000000	19.597724
1726.000000	19.711065
1725.000000	19.766282
1724.000000	19.806646
1723.000000	19.843673
1722.000000	19.850131
1721.000000	19.843995
1720.000000	19.867675
1719.000000	19.882099
1718.000000	19.891248
1717.000000	19.925153
1716.000000	19.970145
1715.000000	20.013845
1714.000000	20.048073
1713.000000	20.089621
1712.000000	20.147421
1711.000000	20.164536
1710.000000	20.173577
1709.000000	20.151189
1708.000000	20.151404
1707.000000	20.095110
1706.000000	20.078750
1705.000000	20.052379
1704.000000	19.996300
1703.000000	19.918264
1702.000000	19.817194
1701.000000	19.687493
1700.000000	19.546167
1699.000000	19.402472
1698.000000	19.239404
1697.000000	19.151573
1696.000000	19.089682
1695.000000	19.121435
1694.000000	19.184294
1693.000000	19.294944
1692.000000	19.443805
1691.000000	19.588145
1690.000000	19.764345
1689.000000	19.854544
1688.000000	19.881668
1687.000000	19.888772
1686.000000	19.882314
1685.000000	19.894800
1684.000000	19.955937
1683.000000	20.151512
1682.000000	20.479479
1681.000000	20.886558
1680.000000	21.394708
1679.000000	21.907486
1678.000000	22.380869
1677.000000	22.813781
1676.000000	23.232701
1675.000000	23.603507
1674.000000	23.888743
1673.000000	24.137597
1672.000000	24.353838
1671.000000	24.534451
1670.000000	24.706346
1669.000000	24.835294
1668.000000	24.947666
1667.000000	25.036789
1666.000000	25.103092
1665.000000	25.184680
1664.000000	25.245495
1663.000000	25.277570
1662.000000	25.315673
1661.000000	25.369492
1660.000000	25.375196
1659.000000	25.391772
1658.000000	25.406734
1657.000000	25.398876
1656.000000	25.396723
1655.000000	25.379717
1654.000000	25.357544
1653.000000	25.341183
1652.000000	25.316965
1651.000000	25.290810
1650.000000	25.252383
1649.000000	25.217294
1648.000000	25.179944
1647.000000	25.125804
1646.000000	25.066066
1645.000000	25.020858
1644.000000	24.978127
1643.000000	24.907518
1642.000000	24.848533
1641.000000	24.776094
1640.000000	24.715387
1639.000000	24.655326
1638.000000	24.608182
1637.000000	24.526917
1636.000000	24.482248
1635.000000	24.404427
1634.000000	24.352761
1633.000000	24.272142
1632.000000	24.176561
1631.000000	24.110473
1630.000000	24.023933
1629.000000	23.983785
1628.000000	23.906825
1627.000000	23.827282
1626.000000	23.732132
1625.000000	23.659801
1624.000000	23.605660
1623.000000	23.533651
1622.000000	23.473375
1621.000000	23.384360
1620.000000	23.323976
1619.000000	23.249169
1618.000000	23.196966
1617.000000	23.118822
1616.000000	23.036373
1615.000000	22.984600
1614.000000	22.931212
1613.000000	22.867492
1612.000000	22.822392
1611.000000	22.749092
1610.000000	22.683542
1609.000000	22.658570
1608.000000	22.600339
1607.000000	22.550934
1606.000000	22.501529
1605.000000	22.435871
1604.000000	22.379039
1603.000000	22.322638
1602.000000	22.282920
1601.000000	22.243849
1600.000000	22.208544
1599.000000	22.161830
1598.000000	22.111887
1597.000000	22.067110
1596.000000	22.034604
