PE UV       SUBTECH     SPECTRUM    ASCII       PEDS        4.00        
   -1
INBUCR0331-4.Sample.ASC
24/02/09
10:33:33.00
24/02/09
10:33:33.00
Vinicio Soto Monge
COSTA RICA.  Prov Puntarenas. Finca La Neblina de Willian Gamboa Elizondo. 1960 m. 10 ABR 1998. B. Gamboa. L_S_318500_600200 #50708. INBIOCRI002417996
250,000000
1
Lambda 1050
1050L1511233
PerkinElmer UV WinLab 6.3.2.0749 / 2.02.05 Lambda 900 UV/VIS/NIR, Aug  7 2015 09:38:08

0
0
3350/servo 860,8/2
0
0
UV/VIS
1
1
1
DoubleDePol,CommonBeamDepol,RBeamAtt,SBeamAtt,60mm sphere, WB InGaAs Detector
0
0
0
0
Program
Program
3350/servo 860,8/2
3350/0,2 860,8/0,2
3350/0,2 860,8/0,2
0
15.00
 
 
 
0
 
860,8
319,2
860,8
Front
100
on
S:100 R:100
0
0
0
0
 
0
 
 
 
0
 
 
0
0
0
0
0
 
 
 
 
0
0


0
0
#HDR
-1
-1
#GR
nm
%R
1.0
0.0
2500,000000
-1,000000
2251
8
15,580700
1,701900
#DATA

250.000000	nan
251.000000	nan
252.000000	nan
253.000000	nan
254.000000	nan
255.000000	nan
256.000000	nan
257.000000	nan
258.000000	nan
259.000000	6.342701
260.000000	6.339449
261.000000	6.336102
262.000000	6.334228
263.000000	6.289540
264.000000	6.244474
265.000000	6.198240
266.000000	6.150375
267.000000	6.102922
268.000000	6.057601
269.000000	6.010708
270.000000	5.963861
271.000000	5.916486
272.000000	5.869019
273.000000	5.865260
274.000000	5.859994
275.000000	5.855888
276.000000	5.852042
277.000000	5.848613
278.000000	5.845782
279.000000	5.842653
280.000000	5.841132
281.000000	5.840010
282.000000	5.838075
283.000000	5.835093
284.000000	5.835027
285.000000	5.833471
286.000000	5.832472
287.000000	5.832372
288.000000	5.831049
289.000000	5.831916
290.000000	5.832328
291.000000	5.830680
292.000000	5.831740
293.000000	5.833357
294.000000	5.836529
295.000000	5.838261
296.000000	5.839493
297.000000	5.837393
298.000000	5.839379
299.000000	5.840400
300.000000	5.840322
301.000000	5.840919
302.000000	5.840349
303.000000	5.840897
304.000000	5.839765
305.000000	5.839499
306.000000	5.839203
307.000000	5.842712
308.000000	5.882288
309.000000	5.922794
310.000000	5.962779
311.000000	6.004900
312.000000	6.045292
313.000000	6.084663
314.000000	6.123920
315.000000	6.163887
316.000000	6.205251
317.000000	6.301468
318.000000	6.363620
319.000000	6.425268
320.000000	6.485223
321.000000	6.539871
322.000000	6.598939
323.000000	6.657073
324.000000	6.720156
325.000000	6.769974
326.000000	6.815231
327.000000	6.807557
328.000000	6.789697
329.000000	6.772395
330.000000	6.764079
331.000000	6.753153
332.000000	6.740007
333.000000	6.725595
334.000000	6.708347
335.000000	6.708795
336.000000	6.704545
337.000000	6.695615
338.000000	6.691058
339.000000	6.688546
340.000000	6.677781
341.000000	6.676123
342.000000	6.673928
343.000000	6.710471
344.000000	6.703871
345.000000	6.694319
346.000000	6.697294
347.000000	6.699685
348.000000	6.699130
349.000000	6.697240
350.000000	6.697057
351.000000	6.695551
352.000000	6.693928
353.000000	6.655233
354.000000	6.651453
355.000000	6.692629
356.000000	6.728566
357.000000	6.766350
358.000000	6.804284
359.000000	6.841159
360.000000	6.877292
361.000000	6.913327
362.000000	6.947132
363.000000	6.982063
364.000000	7.022445
365.000000	6.974814
366.000000	6.928962
367.000000	6.920893
368.000000	6.915226
369.000000	6.907069
370.000000	6.900979
371.000000	6.892423
372.000000	6.886952
373.000000	6.880563
374.000000	6.875647
375.000000	6.912035
376.000000	6.949398
377.000000	6.901001
378.000000	6.893421
379.000000	6.888370
380.000000	6.881849
381.000000	6.876639
382.000000	6.871281
383.000000	6.866326
384.000000	6.860064
385.000000	6.854295
386.000000	6.847732
387.000000	6.888450
388.000000	6.888610
389.000000	6.888728
390.000000	6.889495
391.000000	6.890248
392.000000	6.890960
393.000000	6.891998
394.000000	6.893114
395.000000	6.894368
396.000000	6.895332
397.000000	6.896505
398.000000	6.898117
399.000000	6.899845
400.000000	6.901493
401.000000	6.903339
402.000000	6.904746
403.000000	6.905752
404.000000	6.906900
405.000000	6.908203
406.000000	6.909131
407.000000	6.910398
408.000000	6.911371
409.000000	6.912087
410.000000	6.912531
411.000000	6.913101
412.000000	6.913676
413.000000	6.914314
414.000000	6.915003
415.000000	6.915696
416.000000	6.916388
417.000000	6.916666
418.000000	6.917015
419.000000	6.917076
420.000000	6.917672
421.000000	6.918482
422.000000	6.918994
423.000000	6.919452
424.000000	6.919929
425.000000	6.920019
426.000000	6.919898
427.000000	6.920156
428.000000	6.920522
429.000000	6.921157
430.000000	6.921656
431.000000	6.921908
432.000000	6.922340
433.000000	6.922832
434.000000	6.923157
435.000000	6.923877
436.000000	6.924791
437.000000	6.925321
438.000000	6.925666
439.000000	6.926020
440.000000	6.926063
441.000000	6.926167
442.000000	6.926411
443.000000	6.926729
444.000000	6.927110
445.000000	6.927113
446.000000	6.926947
447.000000	6.927117
448.000000	6.927603
449.000000	6.928105
450.000000	6.928600
451.000000	6.929322
452.000000	6.929994
453.000000	6.930260
454.000000	6.930538
455.000000	6.931281
456.000000	6.932203
457.000000	6.932985
458.000000	6.933728
459.000000	6.934529
460.000000	6.935266
461.000000	6.935807
462.000000	6.936386
463.000000	6.937259
464.000000	6.938447
465.000000	6.939550
466.000000	6.940387
467.000000	6.941280
468.000000	6.942149
469.000000	6.942995
470.000000	6.943758
471.000000	6.944403
472.000000	6.944969
473.000000	6.945495
474.000000	6.945805
475.000000	6.946013
476.000000	6.945995
477.000000	6.945908
478.000000	6.945777
479.000000	6.945529
480.000000	6.945259
481.000000	6.944640
482.000000	6.943938
483.000000	6.943197
484.000000	6.942601
485.000000	6.942142
486.000000	6.942560
487.000000	6.943393
488.000000	6.944251
489.000000	6.985825
490.000000	7.028230
491.000000	7.071319
492.000000	7.114614
493.000000	7.158406
494.000000	7.202317
495.000000	7.246532
496.000000	7.290503
497.000000	7.334505
498.000000	7.378739
499.000000	7.382669
500.000000	7.386341
501.000000	7.390148
502.000000	7.394298
503.000000	7.398510
504.000000	7.402705
505.000000	7.406648
506.000000	7.410879
507.000000	7.415015
508.000000	7.419021
509.000000	7.423177
510.000000	7.427267
511.000000	7.431417
512.000000	7.435362
513.000000	7.439186
514.000000	7.443077
515.000000	7.446958
516.000000	7.450830
517.000000	7.454763
518.000000	7.458882
519.000000	7.463067
520.000000	7.467408
521.000000	7.471731
522.000000	7.476349
523.000000	7.481336
524.000000	7.486851
525.000000	7.493309
526.000000	7.500341
527.000000	7.508280
528.000000	7.517255
529.000000	7.527423
530.000000	7.579607
531.000000	7.633329
532.000000	7.688753
533.000000	7.746186
534.000000	7.805628
535.000000	7.866935
536.000000	7.930599
537.000000	7.997112
538.000000	8.066341
539.000000	8.178836
540.000000	8.254024
541.000000	8.332843
542.000000	8.415382
543.000000	8.501673
544.000000	8.591977
545.000000	8.686528
546.000000	8.826166
547.000000	8.969744
548.000000	9.117983
549.000000	9.231039
550.000000	9.349486
551.000000	9.473576
552.000000	9.603482
553.000000	9.739994
554.000000	9.924134
555.000000	10.115495
556.000000	10.274506
557.000000	10.442064
558.000000	10.618125
559.000000	10.802889
560.000000	10.992192
561.000000	11.188427
562.000000	11.391777
563.000000	11.600239
564.000000	11.771417
565.000000	11.944376
566.000000	12.115318
567.000000	12.282478
568.000000	12.442640
569.000000	12.552307
570.000000	12.652428
571.000000	12.737250
572.000000	12.804107
573.000000	12.850099
574.000000	12.874420
575.000000	12.876098
576.000000	12.855322
577.000000	12.811186
578.000000	12.744995
579.000000	12.698123
580.000000	12.591134
581.000000	12.466125
582.000000	12.324958
583.000000	12.170868
584.000000	12.006374
585.000000	11.833868
586.000000	11.654960
587.000000	11.473159
588.000000	11.290449
589.000000	11.108361
590.000000	10.969532
591.000000	10.835426
592.000000	10.706405
593.000000	10.543206
594.000000	10.385805
595.000000	10.234474
596.000000	10.089650
597.000000	9.950149
598.000000	9.815464
599.000000	9.684654
600.000000	9.557364
601.000000	9.432192
602.000000	9.309790
603.000000	9.229731
604.000000	9.151647
605.000000	9.074778
606.000000	8.999979
607.000000	8.927725
608.000000	8.858346
609.000000	8.792215
610.000000	8.729897
611.000000	8.672010
612.000000	8.618052
613.000000	8.569141
614.000000	8.525047
615.000000	8.485882
616.000000	8.450862
617.000000	8.420017
618.000000	8.392496
619.000000	8.368589
620.000000	8.347099
621.000000	8.328067
622.000000	8.310974
623.000000	8.294955
624.000000	8.279886
625.000000	8.265844
626.000000	8.252527
627.000000	8.239298
628.000000	8.226885
629.000000	8.215068
630.000000	8.203973
631.000000	8.193404
632.000000	8.184076
633.000000	8.175365
634.000000	8.167695
635.000000	8.160707
636.000000	8.154598
637.000000	8.149441
638.000000	8.144584
639.000000	8.140111
640.000000	8.136245
641.000000	8.133091
642.000000	8.129703
643.000000	8.126882
644.000000	8.123897
645.000000	8.120621
646.000000	8.117603
647.000000	8.114890
648.000000	8.113050
649.000000	8.111124
650.000000	8.108644
651.000000	8.106330
652.000000	8.104868
653.000000	8.103247
654.000000	8.101843
655.000000	8.101045
656.000000	8.100239
657.000000	8.099588
658.000000	8.098927
659.000000	8.099213
660.000000	8.099947
661.000000	8.100717
662.000000	8.101048
663.000000	8.101749
664.000000	8.103054
665.000000	8.104775
666.000000	8.106947
667.000000	8.109423
668.000000	8.111402
669.000000	8.113120
670.000000	8.115557
671.000000	8.117675
672.000000	8.119715
673.000000	8.122053
674.000000	8.124696
675.000000	8.127791
676.000000	8.130330
677.000000	8.132902
678.000000	8.136142
679.000000	8.139725
680.000000	8.142882
681.000000	8.146626
682.000000	8.150800
683.000000	8.154908
684.000000	8.158899
685.000000	8.163057
686.000000	8.167404
687.000000	8.171578
688.000000	8.175474
689.000000	8.179545
690.000000	8.183776
691.000000	8.188213
692.000000	8.192938
693.000000	8.198511
694.000000	8.203687
695.000000	8.207781
696.000000	8.213320
697.000000	8.219420
698.000000	8.225683
699.000000	8.231890
700.000000	8.238541
701.000000	8.245255
702.000000	8.251838
703.000000	8.258399
704.000000	8.265433
705.000000	8.273180
706.000000	8.280061
707.000000	8.286476
708.000000	8.293490
709.000000	8.300697
710.000000	8.307982
711.000000	8.315607
712.000000	8.323743
713.000000	8.331693
714.000000	8.339448
715.000000	8.347085
716.000000	8.355519
717.000000	8.364462
718.000000	8.373177
719.000000	8.382043
720.000000	8.391078
721.000000	8.399537
722.000000	8.408012
723.000000	8.416611
724.000000	8.425093
725.000000	8.434173
726.000000	8.443356
727.000000	8.453010
728.000000	8.462866
729.000000	8.472311
730.000000	8.481856
731.000000	8.492053
732.000000	8.502528
733.000000	8.513067
734.000000	8.524243
735.000000	8.535519
736.000000	8.546618
737.000000	8.557930
738.000000	8.568792
739.000000	8.579839
740.000000	8.591407
741.000000	8.603046
742.000000	8.614339
743.000000	8.625459
744.000000	8.637238
745.000000	8.649684
746.000000	8.661650
747.000000	8.672853
748.000000	8.685215
749.000000	8.698018
750.000000	8.710875
751.000000	8.724109
752.000000	8.737351
753.000000	8.750155
754.000000	8.762741
755.000000	8.775596
756.000000	8.788990
757.000000	8.802686
758.000000	8.816276
759.000000	8.830677
760.000000	8.844729
761.000000	8.858359
762.000000	8.873283
763.000000	8.889129
764.000000	8.904375
765.000000	8.919522
766.000000	8.935196
767.000000	8.951282
768.000000	8.967053
769.000000	8.981943
770.000000	8.996965
771.000000	9.012564
772.000000	9.027743
773.000000	9.043322
774.000000	9.100182
775.000000	9.156988
776.000000	9.213139
777.000000	9.269548
778.000000	9.326386
779.000000	9.383431
780.000000	9.441191
781.000000	9.499082
782.000000	9.556185
783.000000	9.613298
784.000000	9.630371
785.000000	9.646984
786.000000	9.664802
787.000000	9.683492
788.000000	9.702570
789.000000	9.722031
790.000000	9.740542
791.000000	9.758992
792.000000	9.778277
793.000000	9.797647
794.000000	9.816485
795.000000	9.836149
796.000000	9.855484
797.000000	9.874099
798.000000	9.893461
799.000000	9.912120
800.000000	9.932031
801.000000	9.952373
802.000000	9.972550
803.000000	9.992561
804.000000	10.013402
805.000000	10.034700
806.000000	10.055264
807.000000	10.076040
808.000000	10.096266
809.000000	10.117540
810.000000	10.138775
811.000000	10.160296
812.000000	10.180773
813.000000	10.202760
814.000000	10.224576
815.000000	10.245770
816.000000	10.267842
817.000000	10.289087
818.000000	10.310944
819.000000	10.332869
820.000000	10.355054
821.000000	10.378189
822.000000	10.401925
823.000000	10.423171
824.000000	10.444017
825.000000	10.466810
826.000000	10.488083
827.000000	10.509772
828.000000	10.571482
829.000000	10.591632
830.000000	10.612956
831.000000	10.634019
832.000000	10.695851
833.000000	10.759694
834.000000	10.782023
835.000000	10.844097
836.000000	10.906163
837.000000	10.967281
838.000000	10.987105
839.000000	11.048815
840.000000	11.109671
841.000000	11.167999
842.000000	11.186153
843.000000	11.207518
844.000000	11.267023
845.000000	11.281185
846.000000	11.296482
847.000000	11.313581
848.000000	11.333810
849.000000	11.353426
850.000000	11.369997
851.000000	11.387437
852.000000	11.411698
853.000000	11.385459
854.000000	11.394193
855.000000	11.374218
856.000000	11.390382
857.000000	11.422841
858.000000	11.804788
859.000000	11.842489
860.000000	11.907815
861.000000	11.975542
862.000000	12.012669
863.000000	12.122505
864.000000	12.178952
865.000000	12.268222
866.000000	12.298389
867.000000	12.288786
868.000000	11.954010
869.000000	11.939705
870.000000	11.901470
871.000000	11.887878
872.000000	11.874930
873.000000	11.837060
874.000000	11.821307
875.000000	11.806540
876.000000	11.816725
877.000000	11.826450
878.000000	11.810768
879.000000	11.820510
880.000000	11.830165
881.000000	11.788335
882.000000	11.772493
883.000000	11.755190
884.000000	11.764345
885.000000	11.749007
886.000000	11.733745
887.000000	11.742065
888.000000	11.749705
889.000000	11.731750
890.000000	11.714010
891.000000	11.747645
892.000000	11.753622
893.000000	11.761532
894.000000	11.744373
895.000000	11.750917
896.000000	11.756467
897.000000	11.762820
898.000000	11.770455
899.000000	11.802597
900.000000	11.808753
901.000000	11.789630
902.000000	11.822423
903.000000	11.829635
904.000000	11.835435
905.000000	11.842950
906.000000	11.849732
907.000000	11.857147
908.000000	11.863598
909.000000	11.869930
910.000000	11.902240
911.000000	11.933753
912.000000	11.940825
913.000000	11.971967
914.000000	12.004098
915.000000	12.035495
916.000000	12.067650
917.000000	12.098508
918.000000	12.129157
919.000000	12.135750
920.000000	12.167033
921.000000	12.198767
922.000000	12.204860
923.000000	12.212153
924.000000	12.219372
925.000000	12.224810
926.000000	12.255992
927.000000	12.287347
928.000000	12.294030
929.000000	12.325110
930.000000	12.331440
931.000000	12.337800
932.000000	12.368750
933.000000	12.399852
934.000000	12.430230
935.000000	12.462757
936.000000	12.470060
937.000000	12.477203
938.000000	12.534785
939.000000	12.566965
940.000000	12.598747
941.000000	12.630858
942.000000	12.662482
943.000000	12.693950
944.000000	12.726610
945.000000	12.757293
946.000000	12.788605
947.000000	12.820250
948.000000	12.827460
949.000000	12.859447
950.000000	12.892030
951.000000	12.949812
952.000000	13.007695
953.000000	13.065240
954.000000	13.096880
955.000000	13.155548
956.000000	13.213542
957.000000	13.271970
958.000000	13.329855
959.000000	13.387742
960.000000	13.446142
961.000000	13.455045
962.000000	13.488322
963.000000	13.521353
964.000000	13.580815
965.000000	13.614195
966.000000	13.646812
967.000000	13.679915
968.000000	13.712393
969.000000	13.746408
970.000000	13.779610
971.000000	13.837340
972.000000	13.870833
973.000000	13.904125
974.000000	13.937483
975.000000	13.970765
976.000000	14.005170
977.000000	14.038815
978.000000	14.072685
979.000000	14.107233
980.000000	14.141580
981.000000	14.175425
982.000000	14.209715
983.000000	14.244442
984.000000	14.277917
985.000000	14.311782
986.000000	14.344985
987.000000	14.378733
988.000000	14.413017
989.000000	14.446418
990.000000	14.479820
991.000000	14.513628
992.000000	14.547615
993.000000	14.581103
994.000000	14.614513
995.000000	14.648633
996.000000	14.683507
997.000000	14.718217
998.000000	14.751535
999.000000	14.809960
1000.000000	14.868955
1001.000000	14.928330
1002.000000	14.987595
1003.000000	15.046770
1004.000000	15.105873
1005.000000	15.164530
1006.000000	15.223285
1007.000000	15.282380
1008.000000	15.341865
1009.000000	15.376165
1010.000000	15.409930
1011.000000	15.443518
1012.000000	15.476463
1013.000000	15.510313
1014.000000	15.545022
1015.000000	15.579675
1016.000000	15.614067
1017.000000	15.648017
1018.000000	15.682760
1019.000000	15.718850
1020.000000	15.755073
1021.000000	15.790580
1022.000000	15.826487
1023.000000	15.862357
1024.000000	15.898365
1025.000000	15.934157
1026.000000	15.969970
1027.000000	16.006282
1028.000000	16.042162
1029.000000	16.076443
1030.000000	16.136553
1031.000000	16.197402
1032.000000	16.257915
1033.000000	16.318550
1034.000000	16.378902
1035.000000	16.439500
1036.000000	16.499945
1037.000000	16.559870
1038.000000	16.620143
1039.000000	16.681165
1040.000000	16.716645
1041.000000	16.752132
1042.000000	16.787343
1043.000000	16.822083
1044.000000	16.857290
1045.000000	16.892572
1046.000000	16.928175
1047.000000	16.964215
1048.000000	17.000280
1049.000000	17.036593
1050.000000	17.072212
1051.000000	17.107745
1052.000000	17.143973
1053.000000	17.180923
1054.000000	17.217688
1055.000000	17.253818
1056.000000	17.289650
1057.000000	17.350838
1058.000000	17.411153
1059.000000	17.470670
1060.000000	17.531185
1061.000000	17.592160
1062.000000	17.653745
1063.000000	17.715132
1064.000000	17.776412
1065.000000	17.838013
1066.000000	17.899313
1067.000000	17.934940
1068.000000	17.971377
1069.000000	18.008620
1070.000000	18.045908
1071.000000	18.083350
1072.000000	18.120200
1073.000000	18.157140
1074.000000	18.194202
1075.000000	18.231113
1076.000000	18.268142
1077.000000	18.305682
1078.000000	18.343208
1079.000000	18.380180
1080.000000	18.415822
1081.000000	18.476705
1082.000000	18.537845
1083.000000	18.598558
1084.000000	18.658958
1085.000000	18.719707
1086.000000	18.780863
1087.000000	18.842217
1088.000000	18.902893
1089.000000	18.963280
1090.000000	19.024875
1091.000000	19.060325
1092.000000	19.095978
1093.000000	19.130907
1094.000000	19.166303
1095.000000	19.202345
1096.000000	19.237430
1097.000000	19.271577
1098.000000	19.305953
1099.000000	19.340825
1100.000000	19.374828
1101.000000	19.409883
1102.000000	19.444585
1103.000000	19.480228
1104.000000	19.515252
1105.000000	19.548955
1106.000000	19.583225
1107.000000	19.643487
1108.000000	19.703533
1109.000000	19.762847
1110.000000	19.822385
1111.000000	19.880350
1112.000000	19.938220
1113.000000	19.995400
1114.000000	20.052830
1115.000000	20.111545
1116.000000	20.169847
1117.000000	20.201925
1118.000000	20.233862
1119.000000	20.267160
1120.000000	20.299900
1121.000000	20.333247
1122.000000	20.366000
1123.000000	20.398985
1124.000000	20.430310
1125.000000	20.461040
1126.000000	20.491608
1127.000000	20.521390
1128.000000	20.551782
1129.000000	20.580275
1130.000000	20.607940
1131.000000	20.632960
1132.000000	20.655842
1133.000000	20.678953
1134.000000	20.703903
1135.000000	20.753577
1136.000000	20.801965
1137.000000	20.848772
1138.000000	20.893347
1139.000000	20.937510
1140.000000	20.981820
1141.000000	21.027572
1142.000000	21.074955
1143.000000	21.120135
1144.000000	21.165183
1145.000000	21.184133
1146.000000	21.204078
1147.000000	21.225618
1148.000000	21.248992
1149.000000	21.271058
1150.000000	21.293003
1151.000000	21.315182
1152.000000	21.336805
1153.000000	21.359742
1154.000000	21.380540
1155.000000	21.400345
1156.000000	21.417320
1157.000000	21.433995
1158.000000	21.448568
1159.000000	21.463793
1160.000000	21.477020
1161.000000	21.488495
1162.000000	21.498535
1163.000000	21.506450
1164.000000	21.513578
1165.000000	21.519862
1166.000000	21.526340
1167.000000	21.531615
1168.000000	21.535915
1169.000000	21.540495
1170.000000	21.546408
1171.000000	21.552777
1172.000000	21.560815
1173.000000	21.570580
1174.000000	21.581178
1175.000000	21.591192
1176.000000	21.602972
1177.000000	21.615325
1178.000000	21.629055
1179.000000	21.643480
