PE UV       SUBTECH     SPECTRUM    ASCII       PEDS        4.00        
   -1
INBUCR0222-4.Sample.ASC
24/02/08
10:24:55.00
24/02/08
10:24:55.00
Vinicio Soto Monge
C. batesi Det: A Solís COSTA RICA INBIOCRI002430774 Est. Cuerici, Sendero al Mirador, 4,6 km al E. de Villa Mills, San José, Costa Rica, 2640 m 17-22 Mar 1996. A Picado, de Luz L_S_389700_499600 #7026
250,000000
1
Lambda 1050
1050L1511233
PerkinElmer UV WinLab 6.3.2.0749 / 2.02.05 Lambda 900 UV/VIS/NIR, Aug  7 2015 09:38:08

0
0
3350/servo 860,8/2
0
0
UV/VIS
1
1
1
DoubleDePol,CommonBeamDepol,RBeamAtt,SBeamAtt,60mm sphere, WB InGaAs Detector
0
0
0
0
Program
Program
3350/servo 860,8/2
3350/0,2 860,8/0,2
3350/0,2 860,8/0,2
0
15.00
 
 
 
0
 
860,8
319,2
860,8
Front
100
on
S:100 R:100
0
0
0
0
 
0
 
 
 
0
 
 
0
0
0
0
0
 
 
 
 
0
0


0
0
#HDR
-1
-1
#GR
nm
%R
1.0
0.0
2500,000000
-1,000000
2251
8
12,467900
1,252400
#DATA

250.000000	nan
251.000000	nan
252.000000	nan
253.000000	nan
254.000000	nan
255.000000	nan
256.000000	nan
257.000000	nan
258.000000	nan
259.000000	4.219487
260.000000	4.206422
261.000000	4.193619
262.000000	4.180516
263.000000	4.166126
264.000000	4.152025
265.000000	4.137208
266.000000	4.122908
267.000000	4.102619
268.000000	4.089502
269.000000	4.072556
270.000000	4.054522
271.000000	4.036616
272.000000	4.021816
273.000000	4.007832
274.000000	3.995863
275.000000	3.983701
276.000000	3.970431
277.000000	3.960768
278.000000	3.950478
279.000000	3.943018
280.000000	3.936733
281.000000	3.931580
282.000000	3.923062
283.000000	3.915482
284.000000	3.908268
285.000000	3.900221
286.000000	3.894086
287.000000	3.891819
288.000000	3.886924
289.000000	3.881760
290.000000	3.875833
291.000000	3.870235
292.000000	3.866273
293.000000	3.862524
294.000000	3.861132
295.000000	3.858744
296.000000	3.858797
297.000000	3.851693
298.000000	3.846771
299.000000	3.842120
300.000000	3.840065
301.000000	3.837331
302.000000	3.836199
303.000000	3.832514
304.000000	3.825603
305.000000	3.820451
306.000000	3.812397
307.000000	3.807931
308.000000	3.801445
309.000000	3.796300
310.000000	3.789100
311.000000	3.783173
312.000000	3.777111
313.000000	3.772329
314.000000	3.767912
315.000000	3.764605
316.000000	3.763156
317.000000	3.794410
318.000000	3.822439
319.000000	3.843877
320.000000	3.862995
321.000000	3.878365
322.000000	3.902788
323.000000	3.917064
324.000000	3.934131
325.000000	3.952194
326.000000	3.970903
327.000000	3.954100
328.000000	3.934762
329.000000	3.922150
330.000000	3.913798
331.000000	3.910578
332.000000	3.893169
333.000000	3.886990
334.000000	3.886402
335.000000	3.877097
336.000000	3.866300
337.000000	3.859562
338.000000	3.862342
339.000000	3.861657
340.000000	3.857080
341.000000	3.848797
342.000000	3.846874
343.000000	3.849703
344.000000	3.843961
345.000000	3.847421
346.000000	3.846743
347.000000	3.843020
348.000000	3.841582
349.000000	3.838054
350.000000	3.840093
351.000000	3.847024
352.000000	3.852716
353.000000	3.853626
354.000000	3.855985
355.000000	3.851992
356.000000	3.855206
357.000000	3.861134
358.000000	3.864348
359.000000	3.869896
360.000000	3.876166
361.000000	3.880181
362.000000	3.881555
363.000000	3.881555
364.000000	3.883156
365.000000	3.889071
366.000000	3.893009
367.000000	3.896901
368.000000	3.898783
369.000000	3.902551
370.000000	3.902905
371.000000	3.902973
372.000000	3.906840
373.000000	3.913358
374.000000	3.919725
375.000000	3.930328
376.000000	3.953394
377.000000	3.969457
378.000000	3.990860
379.000000	4.018041
380.000000	4.050169
381.000000	4.089168
382.000000	4.135135
383.000000	4.188227
384.000000	4.250660
385.000000	4.319718
386.000000	4.388396
387.000000	4.477808
388.000000	4.578946
389.000000	4.693101
390.000000	4.822914
391.000000	4.968005
392.000000	5.131520
393.000000	5.314932
394.000000	5.519092
395.000000	5.745970
396.000000	5.995614
397.000000	6.268748
398.000000	6.567549
399.000000	6.892629
400.000000	7.242820
401.000000	7.618475
402.000000	8.018127
403.000000	8.441561
404.000000	8.888358
405.000000	9.355388
406.000000	9.839065
407.000000	10.338232
408.000000	10.848880
409.000000	11.367740
410.000000	11.893928
411.000000	12.423403
412.000000	12.952068
413.000000	13.477461
414.000000	13.994625
415.000000	14.501497
416.000000	14.998605
417.000000	15.482171
418.000000	15.949993
419.000000	16.399818
420.000000	16.829961
421.000000	17.241301
422.000000	17.633535
423.000000	18.003407
424.000000	18.352611
425.000000	18.681857
426.000000	18.989670
427.000000	19.276551
428.000000	19.542507
429.000000	19.790039
430.000000	20.018820
431.000000	20.226756
432.000000	20.415686
433.000000	20.587905
434.000000	20.741170
435.000000	20.876223
436.000000	20.993894
437.000000	21.093780
438.000000	21.176406
439.000000	21.241780
440.000000	21.290001
441.000000	21.321608
442.000000	21.333464
443.000000	21.326994
444.000000	21.303342
445.000000	21.261150
446.000000	21.200785
447.000000	21.122055
448.000000	21.025054
449.000000	20.907478
450.000000	20.768954
451.000000	20.609580
452.000000	20.431131
453.000000	20.230988
454.000000	20.009031
455.000000	19.766042
456.000000	19.500442
457.000000	19.212806
458.000000	18.903855
459.000000	18.574949
460.000000	18.227346
461.000000	17.862571
462.000000	17.481720
463.000000	17.089289
464.000000	16.689126
465.000000	16.284612
466.000000	15.881502
467.000000	15.485903
468.000000	15.103379
469.000000	14.739615
470.000000	14.400126
471.000000	14.091400
472.000000	13.819735
473.000000	13.589088
474.000000	13.402170
475.000000	13.261655
476.000000	13.168396
477.000000	13.121943
478.000000	13.120964
479.000000	13.163350
480.000000	13.244533
481.000000	13.358830
482.000000	13.499927
483.000000	13.661759
484.000000	13.838900
485.000000	14.024719
486.000000	14.213049
487.000000	14.398378
488.000000	14.575379
489.000000	14.739889
490.000000	14.889656
491.000000	15.023113
492.000000	15.138018
493.000000	15.233670
494.000000	15.308517
495.000000	15.362020
496.000000	15.394262
497.000000	15.405680
498.000000	15.398927
499.000000	15.379082
500.000000	15.352572
501.000000	15.326301
502.000000	15.311530
503.000000	15.318171
504.000000	15.356686
505.000000	15.436887
506.000000	15.566348
507.000000	15.752941
508.000000	16.003201
509.000000	16.324177
510.000000	16.723765
511.000000	17.209696
512.000000	17.783316
513.000000	18.437696
514.000000	19.159528
515.000000	19.929423
516.000000	20.724341
517.000000	21.522952
518.000000	22.303092
519.000000	23.044344
520.000000	23.725616
521.000000	24.328553
522.000000	24.840845
523.000000	25.259361
524.000000	25.590776
525.000000	25.847827
526.000000	26.049157
527.000000	26.211811
528.000000	26.352614
529.000000	26.482824
530.000000	26.612503
531.000000	26.746888
532.000000	26.886629
533.000000	27.031792
534.000000	27.179989
535.000000	27.328707
536.000000	27.474774
537.000000	27.613861
538.000000	27.743394
539.000000	27.861105
540.000000	27.964062
541.000000	28.051429
542.000000	28.125340
543.000000	28.186392
544.000000	28.235057
545.000000	28.273312
546.000000	28.302728
547.000000	28.325149
548.000000	28.342459
549.000000	28.354639
550.000000	28.362735
551.000000	28.369249
552.000000	28.372417
553.000000	28.372660
554.000000	28.369986
555.000000	28.364690
556.000000	28.356974
557.000000	28.346481
558.000000	28.330814
559.000000	28.310332
560.000000	28.276725
561.000000	28.233840
562.000000	28.183367
563.000000	28.123034
564.000000	28.050321
565.000000	27.963485
566.000000	27.860757
567.000000	27.742803
568.000000	27.610209
569.000000	27.464602
570.000000	27.316826
571.000000	27.166217
572.000000	27.015724
573.000000	26.873923
574.000000	26.744529
575.000000	26.629396
576.000000	26.527568
577.000000	26.432929
578.000000	26.341968
579.000000	26.246062
580.000000	26.138241
581.000000	26.011789
582.000000	25.864755
583.000000	25.697319
584.000000	25.516501
585.000000	25.333503
586.000000	25.162700
587.000000	25.016955
588.000000	24.905396
589.000000	24.834757
590.000000	24.801298
591.000000	24.800974
592.000000	24.821982
593.000000	24.849517
594.000000	24.867979
595.000000	24.861739
596.000000	24.817450
597.000000	24.732268
598.000000	24.608425
599.000000	24.456526
600.000000	24.294518
601.000000	24.139297
602.000000	24.006776
603.000000	23.908005
604.000000	23.848630
605.000000	23.825701
606.000000	23.832648
607.000000	23.855619
608.000000	23.879511
609.000000	23.888993
610.000000	23.870536
611.000000	23.812665
612.000000	23.715755
613.000000	23.585234
614.000000	23.432810
615.000000	23.278913
616.000000	23.140310
617.000000	23.033732
618.000000	22.967875
619.000000	22.943929
620.000000	22.961403
621.000000	23.012056
622.000000	23.080944
623.000000	23.155242
624.000000	23.217181
625.000000	23.251634
626.000000	23.252103
627.000000	23.214255
628.000000	23.144956
629.000000	23.055845
630.000000	22.960414
631.000000	22.871259
632.000000	22.802308
633.000000	22.759540
634.000000	22.748264
635.000000	22.763485
636.000000	22.798031
637.000000	22.843754
638.000000	22.888140
639.000000	22.917679
640.000000	22.923149
641.000000	22.899193
642.000000	22.843900
643.000000	22.762688
644.000000	22.664019
645.000000	22.560195
646.000000	22.463603
647.000000	22.382589
648.000000	22.324612
649.000000	22.294245
650.000000	22.290349
651.000000	22.308784
652.000000	22.340591
653.000000	22.374107
654.000000	22.399542
655.000000	22.408484
656.000000	22.395751
657.000000	22.357537
658.000000	22.296398
659.000000	22.218902
660.000000	22.132068
661.000000	22.047978
662.000000	21.976208
663.000000	21.925589
664.000000	21.902719
665.000000	21.910320
666.000000	21.945068
667.000000	22.005236
668.000000	22.081255
669.000000	22.163770
670.000000	22.242845
671.000000	22.311407
672.000000	22.364252
673.000000	22.398243
674.000000	22.411655
675.000000	22.408339
676.000000	22.393942
677.000000	22.375657
678.000000	22.359941
679.000000	22.354337
680.000000	22.364813
681.000000	22.392313
682.000000	22.435593
683.000000	22.491300
684.000000	22.556605
685.000000	22.623561
686.000000	22.685574
687.000000	22.735413
688.000000	22.772029
689.000000	22.793799
690.000000	22.801587
691.000000	22.800522
692.000000	22.797303
693.000000	22.798571
694.000000	22.810146
695.000000	22.838996
696.000000	22.888540
697.000000	22.961569
698.000000	23.056649
699.000000	23.168089
700.000000	23.293172
701.000000	23.422089
702.000000	23.549351
703.000000	23.666575
704.000000	23.769309
705.000000	23.854426
706.000000	23.920512
707.000000	23.969992
708.000000	24.004852
709.000000	24.030250
710.000000	24.049138
711.000000	24.068105
712.000000	24.088788
713.000000	24.115907
714.000000	24.150644
715.000000	24.195309
716.000000	24.250827
717.000000	24.313234
718.000000	24.382472
719.000000	24.457444
720.000000	24.534296
721.000000	24.609707
722.000000	24.683329
723.000000	24.756909
724.000000	24.832414
725.000000	24.908461
726.000000	24.986870
727.000000	25.070399
728.000000	25.159758
729.000000	25.257639
730.000000	25.365591
731.000000	25.485583
732.000000	25.617907
733.000000	25.760989
734.000000	25.910786
735.000000	26.066224
736.000000	26.222667
737.000000	26.373169
738.000000	26.514692
739.000000	26.645088
740.000000	26.762278
741.000000	26.863474
742.000000	26.948909
743.000000	27.018262
744.000000	27.072165
745.000000	27.112883
746.000000	27.145117
747.000000	27.174377
748.000000	27.203540
749.000000	27.232951
750.000000	27.262964
751.000000	27.295669
752.000000	27.330536
753.000000	27.367329
754.000000	27.403279
755.000000	27.439184
756.000000	27.470993
757.000000	27.498037
758.000000	27.521042
759.000000	27.540192
760.000000	27.558370
761.000000	27.578628
762.000000	27.601436
763.000000	27.627610
764.000000	27.663145
765.000000	27.706965
766.000000	27.763804
767.000000	27.834277
768.000000	27.918400
769.000000	28.012118
770.000000	28.117794
771.000000	28.229975
772.000000	28.350465
773.000000	28.479558
774.000000	28.614536
775.000000	28.751710
776.000000	28.888700
777.000000	29.027894
778.000000	29.162936
779.000000	29.300041
780.000000	29.435019
781.000000	29.566208
782.000000	29.692819
783.000000	29.816630
784.000000	29.939494
785.000000	30.061459
786.000000	30.178692
787.000000	30.291159
788.000000	30.402093
789.000000	30.511073
790.000000	30.618771
791.000000	30.724907
792.000000	30.826675
793.000000	30.920193
794.000000	31.008434
795.000000	31.093943
796.000000	31.176514
797.000000	31.249684
798.000000	31.317664
799.000000	31.376716
800.000000	31.429869
801.000000	31.479954
802.000000	31.527810
803.000000	31.576865
804.000000	31.623808
805.000000	31.663498
806.000000	31.701400
807.000000	31.742234
808.000000	31.785923
809.000000	31.830075
810.000000	31.867140
811.000000	31.901903
812.000000	31.935445
813.000000	31.965936
814.000000	31.988852
815.000000	32.009519
816.000000	32.027206
817.000000	32.039934
818.000000	32.047243
819.000000	32.048461
820.000000	32.050043
821.000000	32.045419
822.000000	32.040714
823.000000	32.031625
824.000000	32.023752
825.000000	32.012248
826.000000	31.999724
827.000000	31.987324
828.000000	31.975168
829.000000	31.958024
830.000000	31.935508
831.000000	31.905369
832.000000	31.872039
833.000000	31.833492
834.000000	31.787822
835.000000	31.742066
836.000000	31.691000
837.000000	31.636503
838.000000	31.568334
839.000000	31.498340
840.000000	31.428891
841.000000	31.369500
842.000000	31.291177
843.000000	31.212982
844.000000	31.136194
845.000000	31.043904
846.000000	30.953045
847.000000	30.854105
848.000000	30.750438
849.000000	30.647871
850.000000	30.532720
851.000000	30.411354
852.000000	30.292121
853.000000	30.170824
854.000000	30.016344
855.000000	29.894402
856.000000	29.751481
857.000000	29.617892
858.000000	29.604476
859.000000	29.566175
860.000000	29.524362
861.000000	29.462144
862.000000	29.397476
863.000000	29.323237
864.000000	29.287135
865.000000	29.212540
866.000000	29.137871
867.000000	29.079548
868.000000	28.902168
869.000000	28.726605
870.000000	28.548742
871.000000	28.396060
872.000000	28.229700
873.000000	28.071497
874.000000	27.914995
875.000000	27.761617
876.000000	27.618555
877.000000	27.438408
878.000000	27.256345
879.000000	27.103068
880.000000	26.971505
881.000000	26.828505
882.000000	26.711543
883.000000	26.578285
884.000000	26.428107
885.000000	26.284555
886.000000	26.140205
887.000000	26.014620
888.000000	25.895148
889.000000	25.757430
890.000000	25.625383
891.000000	25.491197
892.000000	25.352092
893.000000	25.224317
894.000000	25.098987
895.000000	24.986135
896.000000	24.870795
897.000000	24.767497
898.000000	24.666722
899.000000	24.567028
900.000000	24.455510
901.000000	24.363240
902.000000	24.262712
903.000000	24.182973
904.000000	24.106465
905.000000	24.036143
906.000000	23.978227
907.000000	23.900890
908.000000	23.829345
909.000000	23.776447
910.000000	23.721715
911.000000	23.661655
912.000000	23.628165
913.000000	23.587847
914.000000	23.555310
915.000000	23.517298
916.000000	23.492047
917.000000	23.471695
918.000000	23.454970
919.000000	23.441357
920.000000	23.434535
921.000000	23.439507
922.000000	23.440350
923.000000	23.447538
924.000000	23.455160
925.000000	23.467970
926.000000	23.478997
927.000000	23.496085
928.000000	23.515087
929.000000	23.539257
930.000000	23.571217
931.000000	23.595255
932.000000	23.620513
933.000000	23.643980
934.000000	23.674785
935.000000	23.709972
936.000000	23.747343
937.000000	23.788385
938.000000	23.826600
939.000000	23.860698
940.000000	23.898285
941.000000	23.942678
942.000000	23.987793
943.000000	24.033943
944.000000	24.079497
945.000000	24.124570
946.000000	24.169688
947.000000	24.218335
948.000000	24.271900
949.000000	24.328063
950.000000	24.386205
951.000000	24.439680
952.000000	24.496740
953.000000	24.555928
954.000000	24.614000
955.000000	24.672495
956.000000	24.731925
957.000000	24.792282
958.000000	24.854378
959.000000	24.917517
960.000000	24.978178
961.000000	25.042652
962.000000	25.105100
963.000000	25.167952
964.000000	25.234435
965.000000	25.302615
966.000000	25.369238
967.000000	25.433902
968.000000	25.501895
969.000000	25.570840
970.000000	25.637223
971.000000	25.702245
972.000000	25.771240
973.000000	25.841245
974.000000	25.909295
975.000000	25.977055
976.000000	26.046095
977.000000	26.116652
978.000000	26.184750
979.000000	26.252750
980.000000	26.323052
981.000000	26.395255
982.000000	26.463783
983.000000	26.531590
984.000000	26.602555
985.000000	26.673615
986.000000	26.743510
987.000000	26.813630
988.000000	26.881773
989.000000	26.950367
990.000000	27.019168
991.000000	27.087925
992.000000	27.159275
993.000000	27.230935
994.000000	27.301795
995.000000	27.370410
996.000000	27.438583
997.000000	27.507167
998.000000	27.578245
999.000000	27.649807
1000.000000	27.719870
1001.000000	27.789007
1002.000000	27.857777
1003.000000	27.926750
1004.000000	27.995558
1005.000000	28.065230
1006.000000	28.135252
1007.000000	28.205082
1008.000000	28.274577
1009.000000	28.342887
1010.000000	28.411777
1011.000000	28.480625
1012.000000	28.549655
1013.000000	28.618680
1014.000000	28.687023
1015.000000	28.753827
1016.000000	28.820815
1017.000000	28.890040
1018.000000	28.958347
1019.000000	29.026495
1020.000000	29.095450
1021.000000	29.165563
1022.000000	29.235650
1023.000000	29.304635
1024.000000	29.373960
1025.000000	29.445555
1026.000000	29.517757
1027.000000	29.589105
1028.000000	29.661185
1029.000000	29.732795
1030.000000	29.802710
1031.000000	29.871225
1032.000000	29.940185
1033.000000	30.010820
1034.000000	30.081043
1035.000000	30.150000
1036.000000	30.218583
1037.000000	30.285905
1038.000000	30.352632
1039.000000	30.419300
1040.000000	30.487782
1041.000000	30.556987
1042.000000	30.624943
1043.000000	30.691595
1044.000000	30.757133
1045.000000	30.823095
1046.000000	30.889495
1047.000000	30.955460
1048.000000	31.020717
1049.000000	31.085738
1050.000000	31.150898
1051.000000	31.215530
1052.000000	31.279900
1053.000000	31.343745
1054.000000	31.409003
1055.000000	31.474993
1056.000000	31.540528
1057.000000	31.605953
1058.000000	31.671285
1059.000000	31.736673
1060.000000	31.802585
1061.000000	31.868883
1062.000000	31.934545
1063.000000	31.999368
1064.000000	32.064338
1065.000000	32.127725
1066.000000	32.189463
1067.000000	32.251945
1068.000000	32.315760
1069.000000	32.379575
1070.000000	32.441770
1071.000000	32.503080
1072.000000	32.564977
1073.000000	32.627542
1074.000000	32.688830
1075.000000	32.749943
1076.000000	32.811517
1077.000000	32.871760
1078.000000	32.931742
1079.000000	32.991908
1080.000000	33.050725
1081.000000	33.108288
1082.000000	33.165025
1083.000000	33.221737
1084.000000	33.277720
1085.000000	33.334540
1086.000000	33.391393
1087.000000	33.448430
1088.000000	33.504330
1089.000000	33.559105
1090.000000	33.613118
1091.000000	33.667942
1092.000000	33.723417
1093.000000	33.778290
1094.000000	33.832853
1095.000000	33.885765
1096.000000	33.938550
1097.000000	33.990797
1098.000000	34.042597
1099.000000	34.094922
1100.000000	34.146687
1101.000000	34.198005
1102.000000	34.248712
1103.000000	34.297857
1104.000000	34.346725
1105.000000	34.395865
1106.000000	34.444750
1107.000000	34.493950
1108.000000	34.541387
1109.000000	34.587683
1110.000000	34.636197
1111.000000	34.684265
1112.000000	34.730837
1113.000000	34.776740
1114.000000	34.823590
1115.000000	34.869347
1116.000000	34.913695
1117.000000	34.957245
1118.000000	35.000130
1119.000000	35.042210
1120.000000	35.082058
1121.000000	35.121290
1122.000000	35.160550
1123.000000	35.199513
1124.000000	35.234930
1125.000000	35.268377
1126.000000	35.301367
1127.000000	35.331110
1128.000000	35.359395
1129.000000	35.385745
1130.000000	35.410010
1131.000000	35.429500
1132.000000	35.445715
1133.000000	35.460592
1134.000000	35.476660
1135.000000	35.493138
1136.000000	35.505860
1137.000000	35.516542
1138.000000	35.523952
1139.000000	35.530468
1140.000000	35.536400
1141.000000	35.543590
1142.000000	35.548685
1143.000000	35.554880
1144.000000	35.559390
1145.000000	35.563150
1146.000000	35.567237
1147.000000	35.572787
1148.000000	35.580352
1149.000000	35.586955
1150.000000	35.593720
1151.000000	35.600258
1152.000000	35.607463
1153.000000	35.611688
1154.000000	35.613713
1155.000000	35.612223
1156.000000	35.608410
1157.000000	35.602360
1158.000000	35.594980
1159.000000	35.584402
1160.000000	35.571152
1161.000000	35.554010
