PE UV       SUBTECH     SPECTRUM    ASCII       PEDS        4.00        
   -1
INBUCR0313-4.Sample.ASC
24/02/08
16:30:31.00
24/02/08
16:30:31.00
Vinicio Soto Monge
COSTA RICA. Prov. Cartago. Sector La Catarata. Orilla de la carretera. 1450 m. MAY 1998. R. Delgado. En Flores de Sauravia. L_N_190750_560600 #50826. En Flores de Sauravia. INB0003014864 INBIOCRI COSTA RICA. Sin élitros
250,000000
1
Lambda 1050
1050L1511233
PerkinElmer UV WinLab 6.3.2.0749 / 2.02.05 Lambda 900 UV/VIS/NIR, Aug  7 2015 09:38:08

0
0
3350/servo 860,8/2
0
0
UV/VIS
1
1
1
DoubleDePol,CommonBeamDepol,RBeamAtt,SBeamAtt,60mm sphere, WB InGaAs Detector
0
0
0
0
Program
Program
3350/servo 860,8/2
3350/0,2 860,8/0,2
3350/0,2 860,8/0,2
0
15.00
 
 
 
0
 
860,8
319,2
860,8
Front
100
on
S:100 R:100
0
0
0
0
 
0
 
 
 
0
 
 
0
0
0
0
0
 
 
 
 
0
0


0
0
#HDR
-1
-1
#GR
nm
%R
1.0
0.0
2500,000000
-1,000000
2251
8
6,880600
0,529600
#DATA

250.000000	nan
251.000000	nan
252.000000	nan
253.000000	nan
254.000000	nan
255.000000	nan
256.000000	nan
257.000000	nan
258.000000	nan
259.000000	4.593326
260.000000	4.577720
261.000000	4.561494
262.000000	4.543785
263.000000	4.525206
264.000000	4.508606
265.000000	4.492900
266.000000	4.474044
267.000000	4.451622
268.000000	4.432869
269.000000	4.413618
270.000000	4.394891
271.000000	4.377364
272.000000	4.358544
273.000000	4.343094
274.000000	4.330151
275.000000	4.315855
276.000000	4.303294
277.000000	4.292746
278.000000	4.280990
279.000000	4.271417
280.000000	4.264479
281.000000	4.256891
282.000000	4.252925
283.000000	4.248223
284.000000	4.236885
285.000000	4.231918
286.000000	4.224952
287.000000	4.221506
288.000000	4.218022
289.000000	4.217049
290.000000	4.209200
291.000000	4.207553
292.000000	4.206197
293.000000	4.202223
294.000000	4.205778
295.000000	4.203922
296.000000	4.204633
297.000000	4.203560
298.000000	4.203661
299.000000	4.203732
300.000000	4.205780
301.000000	4.203628
302.000000	4.204158
303.000000	4.205176
304.000000	4.201244
305.000000	4.198766
306.000000	4.196570
307.000000	4.197233
308.000000	4.195053
309.000000	4.188307
310.000000	4.185622
311.000000	4.185508
312.000000	4.182297
313.000000	4.180530
314.000000	4.179051
315.000000	4.177187
316.000000	4.174945
317.000000	4.184195
318.000000	4.200829
319.000000	4.215903
320.000000	4.235121
321.000000	4.247380
322.000000	4.260626
323.000000	4.278044
324.000000	4.292967
325.000000	4.306254
326.000000	4.315395
327.000000	4.311535
328.000000	4.293774
329.000000	4.281466
330.000000	4.267307
331.000000	4.252985
332.000000	4.235916
333.000000	4.218523
334.000000	4.202892
335.000000	4.189598
336.000000	4.176934
337.000000	4.164418
338.000000	4.165315
339.000000	4.162492
340.000000	4.155840
341.000000	4.152372
342.000000	4.151710
343.000000	4.147153
344.000000	4.139319
345.000000	4.134722
346.000000	4.135105
347.000000	4.133066
348.000000	4.126247
349.000000	4.122061
350.000000	4.120342
351.000000	4.119191
352.000000	4.115711
353.000000	4.114198
354.000000	4.117176
355.000000	4.115577
356.000000	4.114583
357.000000	4.112053
358.000000	4.108096
359.000000	4.105821
360.000000	4.100321
361.000000	4.095445
362.000000	4.094684
363.000000	4.093757
364.000000	4.091196
365.000000	4.090175
366.000000	4.085277
367.000000	4.080379
368.000000	4.079622
369.000000	4.076822
370.000000	4.073175
371.000000	4.070508
372.000000	4.058361
373.000000	4.046425
374.000000	4.037124
375.000000	4.029595
376.000000	4.026716
377.000000	4.019561
378.000000	4.010476
379.000000	4.002177
380.000000	3.995843
381.000000	3.988311
382.000000	3.987034
383.000000	3.984166
384.000000	3.982747
385.000000	3.980410
386.000000	3.974461
387.000000	3.975565
388.000000	3.976979
389.000000	3.977725
390.000000	3.977998
391.000000	3.979428
392.000000	3.981269
393.000000	3.983541
394.000000	3.985040
395.000000	3.986146
396.000000	3.987357
397.000000	3.988579
398.000000	3.989709
399.000000	3.990992
400.000000	3.992682
401.000000	3.993914
402.000000	3.995457
403.000000	3.996567
404.000000	3.998226
405.000000	4.000248
406.000000	4.001945
407.000000	4.003271
408.000000	4.004674
409.000000	4.006373
410.000000	4.007714
411.000000	4.008679
412.000000	4.009514
413.000000	4.010278
414.000000	4.011205
415.000000	4.012439
416.000000	4.013906
417.000000	4.015392
418.000000	4.017096
419.000000	4.018667
420.000000	4.020478
421.000000	4.022579
422.000000	4.024849
423.000000	4.027432
424.000000	4.029235
425.000000	4.030734
426.000000	4.032649
427.000000	4.034938
428.000000	4.037163
429.000000	4.039676
430.000000	4.042526
431.000000	4.045010
432.000000	4.046838
433.000000	4.048756
434.000000	4.051391
435.000000	4.054308
436.000000	4.057225
437.000000	4.060186
438.000000	4.063496
439.000000	4.066877
440.000000	4.070353
441.000000	4.075055
442.000000	4.080788
443.000000	4.086763
444.000000	4.093478
445.000000	4.101012
446.000000	4.109379
447.000000	4.119074
448.000000	4.130068
449.000000	4.142849
450.000000	4.157327
451.000000	4.173127
452.000000	4.191301
453.000000	4.212455
454.000000	4.236498
455.000000	4.264195
456.000000	4.296325
457.000000	4.333273
458.000000	4.375241
459.000000	4.423028
460.000000	4.478066
461.000000	4.540848
462.000000	4.610681
463.000000	4.687873
464.000000	4.772261
465.000000	4.862599
466.000000	4.957886
467.000000	5.056962
468.000000	5.157634
469.000000	5.258143
470.000000	5.355749
471.000000	5.448251
472.000000	5.534704
473.000000	5.612021
474.000000	5.678492
475.000000	5.733220
476.000000	5.775207
477.000000	5.803359
478.000000	5.818350
479.000000	5.820217
480.000000	5.809411
481.000000	5.787252
482.000000	5.754617
483.000000	5.713636
484.000000	5.665389
485.000000	5.610635
486.000000	5.550917
487.000000	5.488028
488.000000	5.423041
489.000000	5.357209
490.000000	5.290963
491.000000	5.225318
492.000000	5.160545
493.000000	5.097227
494.000000	5.035888
495.000000	4.977204
496.000000	4.921714
497.000000	4.869198
498.000000	4.819674
499.000000	4.773366
500.000000	4.731104
501.000000	4.692274
502.000000	4.656479
503.000000	4.623576
504.000000	4.594210
505.000000	4.568282
506.000000	4.544983
507.000000	4.524183
508.000000	4.505931
509.000000	4.490078
510.000000	4.475841
511.000000	4.462562
512.000000	4.450934
513.000000	4.441177
514.000000	4.432125
515.000000	4.423704
516.000000	4.416113
517.000000	4.409287
518.000000	4.402773
519.000000	4.396565
520.000000	4.390801
521.000000	4.385974
522.000000	4.381606
523.000000	4.377193
524.000000	4.373094
525.000000	4.369543
526.000000	4.366326
527.000000	4.363501
528.000000	4.361009
529.000000	4.358863
530.000000	4.357086
531.000000	4.355582
532.000000	4.354290
533.000000	4.353399
534.000000	4.353116
535.000000	4.352989
536.000000	4.352942
537.000000	4.352868
538.000000	4.353584
539.000000	4.354288
540.000000	4.355105
541.000000	4.355977
542.000000	4.357103
543.000000	4.358561
544.000000	4.360147
545.000000	4.361566
546.000000	4.363283
547.000000	4.365466
548.000000	4.367581
549.000000	4.369922
550.000000	4.371972
551.000000	4.374670
552.000000	4.377475
553.000000	4.380209
554.000000	4.383155
555.000000	4.386328
556.000000	4.389443
557.000000	4.392557
558.000000	4.395520
559.000000	4.398173
560.000000	4.400240
561.000000	4.401599
562.000000	4.403069
563.000000	4.404377
564.000000	4.405649
565.000000	4.407258
566.000000	4.408798
567.000000	4.409882
568.000000	4.411452
569.000000	4.413395
570.000000	4.416114
571.000000	4.419307
572.000000	4.422427
573.000000	4.425748
574.000000	4.428973
575.000000	4.432329
576.000000	4.435488
577.000000	4.439683
578.000000	4.443703
579.000000	4.447633
580.000000	4.451985
581.000000	4.456576
582.000000	4.461213
583.000000	4.465774
584.000000	4.470195
585.000000	4.474771
586.000000	4.480214
587.000000	4.484823
588.000000	4.490068
589.000000	4.495325
590.000000	4.501328
591.000000	4.507017
592.000000	4.513144
593.000000	4.519686
594.000000	4.526753
595.000000	4.533907
596.000000	4.540813
597.000000	4.548057
598.000000	4.554840
599.000000	4.562599
600.000000	4.569750
601.000000	4.577211
602.000000	4.584471
603.000000	4.592067
604.000000	4.599263
605.000000	4.606461
606.000000	4.614027
607.000000	4.621975
608.000000	4.630001
609.000000	4.637120
610.000000	4.644524
611.000000	4.651860
612.000000	4.660049
613.000000	4.667590
614.000000	4.675383
615.000000	4.683254
616.000000	4.690701
617.000000	4.698115
618.000000	4.705477
619.000000	4.713383
620.000000	4.720788
621.000000	4.728602
622.000000	4.735780
623.000000	4.743551
624.000000	4.751034
625.000000	4.758345
626.000000	4.765749
627.000000	4.773158
628.000000	4.780379
629.000000	4.788118
630.000000	4.796176
631.000000	4.804000
632.000000	4.811969
633.000000	4.819805
634.000000	4.828423
635.000000	4.837062
636.000000	4.845790
637.000000	4.855188
638.000000	4.865029
639.000000	4.873949
640.000000	4.883322
641.000000	4.893091
642.000000	4.903518
643.000000	4.914096
644.000000	4.924253
645.000000	4.934906
646.000000	4.946302
647.000000	4.957193
648.000000	4.968740
649.000000	4.980906
650.000000	4.993541
651.000000	5.005858
652.000000	5.018266
653.000000	5.030743
654.000000	5.043923
655.000000	5.058022
656.000000	5.071851
657.000000	5.086242
658.000000	5.100672
659.000000	5.115521
660.000000	5.129764
661.000000	5.145220
662.000000	5.159707
663.000000	5.175734
664.000000	5.191542
665.000000	5.206404
666.000000	5.221156
667.000000	5.236487
668.000000	5.252169
669.000000	5.267428
670.000000	5.283250
671.000000	5.298491
672.000000	5.315062
673.000000	5.330257
674.000000	5.345974
675.000000	5.362044
676.000000	5.378724
677.000000	5.395389
678.000000	5.411599
679.000000	5.428067
680.000000	5.444719
681.000000	5.461027
682.000000	5.476568
683.000000	5.493381
684.000000	5.509929
685.000000	5.526199
686.000000	5.541964
687.000000	5.557622
688.000000	5.573448
689.000000	5.589660
690.000000	5.606053
691.000000	5.622514
692.000000	5.639482
693.000000	5.655666
694.000000	5.672299
695.000000	5.689316
696.000000	5.706906
697.000000	5.723523
698.000000	5.740179
699.000000	5.757281
700.000000	5.774654
701.000000	5.792431
702.000000	5.809832
703.000000	5.827648
704.000000	5.845640
705.000000	5.863946
706.000000	5.882182
707.000000	5.901457
708.000000	5.920721
709.000000	5.939810
710.000000	5.959669
711.000000	5.979884
712.000000	6.000222
713.000000	6.020398
714.000000	6.040638
715.000000	6.060882
716.000000	6.081390
717.000000	6.102320
718.000000	6.123325
719.000000	6.144979
720.000000	6.165789
721.000000	6.186552
722.000000	6.208165
723.000000	6.230419
724.000000	6.253412
725.000000	6.276113
726.000000	6.298307
727.000000	6.321443
728.000000	6.345396
729.000000	6.368510
730.000000	6.392153
731.000000	6.415859
732.000000	6.439909
733.000000	6.463616
734.000000	6.486642
735.000000	6.511153
736.000000	6.536759
737.000000	6.560958
738.000000	6.586070
739.000000	6.611896
740.000000	6.637666
741.000000	6.664250
742.000000	6.691037
743.000000	6.718377
744.000000	6.746198
745.000000	6.772690
746.000000	6.798710
747.000000	6.825832
748.000000	6.852723
749.000000	6.880134
750.000000	6.907670
751.000000	6.934467
752.000000	6.962329
753.000000	6.990406
754.000000	7.017765
755.000000	7.046117
756.000000	7.075819
757.000000	7.105737
758.000000	7.135362
759.000000	7.164626
760.000000	7.193636
761.000000	7.223638
762.000000	7.253804
763.000000	7.284901
764.000000	7.316517
765.000000	7.347918
766.000000	7.379051
767.000000	7.409169
768.000000	7.439507
769.000000	7.470894
770.000000	7.502735
771.000000	7.534973
772.000000	7.566858
773.000000	7.598110
774.000000	7.630936
775.000000	7.663588
776.000000	7.697310
777.000000	7.732046
778.000000	7.766695
779.000000	7.800707
780.000000	7.835530
781.000000	7.870408
782.000000	7.903762
783.000000	7.936918
784.000000	7.970840
785.000000	8.007015
786.000000	8.042837
787.000000	8.078010
788.000000	8.114600
789.000000	8.150608
790.000000	8.187498
791.000000	8.224012
792.000000	8.260777
793.000000	8.299285
794.000000	8.336498
795.000000	8.372610
796.000000	8.409713
797.000000	8.446580
798.000000	8.484226
799.000000	8.522781
800.000000	8.561301
801.000000	8.602295
802.000000	8.644919
803.000000	8.686774
804.000000	8.727010
805.000000	8.769055
806.000000	8.810516
807.000000	8.853475
808.000000	8.893821
809.000000	8.938593
810.000000	8.983324
811.000000	9.025288
812.000000	9.068686
813.000000	9.113436
814.000000	9.158802
815.000000	9.202654
816.000000	9.247055
817.000000	9.293757
818.000000	9.341437
819.000000	9.381486
820.000000	9.425338
821.000000	9.473163
822.000000	9.516735
823.000000	9.559067
824.000000	9.604158
825.000000	9.650722
826.000000	9.696934
827.000000	9.741429
828.000000	9.786337
829.000000	9.835194
830.000000	9.880036
831.000000	9.923554
832.000000	9.967813
833.000000	10.016773
834.000000	10.061586
835.000000	10.107440
836.000000	10.149580
837.000000	10.191861
838.000000	10.234625
839.000000	10.278513
840.000000	10.322491
841.000000	10.362395
842.000000	10.411667
843.000000	10.452784
844.000000	10.496171
845.000000	10.536293
846.000000	10.581869
847.000000	10.627244
848.000000	10.674305
849.000000	10.713576
850.000000	10.753837
851.000000	10.802889
852.000000	10.848481
853.000000	10.890702
854.000000	10.927511
855.000000	10.966053
856.000000	11.002695
857.000000	11.055112
858.000000	11.500364
859.000000	11.549173
860.000000	11.621713
861.000000	11.680484
862.000000	11.733807
863.000000	11.790901
864.000000	11.838763
865.000000	11.886286
866.000000	11.929126
867.000000	11.944433
868.000000	11.555345
869.000000	11.566228
870.000000	11.543207
871.000000	11.516665
872.000000	11.488930
873.000000	11.451562
874.000000	11.446327
875.000000	11.445050
876.000000	11.448330
877.000000	11.454187
878.000000	11.448915
879.000000	11.425885
880.000000	11.429120
881.000000	11.448232
882.000000	11.463087
883.000000	11.476645
884.000000	11.480308
885.000000	11.481165
886.000000	11.466418
887.000000	11.448398
888.000000	11.471488
889.000000	11.504748
890.000000	11.518722
891.000000	11.527773
892.000000	11.544937
893.000000	11.576825
894.000000	11.595497
895.000000	11.604565
896.000000	11.624525
897.000000	11.655250
898.000000	11.670622
899.000000	11.697743
900.000000	11.717130
901.000000	11.732423
902.000000	11.756168
903.000000	11.779888
904.000000	11.798925
905.000000	11.822208
906.000000	11.850450
907.000000	11.878395
908.000000	11.896393
909.000000	11.913633
910.000000	11.946517
911.000000	11.981675
912.000000	12.006157
913.000000	12.029657
914.000000	12.059667
915.000000	12.090885
916.000000	12.122885
917.000000	12.156808
918.000000	12.197455
919.000000	12.232712
920.000000	12.260430
921.000000	12.291940
922.000000	12.327858
923.000000	12.360985
924.000000	12.397747
925.000000	12.434947
926.000000	12.468307
927.000000	12.507040
928.000000	12.539905
929.000000	12.580587
930.000000	12.625797
931.000000	12.668537
932.000000	12.707237
933.000000	12.751160
934.000000	12.797805
935.000000	12.846192
936.000000	12.894475
937.000000	12.936630
938.000000	12.985720
939.000000	13.035432
940.000000	13.082360
941.000000	13.128522
942.000000	13.176352
943.000000	13.218975
944.000000	13.261278
945.000000	13.306287
946.000000	13.354907
947.000000	13.403797
948.000000	13.451905
949.000000	13.496585
950.000000	13.542922
951.000000	13.592818
952.000000	13.642017
953.000000	13.693007
954.000000	13.743110
955.000000	13.792160
956.000000	13.839860
957.000000	13.888125
958.000000	13.938817
959.000000	13.990562
960.000000	14.040183
961.000000	14.088600
962.000000	14.138975
963.000000	14.189815
964.000000	14.242030
965.000000	14.296020
966.000000	14.351532
967.000000	14.407102
968.000000	14.458418
969.000000	14.511353
970.000000	14.566913
971.000000	14.620972
972.000000	14.674315
973.000000	14.730757
974.000000	14.785540
975.000000	14.838850
976.000000	14.895098
977.000000	14.950608
978.000000	15.007307
979.000000	15.064240
980.000000	15.120372
981.000000	15.178340
982.000000	15.235907
983.000000	15.292880
984.000000	15.350682
985.000000	15.409845
986.000000	15.465768
987.000000	15.523333
988.000000	15.581960
989.000000	15.639775
990.000000	15.697755
991.000000	15.756047
992.000000	15.815910
993.000000	15.876322
994.000000	15.936327
995.000000	15.993510
996.000000	16.052808
997.000000	16.113090
998.000000	16.172078
999.000000	16.231245
1000.000000	16.290118
1001.000000	16.349900
1002.000000	16.408948
1003.000000	16.467968
1004.000000	16.526905
1005.000000	16.586863
1006.000000	16.648347
1007.000000	16.711068
1008.000000	16.774140
1009.000000	16.834743
1010.000000	16.895772
1011.000000	16.958122
1012.000000	17.020482
1013.000000	17.082133
1014.000000	17.145778
1015.000000	17.211930
1016.000000	17.276155
1017.000000	17.339745
1018.000000	17.404040
1019.000000	17.469260
1020.000000	17.534867
1021.000000	17.599107
1022.000000	17.664420
1023.000000	17.731293
1024.000000	17.796555
1025.000000	17.860408
1026.000000	17.925330
1027.000000	17.989180
1028.000000	18.052725
1029.000000	18.118555
1030.000000	18.185205
1031.000000	18.251630
1032.000000	18.317743
1033.000000	18.383580
1034.000000	18.451232
1035.000000	18.519595
1036.000000	18.587853
1037.000000	18.656375
1038.000000	18.724585
1039.000000	18.792718
1040.000000	18.861290
1041.000000	18.930525
1042.000000	18.998865
1043.000000	19.066257
1044.000000	19.134177
1045.000000	19.201793
1046.000000	19.268465
1047.000000	19.335400
1048.000000	19.403492
1049.000000	19.472025
1050.000000	19.540443
1051.000000	19.607945
1052.000000	19.677390
1053.000000	19.748390
1054.000000	19.819228
1055.000000	19.890620
1056.000000	19.961265
1057.000000	20.032198
1058.000000	20.103638
1059.000000	20.174805
1060.000000	20.245242
1061.000000	20.316962
1062.000000	20.388748
1063.000000	20.459105
1064.000000	20.528875
1065.000000	20.599175
1066.000000	20.669730
1067.000000	20.740390
1068.000000	20.810987
1069.000000	20.881535
1070.000000	20.953148
1071.000000	21.023560
1072.000000	21.094655
1073.000000	21.166230
1074.000000	21.236940
1075.000000	21.306617
1076.000000	21.377345
1077.000000	21.448372
1078.000000	21.518838
1079.000000	21.589248
1080.000000	21.657743
1081.000000	21.727512
1082.000000	21.796240
1083.000000	21.864783
1084.000000	21.934712
1085.000000	22.006135
1086.000000	22.076173
1087.000000	22.145190
1088.000000	22.214127
1089.000000	22.282610
1090.000000	22.352332
1091.000000	22.421537
1092.000000	22.489505
1093.000000	22.557775
1094.000000	22.626632
1095.000000	22.694207
1096.000000	22.761985
1097.000000	22.829470
1098.000000	22.897905
1099.000000	22.966327
1100.000000	23.034168
1101.000000	23.101370
1102.000000	23.169640
1103.000000	23.236708
1104.000000	23.303395
1105.000000	23.369397
1106.000000	23.436253
1107.000000	23.502800
1108.000000	23.568037
1109.000000	23.633385
1110.000000	23.698915
1111.000000	23.763485
1112.000000	23.826310
1113.000000	23.890418
1114.000000	23.953458
1115.000000	24.016260
1116.000000	24.078298
1117.000000	24.141785
1118.000000	24.205108
1119.000000	24.266742
1120.000000	24.326490
1121.000000	24.387448
1122.000000	24.448725
1123.000000	24.508097
1124.000000	24.566872
1125.000000	24.624613
1126.000000	24.679870
1127.000000	24.733977
1128.000000	24.786442
1129.000000	24.837713
1130.000000	24.888340
1131.000000	24.933610
1132.000000	24.977802
1133.000000	25.022388
1134.000000	25.066930
1135.000000	25.111530
1136.000000	25.154560
1137.000000	25.194650
1138.000000	25.232712
1139.000000	25.271005
1140.000000	25.310665
1141.000000	25.351420
1142.000000	25.392215
1143.000000	25.431370
1144.000000	25.468035
1145.000000	25.505010
1146.000000	25.544532
1147.000000	25.584190
1148.000000	25.625050
1149.000000	25.663520
1150.000000	25.701870
1151.000000	25.741930
1152.000000	25.781220
1153.000000	25.820240
1154.000000	25.858355
1155.000000	25.894245
1156.000000	25.927695
1157.000000	25.959615
1158.000000	25.988780
1159.000000	26.017430
1160.000000	26.043150
1161.000000	26.066902
1162.000000	26.088317
1163.000000	26.107515
1164.000000	26.124887
1165.000000	26.141250
1166.000000	26.155690
1167.000000	26.170657
1168.000000	26.185713
1169.000000	26.201630
1170.000000	26.217648
1171.000000	26.232903
1172.000000	26.249453
1173.000000	26.266850
1174.000000	26.286313
1175.000000	26.305862
1176.000000	26.327405
1177.000000	26.350153
1178.000000	26.374282
1179.000000	26.399415
