PE UV       SUBTECH     SPECTRUM    ASCII       PEDS        4.00        
   -1
INBUCR0112-5.Sample.ASC
24/02/12
13:04:26.00
24/02/12
13:04:26.00
Vinicio Soto Monge
Strigidia belti. Color verde oscuro metálico sin élitro derecho COSTA RICA Prov. Alajuela. Guatuso. P.N V. Tenorio. Laguna La Carmela Finca Juan Jarquín. 700-800 m. 25 ABR 2009. J.A Azofeifa. Tp. Luz Mercurio L_N_298300_425900 #96550 INB0004211063 
250,000000
1
Lambda 1050
1050L1511233
PerkinElmer UV WinLab 6.3.2.0749 / 2.02.05 Lambda 900 UV/VIS/NIR, Aug  7 2015 09:38:08

0
0
3350/servo 860,8/2
0
0
UV/VIS
1
1
1
DoubleDePol,CommonBeamDepol,RBeamAtt,SBeamAtt,60mm sphere, WB InGaAs Detector
0
0
0
0
Program
Program
3350/servo 860,8/2
3350/0,2 860,8/0,2
3350/0,2 860,8/0,2
0
15.00
 
 
 
0
 
860,8
150
860,8
Front
100
on
S:100 R:100
0
0
0
0
 
0
 
 
 
0
 
 
0
0
0
0
0
 
 
 
 
0
0


0
0
#HDR
-1
-1
#GR
nm
%R
1.0
0.0
2500,000000
-1,000000
2251
8
21,717400
1,582400
#DATA

250.000000	nan
251.000000	nan
252.000000	nan
253.000000	nan
254.000000	nan
255.000000	nan
256.000000	nan
257.000000	nan
258.000000	nan
259.000000	4.856887
260.000000	4.847382
261.000000	4.818878
262.000000	4.794054
263.000000	4.775603
264.000000	4.757895
265.000000	4.754268
266.000000	4.720264
267.000000	4.637257
268.000000	4.607035
269.000000	4.567813
270.000000	4.508058
271.000000	4.451728
272.000000	4.400669
273.000000	4.350759
274.000000	4.324509
275.000000	4.260669
276.000000	4.216997
277.000000	4.203128
278.000000	4.190851
279.000000	4.181231
280.000000	4.206183
281.000000	4.240410
282.000000	4.264549
283.000000	4.287016
284.000000	4.281616
285.000000	4.311459
286.000000	4.341609
287.000000	4.376447
288.000000	4.371549
289.000000	4.364718
290.000000	4.359591
291.000000	4.352131
292.000000	4.347730
293.000000	4.346579
294.000000	4.348855
295.000000	4.347215
296.000000	4.344592
297.000000	4.341829
298.000000	4.344685
299.000000	4.341922
300.000000	4.339736
301.000000	4.344874
302.000000	4.345525
303.000000	4.345631
304.000000	4.344019
305.000000	4.344313
306.000000	4.342833
307.000000	4.342962
308.000000	4.338927
309.000000	4.342822
310.000000	4.344139
311.000000	4.344974
312.000000	4.347747
313.000000	4.350962
314.000000	4.353983
315.000000	4.357038
316.000000	4.362339
317.000000	4.413193
318.000000	4.452104
319.000000	4.492757
320.000000	4.547823
321.000000	4.586544
322.000000	4.611768
323.000000	4.633268
324.000000	4.649511
325.000000	4.676581
326.000000	4.697355
327.000000	4.672783
328.000000	4.657643
329.000000	4.642615
330.000000	4.616065
331.000000	4.598351
332.000000	4.592058
333.000000	4.579518
334.000000	4.577115
335.000000	4.567720
336.000000	4.560614
337.000000	4.543622
338.000000	4.533602
339.000000	4.527662
340.000000	4.512390
341.000000	4.496350
342.000000	4.477632
343.000000	4.474259
344.000000	4.469635
345.000000	4.460644
346.000000	4.455205
347.000000	4.460484
348.000000	4.458331
349.000000	4.450700
350.000000	4.441395
351.000000	4.440518
352.000000	4.444978
353.000000	4.445855
354.000000	4.438720
355.000000	4.433104
356.000000	4.425416
357.000000	4.417120
358.000000	4.415017
359.000000	4.407669
360.000000	4.409076
361.000000	4.407925
362.000000	4.400572
363.000000	4.392863
364.000000	4.388997
365.000000	4.388747
366.000000	4.383970
367.000000	4.380429
368.000000	4.370472
369.000000	4.364696
370.000000	4.358054
371.000000	4.346748
372.000000	4.334517
373.000000	4.318348
374.000000	4.300361
375.000000	4.278971
376.000000	4.273277
377.000000	4.259788
378.000000	4.251567
379.000000	4.241197
380.000000	4.230409
381.000000	4.224269
382.000000	4.223535
383.000000	4.226532
384.000000	4.232522
385.000000	4.237099
386.000000	4.229707
387.000000	4.229018
388.000000	4.228645
389.000000	4.227585
390.000000	4.226526
391.000000	4.225831
392.000000	4.225853
393.000000	4.225220
394.000000	4.224495
395.000000	4.224227
396.000000	4.223934
397.000000	4.223396
398.000000	4.222846
399.000000	4.222609
400.000000	4.222374
401.000000	4.222051
402.000000	4.221579
403.000000	4.221083
404.000000	4.220761
405.000000	4.220039
406.000000	4.219622
407.000000	4.219470
408.000000	4.219104
409.000000	4.218727
410.000000	4.218705
411.000000	4.218370
412.000000	4.217910
413.000000	4.217684
414.000000	4.216929
415.000000	4.216383
416.000000	4.216369
417.000000	4.215971
418.000000	4.215687
419.000000	4.215480
420.000000	4.214925
421.000000	4.214773
422.000000	4.214693
423.000000	4.214415
424.000000	4.214699
425.000000	4.214764
426.000000	4.214233
427.000000	4.213961
428.000000	4.213590
429.000000	4.213375
430.000000	4.213504
431.000000	4.213376
432.000000	4.213011
433.000000	4.212899
434.000000	4.212853
435.000000	4.212852
436.000000	4.212846
437.000000	4.212808
438.000000	4.212758
439.000000	4.212712
440.000000	4.212602
441.000000	4.212557
442.000000	4.212399
443.000000	4.212041
444.000000	4.211548
445.000000	4.211160
446.000000	4.211147
447.000000	4.211110
448.000000	4.211393
449.000000	4.211798
450.000000	4.211785
451.000000	4.211501
452.000000	4.211399
453.000000	4.211316
454.000000	4.211308
455.000000	4.211145
456.000000	4.210751
457.000000	4.210625
458.000000	4.210366
459.000000	4.209778
460.000000	4.209428
461.000000	4.209453
462.000000	4.209536
463.000000	4.209605
464.000000	4.209795
465.000000	4.210028
466.000000	4.210193
467.000000	4.210377
468.000000	4.210466
469.000000	4.210565
470.000000	4.210648
471.000000	4.210594
472.000000	4.210510
473.000000	4.210354
474.000000	4.209879
475.000000	4.209298
476.000000	4.208693
477.000000	4.207742
478.000000	4.206842
479.000000	4.205863
480.000000	4.204419
481.000000	4.202707
482.000000	4.200830
483.000000	4.199026
484.000000	4.197448
485.000000	4.196243
486.000000	4.195486
487.000000	4.195203
488.000000	4.195246
489.000000	4.226970
490.000000	4.259381
491.000000	4.292528
492.000000	4.326200
493.000000	4.360249
494.000000	4.394224
495.000000	4.428277
496.000000	4.462382
497.000000	4.496471
498.000000	4.530752
499.000000	4.533784
500.000000	4.537094
501.000000	4.540451
502.000000	4.543991
503.000000	4.547699
504.000000	4.551818
505.000000	4.556272
506.000000	4.561330
507.000000	4.566962
508.000000	4.572924
509.000000	4.579767
510.000000	4.587513
511.000000	4.596422
512.000000	4.606460
513.000000	4.618059
514.000000	4.631460
515.000000	4.646692
516.000000	4.663847
517.000000	4.683397
518.000000	4.705673
519.000000	4.730520
520.000000	4.758253
521.000000	4.789120
522.000000	4.823551
523.000000	4.861480
524.000000	4.934280
525.000000	5.010586
526.000000	5.090701
527.000000	5.174636
528.000000	5.262497
529.000000	5.354093
530.000000	5.448851
531.000000	5.578497
532.000000	5.711166
533.000000	5.846544
534.000000	5.952840
535.000000	6.061298
536.000000	6.202262
537.000000	6.344021
538.000000	6.485525
539.000000	6.626620
540.000000	6.798630
541.000000	6.937276
542.000000	7.073780
543.000000	7.206906
544.000000	7.336587
545.000000	7.461807
546.000000	7.582420
547.000000	7.697386
548.000000	7.806558
549.000000	7.909319
550.000000	7.973477
551.000000	8.030350
552.000000	8.079152
553.000000	8.120167
554.000000	8.152552
555.000000	8.176376
556.000000	8.160065
557.000000	8.135166
558.000000	8.102056
559.000000	8.060673
560.000000	8.004024
561.000000	7.907197
562.000000	7.803233
563.000000	7.693602
564.000000	7.578861
565.000000	7.460192
566.000000	7.307661
567.000000	7.154038
568.000000	7.000202
569.000000	6.847663
570.000000	6.673999
571.000000	6.537247
572.000000	6.406530
573.000000	6.282008
574.000000	6.165353
575.000000	6.057397
576.000000	5.958376
577.000000	5.868851
578.000000	5.789043
579.000000	5.718643
580.000000	5.689043
581.000000	5.667663
582.000000	5.653722
583.000000	5.677942
584.000000	5.707737
585.000000	5.741784
586.000000	5.809790
587.000000	5.878686
588.000000	5.947354
589.000000	6.014331
590.000000	6.109558
591.000000	6.200870
592.000000	6.287274
593.000000	6.336442
594.000000	6.378710
595.000000	6.414722
596.000000	6.444248
597.000000	6.467800
598.000000	6.485145
599.000000	6.497632
600.000000	6.474644
601.000000	6.448761
602.000000	6.389403
603.000000	6.329398
604.000000	6.270276
605.000000	6.212579
606.000000	6.157552
607.000000	6.106033
608.000000	6.059716
609.000000	6.018027
610.000000	5.981801
611.000000	5.950872
612.000000	5.956640
613.000000	5.968073
614.000000	5.984003
615.000000	6.003399
616.000000	6.026116
617.000000	6.051005
618.000000	6.076578
619.000000	6.134255
620.000000	6.191174
621.000000	6.246240
622.000000	6.299242
623.000000	6.349202
624.000000	6.396115
625.000000	6.439605
626.000000	6.479252
627.000000	6.515740
628.000000	6.549265
629.000000	6.549014
630.000000	6.546686
631.000000	6.543307
632.000000	6.539233
633.000000	6.535049
634.000000	6.531671
635.000000	6.530506
636.000000	6.531581
637.000000	6.535209
638.000000	6.540981
639.000000	6.549850
640.000000	6.561200
641.000000	6.575543
642.000000	6.592592
643.000000	6.611832
644.000000	6.632632
645.000000	6.654020
646.000000	6.676451
647.000000	6.698968
648.000000	6.753008
649.000000	6.806682
650.000000	6.859686
651.000000	6.911686
652.000000	6.962527
653.000000	7.012067
654.000000	7.060628
655.000000	7.108116
656.000000	7.154152
657.000000	7.199039
658.000000	7.212390
659.000000	7.225483
660.000000	7.238150
661.000000	7.250368
662.000000	7.262904
663.000000	7.275863
664.000000	7.289610
665.000000	7.304239
666.000000	7.319852
667.000000	7.336171
668.000000	7.353009
669.000000	7.370340
670.000000	7.388466
671.000000	7.407306
672.000000	7.457550
673.000000	7.508067
674.000000	7.558760
675.000000	7.609880
676.000000	7.661373
677.000000	7.713137
678.000000	7.765495
679.000000	7.818126
680.000000	7.870920
681.000000	7.924252
682.000000	7.946980
683.000000	7.970157
684.000000	7.993115
685.000000	8.047565
686.000000	8.101859
687.000000	8.156413
688.000000	8.210631
689.000000	8.264509
690.000000	8.318765
691.000000	8.372824
692.000000	8.427349
693.000000	8.482080
694.000000	8.537856
695.000000	8.562578
696.000000	8.588261
697.000000	8.614195
698.000000	8.640823
699.000000	8.699710
700.000000	8.758899
701.000000	8.819550
702.000000	8.880628
703.000000	8.942713
704.000000	9.005414
705.000000	9.067635
706.000000	9.130458
707.000000	9.194228
708.000000	9.258208
709.000000	9.322226
710.000000	9.386704
711.000000	9.451113
712.000000	9.515047
713.000000	9.578708
714.000000	9.641399
715.000000	9.704497
716.000000	9.766555
717.000000	9.827922
718.000000	9.888872
719.000000	9.918818
720.000000	9.949149
721.000000	9.979537
722.000000	10.041146
723.000000	10.102360
724.000000	10.163682
725.000000	10.225367
726.000000	10.287898
727.000000	10.351734
728.000000	10.416003
729.000000	10.479311
730.000000	10.543027
731.000000	10.637680
732.000000	10.701079
733.000000	10.764681
734.000000	10.829250
735.000000	10.893372
736.000000	10.956646
737.000000	11.019376
738.000000	11.081541
739.000000	11.144268
740.000000	11.206443
741.000000	11.236399
742.000000	11.266377
743.000000	11.328329
744.000000	11.389670
745.000000	11.451228
746.000000	11.513047
747.000000	11.574447
748.000000	11.636479
749.000000	11.698032
750.000000	11.759696
751.000000	11.822213
752.000000	11.885736
753.000000	11.949409
754.000000	12.012385
755.000000	12.074891
756.000000	12.137883
757.000000	12.200415
758.000000	12.263083
759.000000	12.327120
760.000000	12.390889
761.000000	12.454810
762.000000	12.518192
763.000000	12.580539
764.000000	12.643871
765.000000	12.707924
766.000000	12.771303
767.000000	12.835027
768.000000	12.899777
769.000000	12.963233
770.000000	13.027167
771.000000	13.092105
772.000000	13.155658
773.000000	13.219822
774.000000	13.284633
775.000000	13.350678
776.000000	13.416345
777.000000	13.481094
778.000000	13.545739
779.000000	13.612140
780.000000	13.678769
781.000000	13.743848
782.000000	13.842220
783.000000	13.909358
784.000000	13.975258
785.000000	14.040091
786.000000	14.107010
787.000000	14.175133
788.000000	14.241320
789.000000	14.306698
790.000000	14.372312
791.000000	14.439145
792.000000	14.472826
793.000000	14.538583
794.000000	14.604207
795.000000	14.670630
796.000000	14.736276
797.000000	14.802004
798.000000	14.869383
799.000000	14.935364
800.000000	15.000503
801.000000	15.098395
802.000000	15.198607
803.000000	15.265964
804.000000	15.332761
805.000000	15.400014
806.000000	15.468928
807.000000	15.537352
808.000000	15.607953
809.000000	15.681242
810.000000	15.753356
811.000000	15.823161
812.000000	15.891395
813.000000	15.960932
814.000000	16.033705
815.000000	16.103063
816.000000	16.171874
817.000000	16.240453
818.000000	16.306085
819.000000	16.369989
820.000000	16.467461
821.000000	16.536096
822.000000	16.603372
823.000000	16.666996
824.000000	16.731649
825.000000	16.799097
826.000000	16.864209
827.000000	16.929230
828.000000	16.993298
829.000000	17.056402
830.000000	17.119619
831.000000	17.181643
832.000000	17.243178
833.000000	17.305288
834.000000	17.366993
835.000000	17.427356
836.000000	17.484986
837.000000	17.542216
838.000000	17.602296
839.000000	17.660356
840.000000	17.714783
841.000000	17.737234
842.000000	17.793363
843.000000	17.851939
844.000000	17.898977
845.000000	17.956672
846.000000	18.008107
847.000000	18.057191
848.000000	18.099938
849.000000	18.152131
850.000000	18.175195
851.000000	18.219208
852.000000	18.232044
853.000000	18.241799
854.000000	18.284459
855.000000	18.314478
856.000000	18.357047
857.000000	18.423823
858.000000	18.852011
859.000000	18.944224
860.000000	19.036115
861.000000	19.114105
862.000000	19.243042
863.000000	19.351378
864.000000	19.437017
865.000000	19.500905
866.000000	19.562752
867.000000	19.579522
868.000000	19.264675
869.000000	19.279670
870.000000	19.294258
871.000000	19.331853
872.000000	19.318923
873.000000	19.329325
874.000000	19.364712
875.000000	19.398283
876.000000	19.406028
877.000000	19.437242
878.000000	19.443523
879.000000	19.474665
880.000000	19.482038
881.000000	19.515885
882.000000	19.523007
883.000000	19.554683
884.000000	19.534945
885.000000	19.541412
886.000000	19.596993
887.000000	19.653965
888.000000	19.685578
889.000000	19.690900
890.000000	19.720635
891.000000	19.724230
892.000000	19.753290
893.000000	19.758517
894.000000	19.788047
895.000000	19.817855
896.000000	19.824752
897.000000	19.830588
898.000000	19.861237
899.000000	19.892182
900.000000	19.923265
901.000000	19.956090
902.000000	19.988375
903.000000	20.020987
904.000000	20.053587
905.000000	20.085657
906.000000	20.116260
907.000000	20.149070
908.000000	20.181715
909.000000	20.214790
910.000000	20.248715
911.000000	20.282227
912.000000	20.317743
913.000000	20.350920
914.000000	20.385798
915.000000	20.420658
916.000000	20.455970
917.000000	20.488548
918.000000	20.522022
919.000000	20.556460
920.000000	20.590780
921.000000	20.622098
922.000000	20.653155
923.000000	20.684513
924.000000	20.715438
925.000000	20.744827
926.000000	20.774240
927.000000	20.802148
928.000000	20.829635
929.000000	20.855725
930.000000	20.878715
931.000000	20.904312
932.000000	20.928570
933.000000	20.954245
934.000000	20.979280
935.000000	21.005525
936.000000	21.030932
937.000000	21.057877
938.000000	21.084795
939.000000	21.110050
940.000000	21.136100
941.000000	21.158967
942.000000	21.181673
943.000000	21.202962
944.000000	21.223410
945.000000	21.244233
946.000000	21.264788
947.000000	21.285390
948.000000	21.329500
949.000000	21.375020
950.000000	21.420200
951.000000	21.467833
952.000000	21.515525
953.000000	21.561625
954.000000	21.607980
955.000000	21.652605
956.000000	21.696675
957.000000	21.740820
958.000000	21.759745
959.000000	21.778005
960.000000	21.798105
961.000000	21.816617
962.000000	21.833852
963.000000	21.852490
964.000000	21.870170
965.000000	21.888025
966.000000	21.905845
967.000000	21.922345
968.000000	21.938762
969.000000	21.954820
970.000000	21.969745
971.000000	21.985658
972.000000	22.000778
973.000000	22.016033
974.000000	22.031743
975.000000	22.046868
976.000000	22.061273
977.000000	22.076320
978.000000	22.091442
979.000000	22.105922
980.000000	22.119770
981.000000	22.132243
982.000000	22.146815
983.000000	22.159888
984.000000	22.172070
985.000000	22.184683
986.000000	22.197420
987.000000	22.208920
988.000000	22.220335
989.000000	22.257880
990.000000	22.270692
991.000000	22.308275
992.000000	22.343780
993.000000	22.379900
994.000000	22.415780
995.000000	22.451300
996.000000	22.487915
997.000000	22.524550
998.000000	22.560275
999.000000	22.571487
1000.000000	22.607445
1001.000000	22.618280
1002.000000	22.630595
1003.000000	22.641763
1004.000000	22.652740
1005.000000	22.664587
1006.000000	22.674320
1007.000000	22.684410
1008.000000	22.695152
1009.000000	22.704285
1010.000000	22.713360
1011.000000	22.722515
1012.000000	22.730485
1013.000000	22.739405
1014.000000	22.748410
1015.000000	22.756000
1016.000000	22.765365
1017.000000	22.775588
1018.000000	22.785145
1019.000000	22.794753
1020.000000	22.804360
1021.000000	22.814753
1022.000000	22.825695
1023.000000	22.837275
1024.000000	22.849538
1025.000000	22.862768
1026.000000	22.875630
1027.000000	22.887490
1028.000000	22.899280
1029.000000	22.911550
1030.000000	22.923710
1031.000000	22.935678
1032.000000	22.947077
1033.000000	22.957278
1034.000000	22.967917
1035.000000	22.977303
1036.000000	22.985257
1037.000000	22.993868
1038.000000	23.028983
1039.000000	23.063985
1040.000000	23.098325
1041.000000	23.132458
1042.000000	23.166845
1043.000000	23.202120
1044.000000	23.236612
1045.000000	23.271418
1046.000000	23.306670
1047.000000	23.341515
1048.000000	23.351382
1049.000000	23.361168
1050.000000	23.370645
1051.000000	23.379713
1052.000000	23.388870
1053.000000	23.397950
1054.000000	23.406658
1055.000000	23.415955
1056.000000	23.426040
1057.000000	23.436005
1058.000000	23.444437
1059.000000	23.452550
1060.000000	23.461425
1061.000000	23.470595
1062.000000	23.479455
1063.000000	23.488435
1064.000000	23.497242
1065.000000	23.505987
1066.000000	23.515158
1067.000000	23.525202
1068.000000	23.535650
1069.000000	23.546292
1070.000000	23.556833
1071.000000	23.566797
1072.000000	23.575925
1073.000000	23.584207
1074.000000	23.593565
1075.000000	23.603037
1076.000000	23.610625
1077.000000	23.617708
1078.000000	23.625680
1079.000000	23.634302
1080.000000	23.642148
1081.000000	23.650142
1082.000000	23.659143
1083.000000	23.668093
1084.000000	23.676685
1085.000000	23.684365
1086.000000	23.691990
1087.000000	23.699225
1088.000000	23.705932
1089.000000	23.712508
1090.000000	23.744340
1091.000000	23.750818
1092.000000	23.781985
1093.000000	23.813032
1094.000000	23.843308
1095.000000	23.874370
1096.000000	23.905045
1097.000000	23.934900
1098.000000	23.964993
1099.000000	23.993713
1100.000000	23.997053
1101.000000	24.025855
1102.000000	24.030532
1103.000000	24.035430
1104.000000	24.039617
1105.000000	24.042935
1106.000000	24.047137
1107.000000	24.050908
1108.000000	24.052748
1109.000000	24.054118
1110.000000	24.055395
1111.000000	24.055825
1112.000000	24.054623
1113.000000	24.052365
1114.000000	24.049332
1115.000000	24.046833
1116.000000	24.043870
1117.000000	24.040592
1118.000000	24.039105
1119.000000	24.037417
1120.000000	24.036192
1121.000000	24.035895
1122.000000	24.035438
1123.000000	24.035818
1124.000000	24.037490
1125.000000	24.037472
1126.000000	24.037005
1127.000000	24.036777
1128.000000	24.034715
1129.000000	24.033185
1130.000000	24.004550
1131.000000	23.971540
1132.000000	23.935880
1133.000000	23.899867
1134.000000	23.866095
1135.000000	23.833935
1136.000000	23.799395
1137.000000	23.763195
1138.000000	23.724728
1139.000000	23.684517
1140.000000	23.670208
1141.000000	23.659698
1142.000000	23.650390
1143.000000	23.638538
1144.000000	23.624142
1145.000000	23.608433
1146.000000	23.596398
1147.000000	23.585470
1148.000000	23.576935
1149.000000	23.569533
1150.000000	23.561825
1151.000000	23.552303
1152.000000	23.544515
1153.000000	23.537850
1154.000000	23.528845
1155.000000	23.519780
1156.000000	23.508472
1157.000000	23.495765
1158.000000	23.456025
1159.000000	23.412605
1160.000000	23.368528
1161.000000	23.323463
1162.000000	23.276430
1163.000000	23.227085
1164.000000	23.177380
1165.000000	23.125665
1166.000000	23.073455
1167.000000	23.020170
1168.000000	22.993955
1169.000000	22.970707
1170.000000	22.946225
1171.000000	22.923045
1172.000000	22.900420
1173.000000	22.879480
