PE UV       SUBTECH     SPECTRUM    ASCII       PEDS        4.00        
   -1
INBUCR0422-4.Sample.ASC
24/02/09
13:28:09.00
24/02/09
13:28:09.00
Vinicio Soto Monge
Chrysina chrysargyrea. Det: A. Solís. COSTA RICA.  Prov. Guanacaste. A.C.G. Liberia. P. N. Gte. Est Mengo. Volcán Cacao. Bque Primario. 1000 m. 3-6 JUL 1987. Junzen. Manual.  #52577. INB0003358370.  Sin élitro izq
250,000000
1
Lambda 1050
1050L1511233
PerkinElmer UV WinLab 6.3.2.0749 / 2.02.05 Lambda 900 UV/VIS/NIR, Aug  7 2015 09:38:08

0
0
3350/servo 860,8/2
0
0
UV/VIS
1
1
1
DoubleDePol,CommonBeamDepol,RBeamAtt,SBeamAtt,60mm sphere, WB InGaAs Detector
0
0
0
0
Program
Program
3350/servo 860,8/2
3350/0,2 860,8/0,2
3350/0,2 860,8/0,2
0
15.00
 
 
 
0
 
860,8
319,2
860,8
Front
100
on
S:100 R:100
0
0
0
0
 
0
 
 
 
0
 
 
0
0
0
0
0
 
 
 
 
0
0


0
0
#HDR
-1
-1
#GR
nm
%R
1.0
0.0
2500,000000
-1,000000
2251
8
20,848300
1,998900
#DATA

250.000000	nan
251.000000	nan
252.000000	nan
253.000000	nan
254.000000	nan
255.000000	nan
256.000000	nan
257.000000	nan
258.000000	nan
259.000000	4.149990
260.000000	4.146373
261.000000	4.144980
262.000000	4.142965
263.000000	4.141069
264.000000	4.138176
265.000000	4.135584
266.000000	4.131663
267.000000	4.126603
268.000000	4.122515
269.000000	4.118256
270.000000	4.114347
271.000000	4.111255
272.000000	4.107759
273.000000	4.104405
274.000000	4.100869
275.000000	4.098779
276.000000	4.096073
277.000000	4.094984
278.000000	4.093551
279.000000	4.092615
280.000000	4.090898
281.000000	4.089247
282.000000	4.088041
283.000000	4.086391
284.000000	4.085870
285.000000	4.084442
286.000000	4.083962
287.000000	4.082500
288.000000	4.081689
289.000000	4.080917
290.000000	4.081835
291.000000	4.082127
292.000000	4.080976
293.000000	4.081460
294.000000	4.079226
295.000000	4.077168
296.000000	4.077803
297.000000	4.076967
298.000000	4.075788
299.000000	4.073368
300.000000	4.070488
301.000000	4.066523
302.000000	4.065096
303.000000	4.063306
304.000000	4.062902
305.000000	4.063495
306.000000	4.061022
307.000000	4.059405
308.000000	4.057972
309.000000	4.057597
310.000000	4.058661
311.000000	4.058993
312.000000	4.058614
313.000000	4.057853
314.000000	4.056750
315.000000	4.054931
316.000000	4.056315
317.000000	4.082156
318.000000	4.095932
319.000000	4.102960
320.000000	4.114547
321.000000	4.121390
322.000000	4.133915
323.000000	4.151635
324.000000	4.163822
325.000000	4.176558
326.000000	4.181799
327.000000	4.166895
328.000000	4.163140
329.000000	4.166258
330.000000	4.167215
331.000000	4.170937
332.000000	4.169342
333.000000	4.156888
334.000000	4.155721
335.000000	4.150987
336.000000	4.150674
337.000000	4.147646
338.000000	4.145899
339.000000	4.147487
340.000000	4.141998
341.000000	4.142825
342.000000	4.144399
343.000000	4.183119
344.000000	4.213632
345.000000	4.247310
346.000000	4.287628
347.000000	4.324913
348.000000	4.361521
349.000000	4.392845
350.000000	4.428119
351.000000	4.461888
352.000000	4.495320
353.000000	4.500972
354.000000	4.508818
355.000000	4.518536
356.000000	4.527509
357.000000	4.569805
358.000000	4.612530
359.000000	4.662736
360.000000	4.715420
361.000000	4.768903
362.000000	4.821816
363.000000	4.905710
364.000000	4.998102
365.000000	5.092644
366.000000	5.182654
367.000000	5.278861
368.000000	5.378016
369.000000	5.478095
370.000000	5.608039
371.000000	5.746561
372.000000	5.892562
373.000000	6.039857
374.000000	6.186360
375.000000	6.363440
376.000000	6.550405
377.000000	6.698968
378.000000	6.882313
379.000000	7.069609
380.000000	7.263791
381.000000	7.460114
382.000000	7.661122
383.000000	7.867025
384.000000	8.078458
385.000000	8.296969
386.000000	8.520132
387.000000	8.756924
388.000000	8.996780
389.000000	9.239483
390.000000	9.455373
391.000000	9.700639
392.000000	9.946865
393.000000	10.165493
394.000000	10.384770
395.000000	10.603288
396.000000	10.819942
397.000000	11.035216
398.000000	11.220119
399.000000	11.402073
400.000000	11.581153
401.000000	11.757299
402.000000	11.929916
403.000000	12.097671
404.000000	12.260568
405.000000	12.390209
406.000000	12.515156
407.000000	12.635474
408.000000	12.751339
409.000000	12.862601
410.000000	12.968662
411.000000	13.040599
412.000000	13.107412
413.000000	13.169720
414.000000	13.227763
415.000000	13.281131
416.000000	13.330266
417.000000	13.375555
418.000000	13.387616
419.000000	13.394819
420.000000	13.398359
421.000000	13.398598
422.000000	13.395294
423.000000	13.388177
424.000000	13.348447
425.000000	13.305376
426.000000	13.258731
427.000000	13.208547
428.000000	13.184382
429.000000	13.157641
430.000000	13.127590
431.000000	13.094160
432.000000	13.057879
433.000000	13.019196
434.000000	13.006689
435.000000	12.992187
436.000000	12.976000
437.000000	12.957772
438.000000	12.937486
439.000000	12.915793
440.000000	12.893519
441.000000	12.898862
442.000000	12.902962
443.000000	12.906095
444.000000	12.909944
445.000000	12.915310
446.000000	12.922092
447.000000	12.930915
448.000000	12.941864
449.000000	12.955379
450.000000	12.972066
451.000000	12.964063
452.000000	12.960855
453.000000	12.963100
454.000000	12.969205
455.000000	12.978785
456.000000	12.992482
457.000000	13.010884
458.000000	13.005542
459.000000	13.004300
460.000000	13.006606
461.000000	13.011961
462.000000	13.019277
463.000000	13.027892
464.000000	13.009032
465.000000	12.989983
466.000000	12.969545
467.000000	12.946541
468.000000	12.948406
469.000000	12.946011
470.000000	12.938501
471.000000	12.925676
472.000000	12.907377
473.000000	12.882681
474.000000	12.879861
475.000000	12.870787
476.000000	12.855304
477.000000	12.833539
478.000000	12.834797
479.000000	12.830527
480.000000	12.819890
481.000000	12.802482
482.000000	12.779786
483.000000	12.754718
484.000000	12.729751
485.000000	12.706918
486.000000	12.687663
487.000000	12.672508
488.000000	12.633480
489.000000	12.600262
490.000000	12.574999
491.000000	12.530587
492.000000	12.494939
493.000000	12.466636
494.000000	12.444159
495.000000	12.426124
496.000000	12.411406
497.000000	12.400034
498.000000	12.392025
499.000000	12.387166
500.000000	12.384952
501.000000	12.412673
502.000000	12.440981
503.000000	12.468829
504.000000	12.524456
505.000000	12.578490
506.000000	12.630377
507.000000	12.679661
508.000000	12.726241
509.000000	12.769311
510.000000	12.836307
511.000000	12.899368
512.000000	12.958618
513.000000	13.014734
514.000000	13.067952
515.000000	13.118722
516.000000	13.168555
517.000000	13.218531
518.000000	13.297680
519.000000	13.379448
520.000000	13.437259
521.000000	13.529295
522.000000	13.628496
523.000000	13.736454
524.000000	13.854198
525.000000	13.983017
526.000000	14.123478
527.000000	14.304543
528.000000	14.469080
529.000000	14.644253
530.000000	14.857322
531.000000	15.049101
532.000000	15.245584
533.000000	15.471372
534.000000	15.665923
535.000000	15.854682
536.000000	16.035718
537.000000	16.178446
538.000000	16.310130
539.000000	16.459104
540.000000	16.568512
541.000000	16.667241
542.000000	16.756936
543.000000	16.810882
544.000000	16.859536
545.000000	16.905610
546.000000	16.949512
547.000000	16.991937
548.000000	17.033585
549.000000	17.046136
550.000000	17.058275
551.000000	17.070339
552.000000	17.081245
553.000000	17.091742
554.000000	17.102244
555.000000	17.111525
556.000000	17.119559
557.000000	17.126924
558.000000	17.133226
559.000000	17.138676
560.000000	17.126694
561.000000	17.110640
562.000000	17.093666
563.000000	17.076384
564.000000	17.058217
565.000000	17.039973
566.000000	17.021671
567.000000	17.003403
568.000000	16.985428
569.000000	16.967980
570.000000	16.967276
571.000000	16.970078
572.000000	16.973214
573.000000	16.975778
574.000000	16.978237
575.000000	16.980199
576.000000	16.981912
577.000000	16.982339
578.000000	16.982163
579.000000	16.980680
580.000000	16.976863
581.000000	16.970966
582.000000	16.963645
583.000000	16.954665
584.000000	16.914219
585.000000	16.870587
586.000000	16.824509
587.000000	16.776051
588.000000	16.723546
589.000000	16.667139
590.000000	16.578228
591.000000	16.485182
592.000000	16.387270
593.000000	16.283894
594.000000	16.175308
595.000000	16.062136
596.000000	15.943864
597.000000	15.792348
598.000000	15.637533
599.000000	15.479233
600.000000	15.348570
601.000000	15.217046
602.000000	15.058582
603.000000	14.904642
604.000000	14.785804
605.000000	14.675894
606.000000	14.577029
607.000000	14.518728
608.000000	14.472559
609.000000	14.438214
610.000000	14.412444
611.000000	14.392622
612.000000	14.375837
613.000000	14.357406
614.000000	14.335378
615.000000	14.305122
616.000000	14.265336
617.000000	14.214749
618.000000	14.154181
619.000000	14.084218
620.000000	14.008988
621.000000	13.931980
622.000000	13.884467
623.000000	13.840415
624.000000	13.801479
625.000000	13.770311
626.000000	13.746571
627.000000	13.730128
628.000000	13.719784
629.000000	13.715713
630.000000	13.716528
631.000000	13.720865
632.000000	13.699910
633.000000	13.680888
634.000000	13.662221
635.000000	13.643607
636.000000	13.623016
637.000000	13.600700
638.000000	13.575696
639.000000	13.547372
640.000000	13.514424
641.000000	13.478362
642.000000	13.466529
643.000000	13.452502
644.000000	13.466544
645.000000	13.480222
646.000000	13.495579
647.000000	13.514274
648.000000	13.536972
649.000000	13.564855
650.000000	13.598586
651.000000	13.637025
652.000000	13.679984
653.000000	13.726091
654.000000	13.746195
655.000000	13.767145
656.000000	13.788307
657.000000	13.808760
658.000000	13.828133
659.000000	13.845805
660.000000	13.862225
661.000000	13.877947
662.000000	13.893169
663.000000	13.909216
664.000000	13.925238
665.000000	13.941754
666.000000	13.959146
667.000000	14.004550
668.000000	14.049853
669.000000	14.095934
670.000000	14.141476
671.000000	14.185965
672.000000	14.230007
673.000000	14.273824
674.000000	14.317816
675.000000	14.362510
676.000000	14.408429
677.000000	14.456297
678.000000	14.506982
679.000000	14.558872
680.000000	14.613815
681.000000	14.671169
682.000000	14.729534
683.000000	14.788453
684.000000	14.847677
685.000000	14.907293
686.000000	14.994089
687.000000	15.051184
688.000000	15.106834
689.000000	15.161911
690.000000	15.215325
691.000000	15.267621
692.000000	15.320433
693.000000	15.373113
694.000000	15.426806
695.000000	15.480517
696.000000	15.506700
697.000000	15.533545
698.000000	15.561221
699.000000	15.589666
700.000000	15.617251
701.000000	15.644967
702.000000	15.672519
703.000000	15.728285
704.000000	15.782645
705.000000	15.837370
706.000000	15.892219
707.000000	15.947729
708.000000	16.003671
709.000000	16.059016
710.000000	16.145072
711.000000	16.233348
712.000000	16.321820
713.000000	16.381457
714.000000	16.441185
715.000000	16.501891
716.000000	16.590898
717.000000	16.678611
718.000000	16.765617
719.000000	16.852954
720.000000	16.909920
721.000000	16.965215
722.000000	17.020129
723.000000	17.075206
724.000000	17.158431
725.000000	17.240752
726.000000	17.294450
727.000000	17.348581
728.000000	17.403319
729.000000	17.458161
730.000000	17.513063
731.000000	17.568064
732.000000	17.622418
733.000000	17.676255
734.000000	17.701379
735.000000	17.725748
736.000000	17.750591
737.000000	17.776573
738.000000	17.801442
739.000000	17.826084
740.000000	17.851118
741.000000	17.904173
742.000000	17.957629
743.000000	18.012175
744.000000	18.068496
745.000000	18.124642
746.000000	18.179764
747.000000	18.234241
748.000000	18.288219
749.000000	18.341283
750.000000	18.394464
751.000000	18.447161
752.000000	18.500439
753.000000	18.553302
754.000000	18.604872
755.000000	18.656827
756.000000	18.709114
757.000000	18.788818
758.000000	18.868291
759.000000	18.948511
760.000000	19.029209
761.000000	19.082008
762.000000	19.134904
763.000000	19.215647
764.000000	19.296072
765.000000	19.375502
766.000000	19.454787
767.000000	19.506687
768.000000	19.558929
769.000000	19.611321
770.000000	19.691351
771.000000	19.770639
772.000000	19.849396
773.000000	19.900297
774.000000	19.951788
775.000000	20.003719
776.000000	20.056347
777.000000	20.108052
778.000000	20.188257
779.000000	20.268810
780.000000	20.320587
781.000000	20.371692
782.000000	20.422141
783.000000	20.473275
784.000000	20.522833
785.000000	20.571160
786.000000	20.618311
787.000000	20.665748
788.000000	20.686104
789.000000	20.706465
790.000000	20.726598
791.000000	20.747148
792.000000	20.796032
793.000000	20.844458
794.000000	20.893832
795.000000	20.945068
796.000000	20.997838
797.000000	21.050112
798.000000	21.101187
799.000000	21.150450
800.000000	21.200947
801.000000	21.251942
802.000000	21.275088
803.000000	21.297237
804.000000	21.318276
805.000000	21.339809
806.000000	21.358549
807.000000	21.376220
808.000000	21.404806
809.000000	21.430904
810.000000	21.482110
811.000000	21.506542
812.000000	21.530378
813.000000	21.582274
814.000000	21.635451
815.000000	21.687362
816.000000	21.741488
817.000000	21.796199
818.000000	21.841105
819.000000	21.888875
820.000000	21.906965
821.000000	21.951756
822.000000	21.997081
823.000000	22.013789
824.000000	22.029450
825.000000	22.018955
826.000000	22.035452
827.000000	22.052006
828.000000	22.065437
829.000000	22.050453
830.000000	22.038387
831.000000	22.025166
832.000000	22.012135
833.000000	21.998197
834.000000	21.985175
835.000000	21.998876
836.000000	21.983649
837.000000	21.968120
838.000000	21.952725
839.000000	21.961180
840.000000	21.972726
841.000000	21.985155
842.000000	21.999491
843.000000	22.009268
844.000000	22.017223
845.000000	22.024589
846.000000	22.034199
847.000000	22.047805
848.000000	22.055471
849.000000	22.071593
850.000000	22.051140
851.000000	22.033832
852.000000	22.011289
853.000000	21.993170
854.000000	21.975271
855.000000	21.959076
856.000000	21.937314
857.000000	21.885575
858.000000	22.019663
859.000000	22.030005
860.000000	22.051566
861.000000	22.073858
862.000000	22.103388
863.000000	22.136956
864.000000	22.149598
865.000000	22.162599
866.000000	22.181309
867.000000	22.229420
868.000000	22.074692
869.000000	22.041300
870.000000	22.031795
871.000000	22.044733
872.000000	22.028453
873.000000	21.985843
874.000000	21.967473
875.000000	21.973318
876.000000	21.953038
877.000000	21.930365
878.000000	21.931197
879.000000	21.906825
880.000000	21.881588
881.000000	21.831065
882.000000	21.804427
883.000000	21.776153
884.000000	21.745150
885.000000	21.712763
886.000000	21.680553
887.000000	21.648100
888.000000	21.615862
889.000000	21.606582
890.000000	21.595625
891.000000	21.583503
892.000000	21.570573
893.000000	21.583655
894.000000	21.596525
895.000000	21.558163
896.000000	21.569120
897.000000	21.578250
898.000000	21.587925
899.000000	21.571668
900.000000	21.556115
901.000000	21.538978
902.000000	21.521940
903.000000	21.502550
904.000000	21.459332
905.000000	21.466960
906.000000	21.447845
907.000000	21.430263
908.000000	21.412565
909.000000	21.419965
910.000000	21.425407
911.000000	21.431270
912.000000	21.439275
913.000000	21.422725
914.000000	21.453598
915.000000	21.434315
916.000000	21.415508
917.000000	21.419475
918.000000	21.423137
919.000000	21.426853
920.000000	21.406527
921.000000	21.384943
922.000000	21.359748
923.000000	21.359132
924.000000	21.360307
925.000000	21.385135
926.000000	21.407685
927.000000	21.404958
928.000000	21.401155
929.000000	21.396055
930.000000	21.414110
931.000000	21.433525
932.000000	21.454705
933.000000	21.450050
934.000000	21.443380
935.000000	21.437658
936.000000	21.409197
937.000000	21.381490
938.000000	21.376697
939.000000	21.370917
940.000000	21.365188
941.000000	21.358620
942.000000	21.350203
943.000000	21.365590
944.000000	21.355450
945.000000	21.343680
946.000000	21.356587
947.000000	21.369592
948.000000	21.359117
949.000000	21.349975
950.000000	21.342860
951.000000	21.334165
952.000000	21.326110
953.000000	21.319845
954.000000	21.313472
955.000000	21.307882
956.000000	21.300745
957.000000	21.293523
958.000000	21.287183
959.000000	21.279560
960.000000	21.270330
961.000000	21.262228
962.000000	21.254252
963.000000	21.245373
964.000000	21.237258
965.000000	21.228558
966.000000	21.220823
967.000000	21.212365
968.000000	21.203100
969.000000	21.195090
970.000000	21.187250
971.000000	21.179593
972.000000	21.171582
973.000000	21.190085
974.000000	21.208025
975.000000	21.225205
976.000000	21.242757
977.000000	21.260948
978.000000	21.278990
979.000000	21.297810
980.000000	21.316947
981.000000	21.336627
982.000000	21.355280
983.000000	21.347672
984.000000	21.341440
985.000000	21.336670
986.000000	21.331160
987.000000	21.324948
988.000000	21.319120
989.000000	21.314145
990.000000	21.309753
991.000000	21.305277
992.000000	21.302862
993.000000	21.299760
994.000000	21.296205
995.000000	21.292415
996.000000	21.289903
997.000000	21.288553
998.000000	21.287155
999.000000	21.285168
1000.000000	21.282778
1001.000000	21.280570
1002.000000	21.278433
1003.000000	21.277890
1004.000000	21.277673
1005.000000	21.276020
1006.000000	21.274678
1007.000000	21.299070
1008.000000	21.323120
1009.000000	21.346745
1010.000000	21.371085
1011.000000	21.395335
1012.000000	21.419583
1013.000000	21.444592
1014.000000	21.469010
1015.000000	21.494740
1016.000000	21.520788
1017.000000	21.521320
1018.000000	21.522448
1019.000000	21.523972
1020.000000	21.525525
1021.000000	21.527912
1022.000000	21.531370
1023.000000	21.534213
1024.000000	21.538208
1025.000000	21.543112
1026.000000	21.546985
1027.000000	21.551603
1028.000000	21.556548
1029.000000	21.561193
1030.000000	21.566513
1031.000000	21.571440
1032.000000	21.575840
1033.000000	21.580668
1034.000000	21.585397
1035.000000	21.590283
1036.000000	21.595840
1037.000000	21.626085
1038.000000	21.656643
1039.000000	21.687900
1040.000000	21.718735
1041.000000	21.749372
1042.000000	21.779612
1043.000000	21.809320
1044.000000	21.839505
1045.000000	21.869965
1046.000000	21.900705
1047.000000	21.906693
1048.000000	21.912707
1049.000000	21.918592
1050.000000	21.924772
1051.000000	21.931352
1052.000000	21.937985
1053.000000	21.945280
1054.000000	21.952313
1055.000000	21.958967
1056.000000	21.965855
1057.000000	21.971510
1058.000000	21.976903
1059.000000	21.983142
1060.000000	21.989893
1061.000000	21.996685
1062.000000	22.003725
1063.000000	22.010945
1064.000000	22.018485
1065.000000	22.025652
1066.000000	22.057375
1067.000000	22.090697
1068.000000	22.124708
1069.000000	22.158005
1070.000000	22.190267
1071.000000	22.222920
1072.000000	22.256735
1073.000000	22.290848
1074.000000	22.324540
1075.000000	22.357705
1076.000000	22.365890
1077.000000	22.374525
1078.000000	22.383605
1079.000000	22.392435
1080.000000	22.400360
1081.000000	22.408572
1082.000000	22.415328
1083.000000	22.421340
1084.000000	22.427625
1085.000000	22.435155
1086.000000	22.442928
1087.000000	22.450153
1088.000000	22.456018
1089.000000	22.462457
1090.000000	22.470257
1091.000000	22.476442
1092.000000	22.483297
1093.000000	22.490847
1094.000000	22.497175
1095.000000	22.503935
1096.000000	22.510348
1097.000000	22.515823
1098.000000	22.522332
1099.000000	22.528220
1100.000000	22.534045
1101.000000	22.540090
1102.000000	22.546380
1103.000000	22.577407
1104.000000	22.609458
1105.000000	22.640215
1106.000000	22.670742
1107.000000	22.701362
1108.000000	22.730975
1109.000000	22.761312
1110.000000	22.791090
1111.000000	22.821072
1112.000000	22.849670
1113.000000	22.852125
1114.000000	22.854540
1115.000000	22.857502
1116.000000	22.861020
1117.000000	22.864125
1118.000000	22.866365
1119.000000	22.868180
1120.000000	22.869665
1121.000000	22.871145
1122.000000	22.873252
1123.000000	22.874975
1124.000000	22.875402
1125.000000	22.874530
1126.000000	22.871765
1127.000000	22.869340
1128.000000	22.868748
1129.000000	22.866815
1130.000000	22.863605
1131.000000	22.856055
1132.000000	22.820770
1133.000000	22.786575
1134.000000	22.754015
1135.000000	22.722873
1136.000000	22.691540
1137.000000	22.657270
1138.000000	22.619045
1139.000000	22.581160
1140.000000	22.544818
1141.000000	22.511627
1142.000000	22.503448
1143.000000	22.495140
1144.000000	22.484735
1145.000000	22.474060
1146.000000	22.464342
1147.000000	22.456708
1148.000000	22.450795
1149.000000	22.445453
1150.000000	22.439150
1151.000000	22.433140
1152.000000	22.429172
1153.000000	22.423110
1154.000000	22.417345
1155.000000	22.410017
1156.000000	22.377365
1157.000000	22.341918
1158.000000	22.304413
1159.000000	22.265103
