PE UV       SUBTECH     SPECTRUM    ASCII       PEDS        4.00        
   -1
INBUCR0114-5.Sample.ASC
24/02/12
13:31:47.00
24/02/12
13:31:47.00
Vinicio Soto Monge
Strigidia glabra. Color verde metálico sin élitro derecho (Det: A. Solís) COSTA RICA Prov. Puntarenas. Cóbano. Estación Cabo Blanco. 0-100m 20-23 MAY 2001 W. Porras. Trampa de Luz L_N_175150_416300 #66574.  INB0003420620 INBIOCRI COSTA RICA 
250,000000
1
Lambda 1050
1050L1511233
PerkinElmer UV WinLab 6.3.2.0749 / 2.02.05 Lambda 900 UV/VIS/NIR, Aug  7 2015 09:38:08

0
0
3350/servo 860,8/2
0
0
UV/VIS
1
1
1
DoubleDePol,CommonBeamDepol,RBeamAtt,SBeamAtt,60mm sphere, WB InGaAs Detector
0
0
0
0
Program
Program
3350/servo 860,8/2
3350/0,2 860,8/0,2
3350/0,2 860,8/0,2
0
15.00
 
 
 
0
 
860,8
150
860,8
Front
100
on
S:100 R:100
0
0
0
0
 
0
 
 
 
0
 
 
0
0
0
0
0
 
 
 
 
0
0


0
0
#HDR
-1
-1
#GR
nm
%R
1.0
0.0
2500,000000
-1,000000
2251
8
23,580100
1,508400
#DATA

250.000000	nan
251.000000	nan
252.000000	nan
253.000000	nan
254.000000	nan
255.000000	nan
256.000000	nan
257.000000	nan
258.000000	nan
259.000000	5.158628
260.000000	5.113646
261.000000	5.094694
262.000000	5.087362
263.000000	5.097639
264.000000	5.079674
265.000000	5.051188
266.000000	5.012769
267.000000	4.981937
268.000000	4.937730
269.000000	4.903286
270.000000	4.886243
271.000000	4.850964
272.000000	4.820909
273.000000	4.790265
274.000000	4.767854
275.000000	4.762539
276.000000	4.755919
277.000000	4.748135
278.000000	4.740744
279.000000	4.730710
280.000000	4.721095
281.000000	4.712010
282.000000	4.705622
283.000000	4.694998
284.000000	4.687214
285.000000	4.676244
286.000000	4.663612
287.000000	4.657651
288.000000	4.654187
289.000000	4.649549
290.000000	4.649288
291.000000	4.646741
292.000000	4.642046
293.000000	4.642278
294.000000	4.644342
295.000000	4.643660
296.000000	4.648206
297.000000	4.646446
298.000000	4.648788
299.000000	4.651466
300.000000	4.659268
301.000000	4.661388
302.000000	4.665336
303.000000	4.670436
304.000000	4.674892
305.000000	4.683274
306.000000	4.689860
307.000000	4.698721
308.000000	4.703432
309.000000	4.710428
310.000000	4.687678
311.000000	4.697323
312.000000	4.706055
313.000000	4.708836
314.000000	4.712993
315.000000	4.716883
316.000000	4.722331
317.000000	4.760371
318.000000	4.804933
319.000000	4.844778
320.000000	4.900114
321.000000	4.938146
322.000000	4.965335
323.000000	4.996106
324.000000	5.021585
325.000000	5.049193
326.000000	5.070114
327.000000	5.054009
328.000000	5.034384
329.000000	5.012119
330.000000	5.001245
331.000000	4.981278
332.000000	4.972878
333.000000	4.959887
334.000000	4.952587
335.000000	4.942171
336.000000	4.927595
337.000000	4.926067
338.000000	4.920972
339.000000	4.915925
340.000000	4.907300
341.000000	4.900964
342.000000	4.893759
343.000000	4.888502
344.000000	4.880937
345.000000	4.873237
346.000000	4.877036
347.000000	4.873812
348.000000	4.872020
349.000000	4.873659
350.000000	4.875029
351.000000	4.876878
352.000000	4.876465
353.000000	4.877038
354.000000	4.881403
355.000000	4.881595
356.000000	4.878243
357.000000	4.872932
358.000000	4.866692
359.000000	4.866110
360.000000	4.866227
361.000000	4.861991
362.000000	4.858266
363.000000	4.856054
364.000000	4.852632
365.000000	4.854938
366.000000	4.853391
367.000000	4.854976
368.000000	4.854645
369.000000	4.849988
370.000000	4.848135
371.000000	4.844624
372.000000	4.845291
373.000000	4.840604
374.000000	4.832327
375.000000	4.820992
376.000000	4.822670
377.000000	4.817786
378.000000	4.815948
379.000000	4.817772
380.000000	4.815006
381.000000	4.814704
382.000000	4.813897
383.000000	4.817123
384.000000	4.820892
385.000000	4.827949
386.000000	4.825673
387.000000	4.828531
388.000000	4.831515
389.000000	4.833560
390.000000	4.837340
391.000000	4.841151
392.000000	4.844000
393.000000	4.846625
394.000000	4.849757
395.000000	4.852792
396.000000	4.857025
397.000000	4.860349
398.000000	4.863166
399.000000	4.866553
400.000000	4.868758
401.000000	4.871299
402.000000	4.874188
403.000000	4.877116
404.000000	4.880421
405.000000	4.883612
406.000000	4.885769
407.000000	4.888651
408.000000	4.891890
409.000000	4.894659
410.000000	4.898284
411.000000	4.901597
412.000000	4.904498
413.000000	4.908002
414.000000	4.911047
415.000000	4.913972
416.000000	4.917153
417.000000	4.920178
418.000000	4.923542
419.000000	4.927115
420.000000	4.930033
421.000000	4.933230
422.000000	4.937003
423.000000	4.940075
424.000000	4.943454
425.000000	4.947122
426.000000	4.951253
427.000000	4.955258
428.000000	4.958945
429.000000	4.962887
430.000000	4.967347
431.000000	4.971992
432.000000	4.976475
433.000000	4.981241
434.000000	4.986241
435.000000	4.991287
436.000000	4.996147
437.000000	5.000917
438.000000	5.006282
439.000000	5.011828
440.000000	5.016887
441.000000	5.022113
442.000000	5.027573
443.000000	5.033307
444.000000	5.038988
445.000000	5.044561
446.000000	5.050220
447.000000	5.056380
448.000000	5.061731
449.000000	5.066649
450.000000	5.072183
451.000000	5.077950
452.000000	5.083428
453.000000	5.088660
454.000000	5.094086
455.000000	5.099872
456.000000	5.105678
457.000000	5.111407
458.000000	5.117570
459.000000	5.124236
460.000000	5.130887
461.000000	5.137266
462.000000	5.143642
463.000000	5.150311
464.000000	5.156921
465.000000	5.163751
466.000000	5.170662
467.000000	5.177275
468.000000	5.184221
469.000000	5.191076
470.000000	5.197434
471.000000	5.203906
472.000000	5.210514
473.000000	5.216712
474.000000	5.222677
475.000000	5.228042
476.000000	5.233126
477.000000	5.238103
478.000000	5.242745
479.000000	5.247063
480.000000	5.251733
481.000000	5.256632
482.000000	5.262096
483.000000	5.268740
484.000000	5.276270
485.000000	5.284635
486.000000	5.293911
487.000000	5.304209
488.000000	5.315358
489.000000	5.327179
490.000000	5.339884
491.000000	5.353145
492.000000	5.366249
493.000000	5.379334
494.000000	5.392963
495.000000	5.406752
496.000000	5.420814
497.000000	5.435133
498.000000	5.449666
499.000000	5.464566
500.000000	5.479781
501.000000	5.495269
502.000000	5.511604
503.000000	5.527993
504.000000	5.544248
505.000000	5.560866
506.000000	5.577855
507.000000	5.595179
508.000000	5.612804
509.000000	5.630752
510.000000	5.648504
511.000000	5.666229
512.000000	5.683854
513.000000	5.701909
514.000000	5.719934
515.000000	5.738183
516.000000	5.756695
517.000000	5.775368
518.000000	5.793810
519.000000	5.812673
520.000000	5.832432
521.000000	5.852491
522.000000	5.873615
523.000000	5.895249
524.000000	5.918123
525.000000	5.941901
526.000000	5.966281
527.000000	5.991746
528.000000	6.018843
529.000000	6.046771
530.000000	6.075872
531.000000	6.106733
532.000000	6.138831
533.000000	6.173489
534.000000	6.210530
535.000000	6.250693
536.000000	6.295219
537.000000	6.344719
538.000000	6.400154
539.000000	6.463697
540.000000	6.537128
541.000000	6.622170
542.000000	6.720898
543.000000	6.834450
544.000000	6.965270
545.000000	7.114559
546.000000	7.283353
547.000000	7.472613
548.000000	7.682920
549.000000	7.913929
550.000000	8.164136
551.000000	8.432249
552.000000	8.715328
553.000000	9.010915
554.000000	9.315338
555.000000	9.624503
556.000000	9.933775
557.000000	10.238834
558.000000	10.535300
559.000000	10.819272
560.000000	11.081986
561.000000	11.322279
562.000000	11.538319
563.000000	11.728144
564.000000	11.888503
565.000000	12.019153
566.000000	12.118422
567.000000	12.186291
568.000000	12.221944
569.000000	12.225252
570.000000	12.200268
571.000000	12.145221
572.000000	12.059319
573.000000	11.942836
574.000000	11.798216
575.000000	11.626927
576.000000	11.431815
577.000000	11.213904
578.000000	10.977598
579.000000	10.725135
580.000000	10.461017
581.000000	10.189715
582.000000	9.916023
583.000000	9.645278
584.000000	9.382845
585.000000	9.133155
586.000000	8.900578
587.000000	8.691531
588.000000	8.508933
589.000000	8.356031
590.000000	8.234774
591.000000	8.146292
592.000000	8.091127
593.000000	8.067799
594.000000	8.073616
595.000000	8.105060
596.000000	8.158415
597.000000	8.228303
598.000000	8.309862
599.000000	8.398353
600.000000	8.489693
601.000000	8.578386
602.000000	8.659892
603.000000	8.730704
604.000000	8.788574
605.000000	8.831631
606.000000	8.858747
607.000000	8.869914
608.000000	8.864618
609.000000	8.845347
610.000000	8.812570
611.000000	8.769902
612.000000	8.719978
613.000000	8.665938
614.000000	8.610725
615.000000	8.558080
616.000000	8.509952
617.000000	8.469018
618.000000	8.438834
619.000000	8.419955
620.000000	8.414544
621.000000	8.421312
622.000000	8.441582
623.000000	8.475650
624.000000	8.521311
625.000000	8.576586
626.000000	8.641254
627.000000	8.712630
628.000000	8.788105
629.000000	8.866356
630.000000	8.944827
631.000000	9.022780
632.000000	9.097314
633.000000	9.166168
634.000000	9.230020
635.000000	9.287535
636.000000	9.339281
637.000000	9.384858
638.000000	9.425301
639.000000	9.460310
640.000000	9.491548
641.000000	9.520825
642.000000	9.549567
643.000000	9.579755
644.000000	9.611805
645.000000	9.648128
646.000000	9.687917
647.000000	9.732510
648.000000	9.783110
649.000000	9.840807
650.000000	9.904550
651.000000	9.973911
652.000000	10.049392
653.000000	10.129116
654.000000	10.213148
655.000000	10.299164
656.000000	10.387840
657.000000	10.477960
658.000000	10.568044
659.000000	10.656101
660.000000	10.743120
661.000000	10.827337
662.000000	10.908460
663.000000	10.986107
664.000000	11.059945
665.000000	11.131940
666.000000	11.201090
667.000000	11.268631
668.000000	11.334915
669.000000	11.401263
670.000000	11.467928
671.000000	11.535984
672.000000	11.606660
673.000000	11.680437
674.000000	11.756912
675.000000	11.836467
676.000000	11.919824
677.000000	12.005386
678.000000	12.092938
679.000000	12.183740
680.000000	12.277070
681.000000	12.372653
682.000000	12.469575
683.000000	12.567700
684.000000	12.667305
685.000000	12.767056
686.000000	12.865519
687.000000	12.964442
688.000000	13.063637
689.000000	13.161599
690.000000	13.258453
691.000000	13.354520
692.000000	13.448985
693.000000	13.542217
694.000000	13.633694
695.000000	13.724878
696.000000	13.818484
697.000000	13.911726
698.000000	14.005691
699.000000	14.100788
700.000000	14.197935
701.000000	14.298141
702.000000	14.400087
703.000000	14.503717
704.000000	14.611414
705.000000	14.721279
706.000000	14.831033
707.000000	14.942716
708.000000	15.055645
709.000000	15.169168
710.000000	15.281672
711.000000	15.392544
712.000000	15.502629
713.000000	15.613119
714.000000	15.721668
715.000000	15.827980
716.000000	15.934082
717.000000	16.040973
718.000000	16.147415
719.000000	16.255811
720.000000	16.366564
721.000000	16.479178
722.000000	16.594643
723.000000	16.711497
724.000000	16.831238
725.000000	16.956739
726.000000	17.086247
727.000000	17.218833
728.000000	17.354989
729.000000	17.492766
730.000000	17.633801
731.000000	17.779840
732.000000	17.930157
733.000000	18.086287
734.000000	18.246975
735.000000	18.412439
736.000000	18.583720
737.000000	18.760175
738.000000	18.943040
739.000000	19.134980
740.000000	19.335775
741.000000	19.542949
742.000000	19.757734
743.000000	19.978690
744.000000	20.206545
745.000000	20.439503
746.000000	20.677274
747.000000	20.919661
748.000000	21.164424
749.000000	21.408893
750.000000	21.651462
751.000000	21.893944
752.000000	22.132038
753.000000	22.364127
754.000000	22.590968
755.000000	22.809464
756.000000	23.017785
757.000000	23.215173
758.000000	23.401556
759.000000	23.575927
760.000000	23.737975
761.000000	23.883691
762.000000	24.015002
763.000000	24.131266
764.000000	24.230324
765.000000	24.313946
766.000000	24.381280
767.000000	24.432507
768.000000	24.467274
769.000000	24.487565
770.000000	24.492461
771.000000	24.481303
772.000000	24.457670
773.000000	24.425462
774.000000	24.381361
775.000000	24.330775
776.000000	24.274753
777.000000	24.214576
778.000000	24.151250
779.000000	24.081557
780.000000	24.011654
781.000000	23.945699
782.000000	23.883595
783.000000	23.821497
784.000000	23.766872
785.000000	23.711803
786.000000	23.660547
787.000000	23.617135
788.000000	23.583422
789.000000	23.559558
790.000000	23.541878
791.000000	23.531526
792.000000	23.527024
793.000000	23.529459
794.000000	23.538592
795.000000	23.561117
796.000000	23.593379
797.000000	23.630171
798.000000	23.670014
799.000000	23.714781
800.000000	23.767949
801.000000	23.826269
802.000000	23.889844
803.000000	23.958983
804.000000	24.032327
805.000000	24.108300
806.000000	24.183922
807.000000	24.264169
808.000000	24.351913
809.000000	24.444033
810.000000	24.532351
811.000000	24.625290
812.000000	24.720057
813.000000	24.817307
814.000000	24.915618
815.000000	25.009285
816.000000	25.109812
817.000000	25.211794
818.000000	25.310284
819.000000	25.407767
820.000000	25.508406
821.000000	25.608319
822.000000	25.707046
823.000000	25.802789
824.000000	25.901686
825.000000	26.000693
826.000000	26.096191
827.000000	26.191315
828.000000	26.281777
829.000000	26.379063
830.000000	26.475463
831.000000	26.567368
832.000000	26.658782
833.000000	26.754251
834.000000	26.842301
835.000000	26.936482
836.000000	27.027056
837.000000	27.120531
838.000000	27.210712
839.000000	27.291278
840.000000	27.379991
841.000000	27.462140
842.000000	27.543404
843.000000	27.615231
844.000000	27.692739
845.000000	27.767627
846.000000	27.850133
847.000000	27.927925
848.000000	28.007155
849.000000	28.080051
850.000000	28.144772
851.000000	28.204077
852.000000	28.267178
853.000000	28.340969
854.000000	28.411808
855.000000	28.476020
856.000000	28.534908
857.000000	28.603652
858.000000	29.001523
859.000000	29.146749
860.000000	29.278434
861.000000	29.387817
862.000000	29.496652
863.000000	29.586101
864.000000	29.698634
865.000000	29.803947
866.000000	29.922358
867.000000	29.995395
868.000000	29.729606
869.000000	29.717480
870.000000	29.728952
871.000000	29.772678
872.000000	29.814962
873.000000	29.836492
874.000000	29.851698
875.000000	29.864312
876.000000	29.852230
877.000000	29.882130
878.000000	29.941730
879.000000	29.991772
880.000000	30.013214
881.000000	30.039064
882.000000	30.047034
883.000000	30.093140
884.000000	30.113592
885.000000	30.147004
886.000000	30.160654
887.000000	30.178578
888.000000	30.174170
889.000000	30.184354
890.000000	30.201080
891.000000	30.215266
892.000000	30.250074
893.000000	30.276988
894.000000	30.299684
895.000000	30.327770
896.000000	30.385298
897.000000	30.412926
898.000000	30.443698
899.000000	30.466246
900.000000	30.495406
901.000000	30.517134
902.000000	30.532554
903.000000	30.550904
904.000000	30.582668
905.000000	30.614874
906.000000	30.641556
907.000000	30.683196
908.000000	30.725664
909.000000	30.776120
910.000000	30.824022
911.000000	30.877736
912.000000	30.927942
913.000000	30.974706
914.000000	31.023460
915.000000	31.064972
916.000000	31.110104
917.000000	31.151604
918.000000	31.194034
919.000000	31.232748
920.000000	31.282346
921.000000	31.330670
922.000000	31.372206
923.000000	31.422676
924.000000	31.469060
925.000000	31.510890
926.000000	31.545640
927.000000	31.582876
928.000000	31.623232
929.000000	31.665270
930.000000	31.696264
931.000000	31.725762
932.000000	31.771322
933.000000	31.808526
934.000000	31.841704
935.000000	31.876046
936.000000	31.917682
937.000000	31.960922
938.000000	31.999324
939.000000	32.032744
940.000000	32.070356
941.000000	32.106724
942.000000	32.136530
943.000000	32.166860
944.000000	32.199626
945.000000	32.233126
946.000000	32.268394
947.000000	32.300642
948.000000	32.333840
949.000000	32.371036
950.000000	32.407426
951.000000	32.448654
952.000000	32.486146
953.000000	32.524572
954.000000	32.562568
955.000000	32.598832
956.000000	32.633236
957.000000	32.668604
958.000000	32.700416
959.000000	32.733146
960.000000	32.765266
961.000000	32.795038
962.000000	32.825758
963.000000	32.857448
964.000000	32.886682
965.000000	32.917144
966.000000	32.944568
967.000000	32.971002
968.000000	32.999230
969.000000	33.023910
970.000000	33.050070
971.000000	33.077772
972.000000	33.105614
973.000000	33.132254
974.000000	33.159476
975.000000	33.190450
976.000000	33.219620
977.000000	33.247816
978.000000	33.275510
979.000000	33.305094
980.000000	33.332322
981.000000	33.357972
982.000000	33.384544
983.000000	33.409736
984.000000	33.433968
985.000000	33.456180
986.000000	33.481736
987.000000	33.507276
988.000000	33.531480
989.000000	33.556372
990.000000	33.582006
991.000000	33.605864
992.000000	33.627984
993.000000	33.650280
994.000000	33.673836
995.000000	33.697456
996.000000	33.717836
997.000000	33.737418
998.000000	33.760354
999.000000	33.784400
1000.000000	33.808854
1001.000000	33.832606
1002.000000	33.857004
1003.000000	33.882398
1004.000000	33.906922
1005.000000	33.929930
1006.000000	33.953738
1007.000000	33.978202
1008.000000	34.000840
1009.000000	34.022940
1010.000000	34.044272
1011.000000	34.064002
1012.000000	34.084500
1013.000000	34.106666
1014.000000	34.130436
1015.000000	34.153746
1016.000000	34.176926
1017.000000	34.201062
1018.000000	34.225286
1019.000000	34.250088
1020.000000	34.275794
1021.000000	34.304232
1022.000000	34.331412
1023.000000	34.355766
1024.000000	34.379058
1025.000000	34.403192
1026.000000	34.429244
1027.000000	34.456774
1028.000000	34.484850
1029.000000	34.511620
1030.000000	34.537190
1031.000000	34.563206
1032.000000	34.589454
1033.000000	34.615324
1034.000000	34.641318
1035.000000	34.667920
1036.000000	34.694436
1037.000000	34.718410
1038.000000	34.741376
1039.000000	34.766244
1040.000000	34.791588
1041.000000	34.815018
1042.000000	34.839606
1043.000000	34.865810
1044.000000	34.890976
1045.000000	34.916304
1046.000000	34.941908
1047.000000	34.967714
1048.000000	34.993186
1049.000000	35.016230
1050.000000	35.039008
1051.000000	35.061920
1052.000000	35.084166
1053.000000	35.107212
1054.000000	35.130766
1055.000000	35.154024
1056.000000	35.176734
1057.000000	35.200312
1058.000000	35.224150
1059.000000	35.248954
1060.000000	35.274758
1061.000000	35.301558
1062.000000	35.328240
1063.000000	35.353542
1064.000000	35.378270
1065.000000	35.402542
1066.000000	35.426640
1067.000000	35.450874
1068.000000	35.474628
1069.000000	35.498300
1070.000000	35.521640
1071.000000	35.544672
1072.000000	35.567688
1073.000000	35.590770
1074.000000	35.615434
1075.000000	35.639062
1076.000000	35.662620
1077.000000	35.684814
1078.000000	35.707334
1079.000000	35.729236
1080.000000	35.751060
1081.000000	35.772526
1082.000000	35.793906
1083.000000	35.813674
1084.000000	35.832212
1085.000000	35.851148
1086.000000	35.869598
1087.000000	35.888034
1088.000000	35.906544
1089.000000	35.924152
1090.000000	35.939880
1091.000000	35.954696
1092.000000	35.969746
1093.000000	35.984882
1094.000000	36.000150
1095.000000	36.014180
1096.000000	36.027408
1097.000000	36.040818
1098.000000	36.055126
1099.000000	36.068830
1100.000000	36.082982
1101.000000	36.098342
1102.000000	36.111052
1103.000000	36.122302
1104.000000	36.131514
1105.000000	36.141310
1106.000000	36.152884
1107.000000	36.162950
1108.000000	36.169642
1109.000000	36.176794
1110.000000	36.183700
1111.000000	36.189804
1112.000000	36.197442
1113.000000	36.205618
1114.000000	36.212916
1115.000000	36.219146
1116.000000	36.223242
1117.000000	36.226880
1118.000000	36.230202
1119.000000	36.233268
1120.000000	36.234172
1121.000000	36.233486
1122.000000	36.232936
1123.000000	36.229778
1124.000000	36.225068
1125.000000	36.221470
1126.000000	36.215012
1127.000000	36.206018
1128.000000	36.195846
1129.000000	36.182860
1130.000000	36.166228
1131.000000	36.145770
1132.000000	36.118164
1133.000000	36.089828
1134.000000	36.064232
1135.000000	36.035358
1136.000000	36.003352
1137.000000	35.969396
1138.000000	35.933526
1139.000000	35.896996
1140.000000	35.862570
1141.000000	35.829476
1142.000000	35.797786
1143.000000	35.765748
1144.000000	35.731024
1145.000000	35.694918
1146.000000	35.662752
1147.000000	35.632120
1148.000000	35.601536
1149.000000	35.570120
1150.000000	35.537778
1151.000000	35.503614
1152.000000	35.469926
1153.000000	35.436046
1154.000000	35.398418
1155.000000	35.359990
1156.000000	35.317582
1157.000000	35.272672
1158.000000	35.225242
1159.000000	35.174206
1160.000000	35.120702
1161.000000	35.065600
1162.000000	35.007140
1163.000000	34.945052
1164.000000	34.882832
1165.000000	34.820288
1166.000000	34.755810
1167.000000	34.691770
1168.000000	34.627848
1169.000000	34.566582
