PE UV       SUBTECH     SPECTRUM    ASCII       PEDS        4.00        
   -1
INBUCR0111-5.Sample.ASC
24/02/09
16:30:28.00
24/02/09
16:30:28.00
Vinicio Soto Monge
Strigidia belti. Color verde oscuro metálico con ambos élitros (Det: A.Solís) COSTA RICA Prov. Alajuela. San Ramón. Est. Biol. Villa Blanca. 1115m 23 25 MAY 2009 R. Rojas Tp. Luz Mercurio  L_N_242482 483371 #97135 INB0004224190 
250,000000
1
Lambda 1050
1050L1511233
PerkinElmer UV WinLab 6.3.2.0749 / 2.02.05 Lambda 900 UV/VIS/NIR, Aug  7 2015 09:38:08

0
0
3350/servo 860,8/2
0
0
UV/VIS
1
1
1
DoubleDePol,CommonBeamDepol,RBeamAtt,SBeamAtt,60mm sphere, WB InGaAs Detector
0
0
0
0
Program
Program
3350/servo 860,8/2
3350/0,2 860,8/0,2
3350/0,2 860,8/0,2
0
15.00
 
 
 
0
 
860,8
319,2
860,8
Front
100
on
S:100 R:100
0
0
0
0
 
0
 
 
 
0
 
 
0
0
0
0
0
 
 
 
 
0
0


0
0
#HDR
-1
-1
#GR
nm
%R
1.0
0.0
2500,000000
-1,000000
2251
8
19,579500
1,493300
#DATA

250.000000	nan
251.000000	nan
252.000000	nan
253.000000	nan
254.000000	nan
255.000000	nan
256.000000	nan
257.000000	nan
258.000000	nan
259.000000	4.872779
260.000000	4.891881
261.000000	4.909739
262.000000	4.900879
263.000000	4.890472
264.000000	4.856607
265.000000	4.824813
266.000000	4.792470
267.000000	4.760184
268.000000	4.724598
269.000000	4.714885
270.000000	4.678382
271.000000	4.647126
272.000000	4.636513
273.000000	4.603704
274.000000	4.598486
275.000000	4.590239
276.000000	4.581624
277.000000	4.574320
278.000000	4.568263
279.000000	4.561028
280.000000	4.559165
281.000000	4.550585
282.000000	4.548087
283.000000	4.548131
284.000000	4.542801
285.000000	4.537408
286.000000	4.536279
287.000000	4.532809
288.000000	4.533164
289.000000	4.534828
290.000000	4.556480
291.000000	4.580573
292.000000	4.579597
293.000000	4.575400
294.000000	4.574376
295.000000	4.577436
296.000000	4.576820
297.000000	4.574460
298.000000	4.570139
299.000000	4.567544
300.000000	4.563952
301.000000	4.533319
302.000000	4.527900
303.000000	4.552086
304.000000	4.573533
305.000000	4.592293
306.000000	4.612657
307.000000	4.636481
308.000000	4.659011
309.000000	4.684622
310.000000	4.687391
311.000000	4.715782
312.000000	4.739741
313.000000	4.737789
314.000000	4.736165
315.000000	4.734887
316.000000	4.738437
317.000000	4.783961
318.000000	4.836254
319.000000	4.859023
320.000000	4.887503
321.000000	4.915085
322.000000	4.948244
323.000000	4.977251
324.000000	4.999944
325.000000	5.015183
326.000000	5.030398
327.000000	4.996002
328.000000	4.965701
329.000000	4.958484
330.000000	4.949421
331.000000	4.941968
332.000000	4.935937
333.000000	4.927914
334.000000	4.926431
335.000000	4.921458
336.000000	4.914294
337.000000	4.916478
338.000000	4.907166
339.000000	4.906905
340.000000	4.893389
341.000000	4.887677
342.000000	4.878438
343.000000	4.871543
344.000000	4.862649
345.000000	4.857589
346.000000	4.851935
347.000000	4.842716
348.000000	4.834676
349.000000	4.817646
350.000000	4.815758
351.000000	4.804060
352.000000	4.787362
353.000000	4.775530
354.000000	4.766769
355.000000	4.766277
356.000000	4.764505
357.000000	4.762429
358.000000	4.760480
359.000000	4.761375
360.000000	4.755633
361.000000	4.754865
362.000000	4.754474
363.000000	4.755331
364.000000	4.754070
365.000000	4.749747
366.000000	4.745397
367.000000	4.739919
368.000000	4.732116
369.000000	4.721028
370.000000	4.708785
371.000000	4.694425
372.000000	4.684338
373.000000	4.664770
374.000000	4.646328
375.000000	4.634965
376.000000	4.630115
377.000000	4.617036
378.000000	4.606126
379.000000	4.597058
380.000000	4.590842
381.000000	4.585831
382.000000	4.579197
383.000000	4.577578
384.000000	4.578179
385.000000	4.573168
386.000000	4.560667
387.000000	4.560082
388.000000	4.559481
389.000000	4.559106
390.000000	4.558660
391.000000	4.557538
392.000000	4.557403
393.000000	4.557542
394.000000	4.557159
395.000000	4.556780
396.000000	4.556354
397.000000	4.556237
398.000000	4.556717
399.000000	4.556558
400.000000	4.556396
401.000000	4.556427
402.000000	4.555829
403.000000	4.555661
404.000000	4.556100
405.000000	4.556672
406.000000	4.557284
407.000000	4.557845
408.000000	4.558222
409.000000	4.558746
410.000000	4.559202
411.000000	4.559959
412.000000	4.560748
413.000000	4.561049
414.000000	4.560947
415.000000	4.560795
416.000000	4.560826
417.000000	4.560613
418.000000	4.560288
419.000000	4.560622
420.000000	4.560950
421.000000	4.561045
422.000000	4.561708
423.000000	4.562308
424.000000	4.562910
425.000000	4.563552
426.000000	4.563921
427.000000	4.563882
428.000000	4.564505
429.000000	4.565009
430.000000	4.565316
431.000000	4.565964
432.000000	4.566306
433.000000	4.566450
434.000000	4.566822
435.000000	4.567653
436.000000	4.568793
437.000000	4.570185
438.000000	4.571017
439.000000	4.571963
440.000000	4.573067
441.000000	4.574026
442.000000	4.574943
443.000000	4.576136
444.000000	4.577220
445.000000	4.577894
446.000000	4.578112
447.000000	4.578617
448.000000	4.579543
449.000000	4.580073
450.000000	4.580382
451.000000	4.580460
452.000000	4.580708
453.000000	4.581161
454.000000	4.581623
455.000000	4.581674
456.000000	4.581756
457.000000	4.581660
458.000000	4.581350
459.000000	4.581295
460.000000	4.581495
461.000000	4.582169
462.000000	4.582838
463.000000	4.583231
464.000000	4.583371
465.000000	4.584104
466.000000	4.585210
467.000000	4.586035
468.000000	4.586586
469.000000	4.587255
470.000000	4.587896
471.000000	4.587956
472.000000	4.588016
473.000000	4.587869
474.000000	4.588138
475.000000	4.588401
476.000000	4.588168
477.000000	4.588020
478.000000	4.588223
479.000000	4.588263
480.000000	4.587972
481.000000	4.587896
482.000000	4.587817
483.000000	4.588292
484.000000	4.588842
485.000000	4.589759
486.000000	4.591548
487.000000	4.593454
488.000000	4.595635
489.000000	4.598239
490.000000	4.601532
491.000000	4.605530
492.000000	4.610212
493.000000	4.615054
494.000000	4.620255
495.000000	4.649487
496.000000	4.679113
497.000000	4.709326
498.000000	4.739311
499.000000	4.769258
500.000000	4.799666
501.000000	4.830219
502.000000	4.860666
503.000000	4.891536
504.000000	4.922585
505.000000	4.930168
506.000000	4.938064
507.000000	4.946818
508.000000	4.956744
509.000000	4.967534
510.000000	4.978938
511.000000	4.991490
512.000000	5.005356
513.000000	5.020897
514.000000	5.038022
515.000000	5.057093
516.000000	5.077872
517.000000	5.100678
518.000000	5.125901
519.000000	5.153922
520.000000	5.185316
521.000000	5.219986
522.000000	5.258014
523.000000	5.299323
524.000000	5.344581
525.000000	5.393520
526.000000	5.446867
527.000000	5.503908
528.000000	5.565244
529.000000	5.631071
530.000000	5.701352
531.000000	5.775890
532.000000	5.854870
533.000000	5.938311
534.000000	6.050140
535.000000	6.165747
536.000000	6.284979
537.000000	6.408553
538.000000	6.535737
539.000000	6.666187
540.000000	6.798498
541.000000	6.957773
542.000000	7.119258
543.000000	7.282388
544.000000	7.422018
545.000000	7.563023
546.000000	7.703630
547.000000	7.867580
548.000000	8.029503
549.000000	8.188656
550.000000	8.344760
551.000000	8.472875
552.000000	8.619592
553.000000	8.759781
554.000000	8.894048
555.000000	9.020168
556.000000	9.138150
557.000000	9.223092
558.000000	9.298631
559.000000	9.364394
560.000000	9.410329
561.000000	9.467586
562.000000	9.490114
563.000000	9.502041
564.000000	9.502204
565.000000	9.492441
566.000000	9.448287
567.000000	9.394732
568.000000	9.332172
569.000000	9.261891
570.000000	9.193422
571.000000	9.096518
572.000000	8.993650
573.000000	8.886670
574.000000	8.751994
575.000000	8.614748
576.000000	8.500887
577.000000	8.386418
578.000000	8.273492
579.000000	8.162003
580.000000	8.029884
581.000000	7.900687
582.000000	7.777688
583.000000	7.660587
584.000000	7.574939
585.000000	7.495933
586.000000	7.425121
587.000000	7.363741
588.000000	7.310323
589.000000	7.265870
590.000000	7.254951
591.000000	7.253034
592.000000	7.258377
593.000000	7.270945
594.000000	7.291087
595.000000	7.317095
596.000000	7.347415
597.000000	7.379830
598.000000	7.414281
599.000000	7.473774
600.000000	7.531597
601.000000	7.587422
602.000000	7.640709
603.000000	7.689785
604.000000	7.733753
605.000000	7.772612
606.000000	7.805099
607.000000	7.832264
608.000000	7.854875
609.000000	7.847854
610.000000	7.836430
611.000000	7.821099
612.000000	7.803215
613.000000	7.782863
614.000000	7.761132
615.000000	7.739010
616.000000	7.693286
617.000000	7.649051
618.000000	7.606330
619.000000	7.565320
620.000000	7.527746
621.000000	7.494467
622.000000	7.464231
623.000000	7.439014
624.000000	7.416439
625.000000	7.397888
626.000000	7.407634
627.000000	7.420145
628.000000	7.435649
629.000000	7.478948
630.000000	7.524521
631.000000	7.570914
632.000000	7.618493
633.000000	7.667134
634.000000	7.716294
635.000000	7.765191
636.000000	7.814199
637.000000	7.863396
638.000000	7.911262
639.000000	7.933692
640.000000	7.954633
641.000000	7.975592
642.000000	7.996003
643.000000	8.014968
644.000000	8.034227
645.000000	8.053421
646.000000	8.071750
647.000000	8.090232
648.000000	8.109671
649.000000	8.130388
650.000000	8.152304
651.000000	8.174987
652.000000	8.198400
653.000000	8.223411
654.000000	8.250005
655.000000	8.278897
656.000000	8.309543
657.000000	8.340955
658.000000	8.398782
659.000000	8.457464
660.000000	8.518163
661.000000	8.580339
662.000000	8.644030
663.000000	8.708763
664.000000	8.774921
665.000000	8.841330
666.000000	8.909128
667.000000	8.977381
668.000000	9.021002
669.000000	9.064899
670.000000	9.109033
671.000000	9.152808
672.000000	9.196402
673.000000	9.239394
674.000000	9.281517
675.000000	9.323500
676.000000	9.364904
677.000000	9.405619
678.000000	9.445932
679.000000	9.510886
680.000000	9.575859
681.000000	9.640770
682.000000	9.706285
683.000000	9.773173
684.000000	9.840518
685.000000	9.908157
686.000000	9.976149
687.000000	10.046254
688.000000	10.117675
689.000000	10.165542
690.000000	10.214101
691.000000	10.288223
692.000000	10.363735
693.000000	10.440730
694.000000	10.518946
695.000000	10.597875
696.000000	10.678070
697.000000	10.758786
698.000000	10.839999
699.000000	10.921595
700.000000	11.003506
701.000000	11.060007
702.000000	11.115488
703.000000	11.169556
704.000000	11.222604
705.000000	11.275824
706.000000	11.352255
707.000000	11.427517
708.000000	11.502869
709.000000	11.578292
710.000000	11.652898
711.000000	11.728697
712.000000	11.806850
713.000000	11.886280
714.000000	11.966920
715.000000	12.048588
716.000000	12.107877
717.000000	12.192955
718.000000	12.278305
719.000000	12.364668
720.000000	12.452922
721.000000	12.541423
722.000000	12.629519
723.000000	12.716891
724.000000	12.802698
725.000000	12.889213
726.000000	12.975495
727.000000	13.035664
728.000000	13.094879
729.000000	13.176310
730.000000	13.255838
731.000000	13.336148
732.000000	13.416309
733.000000	13.495393
734.000000	13.576165
735.000000	13.655285
736.000000	13.733123
737.000000	13.812765
738.000000	13.894046
739.000000	13.975751
740.000000	14.058224
741.000000	14.141056
742.000000	14.224163
743.000000	14.309252
744.000000	14.395152
745.000000	14.481617
746.000000	14.567941
747.000000	14.654312
748.000000	14.741249
749.000000	14.805012
750.000000	14.893237
751.000000	14.980339
752.000000	15.065941
753.000000	15.150844
754.000000	15.233953
755.000000	15.316511
756.000000	15.400113
757.000000	15.486561
758.000000	15.570399
759.000000	15.651434
760.000000	15.709525
761.000000	15.793181
762.000000	15.878587
763.000000	15.964204
764.000000	16.050113
765.000000	16.138287
766.000000	16.226888
767.000000	16.313801
768.000000	16.402585
769.000000	16.496037
770.000000	16.586910
771.000000	16.654192
772.000000	16.747593
773.000000	16.840663
774.000000	16.932542
775.000000	17.023024
776.000000	17.115864
777.000000	17.207893
778.000000	17.300864
779.000000	17.392691
780.000000	17.485043
781.000000	17.575883
782.000000	17.663435
783.000000	17.752679
784.000000	17.845136
785.000000	17.936669
786.000000	18.026939
787.000000	18.119471
788.000000	18.210732
789.000000	18.301785
790.000000	18.399510
791.000000	18.496286
792.000000	18.569375
793.000000	18.665537
794.000000	18.761418
795.000000	18.862119
796.000000	18.961820
797.000000	19.059622
798.000000	19.158643
799.000000	19.257477
800.000000	19.350714
801.000000	19.445843
802.000000	19.543347
803.000000	19.642638
804.000000	19.737043
805.000000	19.832541
806.000000	19.929154
807.000000	20.026420
808.000000	20.126542
809.000000	20.223153
810.000000	20.322539
811.000000	20.427180
812.000000	20.526405
813.000000	20.602858
814.000000	20.679435
815.000000	20.778398
816.000000	20.874982
817.000000	20.973412
818.000000	21.071153
819.000000	21.167291
820.000000	21.264640
821.000000	21.354435
822.000000	21.445443
823.000000	21.538286
824.000000	21.634664
825.000000	21.706202
826.000000	21.808931
827.000000	21.899900
828.000000	21.985375
829.000000	22.074612
830.000000	22.162917
831.000000	22.253068
832.000000	22.342943
833.000000	22.424245
834.000000	22.505680
835.000000	22.595147
836.000000	22.643888
837.000000	22.702594
838.000000	22.793420
839.000000	22.879936
840.000000	22.959651
841.000000	23.040138
842.000000	23.117501
843.000000	23.205669
844.000000	23.296516
845.000000	23.360182
846.000000	23.443219
847.000000	23.517614
848.000000	23.550862
849.000000	23.609896
850.000000	23.652405
851.000000	23.698586
852.000000	23.760486
853.000000	23.805949
854.000000	23.852690
855.000000	23.926413
856.000000	23.980952
857.000000	24.074252
858.000000	24.707121
859.000000	24.824227
860.000000	24.962297
861.000000	25.088032
862.000000	25.198762
863.000000	25.323551
864.000000	25.450418
865.000000	25.528288
866.000000	25.606359
867.000000	25.672327
868.000000	25.164312
869.000000	25.162526
870.000000	25.133482
871.000000	25.087720
872.000000	25.063496
873.000000	25.019696
874.000000	24.976406
875.000000	24.950610
876.000000	24.915846
877.000000	24.878976
878.000000	24.879558
879.000000	24.844690
880.000000	24.837034
881.000000	24.836612
882.000000	24.835322
883.000000	24.826112
884.000000	24.829748
885.000000	24.816562
886.000000	24.811198
887.000000	24.791528
888.000000	24.777740
889.000000	24.792984
890.000000	24.783634
891.000000	24.760642
892.000000	24.749054
893.000000	24.750904
894.000000	24.716558
895.000000	24.713082
896.000000	24.712606
897.000000	24.704426
898.000000	24.681838
899.000000	24.675210
900.000000	24.687404
901.000000	24.727438
902.000000	24.711450
903.000000	24.699814
904.000000	24.692256
905.000000	24.700840
906.000000	24.712692
907.000000	24.717376
908.000000	24.733556
909.000000	24.746286
910.000000	24.741778
911.000000	24.740144
912.000000	24.756640
913.000000	24.769354
914.000000	24.795490
915.000000	24.804704
916.000000	24.822800
917.000000	24.849194
918.000000	24.874680
919.000000	24.877654
920.000000	24.900030
921.000000	24.920374
922.000000	24.945868
923.000000	24.972872
924.000000	24.994752
925.000000	25.018890
926.000000	25.040926
927.000000	25.064026
928.000000	25.084952
929.000000	25.107706
930.000000	25.126706
931.000000	25.136432
932.000000	25.147464
933.000000	25.167738
934.000000	25.191762
935.000000	25.213596
936.000000	25.227338
937.000000	25.239270
938.000000	25.258424
939.000000	25.276740
940.000000	25.295638
941.000000	25.318054
942.000000	25.344376
943.000000	25.365914
944.000000	25.384324
945.000000	25.407252
946.000000	25.428514
947.000000	25.453812
948.000000	25.474948
949.000000	25.494470
950.000000	25.514614
951.000000	25.540600
952.000000	25.583828
953.000000	25.604550
954.000000	25.626856
955.000000	25.645418
956.000000	25.689022
957.000000	25.726218
958.000000	25.760820
959.000000	25.800172
960.000000	25.841392
961.000000	25.879200
962.000000	25.892742
963.000000	25.929368
964.000000	25.965792
965.000000	26.001840
966.000000	26.013336
967.000000	26.029172
968.000000	26.051170
969.000000	26.068484
970.000000	26.083778
971.000000	26.098250
972.000000	26.117276
973.000000	26.134712
974.000000	26.149694
975.000000	26.165786
976.000000	26.184628
977.000000	26.201830
978.000000	26.215664
979.000000	26.229506
980.000000	26.244762
981.000000	26.259606
982.000000	26.271678
983.000000	26.282738
984.000000	26.295470
985.000000	26.310760
986.000000	26.325618
987.000000	26.341164
988.000000	26.357716
989.000000	26.373668
990.000000	26.386520
991.000000	26.402266
992.000000	26.418294
993.000000	26.434878
994.000000	26.450184
995.000000	26.462960
996.000000	26.475552
997.000000	26.487798
998.000000	26.497600
999.000000	26.508314
1000.000000	26.523746
1001.000000	26.537942
1002.000000	26.549624
1003.000000	26.561136
1004.000000	26.574222
1005.000000	26.588472
1006.000000	26.602304
1007.000000	26.614852
1008.000000	26.630204
1009.000000	26.645632
1010.000000	26.657552
1011.000000	26.669596
1012.000000	26.684194
1013.000000	26.698728
1014.000000	26.711528
1015.000000	26.743468
1016.000000	26.777326
1017.000000	26.790940
1018.000000	26.821780
1019.000000	26.854680
1020.000000	26.889932
1021.000000	26.925222
1022.000000	26.960282
1023.000000	26.995006
1024.000000	27.029506
1025.000000	27.042720
1026.000000	27.055360
1027.000000	27.089568
1028.000000	27.105530
1029.000000	27.120978
1030.000000	27.135630
1031.000000	27.150612
1032.000000	27.166516
1033.000000	27.180466
1034.000000	27.194768
1035.000000	27.211042
1036.000000	27.227306
1037.000000	27.242192
1038.000000	27.256720
1039.000000	27.271888
1040.000000	27.286158
1041.000000	27.300112
1042.000000	27.313308
1043.000000	27.327914
1044.000000	27.342178
1045.000000	27.355488
1046.000000	27.368604
1047.000000	27.383150
1048.000000	27.395608
1049.000000	27.405828
1050.000000	27.417472
1051.000000	27.429512
1052.000000	27.442094
1053.000000	27.453902
1054.000000	27.466740
1055.000000	27.481662
1056.000000	27.495454
1057.000000	27.507252
1058.000000	27.521922
1059.000000	27.537938
1060.000000	27.553244
1061.000000	27.568816
1062.000000	27.584240
1063.000000	27.600020
1064.000000	27.614428
1065.000000	27.627396
1066.000000	27.641944
1067.000000	27.678304
1068.000000	27.693878
1069.000000	27.729536
1070.000000	27.766190
1071.000000	27.801994
1072.000000	27.836110
1073.000000	27.869390
1074.000000	27.904392
1075.000000	27.940726
1076.000000	27.976112
1077.000000	27.988760
1078.000000	28.022384
1079.000000	28.035576
1080.000000	28.047386
1081.000000	28.058556
1082.000000	28.071412
1083.000000	28.085126
1084.000000	28.095820
1085.000000	28.105832
1086.000000	28.116256
1087.000000	28.130072
1088.000000	28.142856
1089.000000	28.155956
1090.000000	28.168054
1091.000000	28.180098
1092.000000	28.190708
1093.000000	28.201800
1094.000000	28.215306
1095.000000	28.227124
1096.000000	28.237736
1097.000000	28.247780
1098.000000	28.255678
1099.000000	28.265178
1100.000000	28.274096
1101.000000	28.281832
1102.000000	28.290874
1103.000000	28.300130
1104.000000	28.309400
1105.000000	28.319318
1106.000000	28.328880
1107.000000	28.337360
1108.000000	28.347648
1109.000000	28.354458
1110.000000	28.363548
1111.000000	28.373776
1112.000000	28.382346
1113.000000	28.390590
1114.000000	28.398094
1115.000000	28.405284
1116.000000	28.412216
1117.000000	28.418738
1118.000000	28.425830
1119.000000	28.431886
1120.000000	28.435394
1121.000000	28.438802
1122.000000	28.442914
1123.000000	28.447022
1124.000000	28.450150
1125.000000	28.452734
1126.000000	28.454916
1127.000000	28.454470
1128.000000	28.450720
1129.000000	28.449278
1130.000000	28.445092
1131.000000	28.437518
1132.000000	28.428452
1133.000000	28.416138
1134.000000	28.404182
1135.000000	28.391634
1136.000000	28.378386
1137.000000	28.364670
1138.000000	28.348814
1139.000000	28.329252
1140.000000	28.314022
1141.000000	28.300540
1142.000000	28.285910
1143.000000	28.271138
1144.000000	28.255754
1145.000000	28.241548
1146.000000	28.227650
1147.000000	28.213660
1148.000000	28.203238
1149.000000	28.195432
1150.000000	28.185228
1151.000000	28.175160
1152.000000	28.165460
1153.000000	28.155616
1154.000000	28.144552
1155.000000	28.130516
1156.000000	28.116302
1157.000000	28.100534
1158.000000	28.082852
1159.000000	28.059868
1160.000000	28.036088
1161.000000	28.010932
1162.000000	27.963782
1163.000000	27.915712
1164.000000	27.865384
1165.000000	27.814482
1166.000000	27.761510
1167.000000	27.710358
1168.000000	27.658312
1169.000000	27.609104
1170.000000	27.562108
1171.000000	27.513696
1172.000000	27.486138
