PE UV       SUBTECH     SPECTRUM    ASCII       PEDS        4.00        
   -1
INBUCR0141-4.Sample.ASC
24/02/07
14:58:22.00
24/02/07
14:58:22.00
Vinicio Soto Monge
Color café con ambos élitros. Pelidnota laevissima. Det: A. Solís. Finca Cafrosa, Embalce, 800 m NO. de Tigra, Puntarenas, Costa Rica. 1280 m. 10-26 MAR 1996. E. Navarro, de Luz L_S_317800_596200 #7488. INBIOCRI002382849
250,000000
1
Lambda 1050
1050L1511233
PerkinElmer UV WinLab 6.3.2.0749 / 2.02.05 Lambda 900 UV/VIS/NIR, Aug  7 2015 09:38:08

0
0
3350/servo 860,8/2
0
0
UV/VIS
1
1
1
DoubleDePol,CommonBeamDepol,RBeamAtt,SBeamAtt,60mm sphere, WB InGaAs Detector
0
0
0
0
Program
Program
3350/servo 860,8/2
3350/0,2 860,8/0,2
3350/0,2 860,8/0,2
0
15.00
 
 
 
0
 
860,8
319,2
860,8
Front
100
on
S:100 R:100
0
0
0
0
 
0
 
 
 
0
 
 
0
0
0
0
0
 
 
 
 
0
0


0
0
#HDR
-1
-1
#GR
nm
%R
1.0
0.0
2500,000000
-1,000000
2251
8
16,418000
1,175600
#DATA

250.000000	nan
251.000000	nan
252.000000	nan
253.000000	nan
254.000000	nan
255.000000	nan
256.000000	nan
257.000000	nan
258.000000	nan
259.000000	4.266555
260.000000	4.255260
261.000000	4.245375
262.000000	4.232356
263.000000	4.217930
264.000000	4.198985
265.000000	4.180760
266.000000	4.158685
267.000000	4.137775
268.000000	4.116525
269.000000	4.093597
270.000000	4.072773
271.000000	4.049791
272.000000	4.029579
273.000000	4.010496
274.000000	3.994368
275.000000	3.975408
276.000000	3.959758
277.000000	3.945292
278.000000	3.932505
279.000000	3.918451
280.000000	3.903302
281.000000	3.890022
282.000000	3.877679
283.000000	3.866026
284.000000	3.854669
285.000000	3.847529
286.000000	3.838780
287.000000	3.830897
288.000000	3.824906
289.000000	3.822191
290.000000	3.820880
291.000000	3.821143
292.000000	3.821221
293.000000	3.825277
294.000000	3.828010
295.000000	3.829747
296.000000	3.834707
297.000000	3.840085
298.000000	3.845117
299.000000	3.847533
300.000000	3.849558
301.000000	3.851257
302.000000	3.850249
303.000000	3.844368
304.000000	3.842223
305.000000	3.841739
306.000000	3.836526
307.000000	3.832236
308.000000	3.826144
309.000000	3.821218
310.000000	3.819015
311.000000	3.815787
312.000000	3.813726
313.000000	3.813265
314.000000	3.810113
315.000000	3.805281
316.000000	3.805655
317.000000	3.834481
318.000000	3.855110
319.000000	3.871273
320.000000	3.886046
321.000000	3.886777
322.000000	3.898634
323.000000	3.907118
324.000000	3.925877
325.000000	3.936608
326.000000	3.943580
327.000000	3.922108
328.000000	3.910995
329.000000	3.905322
330.000000	3.891022
331.000000	3.893157
332.000000	3.888211
333.000000	3.886967
334.000000	3.874519
335.000000	3.868232
336.000000	3.863294
337.000000	3.858155
338.000000	3.851155
339.000000	3.847204
340.000000	3.848633
341.000000	3.849159
342.000000	3.845091
343.000000	3.843452
344.000000	3.846848
345.000000	3.848411
346.000000	3.849411
347.000000	3.849939
348.000000	3.849658
349.000000	3.845793
350.000000	3.847759
351.000000	3.845456
352.000000	3.846116
353.000000	3.845061
354.000000	3.843565
355.000000	3.846380
356.000000	3.844881
357.000000	3.842471
358.000000	3.841984
359.000000	3.846965
360.000000	3.848103
361.000000	3.852328
362.000000	3.857742
363.000000	3.862371
364.000000	3.865068
365.000000	3.867511
366.000000	3.873107
367.000000	3.879513
368.000000	3.885832
369.000000	3.888556
370.000000	3.889299
371.000000	3.890374
372.000000	3.887491
373.000000	3.886912
374.000000	3.878656
375.000000	3.870073
376.000000	3.872959
377.000000	3.867165
378.000000	3.862492
379.000000	3.857099
380.000000	3.854738
381.000000	3.852266
382.000000	3.851383
383.000000	3.848297
384.000000	3.851839
385.000000	3.856157
386.000000	3.850595
387.000000	3.853209
388.000000	3.855133
389.000000	3.857029
390.000000	3.858773
391.000000	3.860314
392.000000	3.861925
393.000000	3.864252
394.000000	3.865945
395.000000	3.867606
396.000000	3.869621
397.000000	3.871482
398.000000	3.873691
399.000000	3.875717
400.000000	3.877572
401.000000	3.880134
402.000000	3.883111
403.000000	3.885626
404.000000	3.889026
405.000000	3.892892
406.000000	3.897068
407.000000	3.901990
408.000000	3.907725
409.000000	3.914521
410.000000	3.922979
411.000000	3.933238
412.000000	3.945598
413.000000	3.960248
414.000000	3.977527
415.000000	3.997561
416.000000	4.020264
417.000000	4.046277
418.000000	4.075818
419.000000	4.108778
420.000000	4.144920
421.000000	4.184061
422.000000	4.226100
423.000000	4.271519
424.000000	4.319773
425.000000	4.370522
426.000000	4.423953
427.000000	4.479733
428.000000	4.537438
429.000000	4.596888
430.000000	4.658117
431.000000	4.720609
432.000000	4.784289
433.000000	4.848785
434.000000	4.914386
435.000000	4.981101
436.000000	5.048797
437.000000	5.117098
438.000000	5.186231
439.000000	5.256369
440.000000	5.327262
441.000000	5.399361
442.000000	5.472724
443.000000	5.547081
444.000000	5.622420
445.000000	5.698852
446.000000	5.776584
447.000000	5.855814
448.000000	5.935783
449.000000	6.016753
450.000000	6.099292
451.000000	6.182403
452.000000	6.266501
453.000000	6.352124
454.000000	6.438026
455.000000	6.524322
456.000000	6.611166
457.000000	6.698115
458.000000	6.786169
459.000000	6.875105
460.000000	6.963612
461.000000	7.052394
462.000000	7.141746
463.000000	7.230728
464.000000	7.320066
465.000000	7.409929
466.000000	7.499745
467.000000	7.589270
468.000000	7.678613
469.000000	7.767284
470.000000	7.856041
471.000000	7.944862
472.000000	8.033012
473.000000	8.121081
474.000000	8.209362
475.000000	8.297085
476.000000	8.384316
477.000000	8.471431
478.000000	8.558265
479.000000	8.645171
480.000000	8.731776
481.000000	8.817466
482.000000	8.902053
483.000000	8.986712
484.000000	9.071632
485.000000	9.157249
486.000000	9.243496
487.000000	9.330603
488.000000	9.418306
489.000000	9.506518
490.000000	9.595856
491.000000	9.687375
492.000000	9.780899
493.000000	9.875455
494.000000	9.971262
495.000000	10.067651
496.000000	10.164262
497.000000	10.261816
498.000000	10.360599
499.000000	10.460907
500.000000	10.562164
501.000000	10.663147
502.000000	10.764188
503.000000	10.866470
504.000000	10.969599
505.000000	11.073074
506.000000	11.177471
507.000000	11.282316
508.000000	11.387752
509.000000	11.493745
510.000000	11.599664
511.000000	11.707405
512.000000	11.816350
513.000000	11.925581
514.000000	12.034678
515.000000	12.144592
516.000000	12.255627
517.000000	12.367983
518.000000	12.480520
519.000000	12.593106
520.000000	12.707276
521.000000	12.822174
522.000000	12.938631
523.000000	13.055810
524.000000	13.174691
525.000000	13.295357
526.000000	13.417385
527.000000	13.540276
528.000000	13.664607
529.000000	13.790882
530.000000	13.918450
531.000000	14.046794
532.000000	14.176335
533.000000	14.307159
534.000000	14.438961
535.000000	14.571601
536.000000	14.704924
537.000000	14.839397
538.000000	14.974945
539.000000	15.110947
540.000000	15.247871
541.000000	15.385325
542.000000	15.523788
543.000000	15.663727
544.000000	15.803061
545.000000	15.943456
546.000000	16.084125
547.000000	16.225192
548.000000	16.366471
549.000000	16.508086
550.000000	16.650238
551.000000	16.793446
552.000000	16.936417
553.000000	17.079112
554.000000	17.222935
555.000000	17.366409
556.000000	17.510057
557.000000	17.654358
558.000000	17.798817
559.000000	17.943488
560.000000	18.080428
561.000000	18.215980
562.000000	18.351696
563.000000	18.487869
564.000000	18.623378
565.000000	18.759240
566.000000	18.895727
567.000000	19.031522
568.000000	19.168184
569.000000	19.306187
570.000000	19.451525
571.000000	19.598467
572.000000	19.746011
573.000000	19.892988
574.000000	20.041609
575.000000	20.189976
576.000000	20.338989
577.000000	20.488716
578.000000	20.638219
579.000000	20.787602
580.000000	20.936417
581.000000	21.085991
582.000000	21.235726
583.000000	21.386258
584.000000	21.536764
585.000000	21.686348
586.000000	21.836089
587.000000	21.986396
588.000000	22.136917
589.000000	22.287532
590.000000	22.438960
591.000000	22.589275
592.000000	22.740063
593.000000	22.890626
594.000000	23.040842
595.000000	23.192916
596.000000	23.343833
597.000000	23.493162
598.000000	23.642846
599.000000	23.791539
600.000000	23.939821
601.000000	24.088014
602.000000	24.234341
603.000000	24.381701
604.000000	24.527453
605.000000	24.672045
606.000000	24.816569
607.000000	24.962051
608.000000	25.105384
609.000000	25.248786
610.000000	25.392097
611.000000	25.534660
612.000000	25.677688
613.000000	25.819481
614.000000	25.961794
615.000000	26.102187
616.000000	26.242799
617.000000	26.382596
618.000000	26.522901
619.000000	26.660880
620.000000	26.800321
621.000000	26.939507
622.000000	27.077964
623.000000	27.214438
624.000000	27.350803
625.000000	27.488807
626.000000	27.626560
627.000000	27.763043
628.000000	27.901040
629.000000	28.039722
630.000000	28.176038
631.000000	28.314056
632.000000	28.451966
633.000000	28.590479
634.000000	28.729966
635.000000	28.870579
636.000000	29.011640
637.000000	29.153556
638.000000	29.296346
639.000000	29.441417
640.000000	29.588845
641.000000	29.736799
642.000000	29.886614
643.000000	30.037544
644.000000	30.190471
645.000000	30.344355
646.000000	30.499170
647.000000	30.656963
648.000000	30.813476
649.000000	30.969550
650.000000	31.125882
651.000000	31.282184
652.000000	31.438823
653.000000	31.595656
654.000000	31.751250
655.000000	31.906907
656.000000	32.062601
657.000000	32.216441
658.000000	32.368150
659.000000	32.519620
660.000000	32.667932
661.000000	32.815572
662.000000	32.961232
663.000000	33.106151
664.000000	33.248648
665.000000	33.388897
666.000000	33.526546
667.000000	33.661370
668.000000	33.795852
669.000000	33.926936
670.000000	34.058762
671.000000	34.188058
672.000000	34.315110
673.000000	34.440870
674.000000	34.566132
675.000000	34.687971
676.000000	34.808329
677.000000	34.929566
678.000000	35.049673
679.000000	35.167496
680.000000	35.283142
681.000000	35.398514
682.000000	35.513281
683.000000	35.625938
684.000000	35.736460
685.000000	35.846792
686.000000	35.955792
687.000000	36.061606
688.000000	36.166615
689.000000	36.273385
690.000000	36.380032
691.000000	36.481922
692.000000	36.581690
693.000000	36.681875
694.000000	36.781621
695.000000	36.879562
696.000000	36.976120
697.000000	37.074081
698.000000	37.170262
699.000000	37.264796
700.000000	37.356931
701.000000	37.449682
702.000000	37.542526
703.000000	37.634512
704.000000	37.724625
705.000000	37.813116
706.000000	37.900914
707.000000	37.986737
708.000000	38.073262
709.000000	38.157201
710.000000	38.240997
711.000000	38.325430
712.000000	38.408820
713.000000	38.490582
714.000000	38.570865
715.000000	38.652254
716.000000	38.733565
717.000000	38.812580
718.000000	38.892864
719.000000	38.975474
720.000000	39.055459
721.000000	39.135004
722.000000	39.213425
723.000000	39.291118
724.000000	39.369072
725.000000	39.445801
726.000000	39.520937
727.000000	39.596155
728.000000	39.668307
729.000000	39.738531
730.000000	39.810055
731.000000	39.881763
732.000000	39.954682
733.000000	40.027297
734.000000	40.101566
735.000000	40.173015
736.000000	40.244563
737.000000	40.318290
738.000000	40.389898
739.000000	40.459203
740.000000	40.528513
741.000000	40.597868
742.000000	40.667551
743.000000	40.734152
744.000000	40.798556
745.000000	40.866233
746.000000	40.931727
747.000000	40.993840
748.000000	41.058870
749.000000	41.127762
750.000000	41.194309
751.000000	41.258475
752.000000	41.321467
753.000000	41.385434
754.000000	41.446191
755.000000	41.503474
756.000000	41.566171
757.000000	41.632258
758.000000	41.695574
759.000000	41.756761
760.000000	41.819481
761.000000	41.884265
762.000000	41.946086
763.000000	42.005822
764.000000	42.067077
765.000000	42.132757
766.000000	42.195315
767.000000	42.255042
768.000000	42.315392
769.000000	42.374881
770.000000	42.433981
771.000000	42.490496
772.000000	42.546674
773.000000	42.606720
774.000000	42.667346
775.000000	42.725910
776.000000	42.781393
777.000000	42.838091
778.000000	42.895845
779.000000	42.952641
780.000000	43.008557
781.000000	43.066678
782.000000	43.129632
783.000000	43.189743
784.000000	43.248178
785.000000	43.305570
786.000000	43.365013
787.000000	43.420524
788.000000	43.479017
789.000000	43.538839
790.000000	43.594166
791.000000	43.648715
792.000000	43.701070
793.000000	43.754672
794.000000	43.808837
795.000000	43.864029
796.000000	43.918232
797.000000	43.972461
798.000000	44.022226
799.000000	44.068914
800.000000	44.121361
801.000000	44.173146
802.000000	44.222796
803.000000	44.271123
804.000000	44.322899
805.000000	44.372874
806.000000	44.421616
807.000000	44.472629
808.000000	44.521079
809.000000	44.573801
810.000000	44.624104
811.000000	44.671881
812.000000	44.713983
813.000000	44.758724
814.000000	44.801435
815.000000	44.843061
816.000000	44.884321
817.000000	44.922588
818.000000	44.963081
819.000000	44.997862
820.000000	45.035334
821.000000	45.074343
822.000000	45.110980
823.000000	45.144138
824.000000	45.174152
825.000000	45.205541
826.000000	45.244916
827.000000	45.280889
828.000000	45.306220
829.000000	45.331157
830.000000	45.355842
831.000000	45.378582
832.000000	45.406233
833.000000	45.427856
834.000000	45.452740
835.000000	45.475445
836.000000	45.482133
837.000000	45.492882
838.000000	45.509929
839.000000	45.523347
840.000000	45.535786
841.000000	45.548446
842.000000	45.555753
843.000000	45.566296
844.000000	45.563358
845.000000	45.565263
846.000000	45.569087
847.000000	45.573905
848.000000	45.561780
849.000000	45.561326
850.000000	45.549094
851.000000	45.542881
852.000000	45.537068
853.000000	45.532891
854.000000	45.527033
855.000000	45.521165
856.000000	45.512358
857.000000	45.505692
858.000000	45.590322
859.000000	45.704427
860.000000	45.798932
861.000000	45.912650
862.000000	46.008089
863.000000	46.107485
864.000000	46.207145
865.000000	46.296135
866.000000	46.398324
867.000000	46.478813
868.000000	46.502525
869.000000	46.485183
870.000000	46.475310
871.000000	46.449095
872.000000	46.443370
873.000000	46.437777
874.000000	46.440350
875.000000	46.429063
876.000000	46.393100
877.000000	46.391780
878.000000	46.364975
879.000000	46.348132
880.000000	46.328025
881.000000	46.308695
882.000000	46.276730
883.000000	46.237747
884.000000	46.195073
885.000000	46.169262
886.000000	46.167165
887.000000	46.134147
888.000000	46.098750
889.000000	46.059052
890.000000	46.031447
891.000000	46.005113
892.000000	45.988110
893.000000	45.967780
894.000000	45.942000
895.000000	45.909158
896.000000	45.872208
897.000000	45.847338
898.000000	45.821670
899.000000	45.787148
900.000000	45.770103
901.000000	45.738048
902.000000	45.697040
903.000000	45.665772
904.000000	45.637222
905.000000	45.614973
906.000000	45.589775
907.000000	45.561447
908.000000	45.541905
909.000000	45.523995
910.000000	45.494073
911.000000	45.463423
912.000000	45.446100
913.000000	45.423167
914.000000	45.405448
915.000000	45.387537
916.000000	45.364812
917.000000	45.344277
918.000000	45.323415
919.000000	45.309770
920.000000	45.296898
921.000000	45.281042
922.000000	45.266207
923.000000	45.247060
924.000000	45.229670
925.000000	45.209468
926.000000	45.196110
927.000000	45.183275
928.000000	45.165782
929.000000	45.145988
930.000000	45.129912
931.000000	45.116800
932.000000	45.098090
933.000000	45.078625
934.000000	45.060857
935.000000	45.048372
936.000000	45.030095
937.000000	45.005590
938.000000	44.988138
939.000000	44.970885
940.000000	44.951080
941.000000	44.928877
942.000000	44.909285
943.000000	44.891937
944.000000	44.871122
945.000000	44.849533
946.000000	44.832213
947.000000	44.817965
948.000000	44.801227
949.000000	44.783542
950.000000	44.765785
951.000000	44.752405
952.000000	44.740605
953.000000	44.729170
954.000000	44.717317
955.000000	44.705750
956.000000	44.694618
957.000000	44.684677
958.000000	44.673275
959.000000	44.660185
960.000000	44.648025
961.000000	44.634327
962.000000	44.619690
963.000000	44.606247
964.000000	44.595658
965.000000	44.582213
966.000000	44.567780
967.000000	44.556145
968.000000	44.546750
969.000000	44.536077
970.000000	44.524622
971.000000	44.513580
972.000000	44.503008
973.000000	44.492550
974.000000	44.479358
975.000000	44.468225
976.000000	44.458350
977.000000	44.445642
978.000000	44.431695
979.000000	44.418638
980.000000	44.405468
981.000000	44.391945
982.000000	44.378205
983.000000	44.365597
984.000000	44.354282
985.000000	44.341885
986.000000	44.329542
987.000000	44.317308
988.000000	44.305970
989.000000	44.296328
990.000000	44.288235
991.000000	44.278445
992.000000	44.268442
993.000000	44.258857
994.000000	44.250295
995.000000	44.241883
996.000000	44.232780
997.000000	44.224518
998.000000	44.216285
999.000000	44.205920
1000.000000	44.195817
1001.000000	44.187673
1002.000000	44.181150
1003.000000	44.173830
1004.000000	44.165698
1005.000000	44.157755
1006.000000	44.148700
1007.000000	44.138670
1008.000000	44.129045
1009.000000	44.121958
1010.000000	44.114573
1011.000000	44.106592
1012.000000	44.098657
1013.000000	44.090937
1014.000000	44.084142
1015.000000	44.077730
1016.000000	44.071085
1017.000000	44.065578
1018.000000	44.061680
1019.000000	44.058212
1020.000000	44.055410
1021.000000	44.053308
1022.000000	44.051435
1023.000000	44.050300
1024.000000	44.049535
1025.000000	44.049072
1026.000000	44.050978
1027.000000	44.053472
1028.000000	44.055747
1029.000000	44.058628
1030.000000	44.061770
1031.000000	44.064985
1032.000000	44.068153
1033.000000	44.071345
1034.000000	44.075450
1035.000000	44.080040
1036.000000	44.083967
1037.000000	44.088305
1038.000000	44.091950
1039.000000	44.094952
1040.000000	44.097890
1041.000000	44.101028
1042.000000	44.104627
1043.000000	44.107560
1044.000000	44.110055
1045.000000	44.113365
1046.000000	44.116295
1047.000000	44.118535
1048.000000	44.121412
1049.000000	44.124183
1050.000000	44.127570
1051.000000	44.130872
1052.000000	44.134085
1053.000000	44.136685
1054.000000	44.138822
1055.000000	44.141710
1056.000000	44.146405
1057.000000	44.152245
1058.000000	44.157193
1059.000000	44.162790
1060.000000	44.168380
1061.000000	44.174407
1062.000000	44.180565
1063.000000	44.188147
1064.000000	44.196858
1065.000000	44.204020
1066.000000	44.209640
1067.000000	44.215250
1068.000000	44.221693
1069.000000	44.228690
1070.000000	44.236055
1071.000000	44.244370
1072.000000	44.252027
1073.000000	44.259147
1074.000000	44.265138
1075.000000	44.273035
1076.000000	44.281807
1077.000000	44.290217
1078.000000	44.298910
1079.000000	44.306500
1080.000000	44.314347
1081.000000	44.320220
1082.000000	44.326570
1083.000000	44.333180
1084.000000	44.340443
1085.000000	44.347288
1086.000000	44.354503
1087.000000	44.361260
1088.000000	44.368065
1089.000000	44.375343
1090.000000	44.381735
1091.000000	44.388858
1092.000000	44.394877
1093.000000	44.400458
1094.000000	44.405848
1095.000000	44.410967
1096.000000	44.414577
1097.000000	44.418160
1098.000000	44.420602
1099.000000	44.422715
1100.000000	44.425747
1101.000000	44.429122
1102.000000	44.433228
1103.000000	44.437705
1104.000000	44.441335
1105.000000	44.444185
1106.000000	44.447587
1107.000000	44.450328
1108.000000	44.454170
1109.000000	44.457290
1110.000000	44.458145
1111.000000	44.459108
1112.000000	44.460910
1113.000000	44.461722
1114.000000	44.463065
1115.000000	44.463667
1116.000000	44.464568
1117.000000	44.466138
1118.000000	44.465495
1119.000000	44.464500
1120.000000	44.464255
1121.000000	44.463250
1122.000000	44.460310
1123.000000	44.457560
1124.000000	44.451840
1125.000000	44.444275
1126.000000	44.433925
1127.000000	44.420825
1128.000000	44.407423
1129.000000	44.392518
1130.000000	44.372860
1131.000000	44.349698
1132.000000	44.321720
1133.000000	44.292845
1134.000000	44.264505
1135.000000	44.235035
1136.000000	44.201762
1137.000000	44.167915
1138.000000	44.132132
1139.000000	44.093852
1140.000000	44.058838
1141.000000	44.023480
1142.000000	43.990353
1143.000000	43.956085
1144.000000	43.922500
1145.000000	43.890853
1146.000000	43.861677
1147.000000	43.833282
1148.000000	43.805812
1149.000000	43.780533
1150.000000	43.753460
1151.000000	43.727495
1152.000000	43.701248
1153.000000	43.674067
1154.000000	43.644625
1155.000000	43.611445
1156.000000	43.577275
1157.000000	43.539003
1158.000000	43.498563
1159.000000	43.455928
1160.000000	43.410363
1161.000000	43.360957
1162.000000	43.310327
1163.000000	43.255543
1164.000000	43.197860
