PE UV       SUBTECH     SPECTRUM    ASCII       PEDS        4.00        
   -1
INBUCR0212-4.Sample.ASC
24/02/07
16:24:58.00
24/02/07
16:24:58.00
Vinicio Soto Monge
Chrysina boucardi. Escarabajo grande, falta élitro derecho, cobrizo morado.Det: A. Solís Costa Rica, Prov Limón. P.I La Amistad Caribe Camp 1: Río Lori, Transecto 2. 1800 m - 1900 m 17 Feb 2007 B Gamboa M. Moraga Tp Luz #90738. INB0004065610 
250,000000
1
Lambda 1050
1050L1511233
PerkinElmer UV WinLab 6.3.2.0749 / 2.02.05 Lambda 900 UV/VIS/NIR, Aug  7 2015 09:38:08

0
0
3350/servo 860,8/2
0
0
UV/VIS
1
1
1
DoubleDePol,CommonBeamDepol,RBeamAtt,SBeamAtt,60mm sphere, WB InGaAs Detector
0
0
0
0
Program
Program
3350/servo 860,8/2
3350/0,2 860,8/0,2
3350/0,2 860,8/0,2
0
15.00
 
 
 
0
 
860,8
319,2
860,8
Front
100
on
S:100 R:100
0
0
0
0
 
0
 
 
 
0
 
 
0
0
0
0
0
 
 
 
 
0
0


0
0
#HDR
-1
-1
#GR
nm
%R
1.0
0.0
2500,000000
-1,000000
2251
8
14,823900
1,175300
#DATA

250.000000	nan
251.000000	nan
252.000000	nan
253.000000	nan
254.000000	nan
255.000000	nan
256.000000	nan
257.000000	nan
258.000000	nan
259.000000	3.780747
260.000000	3.768211
261.000000	3.757943
262.000000	3.749343
263.000000	3.739879
264.000000	3.729025
265.000000	3.715069
266.000000	3.704770
267.000000	3.691383
268.000000	3.680744
269.000000	3.669212
270.000000	3.658696
271.000000	3.647568
272.000000	3.633752
273.000000	3.622940
274.000000	3.613353
275.000000	3.606238
276.000000	3.597039
277.000000	3.590185
278.000000	3.582582
279.000000	3.575612
280.000000	3.571370
281.000000	3.567365
282.000000	3.564480
283.000000	3.561215
284.000000	3.559105
285.000000	3.555822
286.000000	3.552997
287.000000	3.549157
288.000000	3.545985
289.000000	3.542475
290.000000	3.537947
291.000000	3.534108
292.000000	3.530419
293.000000	3.529056
294.000000	3.524787
295.000000	3.520180
296.000000	3.518165
297.000000	3.517478
298.000000	3.515786
299.000000	3.514954
300.000000	3.513410
301.000000	3.513172
302.000000	3.511514
303.000000	3.508811
304.000000	3.508014
305.000000	3.506168
306.000000	3.502855
307.000000	3.501494
308.000000	3.502032
309.000000	3.501826
310.000000	3.501747
311.000000	3.498518
312.000000	3.498051
313.000000	3.496805
314.000000	3.493996
315.000000	3.495835
316.000000	3.496148
317.000000	3.508999
318.000000	3.525481
319.000000	3.537390
320.000000	3.546732
321.000000	3.551772
322.000000	3.556663
323.000000	3.564165
324.000000	3.573654
325.000000	3.582774
326.000000	3.587223
327.000000	3.581596
328.000000	3.568027
329.000000	3.557840
330.000000	3.553260
331.000000	3.552073
332.000000	3.549146
333.000000	3.547476
334.000000	3.541112
335.000000	3.535744
336.000000	3.532771
337.000000	3.526769
338.000000	3.524356
339.000000	3.523602
340.000000	3.516642
341.000000	3.515119
342.000000	3.513941
343.000000	3.512598
344.000000	3.514103
345.000000	3.512160
346.000000	3.513552
347.000000	3.513374
348.000000	3.516809
349.000000	3.519734
350.000000	3.527405
351.000000	3.535509
352.000000	3.543160
353.000000	3.551892
354.000000	3.563595
355.000000	3.579626
356.000000	3.600227
357.000000	3.622351
358.000000	3.646907
359.000000	3.678552
360.000000	3.716529
361.000000	3.756171
362.000000	3.805008
363.000000	3.859071
364.000000	3.919037
365.000000	3.982482
366.000000	4.055494
367.000000	4.137627
368.000000	4.224832
369.000000	4.322564
370.000000	4.423220
371.000000	4.530833
372.000000	4.646083
373.000000	4.767645
374.000000	4.894255
375.000000	5.025974
376.000000	5.167545
377.000000	5.335613
378.000000	5.507239
379.000000	5.678855
380.000000	5.855203
381.000000	6.033398
382.000000	6.211449
383.000000	6.387147
384.000000	6.562182
385.000000	6.736381
386.000000	6.899084
387.000000	7.036809
388.000000	7.170074
389.000000	7.297916
390.000000	7.420915
391.000000	7.539682
392.000000	7.654100
393.000000	7.764615
394.000000	7.873702
395.000000	7.979505
396.000000	8.082232
397.000000	8.180380
398.000000	8.276981
399.000000	8.371070
400.000000	8.462433
401.000000	8.551357
402.000000	8.637470
403.000000	8.720998
404.000000	8.800842
405.000000	8.877733
406.000000	8.951073
407.000000	9.022396
408.000000	9.087885
409.000000	9.148744
410.000000	9.205350
411.000000	9.257058
412.000000	9.302956
413.000000	9.342556
414.000000	9.376364
415.000000	9.403106
416.000000	9.424145
417.000000	9.439108
418.000000	9.449792
419.000000	9.455957
420.000000	9.456940
421.000000	9.454749
422.000000	9.451208
423.000000	9.447343
424.000000	9.445360
425.000000	9.447621
426.000000	9.454134
427.000000	9.466886
428.000000	9.488108
429.000000	9.517933
430.000000	9.558980
431.000000	9.609840
432.000000	9.669391
433.000000	9.738114
434.000000	9.813417
435.000000	9.893420
436.000000	9.977877
437.000000	10.064045
438.000000	10.147604
439.000000	10.227756
440.000000	10.302414
441.000000	10.370106
442.000000	10.430129
443.000000	10.480620
444.000000	10.521986
445.000000	10.554969
446.000000	10.578769
447.000000	10.593906
448.000000	10.602814
449.000000	10.605060
450.000000	10.601393
451.000000	10.594668
452.000000	10.585974
453.000000	10.576665
454.000000	10.567305
455.000000	10.559069
456.000000	10.553215
457.000000	10.550262
458.000000	10.551114
459.000000	10.556281
460.000000	10.565683
461.000000	10.578606
462.000000	10.594639
463.000000	10.612993
464.000000	10.632955
465.000000	10.653569
466.000000	10.674690
467.000000	10.696169
468.000000	10.716425
469.000000	10.736014
470.000000	10.755611
471.000000	10.774692
472.000000	10.792591
473.000000	10.810451
474.000000	10.829196
475.000000	10.848803
476.000000	10.869378
477.000000	10.890669
478.000000	10.913359
479.000000	10.937920
480.000000	10.963412
481.000000	10.988216
482.000000	11.013124
483.000000	11.038224
484.000000	11.064294
485.000000	11.091057
486.000000	11.117246
487.000000	11.143268
488.000000	11.168855
489.000000	11.192695
490.000000	11.214554
491.000000	11.235462
492.000000	11.255135
493.000000	11.273083
494.000000	11.286923
495.000000	11.295464
496.000000	11.299928
497.000000	11.300117
498.000000	11.295204
499.000000	11.285942
500.000000	11.272581
501.000000	11.256148
502.000000	11.237003
503.000000	11.215329
504.000000	11.192165
505.000000	11.169886
506.000000	11.148607
507.000000	11.129276
508.000000	11.112942
509.000000	11.100280
510.000000	11.092606
511.000000	11.089782
512.000000	11.092439
513.000000	11.101388
514.000000	11.117945
515.000000	11.141358
516.000000	11.171396
517.000000	11.207671
518.000000	11.250138
519.000000	11.298038
520.000000	11.349928
521.000000	11.404691
522.000000	11.462103
523.000000	11.520404
524.000000	11.579208
525.000000	11.638163
526.000000	11.696984
527.000000	11.755856
528.000000	11.816341
529.000000	11.879150
530.000000	11.945469
531.000000	12.017581
532.000000	12.095382
533.000000	12.179869
534.000000	12.270302
535.000000	12.367125
536.000000	12.470156
537.000000	12.578091
538.000000	12.689281
539.000000	12.802462
540.000000	12.915760
541.000000	13.027353
542.000000	13.136133
543.000000	13.241487
544.000000	13.342833
545.000000	13.438789
546.000000	13.528864
547.000000	13.613232
548.000000	13.691756
549.000000	13.764027
550.000000	13.830890
551.000000	13.891830
552.000000	13.947696
553.000000	13.999335
554.000000	14.046115
555.000000	14.087945
556.000000	14.126504
557.000000	14.162584
558.000000	14.195572
559.000000	14.226324
560.000000	14.254656
561.000000	14.280454
562.000000	14.305061
563.000000	14.327494
564.000000	14.348389
565.000000	14.369603
566.000000	14.390324
567.000000	14.411013
568.000000	14.432607
569.000000	14.454818
570.000000	14.478897
571.000000	14.505530
572.000000	14.533557
573.000000	14.563434
574.000000	14.594804
575.000000	14.628803
576.000000	14.663616
577.000000	14.699543
578.000000	14.734356
579.000000	14.770447
580.000000	14.804692
581.000000	14.838288
582.000000	14.870351
583.000000	14.900341
584.000000	14.929653
585.000000	14.954561
586.000000	14.977972
587.000000	14.998246
588.000000	15.019059
589.000000	15.037379
590.000000	15.055252
591.000000	15.072702
592.000000	15.091367
593.000000	15.112153
594.000000	15.133611
595.000000	15.157403
596.000000	15.182421
597.000000	15.208426
598.000000	15.234277
599.000000	15.258800
600.000000	15.282710
601.000000	15.302464
602.000000	15.318199
603.000000	15.327652
604.000000	15.331904
605.000000	15.331015
606.000000	15.325927
607.000000	15.317518
608.000000	15.305530
609.000000	15.293455
610.000000	15.280511
611.000000	15.267555
612.000000	15.253232
613.000000	15.239944
614.000000	15.224682
615.000000	15.207944
616.000000	15.187850
617.000000	15.164582
618.000000	15.137454
619.000000	15.105495
620.000000	15.067766
621.000000	15.027679
622.000000	14.985127
623.000000	14.940450
624.000000	14.897917
625.000000	14.857505
626.000000	14.821375
627.000000	14.789785
628.000000	14.763765
629.000000	14.743065
630.000000	14.730618
631.000000	14.725215
632.000000	14.725087
633.000000	14.730035
634.000000	14.738329
635.000000	14.750221
636.000000	14.764192
637.000000	14.778473
638.000000	14.793396
639.000000	14.809750
640.000000	14.825388
641.000000	14.839482
642.000000	14.856706
643.000000	14.875129
644.000000	14.896478
645.000000	14.920248
646.000000	14.945648
647.000000	14.976030
648.000000	15.010173
649.000000	15.047898
650.000000	15.090526
651.000000	15.137735
652.000000	15.187919
653.000000	15.242904
654.000000	15.301475
655.000000	15.363900
656.000000	15.432339
657.000000	15.505601
658.000000	15.584476
659.000000	15.668539
660.000000	15.758977
661.000000	15.855632
662.000000	15.957450
663.000000	16.065797
664.000000	16.179011
665.000000	16.298049
666.000000	16.421198
667.000000	16.548713
668.000000	16.679168
669.000000	16.812895
670.000000	16.948259
671.000000	17.086906
672.000000	17.229942
673.000000	17.374946
674.000000	17.522858
675.000000	17.673663
676.000000	17.828691
677.000000	17.987008
678.000000	18.150187
679.000000	18.318532
680.000000	18.491110
681.000000	18.668825
682.000000	18.850042
683.000000	19.034520
684.000000	19.223842
685.000000	19.415144
686.000000	19.608911
687.000000	19.804990
688.000000	20.004086
689.000000	20.203948
690.000000	20.404973
691.000000	20.606233
692.000000	20.807060
693.000000	21.010142
694.000000	21.214024
695.000000	21.420239
696.000000	21.626799
697.000000	21.833008
698.000000	22.036229
699.000000	22.240123
700.000000	22.444313
701.000000	22.648158
702.000000	22.851774
703.000000	23.052225
704.000000	23.250002
705.000000	23.445848
706.000000	23.640382
707.000000	23.833389
708.000000	24.027589
709.000000	24.219060
710.000000	24.408733
711.000000	24.597250
712.000000	24.784671
713.000000	24.969669
714.000000	25.152318
715.000000	25.332690
716.000000	25.509212
717.000000	25.684235
718.000000	25.854724
719.000000	26.021682
720.000000	26.185716
721.000000	26.347162
722.000000	26.503706
723.000000	26.658083
724.000000	26.808166
725.000000	26.952706
726.000000	27.096772
727.000000	27.238198
728.000000	27.377409
729.000000	27.513861
730.000000	27.646920
731.000000	27.775099
732.000000	27.901360
733.000000	28.024652
734.000000	28.146300
735.000000	28.265641
736.000000	28.378486
737.000000	28.488065
738.000000	28.596051
739.000000	28.703168
740.000000	28.806736
741.000000	28.906519
742.000000	29.004135
743.000000	29.099739
744.000000	29.193828
745.000000	29.288209
746.000000	29.384033
747.000000	29.476129
748.000000	29.566018
749.000000	29.653353
750.000000	29.740140
751.000000	29.827221
752.000000	29.910844
753.000000	29.992241
754.000000	30.072640
755.000000	30.152253
756.000000	30.229498
757.000000	30.306289
758.000000	30.383093
759.000000	30.459625
760.000000	30.536601
761.000000	30.612961
762.000000	30.688264
763.000000	30.764037
764.000000	30.842535
765.000000	30.917661
766.000000	30.989324
767.000000	31.059450
768.000000	31.129817
769.000000	31.198980
770.000000	31.265377
771.000000	31.332112
772.000000	31.398402
773.000000	31.464462
774.000000	31.527801
775.000000	31.591573
776.000000	31.658568
777.000000	31.727652
778.000000	31.793837
779.000000	31.859741
780.000000	31.927571
781.000000	31.991319
782.000000	32.057406
783.000000	32.123405
784.000000	32.189062
785.000000	32.255062
786.000000	32.318875
787.000000	32.382580
788.000000	32.445334
789.000000	32.506905
790.000000	32.566989
791.000000	32.630537
792.000000	32.689166
793.000000	32.748385
794.000000	32.806046
795.000000	32.861905
796.000000	32.920862
797.000000	32.980383
798.000000	33.043069
799.000000	33.106621
800.000000	33.171091
801.000000	33.232621
802.000000	33.297821
803.000000	33.363422
804.000000	33.428179
805.000000	33.494754
806.000000	33.557591
807.000000	33.617945
808.000000	33.678016
809.000000	33.739734
810.000000	33.803027
811.000000	33.866735
812.000000	33.927361
813.000000	33.987268
814.000000	34.049981
815.000000	34.109960
816.000000	34.173335
817.000000	34.234397
818.000000	34.293997
819.000000	34.354989
820.000000	34.414458
821.000000	34.478532
822.000000	34.543972
823.000000	34.606597
824.000000	34.670751
825.000000	34.733675
826.000000	34.794622
827.000000	34.858578
828.000000	34.920364
829.000000	34.976594
830.000000	35.028330
831.000000	35.077795
832.000000	35.131091
833.000000	35.182207
834.000000	35.231674
835.000000	35.284955
836.000000	35.338329
837.000000	35.385615
838.000000	35.432441
839.000000	35.486222
840.000000	35.544514
841.000000	35.598231
842.000000	35.647951
843.000000	35.699725
844.000000	35.755552
845.000000	35.805131
846.000000	35.854106
847.000000	35.913104
848.000000	35.961275
849.000000	36.000426
850.000000	36.048190
851.000000	36.084953
852.000000	36.126388
853.000000	36.170454
854.000000	36.191190
855.000000	36.233113
856.000000	36.270710
857.000000	36.304984
858.000000	36.588856
859.000000	36.681898
860.000000	36.782889
861.000000	36.881708
862.000000	36.991401
863.000000	37.086951
864.000000	37.202188
865.000000	37.286377
866.000000	37.379673
867.000000	37.470117
868.000000	37.342498
869.000000	37.387815
870.000000	37.407765
871.000000	37.431475
872.000000	37.441005
873.000000	37.467243
874.000000	37.477953
875.000000	37.514685
876.000000	37.549130
877.000000	37.576853
878.000000	37.577940
879.000000	37.604315
880.000000	37.600453
881.000000	37.616372
882.000000	37.622035
883.000000	37.619577
884.000000	37.636895
885.000000	37.645507
886.000000	37.646547
887.000000	37.653638
888.000000	37.661920
889.000000	37.657130
890.000000	37.677782
891.000000	37.678600
892.000000	37.685167
893.000000	37.693975
894.000000	37.690602
895.000000	37.680880
896.000000	37.673642
897.000000	37.666665
898.000000	37.661158
899.000000	37.656230
900.000000	37.650330
901.000000	37.650623
902.000000	37.645873
903.000000	37.641970
904.000000	37.636420
905.000000	37.635005
906.000000	37.631907
907.000000	37.626427
908.000000	37.620270
909.000000	37.610147
910.000000	37.604175
911.000000	37.598872
912.000000	37.593145
913.000000	37.588400
914.000000	37.583578
915.000000	37.576440
916.000000	37.567213
917.000000	37.558213
918.000000	37.546365
919.000000	37.539262
920.000000	37.533327
921.000000	37.526575
922.000000	37.520898
923.000000	37.503208
924.000000	37.492645
925.000000	37.479095
926.000000	37.464133
927.000000	37.443192
928.000000	37.424783
929.000000	37.406662
930.000000	37.389077
931.000000	37.368300
932.000000	37.345250
933.000000	37.327215
934.000000	37.305155
935.000000	37.281255
936.000000	37.258868
937.000000	37.236420
938.000000	37.211287
939.000000	37.184065
940.000000	37.158400
941.000000	37.131507
942.000000	37.109153
943.000000	37.085695
944.000000	37.059238
945.000000	37.032502
946.000000	37.003677
947.000000	36.978428
948.000000	36.952040
949.000000	36.927142
950.000000	36.900013
951.000000	36.873928
952.000000	36.848010
953.000000	36.824410
954.000000	36.800410
955.000000	36.777518
956.000000	36.752845
957.000000	36.727717
958.000000	36.702253
959.000000	36.677242
960.000000	36.653878
961.000000	36.631510
962.000000	36.607855
963.000000	36.582595
964.000000	36.556785
965.000000	36.531523
966.000000	36.509005
967.000000	36.487360
968.000000	36.469057
969.000000	36.447568
970.000000	36.422597
971.000000	36.398430
972.000000	36.376865
973.000000	36.356605
974.000000	36.337867
975.000000	36.319313
976.000000	36.300252
977.000000	36.280137
978.000000	36.260120
979.000000	36.243232
980.000000	36.228482
981.000000	36.214637
982.000000	36.200333
983.000000	36.187688
984.000000	36.176005
985.000000	36.163792
986.000000	36.153320
987.000000	36.144063
988.000000	36.135577
989.000000	36.129875
990.000000	36.125310
991.000000	36.122532
992.000000	36.120105
993.000000	36.116370
994.000000	36.112830
995.000000	36.111990
996.000000	36.112827
997.000000	36.113835
998.000000	36.114863
999.000000	36.115440
1000.000000	36.117908
1001.000000	36.120913
1002.000000	36.124510
1003.000000	36.130193
1004.000000	36.137923
1005.000000	36.143707
1006.000000	36.147937
1007.000000	36.153917
1008.000000	36.160395
1009.000000	36.168400
1010.000000	36.176265
1011.000000	36.184502
1012.000000	36.194862
1013.000000	36.205690
1014.000000	36.215567
1015.000000	36.227370
1016.000000	36.242548
1017.000000	36.258092
1018.000000	36.274677
1019.000000	36.293057
1020.000000	36.312640
1021.000000	36.333340
1022.000000	36.354483
1023.000000	36.376960
1024.000000	36.398843
1025.000000	36.421880
1026.000000	36.446263
1027.000000	36.472060
1028.000000	36.498750
1029.000000	36.524617
1030.000000	36.552085
1031.000000	36.580332
1032.000000	36.608650
1033.000000	36.637510
1034.000000	36.667893
1035.000000	36.696872
1036.000000	36.724833
1037.000000	36.753603
1038.000000	36.783280
1039.000000	36.812945
1040.000000	36.841787
1041.000000	36.872368
1042.000000	36.904025
1043.000000	36.935057
1044.000000	36.966362
1045.000000	37.000250
1046.000000	37.034670
1047.000000	37.067720
1048.000000	37.100507
1049.000000	37.135262
1050.000000	37.170407
1051.000000	37.202938
1052.000000	37.235150
1053.000000	37.268617
1054.000000	37.303270
1055.000000	37.338268
1056.000000	37.373142
1057.000000	37.409082
1058.000000	37.445755
1059.000000	37.481103
1060.000000	37.517083
1061.000000	37.554487
1062.000000	37.592850
1063.000000	37.630747
1064.000000	37.667703
1065.000000	37.704625
1066.000000	37.741380
1067.000000	37.778460
1068.000000	37.815068
1069.000000	37.852182
1070.000000	37.888825
1071.000000	37.926370
1072.000000	37.962995
1073.000000	37.999587
1074.000000	38.037667
1075.000000	38.075050
1076.000000	38.113525
1077.000000	38.151573
1078.000000	38.189662
1079.000000	38.227252
1080.000000	38.264027
1081.000000	38.299678
1082.000000	38.335972
1083.000000	38.371960
1084.000000	38.407122
1085.000000	38.443080
1086.000000	38.479000
1087.000000	38.515265
1088.000000	38.549847
1089.000000	38.582923
1090.000000	38.616223
1091.000000	38.649950
1092.000000	38.683040
1093.000000	38.715212
1094.000000	38.746775
1095.000000	38.777580
1096.000000	38.807222
1097.000000	38.836170
1098.000000	38.865462
1099.000000	38.897910
1100.000000	38.929347
1101.000000	38.959090
1102.000000	38.988302
1103.000000	39.016200
1104.000000	39.044702
1105.000000	39.072093
1106.000000	39.098910
1107.000000	39.124990
1108.000000	39.149592
1109.000000	39.171892
1110.000000	39.193140
1111.000000	39.215378
1112.000000	39.236378
1113.000000	39.256690
1114.000000	39.276463
1115.000000	39.295522
1116.000000	39.313508
1117.000000	39.330510
1118.000000	39.349090
1119.000000	39.366685
1120.000000	39.384000
1121.000000	39.399703
1122.000000	39.414617
1123.000000	39.427903
1124.000000	39.437830
1125.000000	39.444900
1126.000000	39.450350
1127.000000	39.451230
1128.000000	39.449180
1129.000000	39.442275
1130.000000	39.430752
1131.000000	39.412238
1132.000000	39.389180
1133.000000	39.364887
1134.000000	39.339658
1135.000000	39.311930
1136.000000	39.277935
1137.000000	39.242270
1138.000000	39.204168
1139.000000	39.165430
1140.000000	39.126605
1141.000000	39.090727
1142.000000	39.055270
1143.000000	39.020043
1144.000000	38.985182
1145.000000	38.952100
1146.000000	38.922942
1147.000000	38.895135
1148.000000	38.866962
1149.000000	38.841497
1150.000000	38.816862
1151.000000	38.790520
1152.000000	38.763805
1153.000000	38.735008
1154.000000	38.701837
1155.000000	38.665300
1156.000000	38.625560
1157.000000	38.583480
1158.000000	38.538017
1159.000000	38.487115
1160.000000	38.432552
