PE UV       SUBTECH     SPECTRUM    ASCII       PEDS        4.00        
   -1
INBUCR0322-4.Sample.ASC
24/02/08
17:30:47.00
24/02/08
17:30:47.00
Vinicio Soto Monge
Color verde rojizo iridiscente. Sin élitros
250,000000
1
Lambda 1050
1050L1511233
PerkinElmer UV WinLab 6.3.2.0749 / 2.02.05 Lambda 900 UV/VIS/NIR, Aug  7 2015 09:38:08

0
0
3350/servo 860,8/2
0
0
UV/VIS
1
1
1
DoubleDePol,CommonBeamDepol,RBeamAtt,SBeamAtt,60mm sphere, WB InGaAs Detector
0
0
0
0
Program
Program
3350/servo 860,8/2
3350/0,2 860,8/0,2
3350/0,2 860,8/0,2
0
15.00
 
 
 
0
 
860,8
319,2
860,8
Front
100
on
S:100 R:100
0
0
0
0
 
0
 
 
 
0
 
 
0
0
0
0
0
 
 
 
 
0
0


0
0
#HDR
-1
-1
#GR
nm
%R
1.0
0.0
2500,000000
-1,000000
2251
8
4,345000
0,391100
#DATA

250.000000	nan
251.000000	nan
252.000000	nan
253.000000	nan
254.000000	nan
255.000000	nan
256.000000	nan
257.000000	nan
258.000000	nan
259.000000	4.442688
260.000000	4.441011
261.000000	4.438737
262.000000	4.435823
263.000000	4.432765
264.000000	4.428895
265.000000	4.425195
266.000000	4.420353
267.000000	4.416015
268.000000	4.412303
269.000000	4.410181
270.000000	4.406843
271.000000	4.404674
272.000000	4.400620
273.000000	4.395986
274.000000	4.392151
275.000000	4.388983
276.000000	4.386664
277.000000	4.384470
278.000000	4.382050
279.000000	4.378419
280.000000	4.376049
281.000000	4.374014
282.000000	4.372729
283.000000	4.371232
284.000000	4.369540
285.000000	4.367680
286.000000	4.366253
287.000000	4.366303
288.000000	4.365125
289.000000	4.364209
290.000000	4.362593
291.000000	4.360059
292.000000	4.358908
293.000000	4.358249
294.000000	4.357743
295.000000	4.358392
296.000000	4.358571
297.000000	4.356228
298.000000	4.356535
299.000000	4.356714
300.000000	4.355648
301.000000	4.354350
302.000000	4.354271
303.000000	4.352979
304.000000	4.352427
305.000000	4.349559
306.000000	4.350407
307.000000	4.350033
308.000000	4.347865
309.000000	4.346592
310.000000	4.345656
311.000000	4.346357
312.000000	4.345838
313.000000	4.346232
314.000000	4.344327
315.000000	4.345078
316.000000	4.342671
317.000000	4.358259
318.000000	4.372665
319.000000	4.388964
320.000000	4.435035
321.000000	4.485592
322.000000	4.488482
323.000000	4.492575
324.000000	4.505544
325.000000	4.514888
326.000000	4.520766
327.000000	4.513284
328.000000	4.501510
329.000000	4.495850
330.000000	4.458858
331.000000	4.418248
332.000000	4.421099
333.000000	4.424934
334.000000	4.419131
335.000000	4.412576
336.000000	4.414847
337.000000	4.448099
338.000000	4.447062
339.000000	4.438946
340.000000	4.435973
341.000000	4.427413
342.000000	4.423113
343.000000	4.417675
344.000000	4.416118
345.000000	4.417198
346.000000	4.413630
347.000000	4.376345
348.000000	4.377657
349.000000	4.376465
350.000000	4.375874
351.000000	4.377941
352.000000	4.377507
353.000000	4.377995
354.000000	4.378670
355.000000	4.377271
356.000000	4.375984
357.000000	4.373450
358.000000	4.371705
359.000000	4.371211
360.000000	4.367656
361.000000	4.363798
362.000000	4.363730
363.000000	4.360164
364.000000	4.388968
365.000000	4.385475
366.000000	4.381906
367.000000	4.377388
368.000000	4.373242
369.000000	4.368193
370.000000	4.364215
371.000000	4.359193
372.000000	4.353213
373.000000	4.347983
374.000000	4.308507
375.000000	4.303030
376.000000	4.341185
377.000000	4.337221
378.000000	4.333212
379.000000	4.330248
380.000000	4.325659
381.000000	4.359202
382.000000	4.391968
383.000000	4.426009
384.000000	4.460649
385.000000	4.496527
386.000000	4.487930
387.000000	4.524140
388.000000	4.560531
389.000000	4.596691
390.000000	4.633198
391.000000	4.633661
392.000000	4.633999
393.000000	4.634620
394.000000	4.634862
395.000000	4.635194
396.000000	4.635818
397.000000	4.636536
398.000000	4.636968
399.000000	4.637437
400.000000	4.638009
401.000000	4.638579
402.000000	4.638652
403.000000	4.639010
404.000000	4.639565
405.000000	4.640092
406.000000	4.640623
407.000000	4.640677
408.000000	4.640806
409.000000	4.641205
410.000000	4.641621
411.000000	4.642074
412.000000	4.642883
413.000000	4.643557
414.000000	4.643918
415.000000	4.644230
416.000000	4.644696
417.000000	4.645332
418.000000	4.646189
419.000000	4.646858
420.000000	4.647257
421.000000	4.647721
422.000000	4.648351
423.000000	4.648842
424.000000	4.649513
425.000000	4.650172
426.000000	4.650931
427.000000	4.651808
428.000000	4.652573
429.000000	4.653405
430.000000	4.654504
431.000000	4.655587
432.000000	4.656474
433.000000	4.657370
434.000000	4.658373
435.000000	4.659507
436.000000	4.660476
437.000000	4.661392
438.000000	4.662442
439.000000	4.663849
440.000000	4.665305
441.000000	4.666692
442.000000	4.668033
443.000000	4.669465
444.000000	4.670811
445.000000	4.672024
446.000000	4.673174
447.000000	4.674294
448.000000	4.675370
449.000000	4.676275
450.000000	4.677227
451.000000	4.678109
452.000000	4.679163
453.000000	4.680196
454.000000	4.681331
455.000000	4.682759
456.000000	4.684191
457.000000	4.685605
458.000000	4.687115
459.000000	4.688722
460.000000	4.690255
461.000000	4.692022
462.000000	4.693835
463.000000	4.695620
464.000000	4.697404
465.000000	4.699082
466.000000	4.700914
467.000000	4.702847
468.000000	4.705027
469.000000	4.707226
470.000000	4.709276
471.000000	4.711172
472.000000	4.713114
473.000000	4.715230
474.000000	4.717236
475.000000	4.719209
476.000000	4.721082
477.000000	4.723003
478.000000	4.724814
479.000000	4.726572
480.000000	4.728351
481.000000	4.730199
482.000000	4.731826
483.000000	4.733345
484.000000	4.735014
485.000000	4.736971
486.000000	4.775263
487.000000	4.813745
488.000000	4.852107
489.000000	4.890661
490.000000	4.929742
491.000000	4.969129
492.000000	5.008913
493.000000	5.048941
494.000000	5.089320
495.000000	5.129822
496.000000	5.134149
497.000000	5.138404
498.000000	5.143116
499.000000	5.148001
500.000000	5.152851
501.000000	5.157706
502.000000	5.162523
503.000000	5.167424
504.000000	5.172400
505.000000	5.177256
506.000000	5.182306
507.000000	5.187597
508.000000	5.192740
509.000000	5.197826
510.000000	5.202666
511.000000	5.207588
512.000000	5.212393
513.000000	5.217214
514.000000	5.221779
515.000000	5.226155
516.000000	5.230354
517.000000	5.234531
518.000000	5.238589
519.000000	5.242585
520.000000	5.246684
521.000000	5.250734
522.000000	5.255123
523.000000	5.259606
524.000000	5.264191
525.000000	5.269354
526.000000	5.274867
527.000000	5.280366
528.000000	5.286447
529.000000	5.292991
530.000000	5.299830
531.000000	5.306969
532.000000	5.314592
533.000000	5.322671
534.000000	5.331145
535.000000	5.339813
536.000000	5.348769
537.000000	5.358049
538.000000	5.367134
539.000000	5.376310
540.000000	5.385639
541.000000	5.395158
542.000000	5.404492
543.000000	5.413336
544.000000	5.421903
545.000000	5.430033
546.000000	5.437798
547.000000	5.445091
548.000000	5.452066
549.000000	5.458222
550.000000	5.463919
551.000000	5.468956
552.000000	5.473082
553.000000	5.512612
554.000000	5.551558
555.000000	5.589990
556.000000	5.627829
557.000000	5.664990
558.000000	5.701600
559.000000	5.738028
560.000000	5.771521
561.000000	5.803917
562.000000	5.836270
563.000000	5.832622
564.000000	5.828689
565.000000	5.824418
566.000000	5.819868
567.000000	5.815244
568.000000	5.810423
569.000000	5.805380
570.000000	5.802532
571.000000	5.800200
572.000000	5.797573
573.000000	5.794822
574.000000	5.791929
575.000000	5.788921
576.000000	5.785959
577.000000	5.783089
578.000000	5.780305
579.000000	5.776934
580.000000	5.773965
581.000000	5.770941
582.000000	5.768139
583.000000	5.765030
584.000000	5.762023
585.000000	5.759184
586.000000	5.756125
587.000000	5.753163
588.000000	5.750052
589.000000	5.747745
590.000000	5.745020
591.000000	5.742542
592.000000	5.739778
593.000000	5.737130
594.000000	5.734598
595.000000	5.732231
596.000000	5.729942
597.000000	5.727607
598.000000	5.725598
599.000000	5.723664
600.000000	5.721617
601.000000	5.719511
602.000000	5.718173
603.000000	5.716868
604.000000	5.715761
605.000000	5.714644
606.000000	5.714341
607.000000	5.714319
608.000000	5.714008
609.000000	5.713697
610.000000	5.713899
611.000000	5.714517
612.000000	5.714790
613.000000	5.715595
614.000000	5.716375
615.000000	5.717436
616.000000	5.718177
617.000000	5.719143
618.000000	5.756274
619.000000	5.793827
620.000000	5.831453
621.000000	5.868914
622.000000	5.906712
623.000000	5.944763
624.000000	5.982742
625.000000	6.020962
626.000000	6.059136
627.000000	6.097383
628.000000	6.100185
629.000000	6.102614
630.000000	6.105218
631.000000	6.107823
632.000000	6.110386
633.000000	6.112884
634.000000	6.115623
635.000000	6.118239
636.000000	6.121131
637.000000	6.123833
638.000000	6.126362
639.000000	6.128966
640.000000	6.131886
641.000000	6.135021
642.000000	6.138085
643.000000	6.140911
644.000000	6.143954
645.000000	6.147164
646.000000	6.150135
647.000000	6.153278
648.000000	6.156499
649.000000	6.159890
650.000000	6.163362
651.000000	6.166535
652.000000	6.169985
653.000000	6.173614
654.000000	6.176839
655.000000	6.179965
656.000000	6.183445
657.000000	6.187019
658.000000	6.190905
659.000000	6.194531
660.000000	6.197843
661.000000	6.201523
662.000000	6.205361
663.000000	6.209118
664.000000	6.213502
665.000000	6.217742
666.000000	6.221796
667.000000	6.226283
668.000000	6.230418
669.000000	6.234500
670.000000	6.238738
671.000000	6.243203
672.000000	6.247578
673.000000	6.251857
674.000000	6.255833
675.000000	6.259985
676.000000	6.264647
677.000000	6.268908
678.000000	6.273327
679.000000	6.277763
680.000000	6.282452
681.000000	6.286952
682.000000	6.291163
683.000000	6.296058
684.000000	6.301079
685.000000	6.306065
686.000000	6.346586
687.000000	6.387323
688.000000	6.428299
689.000000	6.469971
690.000000	6.511213
691.000000	6.552362
692.000000	6.593842
693.000000	6.635105
694.000000	6.676679
695.000000	6.718089
696.000000	6.723497
697.000000	6.729035
698.000000	6.734649
699.000000	6.739979
700.000000	6.745590
701.000000	6.751236
702.000000	6.756815
703.000000	6.762613
704.000000	6.767864
705.000000	6.773582
706.000000	6.779612
707.000000	6.785389
708.000000	6.791029
709.000000	6.796830
710.000000	6.802652
711.000000	6.808908
712.000000	6.815198
713.000000	6.821172
714.000000	6.827656
715.000000	6.834233
716.000000	6.840832
717.000000	6.847642
718.000000	6.854776
719.000000	6.861917
720.000000	6.869245
721.000000	6.876204
722.000000	6.883501
723.000000	6.891062
724.000000	6.898295
725.000000	6.905291
726.000000	6.912582
727.000000	6.920052
728.000000	6.927029
729.000000	6.934442
730.000000	6.941907
731.000000	6.949605
732.000000	6.957222
733.000000	6.964840
734.000000	6.973048
735.000000	6.981565
736.000000	7.025589
737.000000	7.069384
738.000000	7.113976
739.000000	7.158597
740.000000	7.203158
741.000000	7.247411
742.000000	7.291477
743.000000	7.335902
744.000000	7.380539
745.000000	7.425473
746.000000	7.434497
747.000000	7.443077
748.000000	7.451743
749.000000	7.461147
750.000000	7.470375
751.000000	7.479372
752.000000	7.488834
753.000000	7.498006
754.000000	7.507129
755.000000	7.516367
756.000000	7.525804
757.000000	7.536058
758.000000	7.545813
759.000000	7.554838
760.000000	7.564642
761.000000	7.575210
762.000000	7.585200
763.000000	7.595501
764.000000	7.606042
765.000000	7.616052
766.000000	7.626428
767.000000	7.636279
768.000000	7.646303
769.000000	7.657071
770.000000	7.668007
771.000000	7.678193
772.000000	7.724329
773.000000	7.770705
774.000000	7.817148
775.000000	7.864072
776.000000	7.911177
777.000000	7.958799
778.000000	8.006746
779.000000	8.054219
780.000000	8.100700
781.000000	8.148031
782.000000	8.159760
783.000000	8.171826
784.000000	8.183888
785.000000	8.195572
786.000000	8.207804
787.000000	8.219772
788.000000	8.231828
789.000000	8.243488
790.000000	8.254890
791.000000	8.267048
792.000000	8.279905
793.000000	8.292023
794.000000	8.303971
795.000000	8.316888
796.000000	8.329430
797.000000	8.341791
798.000000	8.354288
799.000000	8.367424
800.000000	8.381598
801.000000	8.395129
802.000000	8.408224
803.000000	8.422140
804.000000	8.472377
805.000000	8.485484
806.000000	8.534459
807.000000	8.584611
808.000000	8.635421
809.000000	8.685337
810.000000	8.735360
811.000000	8.786878
812.000000	8.839002
813.000000	8.890180
814.000000	8.905119
815.000000	8.956095
816.000000	8.970976
817.000000	8.985350
818.000000	8.998746
819.000000	9.014051
820.000000	9.029498
821.000000	9.042462
822.000000	9.055619
823.000000	9.069022
824.000000	9.083687
825.000000	9.098754
826.000000	9.115869
827.000000	9.132080
828.000000	9.148138
829.000000	9.162163
830.000000	9.176804
831.000000	9.192185
832.000000	9.205326
833.000000	9.221142
834.000000	9.235056
835.000000	9.249839
836.000000	9.262917
837.000000	9.276503
838.000000	9.289375
839.000000	9.301709
840.000000	9.312583
841.000000	9.328573
842.000000	9.345235
843.000000	9.355658
844.000000	9.369071
845.000000	9.376869
846.000000	9.420074
847.000000	9.426110
848.000000	9.434256
849.000000	9.482096
850.000000	9.525498
851.000000	9.562263
852.000000	9.603152
853.000000	9.652759
854.000000	9.684965
855.000000	9.687960
856.000000	9.689888
857.000000	9.754098
858.000000	10.123114
859.000000	10.177472
860.000000	10.213783
861.000000	10.304646
862.000000	10.343813
863.000000	10.379004
864.000000	10.430041
865.000000	10.517607
866.000000	10.597623
867.000000	10.629708
868.000000	10.358052
869.000000	10.363565
870.000000	10.393145
871.000000	10.346555
872.000000	10.349673
873.000000	10.354198
874.000000	10.359780
875.000000	10.365360
876.000000	10.320120
877.000000	10.299027
878.000000	10.302755
879.000000	10.282565
880.000000	10.262255
881.000000	10.266993
882.000000	10.297617
883.000000	10.303140
884.000000	10.283795
885.000000	10.262513
886.000000	10.292975
887.000000	10.298730
888.000000	10.277570
889.000000	10.281890
890.000000	10.286660
891.000000	10.291280
892.000000	10.246250
893.000000	10.225530
894.000000	10.228765
895.000000	10.258722
896.000000	10.237410
897.000000	10.267027
898.000000	10.273127
899.000000	10.277742
900.000000	10.281672
901.000000	10.287198
902.000000	10.315700
903.000000	10.319010
904.000000	10.347883
905.000000	10.350860
906.000000	10.380232
907.000000	10.383517
908.000000	10.412530
909.000000	10.442742
910.000000	10.472150
911.000000	10.500215
912.000000	10.529093
913.000000	10.558715
914.000000	10.562980
915.000000	10.567660
916.000000	10.571015
917.000000	10.573435
918.000000	10.600188
919.000000	10.602605
920.000000	10.606220
921.000000	10.609345
922.000000	10.613155
923.000000	10.641858
924.000000	10.669422
925.000000	10.697022
926.000000	10.723495
927.000000	10.752623
928.000000	10.755670
929.000000	10.781837
930.000000	10.809280
931.000000	10.836955
932.000000	10.863128
933.000000	10.888125
934.000000	10.915170
935.000000	10.941805
936.000000	10.969983
937.000000	10.996472
938.000000	11.023550
939.000000	11.049480
940.000000	11.074985
941.000000	11.099723
942.000000	11.125193
943.000000	11.150472
944.000000	11.175630
945.000000	11.199950
946.000000	11.224025
947.000000	11.247637
948.000000	11.271067
949.000000	11.297225
950.000000	11.323210
951.000000	11.349250
952.000000	11.375363
953.000000	11.402138
954.000000	11.427828
955.000000	11.454855
956.000000	11.481288
957.000000	11.507827
958.000000	11.535098
959.000000	11.559825
960.000000	11.584332
961.000000	11.609835
962.000000	11.635470
963.000000	11.660140
964.000000	11.684938
965.000000	11.709670
966.000000	11.734370
967.000000	11.759275
968.000000	11.783365
969.000000	11.833540
970.000000	11.883912
971.000000	11.934547
972.000000	11.984808
973.000000	12.010153
974.000000	12.035275
975.000000	12.085225
976.000000	12.135000
977.000000	12.184358
978.000000	12.234643
979.000000	12.260440
980.000000	12.284830
981.000000	12.307708
982.000000	12.330800
983.000000	12.380382
984.000000	12.430808
985.000000	12.456177
986.000000	12.481385
987.000000	12.507215
988.000000	12.532293
989.000000	12.556298
990.000000	12.580745
991.000000	12.606670
992.000000	12.633463
993.000000	12.658660
994.000000	12.682887
995.000000	12.707475
996.000000	12.732925
997.000000	12.758090
998.000000	12.783080
999.000000	12.808333
1000.000000	12.834718
1001.000000	12.860628
1002.000000	12.884918
1003.000000	12.909525
1004.000000	12.935120
1005.000000	12.959563
1006.000000	12.983370
1007.000000	13.007395
1008.000000	13.056835
1009.000000	13.107230
1010.000000	13.157095
1011.000000	13.206690
1012.000000	13.256437
1013.000000	13.306760
1014.000000	13.356900
1015.000000	13.407397
1016.000000	13.457978
1017.000000	13.508840
1018.000000	13.534780
1019.000000	13.559873
1020.000000	13.584797
1021.000000	13.610127
1022.000000	13.635485
1023.000000	13.661243
1024.000000	13.686837
1025.000000	13.712433
1026.000000	13.738452
1027.000000	13.764045
1028.000000	13.789030
1029.000000	13.813743
1030.000000	13.838878
1031.000000	13.863545
1032.000000	13.888977
1033.000000	13.913847
1034.000000	13.938372
1035.000000	13.963750
1036.000000	13.989052
1037.000000	14.014055
1038.000000	14.063880
1039.000000	14.089763
1040.000000	14.140650
1041.000000	14.191290
1042.000000	14.242088
1043.000000	14.292937
1044.000000	14.343748
1045.000000	14.394460
1046.000000	14.444795
1047.000000	14.494438
1048.000000	14.520090
1049.000000	14.571228
1050.000000	14.596793
1051.000000	14.622550
1052.000000	14.648402
1053.000000	14.674725
1054.000000	14.700753
1055.000000	14.726052
1056.000000	14.751548
1057.000000	14.778327
1058.000000	14.804485
1059.000000	14.829842
1060.000000	14.855782
1061.000000	14.881792
1062.000000	14.907075
1063.000000	14.931275
1064.000000	14.956568
1065.000000	14.982683
1066.000000	15.033135
1067.000000	15.083080
1068.000000	15.133160
1069.000000	15.183083
1070.000000	15.232330
1071.000000	15.281670
1072.000000	15.331400
1073.000000	15.381975
1074.000000	15.431893
1075.000000	15.481383
1076.000000	15.506825
1077.000000	15.532385
1078.000000	15.558280
1079.000000	15.583728
1080.000000	15.608165
1081.000000	15.632915
1082.000000	15.658553
1083.000000	15.684502
1084.000000	15.710005
1085.000000	15.735130
1086.000000	15.759905
1087.000000	15.785230
1088.000000	15.810072
1089.000000	15.834795
1090.000000	15.861305
1091.000000	15.888070
1092.000000	15.913340
1093.000000	15.937712
1094.000000	15.987770
1095.000000	16.038563
1096.000000	16.088015
1097.000000	16.137728
1098.000000	16.187470
1099.000000	16.237507
1100.000000	16.287680
1101.000000	16.336937
1102.000000	16.386637
1103.000000	16.436293
1104.000000	16.460687
1105.000000	16.484375
1106.000000	16.509548
1107.000000	16.534120
1108.000000	16.558842
1109.000000	16.583807
1110.000000	16.607458
1111.000000	16.632358
1112.000000	16.656507
1113.000000	16.680187
1114.000000	16.704698
1115.000000	16.729717
1116.000000	16.754550
1117.000000	16.779425
1118.000000	16.803303
1119.000000	16.851780
1120.000000	16.901155
1121.000000	16.949762
1122.000000	16.998840
1123.000000	17.047855
1124.000000	17.094707
1125.000000	17.140705
1126.000000	17.186460
1127.000000	17.232595
1128.000000	17.279843
1129.000000	17.300690
1130.000000	17.320897
1131.000000	17.339823
1132.000000	17.358038
1133.000000	17.377500
1134.000000	17.398785
1135.000000	17.419105
1136.000000	17.438930
1137.000000	17.456865
1138.000000	17.474205
1139.000000	17.492160
1140.000000	17.510237
1141.000000	17.528130
1142.000000	17.546470
1143.000000	17.564988
1144.000000	17.582035
1145.000000	17.599837
1146.000000	17.616428
1147.000000	17.634430
1148.000000	17.652860
1149.000000	17.671263
1150.000000	17.689330
1151.000000	17.733332
1152.000000	17.775720
1153.000000	17.817610
1154.000000	17.860582
1155.000000	17.901425
1156.000000	17.943460
1157.000000	17.984740
1158.000000	18.024572
1159.000000	18.063835
1160.000000	18.102087
1161.000000	18.114838
1162.000000	18.128710
1163.000000	18.140965
1164.000000	18.152165
1165.000000	18.164155
1166.000000	18.175548
1167.000000	18.186618
1168.000000	18.197188
1169.000000	18.208885
1170.000000	18.220345
1171.000000	18.232460
1172.000000	18.244842
1173.000000	18.256905
1174.000000	18.268167
1175.000000	18.280755
1176.000000	18.293913
1177.000000	18.307325
1178.000000	18.321660
1179.000000	18.336377
1180.000000	18.351328
1181.000000	18.365480
1182.000000	18.379525
1183.000000	18.394137
1184.000000	18.409620
1185.000000	18.424585
1186.000000	18.440600
1187.000000	18.457115
1188.000000	18.473188
