PE UV       SUBTECH     SPECTRUM    ASCII       PEDS        4.00        
   -1
INBUCR0125-4.Sample.ASC
24/02/07
11:41:28.00
24/02/07
11:41:28.00
Vinicio Soto Monge
P. punctulata. Color café con ambos élitros (Det: A. Solís) COSTA RICA Prov. Guanacaste, Nicoya, San Antonio, Comunidad Rosario, 50 m. 4 JUL 2005, B. Gamboa, J. Azofeifa, J. Gutiérrez, M. Moraga, Y. Cárdenas, Tp de Luz, #83775 INB0003955877
250,000000
1
Lambda 1050
1050L1511233
PerkinElmer UV WinLab 6.3.2.0749 / 2.02.05 Lambda 900 UV/VIS/NIR, Aug  7 2015 09:38:08

0
0
3350/servo 860,8/2
0
0
UV/VIS
1
1
1
DoubleDePol,CommonBeamDepol,RBeamAtt,SBeamAtt,60mm sphere, WB InGaAs Detector
0
0
0
0
Program
Program
3350/servo 860,8/2
3350/0,2 860,8/0,2
3350/0,2 860,8/0,2
0
15.00
 
 
 
0
 
860,8
319,2
860,8
Front
100
on
S:100 R:100
0
0
0
0
 
0
 
 
 
0
 
 
0
0
0
0
0
 
 
 
 
0
0


0
0
#HDR
-1
-1
#GR
nm
%R
1.0
0.0
2500,000000
-1,000000
2251
8
15,045200
1,227800
#DATA

250.000000	nan
251.000000	nan
252.000000	nan
253.000000	nan
254.000000	nan
255.000000	nan
256.000000	nan
257.000000	nan
258.000000	nan
259.000000	4.174541
260.000000	4.160918
261.000000	4.149991
262.000000	4.135412
263.000000	4.119911
264.000000	4.104442
265.000000	4.087251
266.000000	4.070553
267.000000	4.052278
268.000000	4.031594
269.000000	4.013330
270.000000	3.997075
271.000000	3.981357
272.000000	3.964263
273.000000	3.949538
274.000000	3.936460
275.000000	3.925936
276.000000	3.913787
277.000000	3.902705
278.000000	3.894391
279.000000	3.886267
280.000000	3.878157
281.000000	3.870739
282.000000	3.863360
283.000000	3.857297
284.000000	3.852372
285.000000	3.847750
286.000000	3.847115
287.000000	3.848672
288.000000	3.847216
289.000000	3.847160
290.000000	3.846563
291.000000	3.846148
292.000000	3.850911
293.000000	3.853498
294.000000	3.855767
295.000000	3.859976
296.000000	3.862275
297.000000	3.860617
298.000000	3.863575
299.000000	3.865349
300.000000	3.866741
301.000000	3.867841
302.000000	3.867168
303.000000	3.867456
304.000000	3.866179
305.000000	3.862680
306.000000	3.858312
307.000000	3.857913
308.000000	3.855392
309.000000	3.851096
310.000000	3.849229
311.000000	3.847495
312.000000	3.845532
313.000000	3.844540
314.000000	3.841398
315.000000	3.839716
316.000000	3.841342
317.000000	3.860955
318.000000	3.884742
319.000000	3.901990
320.000000	3.923348
321.000000	3.944068
322.000000	3.964747
323.000000	3.976338
324.000000	3.992754
325.000000	4.006013
326.000000	4.020825
327.000000	4.013060
328.000000	3.999313
329.000000	3.992548
330.000000	3.983393
331.000000	3.974305
332.000000	3.963072
333.000000	3.961119
334.000000	3.955685
335.000000	3.949233
336.000000	3.938618
337.000000	3.931036
338.000000	3.926736
339.000000	3.922684
340.000000	3.917043
341.000000	3.914505
342.000000	3.914491
343.000000	3.912070
344.000000	3.909525
345.000000	3.907379
346.000000	3.904386
347.000000	3.906536
348.000000	3.910933
349.000000	3.913830
350.000000	3.913968
351.000000	3.909380
352.000000	3.906865
353.000000	3.907140
354.000000	3.905673
355.000000	3.921077
356.000000	3.922725
357.000000	3.920150
358.000000	3.912088
359.000000	3.908241
360.000000	3.905776
361.000000	3.904199
362.000000	3.901481
363.000000	3.896576
364.000000	3.895149
365.000000	3.877470
366.000000	3.873144
367.000000	3.869347
368.000000	3.867306
369.000000	3.864710
370.000000	3.862293
371.000000	3.858275
372.000000	3.851703
373.000000	3.846018
374.000000	3.839611
375.000000	3.834894
376.000000	3.831858
377.000000	3.820641
378.000000	3.810360
379.000000	3.798450
380.000000	3.786178
381.000000	3.776999
382.000000	3.769480
383.000000	3.762027
384.000000	3.753695
385.000000	3.746110
386.000000	3.738884
387.000000	3.738561
388.000000	3.737797
389.000000	3.736939
390.000000	3.736353
391.000000	3.736088
392.000000	3.735659
393.000000	3.734658
394.000000	3.734030
395.000000	3.733070
396.000000	3.732150
397.000000	3.730488
398.000000	3.729101
399.000000	3.728231
400.000000	3.727570
401.000000	3.726100
402.000000	3.724950
403.000000	3.724560
404.000000	3.724139
405.000000	3.724085
406.000000	3.724621
407.000000	3.726047
408.000000	3.727645
409.000000	3.729175
410.000000	3.731011
411.000000	3.733536
412.000000	3.736303
413.000000	3.738899
414.000000	3.742134
415.000000	3.745452
416.000000	3.748658
417.000000	3.752666
418.000000	3.757115
419.000000	3.762356
420.000000	3.768172
421.000000	3.774586
422.000000	3.781661
423.000000	3.789251
424.000000	3.797787
425.000000	3.807585
426.000000	3.818412
427.000000	3.829248
428.000000	3.840389
429.000000	3.852122
430.000000	3.864377
431.000000	3.877272
432.000000	3.890521
433.000000	3.904279
434.000000	3.918282
435.000000	3.932591
436.000000	3.947274
437.000000	3.962214
438.000000	3.977860
439.000000	3.994068
440.000000	4.010774
441.000000	4.027504
442.000000	4.044965
443.000000	4.063155
444.000000	4.081420
445.000000	4.099351
446.000000	4.117876
447.000000	4.136857
448.000000	4.156506
449.000000	4.176482
450.000000	4.196271
451.000000	4.216333
452.000000	4.236757
453.000000	4.257565
454.000000	4.279142
455.000000	4.301469
456.000000	4.323838
457.000000	4.346269
458.000000	4.368836
459.000000	4.391596
460.000000	4.414757
461.000000	4.438416
462.000000	4.462058
463.000000	4.485967
464.000000	4.510103
465.000000	4.534859
466.000000	4.559813
467.000000	4.585435
468.000000	4.611210
469.000000	4.637339
470.000000	4.664080
471.000000	4.691066
472.000000	4.718506
473.000000	4.746591
474.000000	4.775255
475.000000	4.804118
476.000000	4.833792
477.000000	4.864021
478.000000	4.895178
479.000000	4.926952
480.000000	4.959239
481.000000	4.992432
482.000000	5.025950
483.000000	5.059373
484.000000	5.092829
485.000000	5.127054
486.000000	5.161251
487.000000	5.195527
488.000000	5.229903
489.000000	5.264513
490.000000	5.299181
491.000000	5.333497
492.000000	5.368313
493.000000	5.403625
494.000000	5.439490
495.000000	5.475037
496.000000	5.510864
497.000000	5.547326
498.000000	5.583801
499.000000	5.620999
500.000000	5.658492
501.000000	5.696572
502.000000	5.735587
503.000000	5.774878
504.000000	5.814719
505.000000	5.855632
506.000000	5.897224
507.000000	5.939243
508.000000	5.982168
509.000000	6.025265
510.000000	6.069146
511.000000	6.114204
512.000000	6.159666
513.000000	6.206348
514.000000	6.253200
515.000000	6.300702
516.000000	6.349385
517.000000	6.398700
518.000000	6.448913
519.000000	6.499337
520.000000	6.550391
521.000000	6.601878
522.000000	6.653467
523.000000	6.704788
524.000000	6.756899
525.000000	6.809382
526.000000	6.861167
527.000000	6.912727
528.000000	6.964029
529.000000	7.015867
530.000000	7.067248
531.000000	7.118168
532.000000	7.169004
533.000000	7.219928
534.000000	7.270267
535.000000	7.320059
536.000000	7.370197
537.000000	7.420148
538.000000	7.469684
539.000000	7.518943
540.000000	7.568493
541.000000	7.618163
542.000000	7.667374
543.000000	7.716524
544.000000	7.766042
545.000000	7.815786
546.000000	7.865111
547.000000	7.914816
548.000000	7.964993
549.000000	8.015297
550.000000	8.065817
551.000000	8.116432
552.000000	8.167752
553.000000	8.219150
554.000000	8.270833
555.000000	8.322275
556.000000	8.374234
557.000000	8.426180
558.000000	8.478559
559.000000	8.530529
560.000000	8.579708
561.000000	8.628876
562.000000	8.677716
563.000000	8.726693
564.000000	8.775332
565.000000	8.824196
566.000000	8.872948
567.000000	8.922232
568.000000	8.971173
569.000000	9.020630
570.000000	9.072865
571.000000	9.125650
572.000000	9.178929
573.000000	9.232937
574.000000	9.286873
575.000000	9.341182
576.000000	9.396536
577.000000	9.452256
578.000000	9.508772
579.000000	9.565820
580.000000	9.623398
581.000000	9.681124
582.000000	9.739757
583.000000	9.798744
584.000000	9.859850
585.000000	9.921628
586.000000	9.983055
587.000000	10.045061
588.000000	10.107422
589.000000	10.171003
590.000000	10.235305
591.000000	10.300382
592.000000	10.366155
593.000000	10.432332
594.000000	10.498085
595.000000	10.564407
596.000000	10.632082
597.000000	10.700446
598.000000	10.768909
599.000000	10.837704
600.000000	10.907102
601.000000	10.977676
602.000000	11.048197
603.000000	11.120279
604.000000	11.192640
605.000000	11.265601
606.000000	11.339001
607.000000	11.413113
608.000000	11.488336
609.000000	11.563696
610.000000	11.639874
611.000000	11.717026
612.000000	11.794196
613.000000	11.870982
614.000000	11.949005
615.000000	12.027619
616.000000	12.106439
617.000000	12.184432
618.000000	12.263074
619.000000	12.341908
620.000000	12.421372
621.000000	12.500116
622.000000	12.579717
623.000000	12.659348
624.000000	12.739086
625.000000	12.818713
626.000000	12.898168
627.000000	12.978935
628.000000	13.060215
629.000000	13.141219
630.000000	13.221730
631.000000	13.302056
632.000000	13.382688
633.000000	13.464169
634.000000	13.545023
635.000000	13.626394
636.000000	13.707658
637.000000	13.788510
638.000000	13.868416
639.000000	13.949430
640.000000	14.030047
641.000000	14.110652
642.000000	14.191551
643.000000	14.272073
644.000000	14.352351
645.000000	14.432554
646.000000	14.513433
647.000000	14.594358
648.000000	14.674765
649.000000	14.753890
650.000000	14.834050
651.000000	14.914866
652.000000	14.995336
653.000000	15.075116
654.000000	15.155688
655.000000	15.235292
656.000000	15.314418
657.000000	15.393279
658.000000	15.473236
659.000000	15.553420
660.000000	15.632076
661.000000	15.709997
662.000000	15.787432
663.000000	15.865104
664.000000	15.941243
665.000000	16.017107
666.000000	16.092830
667.000000	16.169142
668.000000	16.244343
669.000000	16.319530
670.000000	16.394597
671.000000	16.469406
672.000000	16.544143
673.000000	16.617925
674.000000	16.691782
675.000000	16.765928
676.000000	16.840640
677.000000	16.914199
678.000000	16.986323
679.000000	17.058107
680.000000	17.130255
681.000000	17.202005
682.000000	17.272650
683.000000	17.343583
684.000000	17.416177
685.000000	17.488123
686.000000	17.558482
687.000000	17.628198
688.000000	17.698086
689.000000	17.769300
690.000000	17.840437
691.000000	17.911494
692.000000	17.983662
693.000000	18.055261
694.000000	18.124429
695.000000	18.194370
696.000000	18.264958
697.000000	18.335862
698.000000	18.407435
699.000000	18.476673
700.000000	18.545592
701.000000	18.615736
702.000000	18.686168
703.000000	18.756303
704.000000	18.827208
705.000000	18.897422
706.000000	18.966608
707.000000	19.035749
708.000000	19.106176
709.000000	19.178774
710.000000	19.250796
711.000000	19.320984
712.000000	19.391036
713.000000	19.462245
714.000000	19.532976
715.000000	19.603755
716.000000	19.676211
717.000000	19.748633
718.000000	19.820428
719.000000	19.890792
720.000000	19.960734
721.000000	20.030805
722.000000	20.099866
723.000000	20.169795
724.000000	20.242017
725.000000	20.314084
726.000000	20.383863
727.000000	20.454015
728.000000	20.524235
729.000000	20.595058
730.000000	20.667836
731.000000	20.739901
732.000000	20.812740
733.000000	20.885571
734.000000	20.956710
735.000000	21.029314
736.000000	21.104449
737.000000	21.179622
738.000000	21.253638
739.000000	21.328075
740.000000	21.402901
741.000000	21.479223
742.000000	21.555129
743.000000	21.629191
744.000000	21.703403
745.000000	21.778519
746.000000	21.854507
747.000000	21.930907
748.000000	22.009105
749.000000	22.086102
750.000000	22.162737
751.000000	22.241243
752.000000	22.319525
753.000000	22.398765
754.000000	22.480211
755.000000	22.561927
756.000000	22.641526
757.000000	22.721540
758.000000	22.800089
759.000000	22.879431
760.000000	22.961696
761.000000	23.041921
762.000000	23.123355
763.000000	23.207803
764.000000	23.290521
765.000000	23.372504
766.000000	23.456102
767.000000	23.541539
768.000000	23.626100
769.000000	23.710916
770.000000	23.792774
771.000000	23.876595
772.000000	23.961249
773.000000	24.044022
774.000000	24.128508
775.000000	24.212370
776.000000	24.297657
777.000000	24.381314
778.000000	24.466569
779.000000	24.554407
780.000000	24.643275
781.000000	24.730114
782.000000	24.816194
783.000000	24.903003
784.000000	24.991100
785.000000	25.078711
786.000000	25.164968
787.000000	25.253871
788.000000	25.345808
789.000000	25.436954
790.000000	25.526943
791.000000	25.614882
792.000000	25.705298
793.000000	25.796723
794.000000	25.885822
795.000000	25.975767
796.000000	26.065286
797.000000	26.154435
798.000000	26.243277
799.000000	26.328287
800.000000	26.416407
801.000000	26.510700
802.000000	26.602106
803.000000	26.695589
804.000000	26.787011
805.000000	26.880190
806.000000	26.971475
807.000000	27.063657
808.000000	27.155205
809.000000	27.252696
810.000000	27.348601
811.000000	27.437659
812.000000	27.528283
813.000000	27.619150
814.000000	27.713056
815.000000	27.803560
816.000000	27.898502
817.000000	27.987199
818.000000	28.074895
819.000000	28.155484
820.000000	28.237254
821.000000	28.325711
822.000000	28.412704
823.000000	28.498789
824.000000	28.583288
825.000000	28.669296
826.000000	28.750340
827.000000	28.836651
828.000000	28.925642
829.000000	29.011748
830.000000	29.098628
831.000000	29.185928
832.000000	29.269281
833.000000	29.349712
834.000000	29.433261
835.000000	29.514164
836.000000	29.596427
837.000000	29.676332
838.000000	29.755326
839.000000	29.840144
840.000000	29.917240
841.000000	29.989841
842.000000	30.060000
843.000000	30.133587
844.000000	30.204677
845.000000	30.285262
846.000000	30.358840
847.000000	30.429303
848.000000	30.502463
849.000000	30.567528
850.000000	30.636248
851.000000	30.707725
852.000000	30.776812
853.000000	30.847969
854.000000	30.928459
855.000000	30.981073
856.000000	31.039909
857.000000	31.112762
858.000000	31.358155
859.000000	31.495525
860.000000	31.611583
861.000000	31.735843
862.000000	31.863738
863.000000	31.977411
864.000000	32.063026
865.000000	32.195494
866.000000	32.315930
867.000000	32.413360
868.000000	32.324005
869.000000	32.345848
870.000000	32.389490
871.000000	32.418953
872.000000	32.463898
873.000000	32.507613
874.000000	32.557290
875.000000	32.576702
876.000000	32.608173
877.000000	32.655093
878.000000	32.700590
879.000000	32.752223
880.000000	32.797052
881.000000	32.831945
882.000000	32.866100
883.000000	32.894395
884.000000	32.938545
885.000000	32.982275
886.000000	33.036385
887.000000	33.070355
888.000000	33.112965
889.000000	33.147652
890.000000	33.186930
891.000000	33.245175
892.000000	33.280703
893.000000	33.324762
894.000000	33.364173
895.000000	33.408303
896.000000	33.439525
897.000000	33.477023
898.000000	33.520480
899.000000	33.567595
900.000000	33.607083
901.000000	33.634400
902.000000	33.677450
903.000000	33.724803
904.000000	33.770693
905.000000	33.811690
906.000000	33.851670
907.000000	33.903402
908.000000	33.944695
909.000000	33.986757
910.000000	34.033018
911.000000	34.087825
912.000000	34.135920
913.000000	34.183210
914.000000	34.227333
915.000000	34.272550
916.000000	34.324442
917.000000	34.376472
918.000000	34.431005
919.000000	34.481215
920.000000	34.534968
921.000000	34.586168
922.000000	34.639088
923.000000	34.691482
924.000000	34.744145
925.000000	34.799940
926.000000	34.846267
927.000000	34.891697
928.000000	34.935915
929.000000	34.982240
930.000000	35.032570
931.000000	35.078952
932.000000	35.123378
933.000000	35.171518
934.000000	35.223092
935.000000	35.269163
936.000000	35.318380
937.000000	35.366845
938.000000	35.415168
939.000000	35.467470
940.000000	35.515158
941.000000	35.561460
942.000000	35.609295
943.000000	35.651278
944.000000	35.692338
945.000000	35.737475
946.000000	35.782800
947.000000	35.824452
948.000000	35.868860
949.000000	35.911250
950.000000	35.951685
951.000000	35.994458
952.000000	36.035920
953.000000	36.080070
954.000000	36.122850
955.000000	36.164060
956.000000	36.204832
957.000000	36.245527
958.000000	36.286087
959.000000	36.326850
960.000000	36.368088
961.000000	36.411160
962.000000	36.454343
963.000000	36.498223
964.000000	36.541315
965.000000	36.581902
966.000000	36.624910
967.000000	36.667513
968.000000	36.707270
969.000000	36.746740
970.000000	36.786138
971.000000	36.824420
972.000000	36.862245
973.000000	36.897375
974.000000	36.933385
975.000000	36.971663
976.000000	37.009647
977.000000	37.048282
978.000000	37.088770
979.000000	37.127432
980.000000	37.165363
981.000000	37.202910
982.000000	37.240047
983.000000	37.277313
984.000000	37.314522
985.000000	37.351318
986.000000	37.386005
987.000000	37.420047
988.000000	37.452540
989.000000	37.485085
990.000000	37.518680
991.000000	37.552323
992.000000	37.587373
993.000000	37.622365
994.000000	37.656245
995.000000	37.688830
996.000000	37.723595
997.000000	37.758835
998.000000	37.794272
999.000000	37.829820
1000.000000	37.864420
1001.000000	37.897757
1002.000000	37.930655
1003.000000	37.963815
1004.000000	37.997503
1005.000000	38.032740
1006.000000	38.066480
1007.000000	38.099778
1008.000000	38.134120
1009.000000	38.168498
1010.000000	38.202785
1011.000000	38.237020
1012.000000	38.270272
1013.000000	38.303525
1014.000000	38.337663
1015.000000	38.371482
1016.000000	38.405237
1017.000000	38.439493
1018.000000	38.474172
1019.000000	38.509615
1020.000000	38.546510
1021.000000	38.584157
1022.000000	38.622408
1023.000000	38.661750
1024.000000	38.701875
1025.000000	38.742415
1026.000000	38.783293
1027.000000	38.823738
1028.000000	38.864257
1029.000000	38.904250
1030.000000	38.944162
1031.000000	38.984320
1032.000000	39.025222
1033.000000	39.065820
1034.000000	39.104680
1035.000000	39.143305
1036.000000	39.182798
1037.000000	39.222395
1038.000000	39.262212
1039.000000	39.301655
1040.000000	39.340908
1041.000000	39.379683
1042.000000	39.417495
1043.000000	39.454405
1044.000000	39.491657
1045.000000	39.528948
1046.000000	39.566105
1047.000000	39.603732
1048.000000	39.640663
1049.000000	39.678250
1050.000000	39.714960
1051.000000	39.752188
1052.000000	39.791060
1053.000000	39.829380
1054.000000	39.867622
1055.000000	39.905615
1056.000000	39.942977
1057.000000	39.980035
1058.000000	40.017792
1059.000000	40.055898
1060.000000	40.094528
1061.000000	40.132638
1062.000000	40.169258
1063.000000	40.207490
1064.000000	40.245677
1065.000000	40.283303
1066.000000	40.320467
1067.000000	40.357492
1068.000000	40.393203
1069.000000	40.429682
1070.000000	40.465142
1071.000000	40.501638
1072.000000	40.539043
1073.000000	40.575457
1074.000000	40.611515
1075.000000	40.646962
1076.000000	40.682698
1077.000000	40.717815
1078.000000	40.753280
1079.000000	40.787602
1080.000000	40.821700
1081.000000	40.853605
1082.000000	40.885000
1083.000000	40.916197
1084.000000	40.947582
1085.000000	40.979153
1086.000000	41.010525
1087.000000	41.040993
1088.000000	41.070828
1089.000000	41.099653
1090.000000	41.128237
1091.000000	41.158268
1092.000000	41.186917
1093.000000	41.214380
1094.000000	41.241810
1095.000000	41.270430
1096.000000	41.296792
1097.000000	41.322838
1098.000000	41.348198
1099.000000	41.371950
1100.000000	41.395805
1101.000000	41.417992
1102.000000	41.439700
1103.000000	41.460842
1104.000000	41.479937
1105.000000	41.497092
1106.000000	41.514170
1107.000000	41.531532
1108.000000	41.548527
1109.000000	41.566873
1110.000000	41.583602
1111.000000	41.600465
1112.000000	41.615387
1113.000000	41.629037
1114.000000	41.642362
1115.000000	41.654012
1116.000000	41.665312
1117.000000	41.675867
1118.000000	41.684373
1119.000000	41.690572
1120.000000	41.696433
1121.000000	41.700457
1122.000000	41.704157
1123.000000	41.705952
1124.000000	41.705180
1125.000000	41.702300
1126.000000	41.695312
1127.000000	41.683543
1128.000000	41.668082
1129.000000	41.649477
1130.000000	41.625815
1131.000000	41.595475
1132.000000	41.560318
1133.000000	41.524585
1134.000000	41.489560
1135.000000	41.451772
1136.000000	41.409633
1137.000000	41.365405
1138.000000	41.320125
1139.000000	41.273293
1140.000000	41.228070
1141.000000	41.185155
1142.000000	41.142772
1143.000000	41.099802
1144.000000	41.054960
1145.000000	41.011623
1146.000000	40.973127
1147.000000	40.936723
1148.000000	40.901535
1149.000000	40.867017
1150.000000	40.831778
1151.000000	40.795925
1152.000000	40.760732
1153.000000	40.722637
1154.000000	40.681973
1155.000000	40.637727
1156.000000	40.590200
1157.000000	40.537770
1158.000000	40.480607
1159.000000	40.420027
1160.000000	40.354413
1161.000000	40.285382
1162.000000	40.211670
1163.000000	40.136283
1164.000000	40.058033
1165.000000	39.978070
1166.000000	39.896025
1167.000000	39.813965
