PE UV       SUBTECH     SPECTRUM    ASCII       PEDS        4.00        
   -1
INBUCR0234-4.Sample.ASC
24/02/08
15:03:51.00
24/02/08
15:03:51.00
Vinicio Soto Monge
COSTA RICA, Prov. Guanacaste, A.C.G. La Cruz, Parque Nacional Guanacaste, Est. Biol Maritza, 600-700 m. 1 JUN 1987. Janzen de Luz L_N_326900_374200 #52560 INB0003028187 INBIOCRI COSTA RICA C. bruyeai Det: A. Solís Falta élitro Izq.
250,000000
1
Lambda 1050
1050L1511233
PerkinElmer UV WinLab 6.3.2.0749 / 2.02.05 Lambda 900 UV/VIS/NIR, Aug  7 2015 09:38:08

0
0
3350/servo 860,8/2
0
0
UV/VIS
1
1
1
DoubleDePol,CommonBeamDepol,RBeamAtt,SBeamAtt,60mm sphere, WB InGaAs Detector
0
0
0
0
Program
Program
3350/servo 860,8/2
3350/0,2 860,8/0,2
3350/0,2 860,8/0,2
0
15.00
 
 
 
0
 
860,8
319,2
860,8
Front
100
on
S:100 R:100
0
0
0
0
 
0
 
 
 
0
 
 
0
0
0
0
0
 
 
 
 
0
0


0
0
#HDR
-1
-1
#GR
nm
%R
1.0
0.0
2500,000000
-1,000000
2251
8
10,347000
0,796900
#DATA

250.000000	nan
251.000000	nan
252.000000	nan
253.000000	nan
254.000000	nan
255.000000	nan
256.000000	nan
257.000000	nan
258.000000	nan
259.000000	2.942214
260.000000	2.939274
261.000000	2.937403
262.000000	2.936749
263.000000	2.932959
264.000000	2.928056
265.000000	2.923604
266.000000	2.920768
267.000000	2.916883
268.000000	2.911118
269.000000	2.904554
270.000000	2.899149
271.000000	2.894562
272.000000	2.888219
273.000000	2.884519
274.000000	2.879444
275.000000	2.875786
276.000000	2.871704
277.000000	2.868216
278.000000	2.865345
279.000000	2.863479
280.000000	2.860282
281.000000	2.856622
282.000000	2.852219
283.000000	2.850722
284.000000	2.850463
285.000000	2.847450
286.000000	2.847002
287.000000	2.846284
288.000000	2.846686
289.000000	2.842285
290.000000	2.839731
291.000000	2.838806
292.000000	2.839173
293.000000	2.838799
294.000000	2.839582
295.000000	2.844094
296.000000	2.846350
297.000000	2.846427
298.000000	2.849335
299.000000	2.853060
300.000000	2.855045
301.000000	2.856844
302.000000	2.860868
303.000000	2.863724
304.000000	2.868627
305.000000	2.871434
306.000000	2.879944
307.000000	2.889782
308.000000	2.899825
309.000000	2.915330
310.000000	2.933135
311.000000	2.954697
312.000000	2.978738
313.000000	3.005083
314.000000	3.035159
315.000000	3.069617
316.000000	3.106597
317.000000	3.188545
318.000000	3.259836
319.000000	3.334595
320.000000	3.405711
321.000000	3.483190
322.000000	3.555441
323.000000	3.623385
324.000000	3.682620
325.000000	3.736347
326.000000	3.789675
327.000000	3.789749
328.000000	3.801205
329.000000	3.808171
330.000000	3.817939
331.000000	3.815047
332.000000	3.818358
333.000000	3.823325
334.000000	3.826016
335.000000	3.835476
336.000000	3.836708
337.000000	3.852573
338.000000	3.868147
339.000000	3.885458
340.000000	3.900169
341.000000	3.913754
342.000000	3.922155
343.000000	3.933588
344.000000	3.951155
345.000000	3.964633
346.000000	3.981476
347.000000	3.989625
348.000000	4.001471
349.000000	4.010344
350.000000	4.020865
351.000000	4.037264
352.000000	4.056036
353.000000	4.071430
354.000000	4.085010
355.000000	4.104043
356.000000	4.124244
357.000000	4.147703
358.000000	4.165749
359.000000	4.189399
360.000000	4.214251
361.000000	4.237173
362.000000	4.260416
363.000000	4.287242
364.000000	4.316698
365.000000	4.343736
366.000000	4.370171
367.000000	4.403358
368.000000	4.435771
369.000000	4.466188
370.000000	4.493135
371.000000	4.523583
372.000000	4.557129
373.000000	4.588503
374.000000	4.617032
375.000000	4.647165
376.000000	4.685526
377.000000	4.706370
378.000000	4.732280
379.000000	4.758818
380.000000	4.792720
381.000000	4.828138
382.000000	4.864743
383.000000	4.904319
384.000000	4.951094
385.000000	4.998024
386.000000	5.039126
387.000000	5.097064
388.000000	5.155190
389.000000	5.214487
390.000000	5.273923
391.000000	5.333624
392.000000	5.393530
393.000000	5.454756
394.000000	5.515754
395.000000	5.577020
396.000000	5.638535
397.000000	5.700227
398.000000	5.762306
399.000000	5.823248
400.000000	5.883579
401.000000	5.943785
402.000000	6.003087
403.000000	6.061571
404.000000	6.119255
405.000000	6.176293
406.000000	6.232214
407.000000	6.286624
408.000000	6.339324
409.000000	6.392079
410.000000	6.444298
411.000000	6.495170
412.000000	6.546180
413.000000	6.595929
414.000000	6.644361
415.000000	6.691922
416.000000	6.739019
417.000000	6.784666
418.000000	6.829529
419.000000	6.873516
420.000000	6.916752
421.000000	6.958961
422.000000	6.999300
423.000000	7.038452
424.000000	7.077062
425.000000	7.114807
426.000000	7.151101
427.000000	7.187111
428.000000	7.222452
429.000000	7.256056
430.000000	7.287794
431.000000	7.318637
432.000000	7.348861
433.000000	7.378388
434.000000	7.406936
435.000000	7.434050
436.000000	7.460237
437.000000	7.485196
438.000000	7.509423
439.000000	7.533271
440.000000	7.556784
441.000000	7.579413
442.000000	7.601138
443.000000	7.622044
444.000000	7.641588
445.000000	7.660364
446.000000	7.678644
447.000000	7.696424
448.000000	7.713646
449.000000	7.730658
450.000000	7.746938
451.000000	7.762081
452.000000	7.776738
453.000000	7.791100
454.000000	7.805967
455.000000	7.820640
456.000000	7.834632
457.000000	7.848574
458.000000	7.862321
459.000000	7.875398
460.000000	7.888702
461.000000	7.903125
462.000000	7.918031
463.000000	7.933965
464.000000	7.950349
465.000000	7.967685
466.000000	7.986568
467.000000	8.006750
468.000000	8.028464
469.000000	8.051734
470.000000	8.076495
471.000000	8.102911
472.000000	8.131564
473.000000	8.161704
474.000000	8.193904
475.000000	8.228803
476.000000	8.266389
477.000000	8.306710
478.000000	8.349950
479.000000	8.396894
480.000000	8.446751
481.000000	8.498547
482.000000	8.553297
483.000000	8.612320
484.000000	8.676372
485.000000	8.745282
486.000000	8.819244
487.000000	8.898391
488.000000	8.983224
489.000000	9.073975
490.000000	9.170492
491.000000	9.274344
492.000000	9.384876
493.000000	9.501873
494.000000	9.625098
495.000000	9.753794
496.000000	9.887611
497.000000	10.026958
498.000000	10.171711
499.000000	10.322281
500.000000	10.478960
501.000000	10.642685
502.000000	10.812323
503.000000	10.986585
504.000000	11.165591
505.000000	11.350450
506.000000	11.540729
507.000000	11.736128
508.000000	11.935425
509.000000	12.138531
510.000000	12.345593
511.000000	12.554179
512.000000	12.765323
513.000000	12.979169
514.000000	13.194908
515.000000	13.411066
516.000000	13.627323
517.000000	13.844316
518.000000	14.061772
519.000000	14.278098
520.000000	14.494096
521.000000	14.709017
522.000000	14.923107
523.000000	15.135487
524.000000	15.345325
525.000000	15.553470
526.000000	15.759330
527.000000	15.961072
528.000000	16.159122
529.000000	16.353736
530.000000	16.543971
531.000000	16.728961
532.000000	16.907223
533.000000	17.079291
534.000000	17.245649
535.000000	17.405524
536.000000	17.558891
537.000000	17.706137
538.000000	17.846827
539.000000	17.981086
540.000000	18.108467
541.000000	18.230571
542.000000	18.347695
543.000000	18.461249
544.000000	18.569885
545.000000	18.674439
546.000000	18.775102
547.000000	18.872186
548.000000	18.965819
549.000000	19.056813
550.000000	19.144551
551.000000	19.229271
552.000000	19.310140
553.000000	19.385781
554.000000	19.457993
555.000000	19.524993
556.000000	19.588331
557.000000	19.645692
558.000000	19.696876
559.000000	19.740872
560.000000	19.771933
561.000000	19.794388
562.000000	19.809088
563.000000	19.816100
564.000000	19.813626
565.000000	19.802453
566.000000	19.780280
567.000000	19.749691
568.000000	19.710334
569.000000	19.660091
570.000000	19.606130
571.000000	19.544265
572.000000	19.472030
573.000000	19.389933
574.000000	19.299428
575.000000	19.198516
576.000000	19.089859
577.000000	18.972305
578.000000	18.845837
579.000000	18.711448
580.000000	18.568812
581.000000	18.417576
582.000000	18.258860
583.000000	18.091980
584.000000	17.917093
585.000000	17.736403
586.000000	17.547478
587.000000	17.353000
588.000000	17.152339
589.000000	16.946534
590.000000	16.735743
591.000000	16.520740
592.000000	16.303815
593.000000	16.084689
594.000000	15.865423
595.000000	15.646055
596.000000	15.429110
597.000000	15.214169
598.000000	15.004737
599.000000	14.801987
600.000000	14.606304
601.000000	14.419847
602.000000	14.241061
603.000000	14.074300
604.000000	13.918428
605.000000	13.775487
606.000000	13.645423
607.000000	13.528218
608.000000	13.423538
609.000000	13.331002
610.000000	13.250341
611.000000	13.180526
612.000000	13.123000
613.000000	13.074631
614.000000	13.034941
615.000000	13.003290
616.000000	12.978302
617.000000	12.959050
618.000000	12.943776
619.000000	12.932749
620.000000	12.927506
621.000000	12.925046
622.000000	12.926117
623.000000	12.929011
624.000000	12.933872
625.000000	12.940800
626.000000	12.950621
627.000000	12.962205
628.000000	12.976691
629.000000	12.994334
630.000000	13.013001
631.000000	13.035570
632.000000	13.060075
633.000000	13.088544
634.000000	13.120560
635.000000	13.155262
636.000000	13.192524
637.000000	13.233328
638.000000	13.276508
639.000000	13.322368
640.000000	13.372346
641.000000	13.424829
642.000000	13.479955
643.000000	13.536857
644.000000	13.597068
645.000000	13.660200
646.000000	13.725190
647.000000	13.792618
648.000000	13.864346
649.000000	13.937713
650.000000	14.013208
651.000000	14.090828
652.000000	14.171642
653.000000	14.256515
654.000000	14.344705
655.000000	14.436293
656.000000	14.532107
657.000000	14.629669
658.000000	14.729316
659.000000	14.832909
660.000000	14.937938
661.000000	15.046318
662.000000	15.157692
663.000000	15.270123
664.000000	15.384157
665.000000	15.501413
666.000000	15.619705
667.000000	15.740608
668.000000	15.863510
669.000000	15.988161
670.000000	16.115470
671.000000	16.244873
672.000000	16.375459
673.000000	16.509944
674.000000	16.646010
675.000000	16.782420
676.000000	16.921820
677.000000	17.062223
678.000000	17.204038
679.000000	17.348018
680.000000	17.495562
681.000000	17.644517
682.000000	17.796483
683.000000	17.949997
684.000000	18.105473
685.000000	18.261947
686.000000	18.418488
687.000000	18.578152
688.000000	18.739538
689.000000	18.901102
690.000000	19.062398
691.000000	19.224081
692.000000	19.385166
693.000000	19.546369
694.000000	19.707418
695.000000	19.868735
696.000000	20.032301
697.000000	20.195861
698.000000	20.358516
699.000000	20.519977
700.000000	20.680621
701.000000	20.841416
702.000000	21.002195
703.000000	21.162171
704.000000	21.321621
705.000000	21.480192
706.000000	21.634950
707.000000	21.786498
708.000000	21.936577
709.000000	22.088610
710.000000	22.238667
711.000000	22.384573
712.000000	22.527212
713.000000	22.669871
714.000000	22.810258
715.000000	22.946596
716.000000	23.081682
717.000000	23.215558
718.000000	23.347564
719.000000	23.474225
720.000000	23.599037
721.000000	23.723675
722.000000	23.848393
723.000000	23.966312
724.000000	24.082264
725.000000	24.197842
726.000000	24.309995
727.000000	24.419723
728.000000	24.528101
729.000000	24.634688
730.000000	24.737399
731.000000	24.837892
732.000000	24.934028
733.000000	25.029289
734.000000	25.120481
735.000000	25.209965
736.000000	25.298693
737.000000	25.385537
738.000000	25.468860
739.000000	25.548200
740.000000	25.626280
741.000000	25.702406
742.000000	25.778174
743.000000	25.852018
744.000000	25.926354
745.000000	25.997081
746.000000	26.063427
747.000000	26.129102
748.000000	26.193327
749.000000	26.257176
750.000000	26.320904
751.000000	26.381588
752.000000	26.439038
753.000000	26.496643
754.000000	26.550195
755.000000	26.602162
756.000000	26.657402
757.000000	26.710641
758.000000	26.760689
759.000000	26.809502
760.000000	26.856651
761.000000	26.905584
762.000000	26.953841
763.000000	26.998794
764.000000	27.041919
765.000000	27.087395
766.000000	27.130042
767.000000	27.171024
768.000000	27.213591
769.000000	27.256991
770.000000	27.299903
771.000000	27.339075
772.000000	27.379762
773.000000	27.421524
774.000000	27.464402
775.000000	27.504992
776.000000	27.543623
777.000000	27.583120
778.000000	27.622246
779.000000	27.660121
780.000000	27.698021
781.000000	27.739019
782.000000	27.774623
783.000000	27.810548
784.000000	27.852059
785.000000	27.893495
786.000000	27.936696
787.000000	27.979411
788.000000	28.023581
789.000000	28.066872
790.000000	28.110566
791.000000	28.153231
792.000000	28.200381
793.000000	28.250708
794.000000	28.294727
795.000000	28.338338
796.000000	28.383488
797.000000	28.431036
798.000000	28.475923
799.000000	28.519852
800.000000	28.561714
801.000000	28.609217
802.000000	28.655636
803.000000	28.695629
804.000000	28.737451
805.000000	28.782583
806.000000	28.828222
807.000000	28.873443
808.000000	28.922684
809.000000	28.976189
810.000000	29.027672
811.000000	29.072129
812.000000	29.116875
813.000000	29.167729
814.000000	29.217689
815.000000	29.263901
816.000000	29.311009
817.000000	29.358190
818.000000	29.399414
819.000000	29.436834
820.000000	29.477513
821.000000	29.518619
822.000000	29.558748
823.000000	29.600245
824.000000	29.638277
825.000000	29.674100
826.000000	29.711334
827.000000	29.747486
828.000000	29.783477
829.000000	29.815624
830.000000	29.849287
831.000000	29.885071
832.000000	29.919227
833.000000	29.945527
834.000000	29.978913
835.000000	30.007796
836.000000	30.036702
837.000000	30.058108
838.000000	30.088196
839.000000	30.116074
840.000000	30.146750
841.000000	30.173966
842.000000	30.195590
843.000000	30.218587
844.000000	30.237797
845.000000	30.262392
846.000000	30.287304
847.000000	30.319409
848.000000	30.330741
849.000000	30.354838
850.000000	30.372325
851.000000	30.397058
852.000000	30.410210
853.000000	30.425010
854.000000	30.434586
855.000000	30.439569
856.000000	30.446505
857.000000	30.451616
858.000000	30.639620
859.000000	30.705521
860.000000	30.772269
861.000000	30.835113
862.000000	30.910832
863.000000	30.993162
864.000000	31.067710
865.000000	31.146350
866.000000	31.208642
867.000000	31.249135
868.000000	31.115188
869.000000	31.094303
870.000000	31.071907
871.000000	31.044885
872.000000	31.016675
873.000000	30.976510
874.000000	30.931293
875.000000	30.896508
876.000000	30.856255
877.000000	30.845180
878.000000	30.819835
879.000000	30.803043
880.000000	30.774387
881.000000	30.746048
882.000000	30.713805
883.000000	30.677530
884.000000	30.648130
885.000000	30.614225
886.000000	30.578122
887.000000	30.525508
888.000000	30.510528
889.000000	30.471615
890.000000	30.441488
891.000000	30.401912
892.000000	30.373590
893.000000	30.347535
894.000000	30.326805
895.000000	30.293577
896.000000	30.274042
897.000000	30.256827
898.000000	30.210520
899.000000	30.183875
900.000000	30.159465
901.000000	30.138243
902.000000	30.120570
903.000000	30.101095
904.000000	30.074480
905.000000	30.053883
906.000000	30.030845
907.000000	30.009495
908.000000	29.999677
909.000000	29.976475
910.000000	29.955918
911.000000	29.935380
912.000000	29.904847
913.000000	29.885303
914.000000	29.871633
915.000000	29.854640
916.000000	29.834710
917.000000	29.819623
918.000000	29.799862
919.000000	29.791722
920.000000	29.771367
921.000000	29.758762
922.000000	29.747577
923.000000	29.727905
924.000000	29.712562
925.000000	29.700633
926.000000	29.688898
927.000000	29.674500
928.000000	29.664248
929.000000	29.648428
930.000000	29.640748
931.000000	29.629678
932.000000	29.617045
933.000000	29.607927
934.000000	29.597228
935.000000	29.582805
936.000000	29.575805
937.000000	29.566455
938.000000	29.552980
939.000000	29.542880
940.000000	29.529895
941.000000	29.516240
942.000000	29.507275
943.000000	29.498207
944.000000	29.489648
945.000000	29.484925
946.000000	29.477812
947.000000	29.471763
948.000000	29.461750
949.000000	29.450730
950.000000	29.444273
951.000000	29.438795
952.000000	29.431752
953.000000	29.423748
954.000000	29.415205
955.000000	29.407115
956.000000	29.398838
957.000000	29.392712
958.000000	29.392835
959.000000	29.391157
960.000000	29.388330
961.000000	29.383688
962.000000	29.378615
963.000000	29.373230
964.000000	29.368360
965.000000	29.361390
966.000000	29.356060
967.000000	29.350002
968.000000	29.341565
969.000000	29.335910
970.000000	29.331680
971.000000	29.329863
972.000000	29.327065
973.000000	29.322545
974.000000	29.319495
975.000000	29.317517
976.000000	29.313160
977.000000	29.308175
978.000000	29.304105
979.000000	29.300158
980.000000	29.295638
981.000000	29.290087
982.000000	29.285402
983.000000	29.282555
984.000000	29.278472
985.000000	29.274378
986.000000	29.270927
987.000000	29.269497
988.000000	29.268960
989.000000	29.267435
990.000000	29.266605
991.000000	29.265800
992.000000	29.265490
993.000000	29.265257
994.000000	29.265467
995.000000	29.267312
996.000000	29.270253
997.000000	29.271707
998.000000	29.273197
999.000000	29.275255
1000.000000	29.276310
1001.000000	29.275983
1002.000000	29.274240
1003.000000	29.272970
1004.000000	29.271270
1005.000000	29.269250
1006.000000	29.266810
1007.000000	29.263842
1008.000000	29.260458
1009.000000	29.257383
1010.000000	29.255370
1011.000000	29.254955
1012.000000	29.256728
1013.000000	29.258680
1014.000000	29.261425
1015.000000	29.264160
1016.000000	29.265665
1017.000000	29.268495
1018.000000	29.272305
1019.000000	29.275620
1020.000000	29.277642
1021.000000	29.280085
1022.000000	29.283287
1023.000000	29.286315
1024.000000	29.290220
1025.000000	29.293030
1026.000000	29.296002
1027.000000	29.298938
1028.000000	29.302282
1029.000000	29.306375
1030.000000	29.312008
1031.000000	29.318217
1032.000000	29.324035
1033.000000	29.331038
1034.000000	29.336890
1035.000000	29.342970
1036.000000	29.350610
1037.000000	29.358368
1038.000000	29.365282
1039.000000	29.372340
1040.000000	29.378342
1041.000000	29.383685
1042.000000	29.389670
1043.000000	29.395018
1044.000000	29.401355
1045.000000	29.408803
1046.000000	29.414817
1047.000000	29.420583
1048.000000	29.427253
1049.000000	29.435065
1050.000000	29.443135
1051.000000	29.451830
1052.000000	29.460245
1053.000000	29.469477
1054.000000	29.478427
1055.000000	29.483907
1056.000000	29.489722
1057.000000	29.497757
1058.000000	29.505942
1059.000000	29.513953
1060.000000	29.522905
1061.000000	29.531605
1062.000000	29.540345
1063.000000	29.547773
1064.000000	29.555163
1065.000000	29.565503
1066.000000	29.575853
1067.000000	29.585015
1068.000000	29.594230
1069.000000	29.602705
1070.000000	29.611350
1071.000000	29.620895
1072.000000	29.630555
1073.000000	29.640875
1074.000000	29.650640
1075.000000	29.660205
1076.000000	29.669845
1077.000000	29.679048
1078.000000	29.688540
1079.000000	29.699490
1080.000000	29.710363
1081.000000	29.719893
1082.000000	29.728953
1083.000000	29.737385
1084.000000	29.746350
1085.000000	29.756410
1086.000000	29.768203
1087.000000	29.779103
1088.000000	29.789025
1089.000000	29.797082
1090.000000	29.804552
1091.000000	29.813725
1092.000000	29.822978
1093.000000	29.832715
1094.000000	29.842150
1095.000000	29.850518
1096.000000	29.857518
1097.000000	29.865147
1098.000000	29.873210
1099.000000	29.882885
1100.000000	29.892505
1101.000000	29.900907
1102.000000	29.908667
1103.000000	29.917293
1104.000000	29.926120
1105.000000	29.935310
1106.000000	29.944200
1107.000000	29.952903
1108.000000	29.962538
1109.000000	29.970660
1110.000000	29.978225
1111.000000	29.985825
1112.000000	29.993925
1113.000000	30.001310
1114.000000	30.006908
1115.000000	30.012072
1116.000000	30.017682
1117.000000	30.025310
1118.000000	30.031572
1119.000000	30.037498
1120.000000	30.041520
1121.000000	30.046295
1122.000000	30.049865
1123.000000	30.053433
1124.000000	30.057980
1125.000000	30.060203
1126.000000	30.061830
1127.000000	30.059700
1128.000000	30.057040
1129.000000	30.055242
1130.000000	30.052137
1131.000000	30.045808
1132.000000	30.037153
1133.000000	30.028278
1134.000000	30.022593
1135.000000	30.020198
1136.000000	30.014603
1137.000000	30.008007
1138.000000	29.999778
1139.000000	29.990050
1140.000000	29.981575
1141.000000	29.974600
1142.000000	29.968263
1143.000000	29.959212
1144.000000	29.947893
1145.000000	29.935480
1146.000000	29.925973
1147.000000	29.917278
1148.000000	29.908090
1149.000000	29.898792
1150.000000	29.889930
1151.000000	29.882148
1152.000000	29.875318
1153.000000	29.868257
1154.000000	29.858770
1155.000000	29.847102
1156.000000	29.834110
1157.000000	29.819768
1158.000000	29.806053
1159.000000	29.789915
1160.000000	29.774188
1161.000000	29.755305
1162.000000	29.734685
1163.000000	29.712693
