PE UV       SUBTECH     SPECTRUM    ASCII       PEDS        4.00        
   -1
INBUCR0231-4.Sample.ASC
24/02/08
11:45:06.00
24/02/08
11:45:06.00
Vinicio Soto Monge
Parece ser C. aurigans. Falta pata trasera izq
250,000000
1
Lambda 1050
1050L1511233
PerkinElmer UV WinLab 6.3.2.0749 / 2.02.05 Lambda 900 UV/VIS/NIR, Aug  7 2015 09:38:08

0
0
3350/servo 860,8/2
0
0
UV/VIS
1
1
1
DoubleDePol,CommonBeamDepol,RBeamAtt,SBeamAtt,60mm sphere, WB InGaAs Detector
0
0
0
0
Program
Program
3350/servo 860,8/2
3350/0,2 860,8/0,2
3350/0,2 860,8/0,2
0
15.00
 
 
 
0
 
860,8
319,2
860,8
Front
100
on
S:100 R:100
0
0
0
0
 
0
 
 
 
0
 
 
0
0
0
0
0
 
 
 
 
0
0


0
0
#HDR
-1
-1
#GR
nm
%R
1.0
0.0
2500,000000
-1,000000
2251
8
15,119200
1,446800
#DATA

250.000000	nan
251.000000	nan
252.000000	nan
253.000000	nan
254.000000	nan
255.000000	nan
256.000000	nan
257.000000	nan
258.000000	nan
259.000000	4.287738
260.000000	4.275403
261.000000	4.261924
262.000000	4.246901
263.000000	4.232689
264.000000	4.214979
265.000000	4.196209
266.000000	4.175052
267.000000	4.158933
268.000000	4.139764
269.000000	4.124057
270.000000	4.105407
271.000000	4.089134
272.000000	4.072232
273.000000	4.055752
274.000000	4.041883
275.000000	4.030732
276.000000	4.020455
277.000000	4.007792
278.000000	3.993233
279.000000	3.984274
280.000000	3.977174
281.000000	3.967507
282.000000	3.958943
283.000000	3.949205
284.000000	3.941465
285.000000	3.932616
286.000000	3.927910
287.000000	3.924968
288.000000	3.924744
289.000000	3.921043
290.000000	3.917396
291.000000	3.915765
292.000000	3.914721
293.000000	3.915957
294.000000	3.917611
295.000000	3.918024
296.000000	3.917272
297.000000	3.912443
298.000000	3.910527
299.000000	3.909407
300.000000	3.906746
301.000000	3.903487
302.000000	3.898009
303.000000	3.892435
304.000000	3.887085
305.000000	3.880414
306.000000	3.875583
307.000000	3.874621
308.000000	3.870968
309.000000	3.867766
310.000000	3.863940
311.000000	3.859693
312.000000	3.857884
313.000000	3.853136
314.000000	3.851091
315.000000	3.851343
316.000000	3.850390
317.000000	3.875317
318.000000	3.896559
319.000000	3.907456
320.000000	3.920672
321.000000	3.938843
322.000000	3.953844
323.000000	3.967128
324.000000	3.977322
325.000000	3.991794
326.000000	3.994272
327.000000	3.977894
328.000000	3.964420
329.000000	3.964718
330.000000	3.957852
331.000000	3.950216
332.000000	3.946870
333.000000	3.948295
334.000000	3.947915
335.000000	3.943935
336.000000	3.954057
337.000000	3.950297
338.000000	3.947589
339.000000	3.940095
340.000000	3.940239
341.000000	3.939360
342.000000	3.934302
343.000000	3.931255
344.000000	3.930457
345.000000	3.930870
346.000000	3.925856
347.000000	3.927544
348.000000	3.930964
349.000000	3.935642
350.000000	3.940298
351.000000	3.941675
352.000000	3.941891
353.000000	3.940612
354.000000	3.940094
355.000000	3.934879
356.000000	3.934538
357.000000	3.934113
358.000000	3.933604
359.000000	3.934134
360.000000	3.934413
361.000000	3.934713
362.000000	3.936120
363.000000	3.936418
364.000000	3.937441
365.000000	3.939779
366.000000	3.939267
367.000000	3.935585
368.000000	3.928563
369.000000	3.922114
370.000000	3.916562
371.000000	3.909364
372.000000	3.901501
373.000000	3.892962
374.000000	3.878225
375.000000	3.869169
376.000000	3.866515
377.000000	3.862337
378.000000	3.860915
379.000000	3.858221
380.000000	3.854404
381.000000	3.852814
382.000000	3.855347
383.000000	3.857389
384.000000	3.864878
385.000000	3.868379
386.000000	3.865823
387.000000	3.867876
388.000000	3.869670
389.000000	3.870874
390.000000	3.872484
391.000000	3.874385
392.000000	3.875751
393.000000	3.877079
394.000000	3.878805
395.000000	3.880574
396.000000	3.882289
397.000000	3.883924
398.000000	3.885653
399.000000	3.887622
400.000000	3.889339
401.000000	3.891395
402.000000	3.893938
403.000000	3.896991
404.000000	3.899615
405.000000	3.902504
406.000000	3.905202
407.000000	3.908363
408.000000	3.911444
409.000000	3.914553
410.000000	3.917721
411.000000	3.920902
412.000000	3.924328
413.000000	3.927716
414.000000	3.931652
415.000000	3.935624
416.000000	3.939940
417.000000	3.944048
418.000000	3.948661
419.000000	3.953781
420.000000	3.959048
421.000000	3.964707
422.000000	3.970520
423.000000	3.976254
424.000000	3.981754
425.000000	3.987459
426.000000	3.993638
427.000000	4.000402
428.000000	4.006815
429.000000	4.013282
430.000000	4.020059
431.000000	4.026710
432.000000	4.033454
433.000000	4.040639
434.000000	4.048331
435.000000	4.055944
436.000000	4.063144
437.000000	4.070139
438.000000	4.077561
439.000000	4.085054
440.000000	4.092627
441.000000	4.100235
442.000000	4.107388
443.000000	4.114663
444.000000	4.121826
445.000000	4.128715
446.000000	4.135883
447.000000	4.143298
448.000000	4.151137
449.000000	4.159108
450.000000	4.167044
451.000000	4.175268
452.000000	4.184325
453.000000	4.193575
454.000000	4.203122
455.000000	4.213235
456.000000	4.223982
457.000000	4.235326
458.000000	4.246563
459.000000	4.258424
460.000000	4.270915
461.000000	4.284037
462.000000	4.297872
463.000000	4.312345
464.000000	4.327710
465.000000	4.343879
466.000000	4.360836
467.000000	4.378649
468.000000	4.397510
469.000000	4.417222
470.000000	4.437968
471.000000	4.459963
472.000000	4.483070
473.000000	4.507707
474.000000	4.533762
475.000000	4.561540
476.000000	4.590796
477.000000	4.621742
478.000000	4.654809
479.000000	4.690324
480.000000	4.728361
481.000000	4.768712
482.000000	4.812131
483.000000	4.858833
484.000000	4.909164
485.000000	4.963527
486.000000	5.022624
487.000000	5.086644
488.000000	5.155958
489.000000	5.230626
490.000000	5.311940
491.000000	5.399996
492.000000	5.494881
493.000000	5.597350
494.000000	5.707932
495.000000	5.827332
496.000000	5.955986
497.000000	6.094269
498.000000	6.243404
499.000000	6.404778
500.000000	6.579145
501.000000	6.768314
502.000000	6.973081
503.000000	7.194807
504.000000	7.433287
505.000000	7.688959
506.000000	7.962304
507.000000	8.254562
508.000000	8.566513
509.000000	8.899548
510.000000	9.254387
511.000000	9.632803
512.000000	10.035791
513.000000	10.465821
514.000000	10.926611
515.000000	11.421838
516.000000	11.954091
517.000000	12.525301
518.000000	13.136237
519.000000	13.785697
520.000000	14.468952
521.000000	15.178428
522.000000	15.904268
523.000000	16.633592
524.000000	17.356674
525.000000	18.067005
526.000000	18.764447
527.000000	19.455469
528.000000	20.149575
529.000000	20.860117
530.000000	21.593315
531.000000	22.348134
532.000000	23.115174
533.000000	23.882537
534.000000	24.637373
535.000000	25.366728
536.000000	26.054769
537.000000	26.685055
538.000000	27.241814
539.000000	27.706292
540.000000	28.073089
541.000000	28.345750
542.000000	28.540445
543.000000	28.676499
544.000000	28.771300
545.000000	28.839230
546.000000	28.892537
547.000000	28.935270
548.000000	28.970591
549.000000	29.001984
550.000000	29.030135
551.000000	29.056706
552.000000	29.081210
553.000000	29.104502
554.000000	29.125522
555.000000	29.145752
556.000000	29.165359
557.000000	29.184132
558.000000	29.201601
559.000000	29.217945
560.000000	29.221778
561.000000	29.222121
562.000000	29.222005
563.000000	29.219887
564.000000	29.217108
565.000000	29.213298
566.000000	29.206454
567.000000	29.198469
568.000000	29.189330
569.000000	29.178313
570.000000	29.177209
571.000000	29.175639
572.000000	29.171070
573.000000	29.164922
574.000000	29.157090
575.000000	29.145352
576.000000	29.131054
577.000000	29.114234
578.000000	29.093357
579.000000	29.068275
580.000000	29.038291
581.000000	29.003669
582.000000	28.962924
583.000000	28.915623
584.000000	28.860469
585.000000	28.797943
586.000000	28.723934
587.000000	28.639097
588.000000	28.541240
589.000000	28.429986
590.000000	28.303718
591.000000	28.160246
592.000000	27.999157
593.000000	27.818950
594.000000	27.622872
595.000000	27.413850
596.000000	27.201506
597.000000	26.991967
598.000000	26.796024
599.000000	26.619397
600.000000	26.464854
601.000000	26.330187
602.000000	26.208991
603.000000	26.092176
604.000000	25.970929
605.000000	25.837268
606.000000	25.685533
607.000000	25.511413
608.000000	25.312694
609.000000	25.094430
610.000000	24.867509
611.000000	24.645030
612.000000	24.441916
613.000000	24.268998
614.000000	24.131354
615.000000	24.024346
616.000000	23.941417
617.000000	23.873119
618.000000	23.811860
619.000000	23.750198
620.000000	23.682336
621.000000	23.611260
622.000000	23.541016
623.000000	23.484083
624.000000	23.451593
625.000000	23.455314
626.000000	23.498927
627.000000	23.583377
628.000000	23.701668
629.000000	23.840692
630.000000	23.981282
631.000000	24.102506
632.000000	24.187260
633.000000	24.219492
634.000000	24.191481
635.000000	24.105776
636.000000	23.975928
637.000000	23.819347
638.000000	23.659226
639.000000	23.520040
640.000000	23.424646
641.000000	23.389476
642.000000	23.420204
643.000000	23.516813
644.000000	23.673112
645.000000	23.870950
646.000000	24.092016
647.000000	24.314607
648.000000	24.517592
649.000000	24.678781
650.000000	24.785543
651.000000	24.831533
652.000000	24.820753
653.000000	24.764861
654.000000	24.676070
655.000000	24.578307
656.000000	24.489072
657.000000	24.426702
658.000000	24.405091
659.000000	24.436253
660.000000	24.523320
661.000000	24.662102
662.000000	24.845686
663.000000	25.059952
664.000000	25.290525
665.000000	25.521604
666.000000	25.735783
667.000000	25.922487
668.000000	26.073552
669.000000	26.186989
670.000000	26.263733
671.000000	26.312706
672.000000	26.343859
673.000000	26.369134
674.000000	26.401014
675.000000	26.449915
676.000000	26.527355
677.000000	26.637305
678.000000	26.781760
679.000000	26.957821
680.000000	27.161573
681.000000	27.385173
682.000000	27.619016
683.000000	27.852113
684.000000	28.077041
685.000000	28.284973
686.000000	28.472573
687.000000	28.637983
688.000000	28.782569
689.000000	28.909195
690.000000	29.021327
691.000000	29.125264
692.000000	29.226446
693.000000	29.333717
694.000000	29.451304
695.000000	29.582902
696.000000	29.725863
697.000000	29.880395
698.000000	30.042454
699.000000	30.209240
700.000000	30.379096
701.000000	30.547218
702.000000	30.708904
703.000000	30.860860
704.000000	31.000567
705.000000	31.127174
706.000000	31.243634
707.000000	31.350792
708.000000	31.450523
709.000000	31.545596
710.000000	31.639003
711.000000	31.733403
712.000000	31.830572
713.000000	31.927915
714.000000	32.026337
715.000000	32.127593
716.000000	32.230421
717.000000	32.332890
718.000000	32.434735
719.000000	32.533967
720.000000	32.629219
721.000000	32.719389
722.000000	32.805222
723.000000	32.888403
724.000000	32.968243
725.000000	33.045049
726.000000	33.117003
727.000000	33.186051
728.000000	33.254794
729.000000	33.325215
730.000000	33.397067
731.000000	33.468722
732.000000	33.541189
733.000000	33.614657
734.000000	33.687268
735.000000	33.758597
736.000000	33.832607
737.000000	33.907455
738.000000	33.982213
739.000000	34.054224
740.000000	34.122546
741.000000	34.189756
742.000000	34.255374
743.000000	34.320829
744.000000	34.387340
745.000000	34.455007
746.000000	34.522574
747.000000	34.591334
748.000000	34.659636
749.000000	34.729551
750.000000	34.802014
751.000000	34.875526
752.000000	34.950595
753.000000	35.026365
754.000000	35.102502
755.000000	35.176115
756.000000	35.246487
757.000000	35.314267
758.000000	35.384772
759.000000	35.453983
760.000000	35.521928
761.000000	35.594096
762.000000	35.662977
763.000000	35.727808
764.000000	35.792913
765.000000	35.861409
766.000000	35.933142
767.000000	36.007835
768.000000	36.080562
769.000000	36.153359
770.000000	36.227627
771.000000	36.299362
772.000000	36.372219
773.000000	36.445625
774.000000	36.519357
775.000000	36.593697
776.000000	36.665404
777.000000	36.735961
778.000000	36.807444
779.000000	36.875345
780.000000	36.944204
781.000000	37.014116
782.000000	37.082456
783.000000	37.153356
784.000000	37.229413
785.000000	37.304601
786.000000	37.377839
787.000000	37.453299
788.000000	37.528301
789.000000	37.610617
790.000000	37.692551
791.000000	37.771890
792.000000	37.854731
793.000000	37.939318
794.000000	38.019534
795.000000	38.100335
796.000000	38.187578
797.000000	38.267129
798.000000	38.345061
799.000000	38.421087
800.000000	38.498284
801.000000	38.574764
802.000000	38.650434
803.000000	38.726307
804.000000	38.806089
805.000000	38.883612
806.000000	38.960345
807.000000	39.042328
808.000000	39.128450
809.000000	39.215330
810.000000	39.301286
811.000000	39.387005
812.000000	39.474199
813.000000	39.558194
814.000000	39.637636
815.000000	39.714884
816.000000	39.787081
817.000000	39.860587
818.000000	39.931622
819.000000	40.007250
820.000000	40.077056
821.000000	40.148057
822.000000	40.218792
823.000000	40.293285
824.000000	40.364646
825.000000	40.437261
826.000000	40.511187
827.000000	40.578884
828.000000	40.646966
829.000000	40.705019
830.000000	40.762487
831.000000	40.813091
832.000000	40.866567
833.000000	40.912205
834.000000	40.949547
835.000000	40.988095
836.000000	41.022937
837.000000	41.056831
838.000000	41.090243
839.000000	41.123363
840.000000	41.165043
841.000000	41.206356
842.000000	41.233932
843.000000	41.263088
844.000000	41.293036
845.000000	41.319161
846.000000	41.346377
847.000000	41.384412
848.000000	41.406857
849.000000	41.425448
850.000000	41.431822
851.000000	41.448443
852.000000	41.463311
853.000000	41.467131
854.000000	41.478284
855.000000	41.498743
856.000000	41.512149
857.000000	41.499079
858.000000	41.487914
859.000000	41.564446
860.000000	41.653480
861.000000	41.719525
862.000000	41.776637
863.000000	41.839243
864.000000	41.904307
865.000000	41.930138
866.000000	41.973741
867.000000	42.035718
868.000000	42.094155
869.000000	42.070315
870.000000	42.028550
871.000000	41.991575
872.000000	41.968860
873.000000	41.942287
874.000000	41.906073
875.000000	41.894903
876.000000	41.873618
877.000000	41.837222
878.000000	41.791632
879.000000	41.750630
880.000000	41.704098
881.000000	41.667903
882.000000	41.624685
883.000000	41.578527
884.000000	41.539455
885.000000	41.488447
886.000000	41.431012
887.000000	41.377565
888.000000	41.332400
889.000000	41.278777
890.000000	41.233355
891.000000	41.179127
892.000000	41.124502
893.000000	41.076498
894.000000	41.014437
895.000000	40.957680
896.000000	40.905152
897.000000	40.849718
898.000000	40.799622
899.000000	40.748688
900.000000	40.693552
901.000000	40.628512
902.000000	40.573953
903.000000	40.509185
904.000000	40.453815
905.000000	40.402080
906.000000	40.343195
907.000000	40.292180
908.000000	40.235075
909.000000	40.174308
910.000000	40.118040
911.000000	40.071260
912.000000	40.017308
913.000000	39.971755
914.000000	39.922458
915.000000	39.874273
916.000000	39.825367
917.000000	39.778932
918.000000	39.744170
919.000000	39.712452
920.000000	39.675035
921.000000	39.643787
922.000000	39.612110
923.000000	39.580372
924.000000	39.546405
925.000000	39.512518
926.000000	39.483218
927.000000	39.450770
928.000000	39.417305
929.000000	39.381918
930.000000	39.352607
931.000000	39.318700
932.000000	39.285418
933.000000	39.255180
934.000000	39.228685
935.000000	39.204240
936.000000	39.186530
937.000000	39.169505
938.000000	39.147440
939.000000	39.124588
940.000000	39.103147
941.000000	39.085885
942.000000	39.068252
943.000000	39.047015
944.000000	39.028588
945.000000	39.012042
946.000000	38.991600
947.000000	38.970545
948.000000	38.954230
949.000000	38.942267
950.000000	38.930248
951.000000	38.918990
952.000000	38.910330
953.000000	38.905417
954.000000	38.901810
955.000000	38.896395
956.000000	38.888793
957.000000	38.883955
958.000000	38.880218
959.000000	38.875270
960.000000	38.870867
961.000000	38.866415
962.000000	38.862200
963.000000	38.859005
964.000000	38.854125
965.000000	38.850818
966.000000	38.850662
967.000000	38.851152
968.000000	38.850755
969.000000	38.851298
970.000000	38.854525
971.000000	38.858200
972.000000	38.861958
973.000000	38.866335
974.000000	38.872000
975.000000	38.877738
976.000000	38.882497
977.000000	38.886445
978.000000	38.890278
979.000000	38.895140
980.000000	38.900552
981.000000	38.905245
982.000000	38.910312
983.000000	38.914623
984.000000	38.918715
985.000000	38.923878
986.000000	38.930320
987.000000	38.938362
988.000000	38.947648
989.000000	38.955650
990.000000	38.963017
991.000000	38.970968
992.000000	38.980300
993.000000	38.991595
994.000000	39.002645
995.000000	39.012860
996.000000	39.021648
997.000000	39.030527
998.000000	39.039620
999.000000	39.049225
1000.000000	39.059027
1001.000000	39.070400
1002.000000	39.081640
1003.000000	39.090693
1004.000000	39.099770
1005.000000	39.111180
1006.000000	39.123760
1007.000000	39.135680
1008.000000	39.148162
1009.000000	39.161693
1010.000000	39.175142
1011.000000	39.186990
1012.000000	39.199180
1013.000000	39.213635
1014.000000	39.228842
1015.000000	39.241780
1016.000000	39.253055
1017.000000	39.264500
1018.000000	39.276493
1019.000000	39.289637
1020.000000	39.304085
1021.000000	39.319685
1022.000000	39.335035
1023.000000	39.350330
1024.000000	39.365922
1025.000000	39.383325
1026.000000	39.402675
1027.000000	39.423045
1028.000000	39.443728
1029.000000	39.464260
1030.000000	39.484155
1031.000000	39.503740
1032.000000	39.523688
1033.000000	39.543928
1034.000000	39.565143
1035.000000	39.585590
1036.000000	39.605947
1037.000000	39.627495
1038.000000	39.648420
1039.000000	39.668300
1040.000000	39.687092
1041.000000	39.705935
1042.000000	39.725032
1043.000000	39.743760
1044.000000	39.761962
1045.000000	39.780470
1046.000000	39.798885
1047.000000	39.817038
1048.000000	39.835347
1049.000000	39.853350
1050.000000	39.872300
1051.000000	39.891290
1052.000000	39.910122
1053.000000	39.928573
1054.000000	39.947320
1055.000000	39.966760
1056.000000	39.986283
1057.000000	40.004410
1058.000000	40.022388
1059.000000	40.040872
1060.000000	40.059410
1061.000000	40.079135
1062.000000	40.097513
1063.000000	40.116602
1064.000000	40.135672
1065.000000	40.154377
1066.000000	40.172747
1067.000000	40.192390
1068.000000	40.211633
1069.000000	40.230582
1070.000000	40.249660
1071.000000	40.268502
1072.000000	40.288273
1073.000000	40.308242
1074.000000	40.327160
1075.000000	40.345840
1076.000000	40.365225
1077.000000	40.383720
1078.000000	40.402772
1079.000000	40.422280
1080.000000	40.440970
1081.000000	40.458112
1082.000000	40.476262
1083.000000	40.493127
1084.000000	40.509403
1085.000000	40.525235
1086.000000	40.540598
1087.000000	40.556438
1088.000000	40.570453
1089.000000	40.585257
1090.000000	40.598462
1091.000000	40.612760
1092.000000	40.626795
1093.000000	40.639612
1094.000000	40.653255
1095.000000	40.667275
1096.000000	40.680020
1097.000000	40.690340
1098.000000	40.701805
1099.000000	40.711073
1100.000000	40.722665
1101.000000	40.733177
1102.000000	40.742545
1103.000000	40.752572
1104.000000	40.759750
1105.000000	40.766587
1106.000000	40.772573
1107.000000	40.780172
1108.000000	40.788202
1109.000000	40.795682
1110.000000	40.802185
1111.000000	40.808213
1112.000000	40.814068
1113.000000	40.818422
1114.000000	40.823217
1115.000000	40.827665
1116.000000	40.832187
1117.000000	40.836705
1118.000000	40.839380
1119.000000	40.841253
1120.000000	40.841390
1121.000000	40.839633
1122.000000	40.837027
1123.000000	40.832248
1124.000000	40.825943
1125.000000	40.816855
1126.000000	40.806125
1127.000000	40.791888
1128.000000	40.775458
1129.000000	40.756543
1130.000000	40.733522
1131.000000	40.707060
1132.000000	40.674485
1133.000000	40.643570
1134.000000	40.612195
1135.000000	40.579700
1136.000000	40.542748
1137.000000	40.502110
1138.000000	40.458588
1139.000000	40.414360
1140.000000	40.371215
1141.000000	40.329830
1142.000000	40.291573
1143.000000	40.250910
1144.000000	40.210285
1145.000000	40.170648
1146.000000	40.133358
1147.000000	40.098743
1148.000000	40.065480
1149.000000	40.031320
1150.000000	39.997497
1151.000000	39.963615
1152.000000	39.928467
1153.000000	39.892398
1154.000000	39.853250
1155.000000	39.811827
1156.000000	39.767107
1157.000000	39.719755
1158.000000	39.669145
1159.000000	39.615995
1160.000000	39.560115
1161.000000	39.500073
1162.000000	39.436720
1163.000000	39.371340
1164.000000	39.303325
1165.000000	39.234288
1166.000000	39.166580
1167.000000	39.098387
1168.000000	39.030900
1169.000000	38.966015
1170.000000	38.902352
1171.000000	38.841853
1172.000000	38.784280
