PE UV       SUBTECH     SPECTRUM    ASCII       PEDS        4.00        
   -1
INBUCR0123-5.Sample.ASC
24/02/12
14:48:19.00
24/02/12
14:48:19.00
Vinicio Soto Monge
Pelidnota notata. Color café con ambos élitros (Det: A. Solís) COSTA RICA Prov. Guanacaste. La Cruz, A.C.G, Pque Nal Gte, Est Mengo, Ladera S W de Volcán Cacao. 1100m. 26 JUN 1987. Janzen. Manual L_N_330200_375700 #52580 INB0003353862 
250,000000
1
Lambda 1050
1050L1511233
PerkinElmer UV WinLab 6.3.2.0749 / 2.02.05 Lambda 900 UV/VIS/NIR, Aug  7 2015 09:38:08

0
0
3350/servo 860,8/2
0
0
UV/VIS
1
1
1
DoubleDePol,CommonBeamDepol,RBeamAtt,SBeamAtt,60mm sphere, WB InGaAs Detector
0
0
0
0
Program
Program
3350/servo 860,8/2
3350/0,2 860,8/0,2
3350/0,2 860,8/0,2
0
15.00
 
 
 
0
 
860,8
150
860,8
Front
100
on
S:100 R:100
0
0
0
0
 
0
 
 
 
0
 
 
0
0
0
0
0
 
 
 
 
0
0


0
0
#HDR
-1
-1
#GR
nm
%R
1.0
0.0
2500,000000
-1,000000
2251
8
22,458900
1,602600
#DATA

250.000000	nan
251.000000	nan
252.000000	nan
253.000000	nan
254.000000	nan
255.000000	nan
256.000000	nan
257.000000	nan
258.000000	nan
259.000000	3.946577
260.000000	3.906913
261.000000	3.867466
262.000000	3.839409
263.000000	3.787430
264.000000	3.751810
265.000000	3.740075
266.000000	3.713434
267.000000	3.676372
268.000000	3.650955
269.000000	3.633986
270.000000	3.611906
271.000000	3.588466
272.000000	3.564354
273.000000	3.545536
274.000000	3.531810
275.000000	3.509092
276.000000	3.486375
277.000000	3.478725
278.000000	3.466562
279.000000	3.450747
280.000000	3.433839
281.000000	3.424837
282.000000	3.412206
283.000000	3.401307
284.000000	3.389318
285.000000	3.387781
286.000000	3.384571
287.000000	3.375144
288.000000	3.374026
289.000000	3.373271
290.000000	3.373790
291.000000	3.375100
292.000000	3.375996
293.000000	3.376021
294.000000	3.378677
295.000000	3.374160
296.000000	3.370293
297.000000	3.368994
298.000000	3.364325
299.000000	3.363751
300.000000	3.361713
301.000000	3.356452
302.000000	3.352447
303.000000	3.350194
304.000000	3.344959
305.000000	3.342699
306.000000	3.340199
307.000000	3.338818
308.000000	3.336395
309.000000	3.333774
310.000000	3.331183
311.000000	3.330647
312.000000	3.327835
313.000000	3.323825
314.000000	3.323930
315.000000	3.321846
316.000000	3.321939
317.000000	3.337025
318.000000	3.356429
319.000000	3.372697
320.000000	3.400021
321.000000	3.425039
322.000000	3.447777
323.000000	3.473521
324.000000	3.494929
325.000000	3.509220
326.000000	3.522513
327.000000	3.523558
328.000000	3.517923
329.000000	3.514324
330.000000	3.502054
331.000000	3.483098
332.000000	3.466795
333.000000	3.454095
334.000000	3.444899
335.000000	3.443889
336.000000	3.439597
337.000000	3.428478
338.000000	3.420630
339.000000	3.413660
340.000000	3.406583
341.000000	3.408770
342.000000	3.413547
343.000000	3.406995
344.000000	3.402502
345.000000	3.396805
346.000000	3.396959
347.000000	3.400503
348.000000	3.401790
349.000000	3.402147
350.000000	3.402118
351.000000	3.397686
352.000000	3.390387
353.000000	3.387368
354.000000	3.384980
355.000000	3.382531
356.000000	3.379456
357.000000	3.375658
358.000000	3.376176
359.000000	3.370938
360.000000	3.367228
361.000000	3.367848
362.000000	3.370999
363.000000	3.368536
364.000000	3.364689
365.000000	3.359829
366.000000	3.354966
367.000000	3.350910
368.000000	3.346334
369.000000	3.344068
370.000000	3.338617
371.000000	3.331676
372.000000	3.325025
373.000000	3.319104
374.000000	3.312469
375.000000	3.307859
376.000000	3.304140
377.000000	3.292406
378.000000	3.278537
379.000000	3.267152
380.000000	3.258826
381.000000	3.249576
382.000000	3.240008
383.000000	3.235337
384.000000	3.230444
385.000000	3.225089
386.000000	3.218124
387.000000	3.218267
388.000000	3.219372
389.000000	3.220519
390.000000	3.221130
391.000000	3.222016
392.000000	3.223491
393.000000	3.225201
394.000000	3.226933
395.000000	3.228459
396.000000	3.229782
397.000000	3.231843
398.000000	3.233906
399.000000	3.236154
400.000000	3.238587
401.000000	3.241096
402.000000	3.243924
403.000000	3.246764
404.000000	3.249709
405.000000	3.253427
406.000000	3.257516
407.000000	3.261860
408.000000	3.266162
409.000000	3.270777
410.000000	3.276469
411.000000	3.282710
412.000000	3.289318
413.000000	3.296650
414.000000	3.304815
415.000000	3.313810
416.000000	3.323592
417.000000	3.333821
418.000000	3.345296
419.000000	3.357884
420.000000	3.371161
421.000000	3.385302
422.000000	3.400253
423.000000	3.416051
424.000000	3.432656
425.000000	3.450072
426.000000	3.468199
427.000000	3.487141
428.000000	3.506755
429.000000	3.527043
430.000000	3.547725
431.000000	3.569026
432.000000	3.591253
433.000000	3.613737
434.000000	3.636644
435.000000	3.660165
436.000000	3.684189
437.000000	3.708710
438.000000	3.733388
439.000000	3.758089
440.000000	3.783432
441.000000	3.809420
442.000000	3.835647
443.000000	3.862655
444.000000	3.889962
445.000000	3.917357
446.000000	3.944877
447.000000	3.972619
448.000000	4.000931
449.000000	4.030177
450.000000	4.059193
451.000000	4.088246
452.000000	4.118063
453.000000	4.147820
454.000000	4.177569
455.000000	4.207199
456.000000	4.237382
457.000000	4.268038
458.000000	4.299025
459.000000	4.329790
460.000000	4.361262
461.000000	4.393164
462.000000	4.424464
463.000000	4.456361
464.000000	4.489054
465.000000	4.522130
466.000000	4.555184
467.000000	4.588221
468.000000	4.621304
469.000000	4.654796
470.000000	4.688144
471.000000	4.721108
472.000000	4.754155
473.000000	4.786965
474.000000	4.819571
475.000000	4.852297
476.000000	4.884747
477.000000	4.916978
478.000000	4.949135
479.000000	4.981021
480.000000	5.012693
481.000000	5.044182
482.000000	5.075316
483.000000	5.106684
484.000000	5.138191
485.000000	5.170009
486.000000	5.202545
487.000000	5.235353
488.000000	5.268312
489.000000	5.301763
490.000000	5.336020
491.000000	5.371114
492.000000	5.407733
493.000000	5.444629
494.000000	5.482459
495.000000	5.521092
496.000000	5.560003
497.000000	5.599360
498.000000	5.639964
499.000000	5.681291
500.000000	5.723105
501.000000	5.765577
502.000000	5.808094
503.000000	5.851800
504.000000	5.895842
505.000000	5.940446
506.000000	5.985334
507.000000	6.030830
508.000000	6.076534
509.000000	6.122356
510.000000	6.168791
511.000000	6.215674
512.000000	6.263255
513.000000	6.310753
514.000000	6.358680
515.000000	6.406712
516.000000	6.455126
517.000000	6.504223
518.000000	6.553740
519.000000	6.604164
520.000000	6.655257
521.000000	6.706968
522.000000	6.759692
523.000000	6.813347
524.000000	6.867964
525.000000	6.923634
526.000000	6.981280
527.000000	7.040238
528.000000	7.100725
529.000000	7.162993
530.000000	7.226959
531.000000	7.293060
532.000000	7.360943
533.000000	7.430909
534.000000	7.502932
535.000000	7.577008
536.000000	7.652520
537.000000	7.730023
538.000000	7.809765
539.000000	7.891186
540.000000	7.974150
541.000000	8.058557
542.000000	8.144748
543.000000	8.232415
544.000000	8.321211
545.000000	8.411493
546.000000	8.502978
547.000000	8.595134
548.000000	8.688155
549.000000	8.781763
550.000000	8.876967
551.000000	8.972526
552.000000	9.069031
553.000000	9.165428
554.000000	9.262381
555.000000	9.359919
556.000000	9.458349
557.000000	9.557581
558.000000	9.656550
559.000000	9.755966
560.000000	9.849585
561.000000	9.943009
562.000000	10.035977
563.000000	10.129730
564.000000	10.223696
565.000000	10.317550
566.000000	10.410273
567.000000	10.504194
568.000000	10.598242
569.000000	10.692127
570.000000	10.791530
571.000000	10.891999
572.000000	10.992578
573.000000	11.092839
574.000000	11.193182
575.000000	11.294053
576.000000	11.395970
577.000000	11.496693
578.000000	11.597641
579.000000	11.698738
580.000000	11.800850
581.000000	11.902114
582.000000	12.003656
583.000000	12.105312
584.000000	12.207223
585.000000	12.309916
586.000000	12.412307
587.000000	12.515098
588.000000	12.617843
589.000000	12.720915
590.000000	12.823648
591.000000	12.927524
592.000000	13.030558
593.000000	13.134728
594.000000	13.239372
595.000000	13.342383
596.000000	13.446128
597.000000	13.549842
598.000000	13.653983
599.000000	13.758136
600.000000	13.862378
601.000000	13.966204
602.000000	14.071522
603.000000	14.176502
604.000000	14.282022
605.000000	14.388255
606.000000	14.494557
607.000000	14.601354
608.000000	14.708060
609.000000	14.814982
610.000000	14.921994
611.000000	15.029569
612.000000	15.136917
613.000000	15.244663
614.000000	15.352185
615.000000	15.460064
616.000000	15.567070
617.000000	15.674960
618.000000	15.782252
619.000000	15.890531
620.000000	15.998419
621.000000	16.106970
622.000000	16.215659
623.000000	16.323819
624.000000	16.431559
625.000000	16.540045
626.000000	16.649681
627.000000	16.758669
628.000000	16.868724
629.000000	16.978630
630.000000	17.089206
631.000000	17.199607
632.000000	17.310329
633.000000	17.421000
634.000000	17.532426
635.000000	17.643490
636.000000	17.755508
637.000000	17.868019
638.000000	17.981842
639.000000	18.094971
640.000000	18.208106
641.000000	18.321885
642.000000	18.435926
643.000000	18.552221
644.000000	18.669185
645.000000	18.786994
646.000000	18.904181
647.000000	19.022636
648.000000	19.141319
649.000000	19.261547
650.000000	19.381917
651.000000	19.503643
652.000000	19.625301
653.000000	19.746803
654.000000	19.867906
655.000000	19.989713
656.000000	20.111074
657.000000	20.232178
658.000000	20.352051
659.000000	20.471822
660.000000	20.591506
661.000000	20.710241
662.000000	20.829363
663.000000	20.947308
664.000000	21.064891
665.000000	21.181589
666.000000	21.298871
667.000000	21.414305
668.000000	21.528989
669.000000	21.643318
670.000000	21.758135
671.000000	21.872326
672.000000	21.986011
673.000000	22.099180
674.000000	22.211541
675.000000	22.323463
676.000000	22.435006
677.000000	22.546535
678.000000	22.658393
679.000000	22.768404
680.000000	22.876602
681.000000	22.983798
682.000000	23.090596
683.000000	23.197201
684.000000	23.303417
685.000000	23.408366
686.000000	23.512265
687.000000	23.617145
688.000000	23.719573
689.000000	23.821715
690.000000	23.923916
691.000000	24.025803
692.000000	24.126717
693.000000	24.228160
694.000000	24.329139
695.000000	24.429026
696.000000	24.528076
697.000000	24.625055
698.000000	24.723633
699.000000	24.822361
700.000000	24.920004
701.000000	25.017926
702.000000	25.115417
703.000000	25.210442
704.000000	25.305400
705.000000	25.400726
706.000000	25.496162
707.000000	25.591428
708.000000	25.686872
709.000000	25.782296
710.000000	25.877620
711.000000	25.971556
712.000000	26.064257
713.000000	26.158467
714.000000	26.251796
715.000000	26.345180
716.000000	26.439521
717.000000	26.534008
718.000000	26.626545
719.000000	26.717763
720.000000	26.809015
721.000000	26.899850
722.000000	26.991107
723.000000	27.081542
724.000000	27.172149
725.000000	27.263037
726.000000	27.352269
727.000000	27.441772
728.000000	27.532666
729.000000	27.623847
730.000000	27.713536
731.000000	27.803039
732.000000	27.893484
733.000000	27.982752
734.000000	28.072499
735.000000	28.161309
736.000000	28.249693
737.000000	28.339068
738.000000	28.429201
739.000000	28.517515
740.000000	28.606209
741.000000	28.696891
742.000000	28.784995
743.000000	28.873285
744.000000	28.962072
745.000000	29.050918
746.000000	29.140469
747.000000	29.227308
748.000000	29.315376
749.000000	29.406097
750.000000	29.495850
751.000000	29.583319
752.000000	29.670425
753.000000	29.759120
754.000000	29.847660
755.000000	29.935871
756.000000	30.023961
757.000000	30.112958
758.000000	30.198026
759.000000	30.282270
760.000000	30.370771
761.000000	30.459608
762.000000	30.551837
763.000000	30.642316
764.000000	30.729695
765.000000	30.816063
766.000000	30.901291
767.000000	30.986451
768.000000	31.072216
769.000000	31.158188
770.000000	31.243999
771.000000	31.331786
772.000000	31.415866
773.000000	31.501776
774.000000	31.591398
775.000000	31.680236
776.000000	31.769383
777.000000	31.856562
778.000000	31.942799
779.000000	32.029391
780.000000	32.115864
781.000000	32.199084
782.000000	32.286244
783.000000	32.371190
784.000000	32.454411
785.000000	32.538536
786.000000	32.624116
787.000000	32.714409
788.000000	32.804951
789.000000	32.893374
790.000000	32.976989
791.000000	33.062228
792.000000	33.148684
793.000000	33.231924
794.000000	33.311849
795.000000	33.397780
796.000000	33.479848
797.000000	33.559009
798.000000	33.638510
799.000000	33.722050
800.000000	33.806034
801.000000	33.887174
802.000000	33.963763
803.000000	34.050203
804.000000	34.136335
805.000000	34.219622
806.000000	34.304726
807.000000	34.389624
808.000000	34.470858
809.000000	34.547589
810.000000	34.629022
811.000000	34.709240
812.000000	34.788834
813.000000	34.864826
814.000000	34.945850
815.000000	35.022438
816.000000	35.095283
817.000000	35.169703
818.000000	35.249537
819.000000	35.326834
820.000000	35.400536
821.000000	35.473084
822.000000	35.551942
823.000000	35.622053
824.000000	35.686378
825.000000	35.748613
826.000000	35.814304
827.000000	35.877812
828.000000	35.936016
829.000000	35.997207
830.000000	36.056690
831.000000	36.116543
832.000000	36.166156
833.000000	36.219328
834.000000	36.275309
835.000000	36.334749
836.000000	36.388811
837.000000	36.441367
838.000000	36.497003
839.000000	36.546477
840.000000	36.595198
841.000000	36.643180
842.000000	36.696892
843.000000	36.741887
844.000000	36.786978
845.000000	36.834297
846.000000	36.880127
847.000000	36.919665
848.000000	36.941451
849.000000	36.981126
850.000000	37.014726
851.000000	37.058628
852.000000	37.092859
853.000000	37.127118
854.000000	37.166002
855.000000	37.186292
856.000000	37.208618
857.000000	37.250580
858.000000	37.450460
859.000000	37.584575
860.000000	37.699370
861.000000	37.798479
862.000000	37.923681
863.000000	38.029805
864.000000	38.157866
865.000000	38.285996
866.000000	38.416951
867.000000	38.537896
868.000000	38.510108
869.000000	38.491274
870.000000	38.491116
871.000000	38.503858
872.000000	38.477442
873.000000	38.473022
874.000000	38.445164
875.000000	38.436346
876.000000	38.409760
877.000000	38.377968
878.000000	38.342118
879.000000	38.354364
880.000000	38.353342
881.000000	38.336352
882.000000	38.340460
883.000000	38.343200
884.000000	38.339166
885.000000	38.332042
886.000000	38.335734
887.000000	38.317884
888.000000	38.317208
889.000000	38.310160
890.000000	38.314716
891.000000	38.331838
892.000000	38.336622
893.000000	38.347368
894.000000	38.349766
895.000000	38.347808
896.000000	38.345292
897.000000	38.344946
898.000000	38.350800
899.000000	38.344164
900.000000	38.346442
901.000000	38.331130
902.000000	38.326340
903.000000	38.324922
904.000000	38.323354
905.000000	38.329092
906.000000	38.324014
907.000000	38.332006
908.000000	38.330740
909.000000	38.336654
910.000000	38.349734
911.000000	38.366144
912.000000	38.383424
913.000000	38.394920
914.000000	38.409638
915.000000	38.422018
916.000000	38.445838
917.000000	38.474776
918.000000	38.491920
919.000000	38.509486
920.000000	38.515046
921.000000	38.525758
922.000000	38.534638
923.000000	38.544014
924.000000	38.558832
925.000000	38.564144
926.000000	38.570166
927.000000	38.577562
928.000000	38.585152
929.000000	38.598278
930.000000	38.611670
931.000000	38.626246
932.000000	38.633668
933.000000	38.638778
934.000000	38.644468
935.000000	38.653662
936.000000	38.671422
937.000000	38.677680
938.000000	38.689194
939.000000	38.699944
940.000000	38.706168
941.000000	38.715600
942.000000	38.723490
943.000000	38.734904
944.000000	38.740456
945.000000	38.745024
946.000000	38.744086
947.000000	38.750490
948.000000	38.755584
949.000000	38.756556
950.000000	38.762792
951.000000	38.765348
952.000000	38.771980
953.000000	38.778392
954.000000	38.784522
955.000000	38.792550
956.000000	38.798500
957.000000	38.802588
958.000000	38.806440
959.000000	38.810962
960.000000	38.813054
961.000000	38.813562
962.000000	38.815480
963.000000	38.818294
964.000000	38.820358
965.000000	38.820162
966.000000	38.820206
967.000000	38.821598
968.000000	38.823602
969.000000	38.826822
970.000000	38.828206
971.000000	38.830748
972.000000	38.833604
973.000000	38.831658
974.000000	38.832086
975.000000	38.833268
976.000000	38.835214
977.000000	38.835364
978.000000	38.832666
979.000000	38.830500
980.000000	38.830474
981.000000	38.829854
982.000000	38.829304
983.000000	38.829942
984.000000	38.831604
985.000000	38.829150
986.000000	38.825430
987.000000	38.824454
988.000000	38.825946
989.000000	38.826206
990.000000	38.826490
991.000000	38.827008
992.000000	38.825582
993.000000	38.824072
994.000000	38.821328
995.000000	38.821492
996.000000	38.824176
997.000000	38.824540
998.000000	38.821912
999.000000	38.819386
1000.000000	38.817560
1001.000000	38.816310
1002.000000	38.816806
1003.000000	38.817618
1004.000000	38.817528
1005.000000	38.816194
1006.000000	38.814176
1007.000000	38.813626
1008.000000	38.813916
1009.000000	38.812808
1010.000000	38.812490
1011.000000	38.812442
1012.000000	38.811346
1013.000000	38.810466
1014.000000	38.810936
1015.000000	38.812156
1016.000000	38.812450
1017.000000	38.814160
1018.000000	38.817064
1019.000000	38.821754
1020.000000	38.825762
1021.000000	38.829816
1022.000000	38.835748
1023.000000	38.841078
1024.000000	38.846310
1025.000000	38.851582
1026.000000	38.857850
1027.000000	38.864404
1028.000000	38.872362
1029.000000	38.879784
1030.000000	38.886888
1031.000000	38.896916
1032.000000	38.905324
1033.000000	38.912304
1034.000000	38.920566
1035.000000	38.930844
1036.000000	38.941252
1037.000000	38.950352
1038.000000	38.959026
1039.000000	38.968054
1040.000000	38.976050
1041.000000	38.982788
1042.000000	38.991404
1043.000000	39.001818
1044.000000	39.011690
1045.000000	39.021128
1046.000000	39.029890
1047.000000	39.038464
1048.000000	39.047578
1049.000000	39.056560
1050.000000	39.068310
1051.000000	39.079078
1052.000000	39.087632
1053.000000	39.096060
1054.000000	39.104866
1055.000000	39.113820
1056.000000	39.123734
1057.000000	39.134716
1058.000000	39.144540
1059.000000	39.154976
1060.000000	39.164690
1061.000000	39.174034
1062.000000	39.185822
1063.000000	39.197886
1064.000000	39.210878
1065.000000	39.223924
1066.000000	39.235510
1067.000000	39.246960
1068.000000	39.258722
1069.000000	39.269964
1070.000000	39.281506
1071.000000	39.294236
1072.000000	39.305720
1073.000000	39.317292
1074.000000	39.327920
1075.000000	39.337334
1076.000000	39.348548
1077.000000	39.358672
1078.000000	39.368586
1079.000000	39.378650
1080.000000	39.387546
1081.000000	39.396786
1082.000000	39.404488
1083.000000	39.411696
1084.000000	39.419542
1085.000000	39.427508
1086.000000	39.433974
1087.000000	39.439346
1088.000000	39.446216
1089.000000	39.452074
1090.000000	39.457068
1091.000000	39.460456
1092.000000	39.464892
1093.000000	39.469362
1094.000000	39.472162
1095.000000	39.475028
1096.000000	39.476216
1097.000000	39.478434
1098.000000	39.478780
1099.000000	39.479586
1100.000000	39.480682
1101.000000	39.480802
1102.000000	39.480944
1103.000000	39.480592
1104.000000	39.479332
1105.000000	39.477456
1106.000000	39.475914
1107.000000	39.474414
1108.000000	39.472048
1109.000000	39.469958
1110.000000	39.467342
1111.000000	39.464140
1112.000000	39.461422
1113.000000	39.455278
1114.000000	39.449612
1115.000000	39.441538
1116.000000	39.432968
1117.000000	39.423904
1118.000000	39.413270
1119.000000	39.399576
1120.000000	39.384624
1121.000000	39.369140
1122.000000	39.350998
1123.000000	39.332540
1124.000000	39.310584
1125.000000	39.286524
1126.000000	39.260618
1127.000000	39.230208
1128.000000	39.197392
1129.000000	39.162342
1130.000000	39.122456
1131.000000	39.077222
1132.000000	39.027006
1133.000000	38.976492
1134.000000	38.925700
1135.000000	38.874794
1136.000000	38.819118
1137.000000	38.761522
1138.000000	38.701760
1139.000000	38.641116
1140.000000	38.581880
1141.000000	38.525258
1142.000000	38.469488
1143.000000	38.411784
1144.000000	38.352376
1145.000000	38.294016
1146.000000	38.237266
1147.000000	38.181700
1148.000000	38.126960
1149.000000	38.071470
1150.000000	38.016198
1151.000000	37.959708
1152.000000	37.904026
1153.000000	37.847376
1154.000000	37.789710
1155.000000	37.728342
1156.000000	37.664758
1157.000000	37.599452
1158.000000	37.532158
1159.000000	37.461422
1160.000000	37.387832
1161.000000	37.312592
1162.000000	37.233966
1163.000000	37.152394
1164.000000	37.071000
1165.000000	36.989094
1166.000000	36.907756
