PE UV       SUBTECH     SPECTRUM    ASCII       PEDS        4.00        
   -1
INBUCR0233-4.Sample.ASC
24/02/08
12:22:18.00
24/02/08
12:22:18.00
Vinicio Soto Monge
Chrysina chalcothea Det: A Solís. INBI0003489983 INBIOCRI COSTA RICA Costa Rica. Prov. Cartago. R. F.  Río Macho, Alrededor Estación la Esperanza. 2650 m 26-29 de May 2002. R. González, Luz ambiente L_N_1856000_550000 #69624
250,000000
1
Lambda 1050
1050L1511233
PerkinElmer UV WinLab 6.3.2.0749 / 2.02.05 Lambda 900 UV/VIS/NIR, Aug  7 2015 09:38:08

0
0
3350/servo 860,8/2
0
0
UV/VIS
1
1
1
DoubleDePol,CommonBeamDepol,RBeamAtt,SBeamAtt,60mm sphere, WB InGaAs Detector
0
0
0
0
Program
Program
3350/servo 860,8/2
3350/0,2 860,8/0,2
3350/0,2 860,8/0,2
0
15.00
 
 
 
0
 
860,8
319,2
860,8
Front
100
on
S:100 R:100
0
0
0
0
 
0
 
 
 
0
 
 
0
0
0
0
0
 
 
 
 
0
0


0
0
#HDR
-1
-1
#GR
nm
%R
1.0
0.0
2500,000000
-1,000000
2251
8
14,773400
0,968500
#DATA

250.000000	nan
251.000000	nan
252.000000	nan
253.000000	nan
254.000000	nan
255.000000	nan
256.000000	nan
257.000000	nan
258.000000	nan
259.000000	3.675656
260.000000	3.668046
261.000000	3.661219
262.000000	3.657204
263.000000	3.648875
264.000000	3.638681
265.000000	3.630501
266.000000	3.621129
267.000000	3.611088
268.000000	3.600404
269.000000	3.590871
270.000000	3.581781
271.000000	3.571402
272.000000	3.562010
273.000000	3.550204
274.000000	3.544347
275.000000	3.538731
276.000000	3.532811
277.000000	3.527448
278.000000	3.522443
279.000000	3.515494
280.000000	3.511784
281.000000	3.508535
282.000000	3.505007
283.000000	3.502032
284.000000	3.496565
285.000000	3.491746
286.000000	3.489628
287.000000	3.487187
288.000000	3.482939
289.000000	3.481660
290.000000	3.474456
291.000000	3.471461
292.000000	3.466318
293.000000	3.463578
294.000000	3.459673
295.000000	3.456296
296.000000	3.453184
297.000000	3.450423
298.000000	3.446664
299.000000	3.441315
300.000000	3.442317
301.000000	3.438170
302.000000	3.435653
303.000000	3.434578
304.000000	3.434107
305.000000	3.432570
306.000000	3.427365
307.000000	3.424990
308.000000	3.425733
309.000000	3.424804
310.000000	3.420499
311.000000	3.419306
312.000000	3.417018
313.000000	3.413067
314.000000	3.410200
315.000000	3.409086
316.000000	3.411127
317.000000	3.427669
318.000000	3.445144
319.000000	3.469779
320.000000	3.478025
321.000000	3.494046
322.000000	3.503963
323.000000	3.513328
324.000000	3.525313
325.000000	3.536720
326.000000	3.546087
327.000000	3.537569
328.000000	3.525422
329.000000	3.510027
330.000000	3.509988
331.000000	3.500408
332.000000	3.496811
333.000000	3.492821
334.000000	3.492195
335.000000	3.484652
336.000000	3.478880
337.000000	3.474860
338.000000	3.473464
339.000000	3.468817
340.000000	3.464703
341.000000	3.458161
342.000000	3.452536
343.000000	3.448251
344.000000	3.439999
345.000000	3.437087
346.000000	3.436081
347.000000	3.433823
348.000000	3.427701
349.000000	3.424321
350.000000	3.422183
351.000000	3.424070
352.000000	3.423025
353.000000	3.421438
354.000000	3.420059
355.000000	3.418528
356.000000	3.412383
357.000000	3.407313
358.000000	3.404219
359.000000	3.399361
360.000000	3.395280
361.000000	3.389549
362.000000	3.389003
363.000000	3.388906
364.000000	3.383444
365.000000	3.378318
366.000000	3.374218
367.000000	3.372279
368.000000	3.370345
369.000000	3.367097
370.000000	3.363231
371.000000	3.359626
372.000000	3.352849
373.000000	3.343570
374.000000	3.334259
375.000000	3.326473
376.000000	3.319613
377.000000	3.305702
378.000000	3.293150
379.000000	3.281592
380.000000	3.270949
381.000000	3.260868
382.000000	3.251430
383.000000	3.243909
384.000000	3.240119
385.000000	3.235134
386.000000	3.229752
387.000000	3.227878
388.000000	3.226674
389.000000	3.225915
390.000000	3.224482
391.000000	3.222846
392.000000	3.221778
393.000000	3.220798
394.000000	3.218511
395.000000	3.216579
396.000000	3.214654
397.000000	3.213512
398.000000	3.212506
399.000000	3.210992
400.000000	3.209619
401.000000	3.208413
402.000000	3.206522
403.000000	3.204757
404.000000	3.203220
405.000000	3.202119
406.000000	3.201277
407.000000	3.200210
408.000000	3.198919
409.000000	3.198195
410.000000	3.197025
411.000000	3.195896
412.000000	3.195152
413.000000	3.194255
414.000000	3.193734
415.000000	3.193049
416.000000	3.192537
417.000000	3.191777
418.000000	3.190937
419.000000	3.189728
420.000000	3.188831
421.000000	3.187792
422.000000	3.187079
423.000000	3.186730
424.000000	3.186239
425.000000	3.185395
426.000000	3.184506
427.000000	3.184334
428.000000	3.184367
429.000000	3.184374
430.000000	3.184714
431.000000	3.185564
432.000000	3.186494
433.000000	3.187437
434.000000	3.188339
435.000000	3.189413
436.000000	3.190627
437.000000	3.191643
438.000000	3.192771
439.000000	3.194668
440.000000	3.196722
441.000000	3.198697
442.000000	3.200670
443.000000	3.202920
444.000000	3.206157
445.000000	3.210206
446.000000	3.214443
447.000000	3.219247
448.000000	3.224802
449.000000	3.230347
450.000000	3.236280
451.000000	3.243183
452.000000	3.250704
453.000000	3.258966
454.000000	3.267775
455.000000	3.276851
456.000000	3.287032
457.000000	3.298022
458.000000	3.309402
459.000000	3.321942
460.000000	3.335642
461.000000	3.350035
462.000000	3.365715
463.000000	3.382686
464.000000	3.400959
465.000000	3.421156
466.000000	3.443233
467.000000	3.467265
468.000000	3.494044
469.000000	3.523557
470.000000	3.555966
471.000000	3.591729
472.000000	3.630416
473.000000	3.672492
474.000000	3.718412
475.000000	3.767424
476.000000	3.819074
477.000000	3.873422
478.000000	3.930654
479.000000	3.990364
480.000000	4.052433
481.000000	4.116520
482.000000	4.183332
483.000000	4.253159
484.000000	4.326740
485.000000	4.405444
486.000000	4.490934
487.000000	4.585112
488.000000	4.689099
489.000000	4.804571
490.000000	4.933450
491.000000	5.077434
492.000000	5.236967
493.000000	5.412485
494.000000	5.603078
495.000000	5.807886
496.000000	6.025368
497.000000	6.253394
498.000000	6.489389
499.000000	6.731315
500.000000	6.976910
501.000000	7.223878
502.000000	7.470113
503.000000	7.713332
504.000000	7.953720
505.000000	8.189782
506.000000	8.420836
507.000000	8.647467
508.000000	8.870587
509.000000	9.090676
510.000000	9.308006
511.000000	9.523061
512.000000	9.736685
513.000000	9.950309
514.000000	10.162218
515.000000	10.373424
516.000000	10.583457
517.000000	10.790910
518.000000	10.994685
519.000000	11.192922
520.000000	11.384453
521.000000	11.567875
522.000000	11.742113
523.000000	11.905047
524.000000	12.056628
525.000000	12.195723
526.000000	12.322313
527.000000	12.436277
528.000000	12.537671
529.000000	12.626533
530.000000	12.703286
531.000000	12.768478
532.000000	12.821249
533.000000	12.862893
534.000000	12.892155
535.000000	12.908454
536.000000	12.910360
537.000000	12.897446
538.000000	12.867543
539.000000	12.819689
540.000000	12.751153
541.000000	12.659982
542.000000	12.545856
543.000000	12.407603
544.000000	12.245856
545.000000	12.062727
546.000000	11.861110
547.000000	11.644705
548.000000	11.417965
549.000000	11.186219
550.000000	10.955981
551.000000	10.732774
552.000000	10.521688
553.000000	10.326260
554.000000	10.149678
555.000000	9.992720
556.000000	9.854766
557.000000	9.733875
558.000000	9.627127
559.000000	9.531256
560.000000	9.435856
561.000000	9.343420
562.000000	9.251768
563.000000	9.158507
564.000000	9.062145
565.000000	8.962672
566.000000	8.860900
567.000000	8.756836
568.000000	8.653442
569.000000	8.551229
570.000000	8.458732
571.000000	8.371064
572.000000	8.289322
573.000000	8.214126
574.000000	8.146071
575.000000	8.084568
576.000000	8.030262
577.000000	7.983324
578.000000	7.942327
579.000000	7.907540
580.000000	7.877760
581.000000	7.852344
582.000000	7.830166
583.000000	7.810566
584.000000	7.793127
585.000000	7.777568
586.000000	7.763394
587.000000	7.748573
588.000000	7.733487
589.000000	7.717668
590.000000	7.701304
591.000000	7.683019
592.000000	7.663123
593.000000	7.641664
594.000000	7.618334
595.000000	7.593005
596.000000	7.565109
597.000000	7.536413
598.000000	7.506660
599.000000	7.476415
600.000000	7.445539
601.000000	7.416419
602.000000	7.389160
603.000000	7.364530
604.000000	7.343869
605.000000	7.326839
606.000000	7.314060
607.000000	7.306169
608.000000	7.302398
609.000000	7.303021
610.000000	7.307484
611.000000	7.315064
612.000000	7.323989
613.000000	7.334316
614.000000	7.343960
615.000000	7.352588
616.000000	7.360163
617.000000	7.365067
618.000000	7.368134
619.000000	7.368682
620.000000	7.367452
621.000000	7.365047
622.000000	7.362098
623.000000	7.359019
624.000000	7.357020
625.000000	7.356923
626.000000	7.358910
627.000000	7.363902
628.000000	7.372414
629.000000	7.384338
630.000000	7.400137
631.000000	7.418349
632.000000	7.439036
633.000000	7.461539
634.000000	7.485610
635.000000	7.510028
636.000000	7.533336
637.000000	7.556421
638.000000	7.577962
639.000000	7.597874
640.000000	7.615100
641.000000	7.631289
642.000000	7.646048
643.000000	7.659783
644.000000	7.672882
645.000000	7.686934
646.000000	7.702549
647.000000	7.719690
648.000000	7.739086
649.000000	7.760944
650.000000	7.786377
651.000000	7.814758
652.000000	7.846864
653.000000	7.881446
654.000000	7.918119
655.000000	7.957189
656.000000	7.998384
657.000000	8.040035
658.000000	8.082849
659.000000	8.125826
660.000000	8.168499
661.000000	8.209539
662.000000	8.249221
663.000000	8.289248
664.000000	8.328792
665.000000	8.366317
666.000000	8.403169
667.000000	8.440225
668.000000	8.477436
669.000000	8.515320
670.000000	8.554820
671.000000	8.596834
672.000000	8.641564
673.000000	8.688494
674.000000	8.738297
675.000000	8.791775
676.000000	8.847735
677.000000	8.905858
678.000000	8.965974
679.000000	9.028721
680.000000	9.091824
681.000000	9.156041
682.000000	9.220131
683.000000	9.283392
684.000000	9.346029
685.000000	9.407683
686.000000	9.468715
687.000000	9.528580
688.000000	9.587425
689.000000	9.645313
690.000000	9.703194
691.000000	9.760932
692.000000	9.819085
693.000000	9.878897
694.000000	9.940260
695.000000	10.003668
696.000000	10.068759
697.000000	10.136286
698.000000	10.206072
699.000000	10.278226
700.000000	10.352497
701.000000	10.429361
702.000000	10.509611
703.000000	10.591344
704.000000	10.674433
705.000000	10.758240
706.000000	10.844405
707.000000	10.932395
708.000000	11.021350
709.000000	11.110919
710.000000	11.200203
711.000000	11.289953
712.000000	11.379399
713.000000	11.468613
714.000000	11.558283
715.000000	11.649134
716.000000	11.739383
717.000000	11.830889
718.000000	11.924063
719.000000	12.019061
720.000000	12.118552
721.000000	12.220021
722.000000	12.324001
723.000000	12.432062
724.000000	12.543233
725.000000	12.657881
726.000000	12.776111
727.000000	12.897062
728.000000	13.019662
729.000000	13.145186
730.000000	13.273018
731.000000	13.403983
732.000000	13.536976
733.000000	13.670937
734.000000	13.806303
735.000000	13.943246
736.000000	14.081920
737.000000	14.221155
738.000000	14.360952
739.000000	14.501021
740.000000	14.642283
741.000000	14.782527
742.000000	14.922669
743.000000	15.063866
744.000000	15.207455
745.000000	15.351254
746.000000	15.493946
747.000000	15.637138
748.000000	15.783365
749.000000	15.931853
750.000000	16.079849
751.000000	16.229702
752.000000	16.382365
753.000000	16.535450
754.000000	16.687472
755.000000	16.841442
756.000000	16.999007
757.000000	17.157223
758.000000	17.315679
759.000000	17.473248
760.000000	17.630229
761.000000	17.787272
762.000000	17.942577
763.000000	18.100888
764.000000	18.259900
765.000000	18.415209
766.000000	18.569067
767.000000	18.722985
768.000000	18.875039
769.000000	19.026141
770.000000	19.174219
771.000000	19.321617
772.000000	19.468681
773.000000	19.611069
774.000000	19.751488
775.000000	19.892894
776.000000	20.032083
777.000000	20.168962
778.000000	20.307475
779.000000	20.442944
780.000000	20.580395
781.000000	20.716565
782.000000	20.853170
783.000000	20.989522
784.000000	21.127074
785.000000	21.264986
786.000000	21.401951
787.000000	21.536564
788.000000	21.669061
789.000000	21.802040
790.000000	21.933813
791.000000	22.064097
792.000000	22.192232
793.000000	22.319043
794.000000	22.441167
795.000000	22.561740
796.000000	22.679904
797.000000	22.796530
798.000000	22.911191
799.000000	23.026889
800.000000	23.138659
801.000000	23.246428
802.000000	23.353440
803.000000	23.457277
804.000000	23.559030
805.000000	23.664474
806.000000	23.770198
807.000000	23.871301
808.000000	23.974373
809.000000	24.077178
810.000000	24.178076
811.000000	24.278973
812.000000	24.376807
813.000000	24.477218
814.000000	24.575365
815.000000	24.665936
816.000000	24.753111
817.000000	24.848017
818.000000	24.940134
819.000000	25.028956
820.000000	25.118253
821.000000	25.208258
822.000000	25.298073
823.000000	25.378062
824.000000	25.460516
825.000000	25.542226
826.000000	25.628071
827.000000	25.710616
828.000000	25.790315
829.000000	25.862868
830.000000	25.930881
831.000000	25.995099
832.000000	26.061958
833.000000	26.136172
834.000000	26.203816
835.000000	26.271285
836.000000	26.331458
837.000000	26.396075
838.000000	26.449173
839.000000	26.507473
840.000000	26.567303
841.000000	26.628911
842.000000	26.690008
843.000000	26.747928
844.000000	26.804130
845.000000	26.860168
846.000000	26.914512
847.000000	26.958409
848.000000	27.015733
849.000000	27.065149
850.000000	27.115614
851.000000	27.166192
852.000000	27.206221
853.000000	27.256659
854.000000	27.325770
855.000000	27.372058
856.000000	27.409791
857.000000	27.466154
858.000000	27.674308
859.000000	27.775730
860.000000	27.877078
861.000000	28.000877
862.000000	28.123356
863.000000	28.215488
864.000000	28.312240
865.000000	28.435151
866.000000	28.528761
867.000000	28.617190
868.000000	28.537005
869.000000	28.575372
870.000000	28.625218
871.000000	28.630900
872.000000	28.652162
873.000000	28.686265
874.000000	28.697140
875.000000	28.712265
876.000000	28.755215
877.000000	28.793412
878.000000	28.829370
879.000000	28.863373
880.000000	28.890452
881.000000	28.927682
882.000000	28.953737
883.000000	28.975677
884.000000	29.016120
885.000000	29.044920
886.000000	29.085552
887.000000	29.117885
888.000000	29.151860
889.000000	29.177218
890.000000	29.205150
891.000000	29.245205
892.000000	29.274920
893.000000	29.315160
894.000000	29.343945
895.000000	29.373440
896.000000	29.402587
897.000000	29.434447
898.000000	29.475683
899.000000	29.525150
900.000000	29.572547
901.000000	29.597690
902.000000	29.637048
903.000000	29.676538
904.000000	29.712880
905.000000	29.749928
906.000000	29.786250
907.000000	29.817570
908.000000	29.855230
909.000000	29.887910
910.000000	29.917563
911.000000	29.963952
912.000000	30.010715
913.000000	30.057037
914.000000	30.105897
915.000000	30.152005
916.000000	30.200525
917.000000	30.258892
918.000000	30.309415
919.000000	30.361000
920.000000	30.407650
921.000000	30.457200
922.000000	30.507313
923.000000	30.562143
924.000000	30.612808
925.000000	30.664558
926.000000	30.721215
927.000000	30.773225
928.000000	30.830725
929.000000	30.887345
930.000000	30.947018
931.000000	31.008280
932.000000	31.069430
933.000000	31.129260
934.000000	31.190062
935.000000	31.254642
936.000000	31.319050
937.000000	31.384300
938.000000	31.449420
939.000000	31.515172
940.000000	31.579125
941.000000	31.645463
942.000000	31.714198
943.000000	31.781973
944.000000	31.852408
945.000000	31.922570
946.000000	31.990877
947.000000	32.058937
948.000000	32.128740
949.000000	32.199247
950.000000	32.272958
951.000000	32.344675
952.000000	32.413243
953.000000	32.479892
954.000000	32.544620
955.000000	32.607988
956.000000	32.670937
957.000000	32.735292
958.000000	32.797410
959.000000	32.859932
960.000000	32.922328
961.000000	32.984470
962.000000	33.045117
963.000000	33.107343
964.000000	33.171105
965.000000	33.234327
966.000000	33.293410
967.000000	33.352247
968.000000	33.410993
969.000000	33.467098
970.000000	33.521878
971.000000	33.577595
972.000000	33.631808
973.000000	33.685735
974.000000	33.740228
975.000000	33.795808
976.000000	33.852812
977.000000	33.907872
978.000000	33.963240
979.000000	34.020020
980.000000	34.076650
981.000000	34.131105
982.000000	34.185947
983.000000	34.240685
984.000000	34.294580
985.000000	34.347423
986.000000	34.400842
987.000000	34.454053
988.000000	34.506367
989.000000	34.560585
990.000000	34.614663
991.000000	34.666408
992.000000	34.717972
993.000000	34.769427
994.000000	34.820637
995.000000	34.872330
996.000000	34.924447
997.000000	34.977325
998.000000	35.028928
999.000000	35.076878
1000.000000	35.125087
1001.000000	35.176790
1002.000000	35.228412
1003.000000	35.277470
1004.000000	35.325935
1005.000000	35.373800
1006.000000	35.420367
1007.000000	35.465398
1008.000000	35.511390
1009.000000	35.559987
1010.000000	35.607670
1011.000000	35.652370
1012.000000	35.697175
1013.000000	35.743408
1014.000000	35.790638
1015.000000	35.837830
1016.000000	35.883985
1017.000000	35.929855
1018.000000	35.976347
1019.000000	36.022150
1020.000000	36.069057
1021.000000	36.118245
1022.000000	36.167328
1023.000000	36.216305
1024.000000	36.265425
1025.000000	36.315658
1026.000000	36.366345
1027.000000	36.416775
1028.000000	36.466453
1029.000000	36.516450
1030.000000	36.566688
1031.000000	36.615612
1032.000000	36.665887
1033.000000	36.716555
1034.000000	36.765660
1035.000000	36.813172
1036.000000	36.862860
1037.000000	36.913162
1038.000000	36.963903
1039.000000	37.014575
1040.000000	37.063488
1041.000000	37.113177
1042.000000	37.161165
1043.000000	37.208840
1044.000000	37.257985
1045.000000	37.309003
1046.000000	37.359243
1047.000000	37.409165
1048.000000	37.458782
1049.000000	37.509177
1050.000000	37.561870
1051.000000	37.615535
1052.000000	37.669180
1053.000000	37.722995
1054.000000	37.776655
1055.000000	37.829285
1056.000000	37.881848
1057.000000	37.934850
1058.000000	37.988710
1059.000000	38.042725
1060.000000	38.097122
1061.000000	38.150182
1062.000000	38.203805
1063.000000	38.257928
1064.000000	38.312585
1065.000000	38.366390
1066.000000	38.419377
1067.000000	38.472433
1068.000000	38.526497
1069.000000	38.580448
1070.000000	38.633025
1071.000000	38.686217
1072.000000	38.739910
1073.000000	38.792655
1074.000000	38.844552
1075.000000	38.896905
1076.000000	38.949865
1077.000000	39.003087
1078.000000	39.053390
1079.000000	39.102617
1080.000000	39.150852
1081.000000	39.198965
1082.000000	39.247057
1083.000000	39.294305
1084.000000	39.340408
1085.000000	39.386935
1086.000000	39.433258
1087.000000	39.478505
1088.000000	39.524822
1089.000000	39.569603
1090.000000	39.614940
1091.000000	39.658277
1092.000000	39.700698
1093.000000	39.742785
1094.000000	39.785395
1095.000000	39.826993
1096.000000	39.866765
1097.000000	39.906785
1098.000000	39.945770
1099.000000	39.985110
1100.000000	40.022795
1101.000000	40.061548
1102.000000	40.098663
1103.000000	40.135018
1104.000000	40.170172
1105.000000	40.203888
1106.000000	40.237797
1107.000000	40.270315
1108.000000	40.302678
1109.000000	40.334423
1110.000000	40.366343
1111.000000	40.395145
1112.000000	40.424980
1113.000000	40.454350
1114.000000	40.483207
1115.000000	40.510965
1116.000000	40.537040
1117.000000	40.562755
1118.000000	40.586452
1119.000000	40.607750
1120.000000	40.628210
1121.000000	40.649257
1122.000000	40.665695
1123.000000	40.681410
1124.000000	40.692388
1125.000000	40.700500
1126.000000	40.705628
1127.000000	40.707808
1128.000000	40.707320
1129.000000	40.703010
1130.000000	40.691963
1131.000000	40.672923
1132.000000	40.650402
1133.000000	40.624615
1134.000000	40.597323
1135.000000	40.567372
1136.000000	40.531602
1137.000000	40.489860
1138.000000	40.444615
1139.000000	40.396763
1140.000000	40.348895
1141.000000	40.301547
1142.000000	40.252027
1143.000000	40.199847
1144.000000	40.146150
1145.000000	40.090500
1146.000000	40.037425
1147.000000	39.984320
1148.000000	39.928920
1149.000000	39.874985
1150.000000	39.819583
1151.000000	39.763865
1152.000000	39.710710
1153.000000	39.656528
1154.000000	39.600342
1155.000000	39.542308
1156.000000	39.481448
1157.000000	39.417858
1158.000000	39.351340
1159.000000	39.280163
1160.000000	39.204458
1161.000000	39.124893
1162.000000	39.037343
1163.000000	38.945730
1164.000000	38.851685
1165.000000	38.755860
1166.000000	38.659948
1167.000000	38.563882
1168.000000	38.473002
1169.000000	38.385865
1170.000000	38.302997
1171.000000	38.224467
