PE UV       SUBTECH     SPECTRUM    ASCII       PEDS        4.00        
   -1
INBUCR0131-4.Sample.ASC
24/02/07
12:17:12.00
24/02/07
12:17:12.00
Vinicio Soto Monge
Pelidnota prolixa. Color café con ambos élitros (Det: A. Solís) COSTA RICA Prov. Puntarenas. Golfito. Jiménez. Est. FJ Tigre, Area Administrativa. 47 m. 15-16 NOV 2007. J. A. Azofeifa. Tp Luz. L_S_277800_529600 #92867 INB0004128045 INBIOCRI COSTA RICA 
250,000000
1
Lambda 1050
1050L1511233
PerkinElmer UV WinLab 6.3.2.0749 / 2.02.05 Lambda 900 UV/VIS/NIR, Aug  7 2015 09:38:08

0
0
3350/servo 860,8/2
0
0
UV/VIS
1
1
1
DoubleDePol,CommonBeamDepol,RBeamAtt,SBeamAtt,60mm sphere, WB InGaAs Detector
0
0
0
0
Program
Program
3350/servo 860,8/2
3350/0,2 860,8/0,2
3350/0,2 860,8/0,2
0
15.00
 
 
 
0
 
860,8
319,2
860,8
Front
100
on
S:100 R:100
0
0
0
0
 
0
 
 
 
0
 
 
0
0
0
0
0
 
 
 
 
0
0


0
0
#HDR
-1
-1
#GR
nm
%R
1.0
0.0
2500,000000
-1,000000
2251
8
17,747900
1,072000
#DATA

250.000000	nan
251.000000	nan
252.000000	nan
253.000000	nan
254.000000	nan
255.000000	nan
256.000000	nan
257.000000	nan
258.000000	nan
259.000000	3.905136
260.000000	3.895447
261.000000	3.885139
262.000000	3.873509
263.000000	3.861063
264.000000	3.847984
265.000000	3.833794
266.000000	3.818150
267.000000	3.804725
268.000000	3.789276
269.000000	3.773654
270.000000	3.756389
271.000000	3.741427
272.000000	3.727558
273.000000	3.714786
274.000000	3.703189
275.000000	3.690555
276.000000	3.681580
277.000000	3.669806
278.000000	3.659993
279.000000	3.652059
280.000000	3.645959
281.000000	3.634953
282.000000	3.626994
283.000000	3.619197
284.000000	3.611931
285.000000	3.603459
286.000000	3.596862
287.000000	3.592577
288.000000	3.588815
289.000000	3.583873
290.000000	3.579883
291.000000	3.581372
292.000000	3.580490
293.000000	3.579851
294.000000	3.579693
295.000000	3.583206
296.000000	3.583361
297.000000	3.584213
298.000000	3.582634
299.000000	3.582593
300.000000	3.581607
301.000000	3.580331
302.000000	3.579416
303.000000	3.578882
304.000000	3.579307
305.000000	3.576787
306.000000	3.574318
307.000000	3.572954
308.000000	3.572209
309.000000	3.571664
310.000000	3.570122
311.000000	3.568264
312.000000	3.568185
313.000000	3.565978
314.000000	3.563346
315.000000	3.564562
316.000000	3.564973
317.000000	3.580846
318.000000	3.594772
319.000000	3.607152
320.000000	3.618495
321.000000	3.632132
322.000000	3.634195
323.000000	3.635464
324.000000	3.643425
325.000000	3.645981
326.000000	3.650172
327.000000	3.638287
328.000000	3.630529
329.000000	3.622411
330.000000	3.621068
331.000000	3.611754
332.000000	3.614757
333.000000	3.619804
334.000000	3.619553
335.000000	3.620175
336.000000	3.618743
337.000000	3.617172
338.000000	3.617754
339.000000	3.616941
340.000000	3.612286
341.000000	3.615176
342.000000	3.614844
343.000000	3.612074
344.000000	3.608076
345.000000	3.608259
346.000000	3.608416
347.000000	3.606260
348.000000	3.601841
349.000000	3.600304
350.000000	3.598986
351.000000	3.595343
352.000000	3.594739
353.000000	3.595648
354.000000	3.595499
355.000000	3.591632
356.000000	3.589659
357.000000	3.591015
358.000000	3.591420
359.000000	3.591473
360.000000	3.591909
361.000000	3.589817
362.000000	3.585033
363.000000	3.584556
364.000000	3.583194
365.000000	3.584662
366.000000	3.584645
367.000000	3.583204
368.000000	3.580236
369.000000	3.577235
370.000000	3.575699
371.000000	3.573520
372.000000	3.572758
373.000000	3.570155
374.000000	3.568620
375.000000	3.565550
376.000000	3.563727
377.000000	3.553385
378.000000	3.544567
379.000000	3.536886
380.000000	3.526893
381.000000	3.519220
382.000000	3.510317
383.000000	3.500593
384.000000	3.490468
385.000000	3.481879
386.000000	3.473901
387.000000	3.472997
388.000000	3.472791
389.000000	3.472380
390.000000	3.471498
391.000000	3.470671
392.000000	3.469821
393.000000	3.469606
394.000000	3.469697
395.000000	3.469629
396.000000	3.469147
397.000000	3.469867
398.000000	3.470039
399.000000	3.470463
400.000000	3.470983
401.000000	3.471752
402.000000	3.473014
403.000000	3.474221
404.000000	3.475453
405.000000	3.476713
406.000000	3.478971
407.000000	3.481764
408.000000	3.484468
409.000000	3.486985
410.000000	3.490156
411.000000	3.493916
412.000000	3.497991
413.000000	3.502722
414.000000	3.508341
415.000000	3.514393
416.000000	3.520448
417.000000	3.527025
418.000000	3.534669
419.000000	3.543678
420.000000	3.553681
421.000000	3.564563
422.000000	3.576311
423.000000	3.588861
424.000000	3.602538
425.000000	3.617299
426.000000	3.633110
427.000000	3.649843
428.000000	3.667069
429.000000	3.684689
430.000000	3.702946
431.000000	3.722202
432.000000	3.742438
433.000000	3.763065
434.000000	3.783779
435.000000	3.804961
436.000000	3.826424
437.000000	3.848164
438.000000	3.870910
439.000000	3.894457
440.000000	3.918429
441.000000	3.942974
442.000000	3.967768
443.000000	3.993094
444.000000	4.019136
445.000000	4.045789
446.000000	4.072905
447.000000	4.100526
448.000000	4.128929
449.000000	4.157569
450.000000	4.186310
451.000000	4.215129
452.000000	4.244459
453.000000	4.274499
454.000000	4.304708
455.000000	4.334728
456.000000	4.365398
457.000000	4.396191
458.000000	4.426722
459.000000	4.457861
460.000000	4.489479
461.000000	4.521136
462.000000	4.552915
463.000000	4.584580
464.000000	4.616095
465.000000	4.648346
466.000000	4.680750
467.000000	4.713195
468.000000	4.745939
469.000000	4.778579
470.000000	4.811351
471.000000	4.844453
472.000000	4.877357
473.000000	4.910317
474.000000	4.943595
475.000000	4.977009
476.000000	5.010511
477.000000	5.044246
478.000000	5.078313
479.000000	5.112750
480.000000	5.147381
481.000000	5.181618
482.000000	5.216463
483.000000	5.251623
484.000000	5.287095
485.000000	5.322977
486.000000	5.359218
487.000000	5.395695
488.000000	5.432373
489.000000	5.468747
490.000000	5.505581
491.000000	5.543834
492.000000	5.582604
493.000000	5.621830
494.000000	5.661418
495.000000	5.701466
496.000000	5.741631
497.000000	5.782604
498.000000	5.823849
499.000000	5.865996
500.000000	5.908512
501.000000	5.950945
502.000000	5.993730
503.000000	6.036906
504.000000	6.080727
505.000000	6.124855
506.000000	6.170105
507.000000	6.215597
508.000000	6.261423
509.000000	6.307538
510.000000	6.354384
511.000000	6.401628
512.000000	6.449401
513.000000	6.498177
514.000000	6.547570
515.000000	6.597602
516.000000	6.647828
517.000000	6.699040
518.000000	6.751465
519.000000	6.804654
520.000000	6.858264
521.000000	6.913374
522.000000	6.969516
523.000000	7.026510
524.000000	7.084420
525.000000	7.143236
526.000000	7.203235
527.000000	7.263969
528.000000	7.325885
529.000000	7.389188
530.000000	7.453753
531.000000	7.519345
532.000000	7.585657
533.000000	7.652899
534.000000	7.721614
535.000000	7.791613
536.000000	7.862452
537.000000	7.934538
538.000000	8.007629
539.000000	8.081962
540.000000	8.157280
541.000000	8.233470
542.000000	8.310828
543.000000	8.389660
544.000000	8.469105
545.000000	8.549530
546.000000	8.631205
547.000000	8.714328
548.000000	8.797864
549.000000	8.881651
550.000000	8.966778
551.000000	9.052658
552.000000	9.139457
553.000000	9.226707
554.000000	9.314940
555.000000	9.403907
556.000000	9.493708
557.000000	9.583255
558.000000	9.673438
559.000000	9.764737
560.000000	9.853038
561.000000	9.941776
562.000000	10.030497
563.000000	10.120134
564.000000	10.209896
565.000000	10.300166
566.000000	10.390752
567.000000	10.482230
568.000000	10.574552
569.000000	10.667481
570.000000	10.763884
571.000000	10.860472
572.000000	10.958337
573.000000	11.056728
574.000000	11.155288
575.000000	11.254277
576.000000	11.353901
577.000000	11.454046
578.000000	11.554206
579.000000	11.654266
580.000000	11.755170
581.000000	11.856798
582.000000	11.958632
583.000000	12.060711
584.000000	12.163895
585.000000	12.267340
586.000000	12.371140
587.000000	12.475588
588.000000	12.580208
589.000000	12.686377
590.000000	12.793402
591.000000	12.900253
592.000000	13.008447
593.000000	13.117172
594.000000	13.225698
595.000000	13.335259
596.000000	13.446091
597.000000	13.556710
598.000000	13.668954
599.000000	13.780814
600.000000	13.892825
601.000000	14.007203
602.000000	14.121121
603.000000	14.236312
604.000000	14.352002
605.000000	14.468365
606.000000	14.584853
607.000000	14.702466
608.000000	14.820465
609.000000	14.939766
610.000000	15.059219
611.000000	15.178828
612.000000	15.299547
613.000000	15.420675
614.000000	15.542556
615.000000	15.664778
616.000000	15.787330
617.000000	15.911102
618.000000	16.034745
619.000000	16.158204
620.000000	16.283060
621.000000	16.407737
622.000000	16.532637
623.000000	16.657579
624.000000	16.783782
625.000000	16.910114
626.000000	17.037067
627.000000	17.164338
628.000000	17.291792
629.000000	17.420728
630.000000	17.549064
631.000000	17.678302
632.000000	17.808187
633.000000	17.939679
634.000000	18.071075
635.000000	18.203057
636.000000	18.335785
637.000000	18.467742
638.000000	18.601441
639.000000	18.734058
640.000000	18.867641
641.000000	19.002653
642.000000	19.138760
643.000000	19.273776
644.000000	19.409685
645.000000	19.545487
646.000000	19.681402
647.000000	19.818561
648.000000	19.955968
649.000000	20.095304
650.000000	20.235232
651.000000	20.373869
652.000000	20.512906
653.000000	20.652527
654.000000	20.792169
655.000000	20.932420
656.000000	21.073121
657.000000	21.213389
658.000000	21.354224
659.000000	21.494386
660.000000	21.634395
661.000000	21.773721
662.000000	21.912647
663.000000	22.052116
664.000000	22.191961
665.000000	22.331039
666.000000	22.469344
667.000000	22.608113
668.000000	22.746288
669.000000	22.883698
670.000000	23.020115
671.000000	23.157317
672.000000	23.293360
673.000000	23.428160
674.000000	23.563054
675.000000	23.697708
676.000000	23.832120
677.000000	23.965835
678.000000	24.098441
679.000000	24.230764
680.000000	24.363590
681.000000	24.496809
682.000000	24.629422
683.000000	24.761937
684.000000	24.891588
685.000000	25.022114
686.000000	25.152051
687.000000	25.281847
688.000000	25.413036
689.000000	25.543337
690.000000	25.674109
691.000000	25.803445
692.000000	25.931948
693.000000	26.059303
694.000000	26.186750
695.000000	26.312675
696.000000	26.439040
697.000000	26.564836
698.000000	26.688484
699.000000	26.813195
700.000000	26.936821
701.000000	27.061318
702.000000	27.185646
703.000000	27.309566
704.000000	27.434643
705.000000	27.560154
706.000000	27.684512
707.000000	27.809027
708.000000	27.934329
709.000000	28.058850
710.000000	28.182983
711.000000	28.304958
712.000000	28.426705
713.000000	28.550167
714.000000	28.673107
715.000000	28.796123
716.000000	28.920574
717.000000	29.042561
718.000000	29.162802
719.000000	29.282637
720.000000	29.401795
721.000000	29.523783
722.000000	29.646810
723.000000	29.767278
724.000000	29.887282
725.000000	30.006953
726.000000	30.125429
727.000000	30.243701
728.000000	30.363579
729.000000	30.484660
730.000000	30.607556
731.000000	30.726472
732.000000	30.844056
733.000000	30.963234
734.000000	31.081992
735.000000	31.200351
736.000000	31.318402
737.000000	31.438177
738.000000	31.556477
739.000000	31.672961
740.000000	31.787235
741.000000	31.902795
742.000000	32.021528
743.000000	32.141000
744.000000	32.261416
745.000000	32.379549
746.000000	32.495887
747.000000	32.614298
748.000000	32.733102
749.000000	32.851477
750.000000	32.967891
751.000000	33.084997
752.000000	33.199818
753.000000	33.313424
754.000000	33.428667
755.000000	33.549255
756.000000	33.670906
757.000000	33.786508
758.000000	33.901226
759.000000	34.019440
760.000000	34.142357
761.000000	34.264237
762.000000	34.382006
763.000000	34.500509
764.000000	34.618390
765.000000	34.732103
766.000000	34.846912
767.000000	34.968057
768.000000	35.088900
769.000000	35.204808
770.000000	35.319279
771.000000	35.433921
772.000000	35.551368
773.000000	35.663579
774.000000	35.776117
775.000000	35.889673
776.000000	36.002134
777.000000	36.113036
778.000000	36.228663
779.000000	36.343798
780.000000	36.458284
781.000000	36.571219
782.000000	36.685715
783.000000	36.803426
784.000000	36.920542
785.000000	37.036735
786.000000	37.149136
787.000000	37.266188
788.000000	37.377345
789.000000	37.488216
790.000000	37.599459
791.000000	37.712872
792.000000	37.821512
793.000000	37.933920
794.000000	38.045771
795.000000	38.154056
796.000000	38.266118
797.000000	38.370324
798.000000	38.479589
799.000000	38.589656
800.000000	38.698594
801.000000	38.804744
802.000000	38.918317
803.000000	39.024373
804.000000	39.129199
805.000000	39.238433
806.000000	39.349195
807.000000	39.458475
808.000000	39.566721
809.000000	39.674837
810.000000	39.782766
811.000000	39.887119
812.000000	39.988249
813.000000	40.096456
814.000000	40.200879
815.000000	40.301811
816.000000	40.403349
817.000000	40.500829
818.000000	40.599838
819.000000	40.693159
820.000000	40.792205
821.000000	40.888554
822.000000	40.985319
823.000000	41.067261
824.000000	41.158503
825.000000	41.250863
826.000000	41.339165
827.000000	41.427046
828.000000	41.512368
829.000000	41.600341
830.000000	41.676613
831.000000	41.759382
832.000000	41.838969
833.000000	41.929213
834.000000	42.010751
835.000000	42.080174
836.000000	42.150685
837.000000	42.229006
838.000000	42.300635
839.000000	42.373128
840.000000	42.452517
841.000000	42.517877
842.000000	42.579602
843.000000	42.648981
844.000000	42.721694
845.000000	42.794799
846.000000	42.863808
847.000000	42.925349
848.000000	42.985661
849.000000	43.032455
850.000000	43.073645
851.000000	43.130763
852.000000	43.180497
853.000000	43.226301
854.000000	43.258093
855.000000	43.292475
856.000000	43.347269
857.000000	43.391080
858.000000	43.531030
859.000000	43.661476
860.000000	43.805782
861.000000	43.936608
862.000000	44.072759
863.000000	44.209211
864.000000	44.339229
865.000000	44.477708
866.000000	44.587402
867.000000	44.696519
868.000000	44.717120
869.000000	44.750565
870.000000	44.760782
871.000000	44.797605
872.000000	44.811018
873.000000	44.805693
874.000000	44.822758
875.000000	44.829185
876.000000	44.841417
877.000000	44.856230
878.000000	44.870145
879.000000	44.879025
880.000000	44.901418
881.000000	44.900585
882.000000	44.931798
883.000000	44.957932
884.000000	44.966575
885.000000	44.982195
886.000000	44.994425
887.000000	45.004330
888.000000	45.013720
889.000000	45.029908
890.000000	45.034335
891.000000	45.031905
892.000000	45.021465
893.000000	45.024920
894.000000	45.021635
895.000000	45.020660
896.000000	45.021017
897.000000	45.032603
898.000000	45.043143
899.000000	45.050625
900.000000	45.061060
901.000000	45.066695
902.000000	45.079315
903.000000	45.085223
904.000000	45.110920
905.000000	45.123852
906.000000	45.143550
907.000000	45.158502
908.000000	45.168500
909.000000	45.178435
910.000000	45.190678
911.000000	45.216118
912.000000	45.238122
913.000000	45.259145
914.000000	45.279570
915.000000	45.299640
916.000000	45.316187
917.000000	45.335887
918.000000	45.357490
919.000000	45.386138
920.000000	45.411247
921.000000	45.434533
922.000000	45.454365
923.000000	45.479330
924.000000	45.500082
925.000000	45.524135
926.000000	45.549037
927.000000	45.573813
928.000000	45.593792
929.000000	45.610228
930.000000	45.628548
931.000000	45.649410
932.000000	45.669142
933.000000	45.684535
934.000000	45.697100
935.000000	45.716725
936.000000	45.732435
937.000000	45.746610
938.000000	45.757310
939.000000	45.767000
940.000000	45.776270
941.000000	45.787005
942.000000	45.794975
943.000000	45.804140
944.000000	45.814540
945.000000	45.821138
946.000000	45.826817
947.000000	45.833773
948.000000	45.844352
949.000000	45.857582
950.000000	45.871330
951.000000	45.877260
952.000000	45.885765
953.000000	45.895350
954.000000	45.903258
955.000000	45.912565
956.000000	45.922300
957.000000	45.926958
958.000000	45.931445
959.000000	45.935488
960.000000	45.939360
961.000000	45.945190
962.000000	45.946915
963.000000	45.951255
964.000000	45.956880
965.000000	45.960640
966.000000	45.963715
967.000000	45.969440
968.000000	45.973430
969.000000	45.976418
970.000000	45.976875
971.000000	45.978027
972.000000	45.983022
973.000000	45.985755
974.000000	45.985682
975.000000	45.984758
976.000000	45.983297
977.000000	45.982840
978.000000	45.982450
979.000000	45.984055
980.000000	45.984642
981.000000	45.983528
982.000000	45.980550
983.000000	45.977337
984.000000	45.974550
985.000000	45.971505
986.000000	45.968295
987.000000	45.966795
988.000000	45.965623
989.000000	45.963058
990.000000	45.961738
991.000000	45.960905
992.000000	45.959897
993.000000	45.959717
994.000000	45.960118
995.000000	45.961728
996.000000	45.963490
997.000000	45.963870
998.000000	45.963962
999.000000	45.963065
1000.000000	45.961607
1001.000000	45.962385
1002.000000	45.962073
1003.000000	45.961455
1004.000000	45.960383
1005.000000	45.957835
1006.000000	45.955237
1007.000000	45.953645
1008.000000	45.951113
1009.000000	45.950308
1010.000000	45.951693
1011.000000	45.951123
1012.000000	45.949930
1013.000000	45.950610
1014.000000	45.952568
1015.000000	45.956245
1016.000000	45.960465
1017.000000	45.962578
1018.000000	45.967035
1019.000000	45.972625
1020.000000	45.978050
1021.000000	45.987095
1022.000000	45.999865
1023.000000	46.012110
1024.000000	46.023832
1025.000000	46.035670
1026.000000	46.049163
1027.000000	46.064727
1028.000000	46.080230
1029.000000	46.095730
1030.000000	46.112530
1031.000000	46.128808
1032.000000	46.144938
1033.000000	46.160647
1034.000000	46.177105
1035.000000	46.195020
1036.000000	46.212330
1037.000000	46.230223
1038.000000	46.247710
1039.000000	46.264378
1040.000000	46.279005
1041.000000	46.294303
1042.000000	46.310192
1043.000000	46.325128
1044.000000	46.340663
1045.000000	46.354867
1046.000000	46.368803
1047.000000	46.381187
1048.000000	46.393345
1049.000000	46.406965
1050.000000	46.421970
1051.000000	46.435310
1052.000000	46.447400
1053.000000	46.461890
1054.000000	46.475887
1055.000000	46.490122
1056.000000	46.505385
1057.000000	46.521770
1058.000000	46.539615
1059.000000	46.556815
1060.000000	46.573682
1061.000000	46.590998
1062.000000	46.609517
1063.000000	46.627150
1064.000000	46.647137
1065.000000	46.666440
1066.000000	46.684390
1067.000000	46.703148
1068.000000	46.720460
1069.000000	46.737280
1070.000000	46.755095
1071.000000	46.773120
1072.000000	46.791038
1073.000000	46.809393
1074.000000	46.825172
1075.000000	46.841650
1076.000000	46.859158
1077.000000	46.875280
1078.000000	46.891720
1079.000000	46.908110
1080.000000	46.921850
1081.000000	46.938417
1082.000000	46.953093
1083.000000	46.965895
1084.000000	46.977105
1085.000000	46.988712
1086.000000	46.999977
1087.000000	47.011482
1088.000000	47.023035
1089.000000	47.034980
1090.000000	47.046908
1091.000000	47.056140
1092.000000	47.063850
1093.000000	47.072522
1094.000000	47.081120
1095.000000	47.089085
1096.000000	47.094747
1097.000000	47.100238
1098.000000	47.106150
1099.000000	47.110375
1100.000000	47.114055
1101.000000	47.117692
1102.000000	47.119875
1103.000000	47.121310
1104.000000	47.123115
1105.000000	47.125250
1106.000000	47.127938
1107.000000	47.128430
1108.000000	47.126778
1109.000000	47.124760
1110.000000	47.122450
1111.000000	47.118205
1112.000000	47.113577
1113.000000	47.107323
1114.000000	47.099827
1115.000000	47.091657
1116.000000	47.081277
1117.000000	47.070565
1118.000000	47.059395
1119.000000	47.047620
1120.000000	47.034047
1121.000000	47.018335
1122.000000	47.003068
1123.000000	46.985765
1124.000000	46.965772
1125.000000	46.939770
1126.000000	46.911055
1127.000000	46.878703
1128.000000	46.840595
1129.000000	46.796690
1130.000000	46.746140
1131.000000	46.688653
1132.000000	46.624138
1133.000000	46.558388
1134.000000	46.490740
1135.000000	46.421098
1136.000000	46.346108
1137.000000	46.264660
1138.000000	46.182572
1139.000000	46.098532
1140.000000	46.016072
1141.000000	45.934668
1142.000000	45.855947
1143.000000	45.776720
1144.000000	45.699030
1145.000000	45.622935
1146.000000	45.550570
1147.000000	45.484262
1148.000000	45.418860
1149.000000	45.354157
1150.000000	45.291725
1151.000000	45.230100
1152.000000	45.167702
1153.000000	45.100747
1154.000000	45.029457
1155.000000	44.953045
1156.000000	44.872585
1157.000000	44.785265
1158.000000	44.693027
1159.000000	44.596247
1160.000000	44.492375
1161.000000	44.382903
1162.000000	44.268142
1163.000000	44.148615
1164.000000	44.025712
1165.000000	43.901517
