PE UV       SUBTECH     SPECTRUM    ASCII       PEDS        4.00        
   -1
INBUCR0433-4.Sample.ASC
24/02/09
15:21:29.00
24/02/09
15:21:29.00
Vinicio Soto Monge
Chrysina cupreomarginata. Det: A. Solís. COSTA RICA. Prov San José. Pérez Zeledón. Estación Santa Elena. 1600 m. 21-29 JUL 1999. J. Rodríguez. de Luz L_S_373000_507500 #57317. INB00031565546 . Falta élitro izquierdo. 
250,000000
1
Lambda 1050
1050L1511233
PerkinElmer UV WinLab 6.3.2.0749 / 2.02.05 Lambda 900 UV/VIS/NIR, Aug  7 2015 09:38:08

0
0
3350/servo 860,8/2
0
0
UV/VIS
1
1
1
DoubleDePol,CommonBeamDepol,RBeamAtt,SBeamAtt,60mm sphere, WB InGaAs Detector
0
0
0
0
Program
Program
3350/servo 860,8/2
3350/0,2 860,8/0,2
3350/0,2 860,8/0,2
0
15.00
 
 
 
0
 
860,8
319,2
860,8
Front
100
on
S:100 R:100
0
0
0
0
 
0
 
 
 
0
 
 
0
0
0
0
0
 
 
 
 
0
0


0
0
#HDR
-1
-1
#GR
nm
%R
1.0
0.0
2500,000000
-1,000000
2251
8
15,493100
1,521000
#DATA

250.000000	nan
251.000000	nan
252.000000	nan
253.000000	nan
254.000000	nan
255.000000	nan
256.000000	nan
257.000000	nan
258.000000	nan
259.000000	3.762066
260.000000	3.759897
261.000000	3.755702
262.000000	3.752036
263.000000	3.749770
264.000000	3.748139
265.000000	3.747235
266.000000	3.744525
267.000000	3.742320
268.000000	3.740117
269.000000	3.733936
270.000000	3.730060
271.000000	3.728506
272.000000	3.726834
273.000000	3.725817
274.000000	3.722480
275.000000	3.720607
276.000000	3.719433
277.000000	3.718073
278.000000	3.717179
279.000000	3.719991
280.000000	3.720541
281.000000	3.720978
282.000000	3.720469
283.000000	3.719205
284.000000	3.719602
285.000000	3.719276
286.000000	3.720854
287.000000	3.749832
288.000000	3.751742
289.000000	3.778986
290.000000	3.808121
291.000000	3.838699
292.000000	3.841602
293.000000	3.871465
294.000000	3.902904
295.000000	3.932296
296.000000	3.960963
297.000000	3.958712
298.000000	3.987825
299.000000	3.989641
300.000000	3.992782
301.000000	3.994835
302.000000	4.026448
303.000000	4.028684
304.000000	4.030051
305.000000	4.033635
306.000000	4.036429
307.000000	4.043162
308.000000	4.047548
309.000000	4.048920
310.000000	4.048563
311.000000	4.049717
312.000000	4.049179
313.000000	4.052180
314.000000	4.054406
315.000000	4.056889
316.000000	4.059548
317.000000	4.093426
318.000000	4.121247
319.000000	4.145919
320.000000	4.168771
321.000000	4.200559
322.000000	4.235935
323.000000	4.254198
324.000000	4.282251
325.000000	4.300696
326.000000	4.316882
327.000000	4.296448
328.000000	4.282805
329.000000	4.275850
330.000000	4.268570
331.000000	4.254252
332.000000	4.227079
333.000000	4.220572
334.000000	4.203630
335.000000	4.196193
336.000000	4.186349
337.000000	4.191383
338.000000	4.185970
339.000000	4.179652
340.000000	4.176196
341.000000	4.170728
342.000000	4.171257
343.000000	4.164911
344.000000	4.165207
345.000000	4.161503
346.000000	4.168928
347.000000	4.163619
348.000000	4.159696
349.000000	4.164053
350.000000	4.164348
351.000000	4.160127
352.000000	4.162829
353.000000	4.167358
354.000000	4.161874
355.000000	4.161642
356.000000	4.157124
357.000000	4.154012
358.000000	4.157771
359.000000	4.149458
360.000000	4.146778
361.000000	4.148953
362.000000	4.147194
363.000000	4.143179
364.000000	4.143391
365.000000	4.138854
366.000000	4.135413
367.000000	4.131060
368.000000	4.126173
369.000000	4.123321
370.000000	4.117303
371.000000	4.109879
372.000000	4.097684
373.000000	4.088526
374.000000	4.077263
375.000000	4.068237
376.000000	4.067393
377.000000	4.057765
378.000000	4.048211
379.000000	4.041306
380.000000	4.035592
381.000000	4.029881
382.000000	4.029740
383.000000	4.028936
384.000000	4.030962
385.000000	4.033422
386.000000	4.053782
387.000000	4.085008
388.000000	4.116959
389.000000	4.149182
390.000000	4.181878
391.000000	4.214767
392.000000	4.247309
393.000000	4.279557
394.000000	4.312591
395.000000	4.345811
396.000000	4.350228
397.000000	4.355213
398.000000	4.360095
399.000000	4.364573
400.000000	4.369538
401.000000	4.374488
402.000000	4.380446
403.000000	4.386510
404.000000	4.392396
405.000000	4.398792
406.000000	4.405742
407.000000	4.413159
408.000000	4.421106
409.000000	4.429781
410.000000	4.438679
411.000000	4.448881
412.000000	4.459726
413.000000	4.471444
414.000000	4.484461
415.000000	4.527112
416.000000	4.571102
417.000000	4.616354
418.000000	4.662824
419.000000	4.710521
420.000000	4.759690
421.000000	4.809790
422.000000	4.861708
423.000000	4.915445
424.000000	4.970223
425.000000	4.997902
426.000000	5.026681
427.000000	5.056220
428.000000	5.115420
429.000000	5.175774
430.000000	5.237336
431.000000	5.300039
432.000000	5.363442
433.000000	5.427386
434.000000	5.492062
435.000000	5.557389
436.000000	5.623517
437.000000	5.690351
438.000000	5.729103
439.000000	5.767737
440.000000	5.834842
441.000000	5.901842
442.000000	5.968017
443.000000	6.033920
444.000000	6.099950
445.000000	6.165895
446.000000	6.231475
447.000000	6.296838
448.000000	6.362092
449.000000	6.427179
450.000000	6.463003
451.000000	6.498337
452.000000	6.533728
453.000000	6.597559
454.000000	6.660677
455.000000	6.722685
456.000000	6.783672
457.000000	6.844083
458.000000	6.904046
459.000000	6.963447
460.000000	7.022732
461.000000	7.082024
462.000000	7.140734
463.000000	7.169982
464.000000	7.199137
465.000000	7.228403
466.000000	7.257310
467.000000	7.285471
468.000000	7.313123
469.000000	7.369183
470.000000	7.424714
471.000000	7.479349
472.000000	7.533308
473.000000	7.586345
474.000000	7.638578
475.000000	7.689571
476.000000	7.739392
477.000000	7.788399
478.000000	7.836429
479.000000	7.854621
480.000000	7.870345
481.000000	7.883284
482.000000	7.894144
483.000000	7.904463
484.000000	7.914131
485.000000	7.923618
486.000000	7.933383
487.000000	7.942852
488.000000	7.980773
489.000000	8.019131
490.000000	8.059313
491.000000	8.102293
492.000000	8.147629
493.000000	8.194890
494.000000	8.244607
495.000000	8.326018
496.000000	8.410951
497.000000	8.500389
498.000000	8.566565
499.000000	8.638722
500.000000	8.746080
501.000000	8.860429
502.000000	8.981739
503.000000	9.109830
504.000000	9.243716
505.000000	9.381816
506.000000	9.523913
507.000000	9.668717
508.000000	9.815112
509.000000	9.961421
510.000000	10.077628
511.000000	10.220356
512.000000	10.360101
513.000000	10.495964
514.000000	10.627653
515.000000	10.726434
516.000000	10.849453
517.000000	10.968916
518.000000	11.084769
519.000000	11.197960
520.000000	11.309245
521.000000	11.418281
522.000000	11.526447
523.000000	11.634774
524.000000	11.772265
525.000000	11.911634
526.000000	12.024268
527.000000	12.138481
528.000000	12.283835
529.000000	12.432185
530.000000	12.583780
531.000000	12.739221
532.000000	12.898922
533.000000	13.062190
534.000000	13.229660
535.000000	13.401574
536.000000	13.577908
537.000000	13.758447
538.000000	13.943175
539.000000	14.131746
540.000000	14.323870
541.000000	14.519987
542.000000	14.719587
543.000000	14.922472
544.000000	15.099662
545.000000	15.307901
546.000000	15.517581
547.000000	15.728929
548.000000	15.911430
549.000000	16.092901
550.000000	16.272906
551.000000	16.451173
552.000000	16.625867
553.000000	16.795821
554.000000	16.961086
555.000000	17.091430
556.000000	17.215798
557.000000	17.333422
558.000000	17.445133
559.000000	17.550680
560.000000	17.628802
561.000000	17.695901
562.000000	17.756589
563.000000	17.811185
564.000000	17.859101
565.000000	17.902490
566.000000	17.940972
567.000000	17.974901
568.000000	18.004742
569.000000	18.031125
570.000000	18.075072
571.000000	18.090921
572.000000	18.103790
573.000000	18.114748
574.000000	18.124840
575.000000	18.133067
576.000000	18.140207
577.000000	18.146498
578.000000	18.152878
579.000000	18.157826
580.000000	18.133500
581.000000	18.108918
582.000000	18.083468
583.000000	18.057066
584.000000	18.028099
585.000000	17.997708
586.000000	17.965171
587.000000	17.930782
588.000000	17.892873
589.000000	17.854798
590.000000	17.843660
591.000000	17.831073
592.000000	17.818631
593.000000	17.806309
594.000000	17.795161
595.000000	17.784927
596.000000	17.775637
597.000000	17.767488
598.000000	17.761348
599.000000	17.755841
600.000000	17.751552
601.000000	17.747613
602.000000	17.744434
603.000000	17.741087
604.000000	17.735452
605.000000	17.699284
606.000000	17.661580
607.000000	17.622624
608.000000	17.580685
609.000000	17.536299
610.000000	17.489516
611.000000	17.441580
612.000000	17.391302
613.000000	17.341268
614.000000	17.292108
615.000000	17.271167
616.000000	17.250570
617.000000	17.229989
618.000000	17.180905
619.000000	17.131107
620.000000	17.080914
621.000000	17.027504
622.000000	16.970349
623.000000	16.907926
624.000000	16.840336
625.000000	16.739619
626.000000	16.632945
627.000000	16.519385
628.000000	16.429249
629.000000	16.333784
630.000000	16.232694
631.000000	16.128103
632.000000	16.021067
633.000000	15.912835
634.000000	15.803816
635.000000	15.723566
636.000000	15.646412
637.000000	15.573656
638.000000	15.506716
639.000000	15.446039
640.000000	15.393740
641.000000	15.350745
642.000000	15.316681
643.000000	15.319555
644.000000	15.332351
645.000000	15.354700
646.000000	15.384764
647.000000	15.420393
648.000000	15.461385
649.000000	15.507150
650.000000	15.556150
651.000000	15.607391
652.000000	15.660357
653.000000	15.715499
654.000000	15.771489
655.000000	15.828278
656.000000	15.885880
657.000000	15.945876
658.000000	16.007353
659.000000	16.070736
660.000000	16.136488
661.000000	16.204209
662.000000	16.275373
663.000000	16.347336
664.000000	16.421505
665.000000	16.496157
666.000000	16.572209
667.000000	16.648263
668.000000	16.723416
669.000000	16.797276
670.000000	16.870297
671.000000	16.942198
672.000000	17.011205
673.000000	17.049114
674.000000	17.084949
675.000000	17.118820
676.000000	17.148789
677.000000	17.177114
678.000000	17.203649
679.000000	17.228347
680.000000	17.251239
681.000000	17.271760
682.000000	17.290937
683.000000	17.310999
684.000000	17.330295
685.000000	17.349156
686.000000	17.367815
687.000000	17.385819
688.000000	17.432122
689.000000	17.476976
690.000000	17.519397
691.000000	17.561107
692.000000	17.600647
693.000000	17.638609
694.000000	17.673175
695.000000	17.705595
696.000000	17.737559
697.000000	17.768359
698.000000	17.768637
699.000000	17.768960
700.000000	17.769745
701.000000	17.768861
702.000000	17.768515
703.000000	17.767514
704.000000	17.767487
705.000000	17.769122
706.000000	17.771662
707.000000	17.774286
708.000000	17.778328
709.000000	17.783888
710.000000	17.790770
711.000000	17.800574
712.000000	17.812124
713.000000	17.824385
714.000000	17.838372
715.000000	17.853175
716.000000	17.895407
717.000000	17.938211
718.000000	17.982505
719.000000	18.026282
720.000000	18.070014
721.000000	18.113133
722.000000	18.156457
723.000000	18.201138
724.000000	18.245910
725.000000	18.289123
726.000000	18.304615
727.000000	18.321689
728.000000	18.337941
729.000000	18.355932
730.000000	18.374474
731.000000	18.393366
732.000000	18.412480
733.000000	18.429815
734.000000	18.447583
735.000000	18.466768
736.000000	18.485389
737.000000	18.502896
738.000000	18.518973
739.000000	18.532212
740.000000	18.544100
741.000000	18.554141
742.000000	18.590722
743.000000	18.598401
744.000000	18.632293
745.000000	18.663765
746.000000	18.696258
747.000000	18.728252
748.000000	18.759311
749.000000	18.790607
750.000000	18.821971
751.000000	18.853462
752.000000	18.856699
753.000000	18.889338
754.000000	18.894170
755.000000	18.898453
756.000000	18.899854
757.000000	18.900758
758.000000	18.901424
759.000000	18.901147
760.000000	18.900787
761.000000	18.900417
762.000000	18.899266
763.000000	18.896392
764.000000	18.893131
765.000000	18.891092
766.000000	18.890677
767.000000	18.889244
768.000000	18.888824
769.000000	18.890644
770.000000	18.892847
771.000000	18.894723
772.000000	18.927393
773.000000	18.962778
774.000000	18.999359
775.000000	19.037315
776.000000	19.074632
777.000000	19.112785
778.000000	19.152206
779.000000	19.191949
780.000000	19.230472
781.000000	19.268789
782.000000	19.278216
783.000000	19.287740
784.000000	19.296569
785.000000	19.304297
786.000000	19.314992
787.000000	19.356022
788.000000	19.399075
789.000000	19.442090
790.000000	19.488958
791.000000	19.541122
792.000000	19.592706
793.000000	19.643071
794.000000	19.696229
795.000000	19.750445
796.000000	19.804428
797.000000	19.829478
798.000000	19.851135
799.000000	19.871638
800.000000	19.890435
801.000000	19.936146
802.000000	19.984150
803.000000	20.033712
804.000000	20.081776
805.000000	20.131323
806.000000	20.180464
807.000000	20.229911
808.000000	20.286398
809.000000	20.345107
810.000000	20.404714
811.000000	20.433850
812.000000	20.459701
813.000000	20.484460
814.000000	20.510165
815.000000	20.532235
816.000000	20.553872
817.000000	20.574387
818.000000	20.590641
819.000000	20.634194
820.000000	20.674782
821.000000	20.717457
822.000000	20.760376
823.000000	20.805446
824.000000	20.848747
825.000000	20.895843
826.000000	20.942970
827.000000	20.986718
828.000000	21.029935
829.000000	21.043853
830.000000	21.059563
831.000000	21.072660
832.000000	21.085789
833.000000	21.095044
834.000000	21.102280
835.000000	21.102637
836.000000	21.105054
837.000000	21.113150
838.000000	21.121421
839.000000	21.129514
840.000000	21.134999
841.000000	21.137581
842.000000	21.138824
843.000000	21.140080
844.000000	21.144871
845.000000	21.155109
846.000000	21.163920
847.000000	21.168686
848.000000	21.164001
849.000000	21.158632
850.000000	21.160332
851.000000	21.163702
852.000000	21.158383
853.000000	21.150009
854.000000	21.137001
855.000000	21.127430
856.000000	21.109640
857.000000	21.121169
858.000000	21.396295
859.000000	21.474049
860.000000	21.522663
861.000000	21.601293
862.000000	21.692141
863.000000	21.765873
864.000000	21.844131
865.000000	21.920015
866.000000	22.003207
867.000000	22.058561
868.000000	21.859383
869.000000	21.833465
870.000000	21.830907
871.000000	21.800605
872.000000	21.769558
873.000000	21.758587
874.000000	21.746543
875.000000	21.706895
876.000000	21.692168
877.000000	21.677862
878.000000	21.688030
879.000000	21.697465
880.000000	21.707973
881.000000	21.691805
882.000000	21.674075
883.000000	21.657303
884.000000	21.639945
885.000000	21.647202
886.000000	21.628087
887.000000	21.607740
888.000000	21.535615
889.000000	21.489090
890.000000	21.440565
891.000000	21.417115
892.000000	21.394173
893.000000	21.370580
894.000000	21.345850
895.000000	21.322398
896.000000	21.298210
897.000000	21.274313
898.000000	21.275468
899.000000	21.250842
900.000000	21.250305
901.000000	21.251155
902.000000	21.226312
903.000000	21.200635
904.000000	21.173645
905.000000	21.145440
906.000000	21.116913
907.000000	21.088420
908.000000	21.059735
909.000000	21.054755
910.000000	21.025495
911.000000	20.994420
912.000000	20.963118
913.000000	20.957770
914.000000	20.952838
915.000000	20.923180
916.000000	20.895230
917.000000	20.866577
918.000000	20.836955
919.000000	20.807772
920.000000	20.778710
921.000000	20.749218
922.000000	20.743327
923.000000	20.712473
924.000000	20.681390
925.000000	20.672368
926.000000	20.661227
927.000000	20.649408
928.000000	20.636195
929.000000	20.597563
930.000000	20.558443
931.000000	20.519098
932.000000	20.480285
933.000000	20.441925
934.000000	20.405498
935.000000	20.372328
936.000000	20.339770
937.000000	20.308608
938.000000	20.279573
939.000000	20.275915
940.000000	20.271157
941.000000	20.267290
942.000000	20.264937
943.000000	20.260843
944.000000	20.255005
945.000000	20.247863
946.000000	20.240460
947.000000	20.230725
948.000000	20.221300
949.000000	20.211437
950.000000	20.203678
951.000000	20.195570
952.000000	20.186152
953.000000	20.153062
954.000000	20.144630
955.000000	20.135935
956.000000	20.126933
957.000000	20.094307
958.000000	20.061003
959.000000	20.028592
960.000000	19.995620
961.000000	19.962090
962.000000	19.928680
963.000000	19.918585
964.000000	19.884082
965.000000	19.849207
966.000000	19.814205
967.000000	19.803212
968.000000	19.792243
969.000000	19.780318
970.000000	19.767667
971.000000	19.755142
972.000000	19.742287
973.000000	19.728942
974.000000	19.715195
975.000000	19.702762
976.000000	19.690348
977.000000	19.678483
978.000000	19.667160
979.000000	19.656745
980.000000	19.647047
981.000000	19.637610
982.000000	19.628855
983.000000	19.621092
984.000000	19.614575
985.000000	19.607030
986.000000	19.600245
987.000000	19.594680
988.000000	19.588510
989.000000	19.582430
990.000000	19.576273
991.000000	19.571365
992.000000	19.566965
993.000000	19.562915
994.000000	19.557572
995.000000	19.552700
996.000000	19.549200
997.000000	19.545193
998.000000	19.542278
999.000000	19.538955
1000.000000	19.535522
1001.000000	19.531928
1002.000000	19.528560
1003.000000	19.525540
1004.000000	19.523105
1005.000000	19.521117
1006.000000	19.518397
1007.000000	19.516385
1008.000000	19.514540
1009.000000	19.511983
1010.000000	19.509390
1011.000000	19.506775
1012.000000	19.503508
1013.000000	19.499362
1014.000000	19.495230
1015.000000	19.491962
1016.000000	19.488953
1017.000000	19.484558
1018.000000	19.479570
1019.000000	19.475977
1020.000000	19.471972
1021.000000	19.466732
1022.000000	19.461830
1023.000000	19.458045
1024.000000	19.454403
1025.000000	19.449690
1026.000000	19.444337
1027.000000	19.439595
1028.000000	19.434960
1029.000000	19.430020
1030.000000	19.425468
1031.000000	19.420890
1032.000000	19.416027
1033.000000	19.410965
1034.000000	19.405707
1035.000000	19.400427
1036.000000	19.395317
1037.000000	19.390750
1038.000000	19.386108
1039.000000	19.381222
1040.000000	19.376652
1041.000000	19.372235
1042.000000	19.368282
1043.000000	19.364448
1044.000000	19.361135
1045.000000	19.358515
1046.000000	19.356248
1047.000000	19.353592
1048.000000	19.351415
1049.000000	19.350330
1050.000000	19.350507
1051.000000	19.351815
1052.000000	19.352642
1053.000000	19.354093
1054.000000	19.355850
1055.000000	19.356788
1056.000000	19.358493
1057.000000	19.360873
1058.000000	19.363590
1059.000000	19.366402
1060.000000	19.368923
1061.000000	19.371560
1062.000000	19.374793
1063.000000	19.377353
1064.000000	19.379690
1065.000000	19.383028
1066.000000	19.386235
1067.000000	19.389900
1068.000000	19.394010
1069.000000	19.397652
1070.000000	19.401635
1071.000000	19.405500
1072.000000	19.409538
1073.000000	19.414022
1074.000000	19.419647
1075.000000	19.425545
1076.000000	19.430765
1077.000000	19.435913
1078.000000	19.440150
1079.000000	19.444723
1080.000000	19.449110
1081.000000	19.453052
1082.000000	19.456567
1083.000000	19.458995
1084.000000	19.460377
1085.000000	19.461825
1086.000000	19.464108
1087.000000	19.465270
1088.000000	19.466902
1089.000000	19.468697
1090.000000	19.470012
1091.000000	19.471170
1092.000000	19.471652
1093.000000	19.473527
1094.000000	19.475590
1095.000000	19.477303
1096.000000	19.478312
1097.000000	19.479937
1098.000000	19.480700
1099.000000	19.480770
1100.000000	19.480588
1101.000000	19.480503
1102.000000	19.481685
1103.000000	19.483348
1104.000000	19.484030
1105.000000	19.483873
1106.000000	19.483070
1107.000000	19.482132
1108.000000	19.481680
1109.000000	19.481690
1110.000000	19.480853
1111.000000	19.480485
1112.000000	19.479942
1113.000000	19.477745
1114.000000	19.477107
1115.000000	19.477415
1116.000000	19.478715
1117.000000	19.480085
1118.000000	19.480910
1119.000000	19.480837
1120.000000	19.482387
1121.000000	19.484260
1122.000000	19.486528
1123.000000	19.489093
1124.000000	19.491575
1125.000000	19.494098
1126.000000	19.495685
1127.000000	19.496323
1128.000000	19.497660
1129.000000	19.499310
1130.000000	19.499745
1131.000000	19.498393
1132.000000	19.494103
1133.000000	19.490033
1134.000000	19.488053
1135.000000	19.486460
1136.000000	19.484305
1137.000000	19.481172
1138.000000	19.478255
1139.000000	19.475050
1140.000000	19.471567
1141.000000	19.469215
1142.000000	19.468090
1143.000000	19.467667
1144.000000	19.466017
1145.000000	19.462980
1146.000000	19.460567
1147.000000	19.459915
1148.000000	19.458160
1149.000000	19.457140
1150.000000	19.456420
1151.000000	19.455725
1152.000000	19.456653
1153.000000	19.457232
1154.000000	19.454795
1155.000000	19.452558
1156.000000	19.450420
1157.000000	19.447963
1158.000000	19.444430
1159.000000	19.440545
1160.000000	19.435983
1161.000000	19.429723
1162.000000	19.422548
1163.000000	19.414538
1164.000000	19.406580
