PE UV       SUBTECH     SPECTRUM    ASCII       PEDS        4.00        
   -1
INBUCR0133-4.Sample.ASC
24/02/07
13:02:46.00
24/02/07
13:02:46.00
Vinicio Soto Monge
Pelidnota fromeri. Color café con ambos élitros (Det: A. Solís) COSTA RICA Prov. Guanacaste. Cañas. P.N. Volcán Tenorio. Río Martirio. La Rejolla. 1000-1100m 14-15 JUN 2007.  Tp. Luz Mercurio. L_N_292650_422850 #91628 INB0004090449
250,000000
1
Lambda 1050
1050L1511233
PerkinElmer UV WinLab 6.3.2.0749 / 2.02.05 Lambda 900 UV/VIS/NIR, Aug  7 2015 09:38:08

0
0
3350/servo 860,8/2
0
0
UV/VIS
1
1
1
DoubleDePol,CommonBeamDepol,RBeamAtt,SBeamAtt,60mm sphere, WB InGaAs Detector
0
0
0
0
Program
Program
3350/servo 860,8/2
3350/0,2 860,8/0,2
3350/0,2 860,8/0,2
0
15.00
 
 
 
0
 
860,8
319,2
860,8
Front
100
on
S:100 R:100
0
0
0
0
 
0
 
 
 
0
 
 
0
0
0
0
0
 
 
 
 
0
0


0
0
#HDR
-1
-1
#GR
nm
%R
1.0
0.0
2500,000000
-1,000000
2251
8
16,276000
1,207600
#DATA

250.000000	nan
251.000000	nan
252.000000	nan
253.000000	nan
254.000000	nan
255.000000	nan
256.000000	nan
257.000000	nan
258.000000	nan
259.000000	3.536883
260.000000	3.525644
261.000000	3.514278
262.000000	3.502808
263.000000	3.490931
264.000000	3.478460
265.000000	3.465303
266.000000	3.449956
267.000000	3.438304
268.000000	3.425822
269.000000	3.411464
270.000000	3.399123
271.000000	3.385647
272.000000	3.373247
273.000000	3.362724
274.000000	3.351188
275.000000	3.343075
276.000000	3.335618
277.000000	3.326696
278.000000	3.319264
279.000000	3.311741
280.000000	3.304710
281.000000	3.298140
282.000000	3.290802
283.000000	3.283285
284.000000	3.277338
285.000000	3.271094
286.000000	3.267273
287.000000	3.262066
288.000000	3.258439
289.000000	3.255963
290.000000	3.254164
291.000000	3.253683
292.000000	3.252325
293.000000	3.251419
294.000000	3.251319
295.000000	3.249254
296.000000	3.246904
297.000000	3.245783
298.000000	3.245758
299.000000	3.243815
300.000000	3.238370
301.000000	3.234810
302.000000	3.233583
303.000000	3.231392
304.000000	3.226903
305.000000	3.224411
306.000000	3.222452
307.000000	3.220218
308.000000	3.216341
309.000000	3.217397
310.000000	3.220662
311.000000	3.223472
312.000000	3.226150
313.000000	3.230803
314.000000	3.237443
315.000000	3.244661
316.000000	3.252484
317.000000	3.270623
318.000000	3.280543
319.000000	3.297932
320.000000	3.306252
321.000000	3.325877
322.000000	3.340007
323.000000	3.352015
324.000000	3.368722
325.000000	3.377952
326.000000	3.385374
327.000000	3.385714
328.000000	3.393179
329.000000	3.390766
330.000000	3.400151
331.000000	3.399306
332.000000	3.397183
333.000000	3.397504
334.000000	3.396915
335.000000	3.402425
336.000000	3.405974
337.000000	3.407867
338.000000	3.409303
339.000000	3.409507
340.000000	3.411320
341.000000	3.408743
342.000000	3.409868
343.000000	3.411403
344.000000	3.407399
345.000000	3.403211
346.000000	3.402487
347.000000	3.402424
348.000000	3.402730
349.000000	3.403150
350.000000	3.398681
351.000000	3.396668
352.000000	3.397685
353.000000	3.395129
354.000000	3.394625
355.000000	3.394921
356.000000	3.393598
357.000000	3.391466
358.000000	3.388095
359.000000	3.386262
360.000000	3.384926
361.000000	3.384642
362.000000	3.384941
363.000000	3.386036
364.000000	3.384149
365.000000	3.383427
366.000000	3.384799
367.000000	3.382438
368.000000	3.382622
369.000000	3.379487
370.000000	3.377592
371.000000	3.376601
372.000000	3.372338
373.000000	3.365548
374.000000	3.365463
375.000000	3.361139
376.000000	3.355192
377.000000	3.348343
378.000000	3.341101
379.000000	3.335907
380.000000	3.329723
381.000000	3.321334
382.000000	3.314998
383.000000	3.312010
384.000000	3.304295
385.000000	3.298556
386.000000	3.293318
387.000000	3.292240
388.000000	3.290431
389.000000	3.289099
390.000000	3.287875
391.000000	3.287058
392.000000	3.286093
393.000000	3.284713
394.000000	3.284053
395.000000	3.283655
396.000000	3.282853
397.000000	3.281900
398.000000	3.281336
399.000000	3.280835
400.000000	3.280443
401.000000	3.279852
402.000000	3.279647
403.000000	3.280168
404.000000	3.280456
405.000000	3.280734
406.000000	3.281569
407.000000	3.282725
408.000000	3.284537
409.000000	3.286116
410.000000	3.287591
411.000000	3.290026
412.000000	3.292583
413.000000	3.295227
414.000000	3.298328
415.000000	3.301808
416.000000	3.305890
417.000000	3.310261
418.000000	3.315110
419.000000	3.320398
420.000000	3.326237
421.000000	3.332363
422.000000	3.339021
423.000000	3.346074
424.000000	3.353471
425.000000	3.361262
426.000000	3.369434
427.000000	3.378361
428.000000	3.387439
429.000000	3.397024
430.000000	3.407311
431.000000	3.417577
432.000000	3.428595
433.000000	3.440157
434.000000	3.452186
435.000000	3.464996
436.000000	3.478256
437.000000	3.491760
438.000000	3.505396
439.000000	3.519599
440.000000	3.534320
441.000000	3.549768
442.000000	3.565392
443.000000	3.581243
444.000000	3.597488
445.000000	3.613936
446.000000	3.631031
447.000000	3.648633
448.000000	3.666693
449.000000	3.684983
450.000000	3.703571
451.000000	3.722614
452.000000	3.741909
453.000000	3.761504
454.000000	3.781615
455.000000	3.802255
456.000000	3.822620
457.000000	3.843274
458.000000	3.864703
459.000000	3.886244
460.000000	3.907889
461.000000	3.929448
462.000000	3.951869
463.000000	3.974582
464.000000	3.997276
465.000000	4.020059
466.000000	4.043300
467.000000	4.066948
468.000000	4.090780
469.000000	4.115205
470.000000	4.140112
471.000000	4.165679
472.000000	4.190963
473.000000	4.216861
474.000000	4.243557
475.000000	4.270950
476.000000	4.298814
477.000000	4.326995
478.000000	4.355423
479.000000	4.384319
480.000000	4.413667
481.000000	4.443371
482.000000	4.473706
483.000000	4.504845
484.000000	4.536708
485.000000	4.569287
486.000000	4.603318
487.000000	4.638569
488.000000	4.675032
489.000000	4.712461
490.000000	4.751099
491.000000	4.790850
492.000000	4.832268
493.000000	4.874972
494.000000	4.918649
495.000000	4.962627
496.000000	5.007084
497.000000	5.052354
498.000000	5.098408
499.000000	5.145477
500.000000	5.193347
501.000000	5.242217
502.000000	5.291290
503.000000	5.341124
504.000000	5.391438
505.000000	5.443435
506.000000	5.496261
507.000000	5.549207
508.000000	5.602747
509.000000	5.656698
510.000000	5.711592
511.000000	5.766866
512.000000	5.822840
513.000000	5.878870
514.000000	5.935491
515.000000	5.991964
516.000000	6.048798
517.000000	6.106489
518.000000	6.164518
519.000000	6.223226
520.000000	6.282421
521.000000	6.342204
522.000000	6.402543
523.000000	6.463625
524.000000	6.525119
525.000000	6.587592
526.000000	6.651002
527.000000	6.715172
528.000000	6.780284
529.000000	6.846236
530.000000	6.912524
531.000000	6.979836
532.000000	7.047781
533.000000	7.116646
534.000000	7.186480
535.000000	7.256914
536.000000	7.327886
537.000000	7.399751
538.000000	7.472252
539.000000	7.545315
540.000000	7.618976
541.000000	7.692984
542.000000	7.767289
543.000000	7.841638
544.000000	7.917285
545.000000	7.992993
546.000000	8.069124
547.000000	8.145102
548.000000	8.221371
549.000000	8.297743
550.000000	8.374017
551.000000	8.450781
552.000000	8.528195
553.000000	8.606116
554.000000	8.682888
555.000000	8.760131
556.000000	8.837218
557.000000	8.913891
558.000000	8.991041
559.000000	9.068140
560.000000	9.143071
561.000000	9.217199
562.000000	9.291214
563.000000	9.365190
564.000000	9.439533
565.000000	9.513222
566.000000	9.587206
567.000000	9.661716
568.000000	9.735417
569.000000	9.810094
570.000000	9.887240
571.000000	9.964511
572.000000	10.041767
573.000000	10.119576
574.000000	10.197546
575.000000	10.276265
576.000000	10.354872
577.000000	10.433312
578.000000	10.512138
579.000000	10.590207
580.000000	10.669606
581.000000	10.749915
582.000000	10.830264
583.000000	10.910224
584.000000	10.990964
585.000000	11.071575
586.000000	11.152795
587.000000	11.234732
588.000000	11.317217
589.000000	11.400189
590.000000	11.482215
591.000000	11.564666
592.000000	11.647351
593.000000	11.730262
594.000000	11.814160
595.000000	11.897571
596.000000	11.981818
597.000000	12.066486
598.000000	12.151012
599.000000	12.235090
600.000000	12.320147
601.000000	12.405513
602.000000	12.491719
603.000000	12.578289
604.000000	12.663455
605.000000	12.750353
606.000000	12.836025
607.000000	12.922237
608.000000	13.008872
609.000000	13.095562
610.000000	13.182026
611.000000	13.268346
612.000000	13.354466
613.000000	13.441024
614.000000	13.527334
615.000000	13.612907
616.000000	13.699262
617.000000	13.785128
618.000000	13.870871
619.000000	13.957022
620.000000	14.042430
621.000000	14.128173
622.000000	14.213937
623.000000	14.299417
624.000000	14.385758
625.000000	14.471643
626.000000	14.557734
627.000000	14.643102
628.000000	14.728761
629.000000	14.815263
630.000000	14.902111
631.000000	14.988420
632.000000	15.074286
633.000000	15.161235
634.000000	15.248493
635.000000	15.336316
636.000000	15.424637
637.000000	15.513239
638.000000	15.601553
639.000000	15.690727
640.000000	15.780307
641.000000	15.870350
642.000000	15.961643
643.000000	16.052059
644.000000	16.141857
645.000000	16.232458
646.000000	16.324179
647.000000	16.416751
648.000000	16.510095
649.000000	16.602447
650.000000	16.695638
651.000000	16.790268
652.000000	16.884526
653.000000	16.979406
654.000000	17.075141
655.000000	17.170577
656.000000	17.264624
657.000000	17.358501
658.000000	17.452110
659.000000	17.546592
660.000000	17.642190
661.000000	17.736215
662.000000	17.830487
663.000000	17.924590
664.000000	18.018884
665.000000	18.113223
666.000000	18.206863
667.000000	18.301054
668.000000	18.395492
669.000000	18.489790
670.000000	18.583064
671.000000	18.676483
672.000000	18.769261
673.000000	18.861327
674.000000	18.953378
675.000000	19.046424
676.000000	19.139802
677.000000	19.231518
678.000000	19.322844
679.000000	19.413464
680.000000	19.504023
681.000000	19.594141
682.000000	19.682971
683.000000	19.772410
684.000000	19.861749
685.000000	19.949206
686.000000	20.036278
687.000000	20.124155
688.000000	20.212964
689.000000	20.301247
690.000000	20.387460
691.000000	20.473418
692.000000	20.561130
693.000000	20.648810
694.000000	20.734542
695.000000	20.820945
696.000000	20.907835
697.000000	20.994871
698.000000	21.080652
699.000000	21.166095
700.000000	21.253754
701.000000	21.340647
702.000000	21.426583
703.000000	21.511614
704.000000	21.597345
705.000000	21.683289
706.000000	21.769303
707.000000	21.854005
708.000000	21.937047
709.000000	22.020040
710.000000	22.102723
711.000000	22.185599
712.000000	22.268800
713.000000	22.351695
714.000000	22.434027
715.000000	22.515836
716.000000	22.597753
717.000000	22.680637
718.000000	22.764401
719.000000	22.848840
720.000000	22.932595
721.000000	23.016365
722.000000	23.098485
723.000000	23.180335
724.000000	23.263408
725.000000	23.346541
726.000000	23.429368
727.000000	23.511962
728.000000	23.594834
729.000000	23.677902
730.000000	23.759458
731.000000	23.840559
732.000000	23.923880
733.000000	24.007460
734.000000	24.089336
735.000000	24.170303
736.000000	24.250925
737.000000	24.330965
738.000000	24.412307
739.000000	24.493860
740.000000	24.576081
741.000000	24.659601
742.000000	24.741003
743.000000	24.821185
744.000000	24.902331
745.000000	24.985055
746.000000	25.067447
747.000000	25.151010
748.000000	25.233333
749.000000	25.315073
750.000000	25.398365
751.000000	25.480937
752.000000	25.563515
753.000000	25.648588
754.000000	25.732479
755.000000	25.813819
756.000000	25.895853
757.000000	25.978530
758.000000	26.061515
759.000000	26.143561
760.000000	26.225149
761.000000	26.308156
762.000000	26.391284
763.000000	26.473049
764.000000	26.556603
765.000000	26.643413
766.000000	26.727988
767.000000	26.809720
768.000000	26.889924
769.000000	26.972487
770.000000	27.055837
771.000000	27.136552
772.000000	27.217732
773.000000	27.299185
774.000000	27.382858
775.000000	27.466080
776.000000	27.546707
777.000000	27.629198
778.000000	27.713667
779.000000	27.799032
780.000000	27.882886
781.000000	27.968017
782.000000	28.052913
783.000000	28.138965
784.000000	28.222782
785.000000	28.306199
786.000000	28.391955
787.000000	28.477427
788.000000	28.563496
789.000000	28.644838
790.000000	28.726578
791.000000	28.808786
792.000000	28.895143
793.000000	28.979194
794.000000	29.062943
795.000000	29.145105
796.000000	29.229611
797.000000	29.310853
798.000000	29.393492
799.000000	29.479917
800.000000	29.565543
801.000000	29.650699
802.000000	29.734117
803.000000	29.816719
804.000000	29.897795
805.000000	29.979080
806.000000	30.059749
807.000000	30.146795
808.000000	30.231689
809.000000	30.312586
810.000000	30.395986
811.000000	30.482123
812.000000	30.562218
813.000000	30.643927
814.000000	30.728182
815.000000	30.812966
816.000000	30.895404
817.000000	30.973265
818.000000	31.051876
819.000000	31.128906
820.000000	31.203195
821.000000	31.275760
822.000000	31.352063
823.000000	31.427260
824.000000	31.497035
825.000000	31.571374
826.000000	31.647079
827.000000	31.717313
828.000000	31.784421
829.000000	31.850252
830.000000	31.922605
831.000000	31.991346
832.000000	32.058096
833.000000	32.120864
834.000000	32.186478
835.000000	32.240758
836.000000	32.294439
837.000000	32.355530
838.000000	32.415138
839.000000	32.478115
840.000000	32.534930
841.000000	32.599953
842.000000	32.654782
843.000000	32.714924
844.000000	32.772261
845.000000	32.831433
846.000000	32.899531
847.000000	32.957283
848.000000	33.024226
849.000000	33.073974
850.000000	33.115557
851.000000	33.166219
852.000000	33.207600
853.000000	33.254492
854.000000	33.296321
855.000000	33.346288
856.000000	33.369840
857.000000	33.400992
858.000000	33.551033
859.000000	33.652746
860.000000	33.750628
861.000000	33.836623
862.000000	33.917983
863.000000	33.989768
864.000000	34.068060
865.000000	34.130338
866.000000	34.212365
867.000000	34.307183
868.000000	34.259847
869.000000	34.267308
870.000000	34.283645
871.000000	34.296300
872.000000	34.333825
873.000000	34.379672
874.000000	34.414147
875.000000	34.447630
876.000000	34.485058
877.000000	34.491955
878.000000	34.508180
879.000000	34.543695
880.000000	34.573583
881.000000	34.594813
882.000000	34.622082
883.000000	34.624310
884.000000	34.642740
885.000000	34.675425
886.000000	34.681038
887.000000	34.717055
888.000000	34.739120
889.000000	34.754387
890.000000	34.775483
891.000000	34.791992
892.000000	34.797145
893.000000	34.816032
894.000000	34.838232
895.000000	34.845923
896.000000	34.872460
897.000000	34.878660
898.000000	34.903070
899.000000	34.924753
900.000000	34.934540
901.000000	34.955143
902.000000	34.983818
903.000000	35.005660
904.000000	35.021955
905.000000	35.041760
906.000000	35.061155
907.000000	35.083515
908.000000	35.104188
909.000000	35.120542
910.000000	35.144407
911.000000	35.167178
912.000000	35.183953
913.000000	35.212830
914.000000	35.236605
915.000000	35.269225
916.000000	35.299805
917.000000	35.326728
918.000000	35.355088
919.000000	35.388100
920.000000	35.422848
921.000000	35.458813
922.000000	35.493882
923.000000	35.526515
924.000000	35.558290
925.000000	35.584020
926.000000	35.607925
927.000000	35.638285
928.000000	35.665467
929.000000	35.692580
930.000000	35.723470
931.000000	35.746398
932.000000	35.770857
933.000000	35.795113
934.000000	35.821875
935.000000	35.852177
936.000000	35.883375
937.000000	35.912420
938.000000	35.940705
939.000000	35.967455
940.000000	35.988737
941.000000	36.014740
942.000000	36.037222
943.000000	36.059602
944.000000	36.084983
945.000000	36.106700
946.000000	36.129297
947.000000	36.151477
948.000000	36.176965
949.000000	36.198082
950.000000	36.222522
951.000000	36.248445
952.000000	36.276590
953.000000	36.302688
954.000000	36.324270
955.000000	36.348770
956.000000	36.372962
957.000000	36.398882
958.000000	36.424065
959.000000	36.450425
960.000000	36.474335
961.000000	36.499110
962.000000	36.523565
963.000000	36.549095
964.000000	36.574872
965.000000	36.597135
966.000000	36.619203
967.000000	36.642562
968.000000	36.664475
969.000000	36.687530
970.000000	36.711180
971.000000	36.733723
972.000000	36.753390
973.000000	36.772608
974.000000	36.791200
975.000000	36.811078
976.000000	36.832268
977.000000	36.852300
978.000000	36.873020
979.000000	36.893093
980.000000	36.912767
981.000000	36.932350
982.000000	36.955355
983.000000	36.976548
984.000000	36.997895
985.000000	37.022027
986.000000	37.044985
987.000000	37.067325
988.000000	37.088315
989.000000	37.108745
990.000000	37.129180
991.000000	37.148582
992.000000	37.167195
993.000000	37.187712
994.000000	37.208688
995.000000	37.227500
996.000000	37.246458
997.000000	37.263912
998.000000	37.282835
999.000000	37.303758
1000.000000	37.324627
1001.000000	37.345755
1002.000000	37.367252
1003.000000	37.388035
1004.000000	37.408430
1005.000000	37.429507
1006.000000	37.449802
1007.000000	37.470287
1008.000000	37.490662
1009.000000	37.509665
1010.000000	37.528847
1011.000000	37.548245
1012.000000	37.567708
1013.000000	37.587375
1014.000000	37.606772
1015.000000	37.626777
1016.000000	37.647528
1017.000000	37.668518
1018.000000	37.690553
1019.000000	37.713968
1020.000000	37.737565
1021.000000	37.762370
1022.000000	37.787082
1023.000000	37.811452
1024.000000	37.836108
1025.000000	37.860773
1026.000000	37.885575
1027.000000	37.911660
1028.000000	37.937820
1029.000000	37.962612
1030.000000	37.987560
1031.000000	38.011313
1032.000000	38.034690
1033.000000	38.059823
1034.000000	38.084297
1035.000000	38.108128
1036.000000	38.133615
1037.000000	38.159633
1038.000000	38.183658
1039.000000	38.208208
1040.000000	38.232917
1041.000000	38.257245
1042.000000	38.281695
1043.000000	38.304235
1044.000000	38.327735
1045.000000	38.352322
1046.000000	38.376305
1047.000000	38.399640
1048.000000	38.423710
1049.000000	38.447745
1050.000000	38.472485
1051.000000	38.496947
1052.000000	38.521332
1053.000000	38.546135
1054.000000	38.570935
1055.000000	38.596073
1056.000000	38.620645
1057.000000	38.644260
1058.000000	38.668233
1059.000000	38.692867
1060.000000	38.717000
1061.000000	38.741752
1062.000000	38.767227
1063.000000	38.794090
1064.000000	38.819995
1065.000000	38.844867
1066.000000	38.869315
1067.000000	38.894377
1068.000000	38.919038
1069.000000	38.943162
1070.000000	38.967650
1071.000000	38.991750
1072.000000	39.014938
1073.000000	39.037253
1074.000000	39.058845
1075.000000	39.080795
1076.000000	39.103620
1077.000000	39.125193
1078.000000	39.147483
1079.000000	39.169285
1080.000000	39.189688
1081.000000	39.210137
1082.000000	39.230475
1083.000000	39.251325
1084.000000	39.272858
1085.000000	39.294080
1086.000000	39.314048
1087.000000	39.334257
1088.000000	39.353850
1089.000000	39.372695
1090.000000	39.391900
1091.000000	39.410415
1092.000000	39.429402
1093.000000	39.447660
1094.000000	39.464337
1095.000000	39.480515
1096.000000	39.496237
1097.000000	39.512225
1098.000000	39.528528
1099.000000	39.546392
1100.000000	39.561583
1101.000000	39.577827
1102.000000	39.593778
1103.000000	39.607928
1104.000000	39.623053
1105.000000	39.636395
1106.000000	39.650087
1107.000000	39.663562
1108.000000	39.674348
1109.000000	39.683633
1110.000000	39.694972
1111.000000	39.704655
1112.000000	39.711935
1113.000000	39.720305
1114.000000	39.727785
1115.000000	39.735280
1116.000000	39.741505
1117.000000	39.746243
1118.000000	39.750767
1119.000000	39.755237
1120.000000	39.758682
1121.000000	39.761662
1122.000000	39.765300
1123.000000	39.766917
1124.000000	39.766593
1125.000000	39.764565
1126.000000	39.759320
1127.000000	39.752785
1128.000000	39.745582
1129.000000	39.736238
1130.000000	39.722183
1131.000000	39.702895
1132.000000	39.679625
1133.000000	39.657080
1134.000000	39.635557
1135.000000	39.613665
1136.000000	39.588162
1137.000000	39.560850
1138.000000	39.531295
1139.000000	39.499277
1140.000000	39.468890
1141.000000	39.439338
1142.000000	39.410933
1143.000000	39.380408
1144.000000	39.347485
1145.000000	39.314495
1146.000000	39.285348
1147.000000	39.256482
1148.000000	39.227915
1149.000000	39.201168
1150.000000	39.173825
1151.000000	39.146113
1152.000000	39.118750
1153.000000	39.089303
1154.000000	39.058168
1155.000000	39.022773
1156.000000	38.984625
1157.000000	38.945093
1158.000000	38.903903
1159.000000	38.858022
1160.000000	38.808960
1161.000000	38.757790
1162.000000	38.703130
1163.000000	38.645533
1164.000000	38.586315
1165.000000	38.528365
1166.000000	38.469622
1167.000000	38.409920
