PE UV       SUBTECH     SPECTRUM    ASCII       PEDS        4.00        
   -1
INBUCR0315-4.Sample.ASC
24/02/08
17:00:46.00
24/02/08
17:00:46.00
Vinicio Soto Monge
COSTA RICA, Prov. Puntarenas, Finca La Neblina de Willian Gamboa Elizondo. 1960 m. 10 ABR 1998. B. Gamboa. L_S_318500_600200 #50708. INBIOCRI002418000
250,000000
1
Lambda 1050
1050L1511233
PerkinElmer UV WinLab 6.3.2.0749 / 2.02.05 Lambda 900 UV/VIS/NIR, Aug  7 2015 09:38:08

0
0
3350/servo 860,8/2
0
0
UV/VIS
1
1
1
DoubleDePol,CommonBeamDepol,RBeamAtt,SBeamAtt,60mm sphere, WB InGaAs Detector
0
0
0
0
Program
Program
3350/servo 860,8/2
3350/0,2 860,8/0,2
3350/0,2 860,8/0,2
0
15.00
 
 
 
0
 
860,8
319,2
860,8
Front
100
on
S:100 R:100
0
0
0
0
 
0
 
 
 
0
 
 
0
0
0
0
0
 
 
 
 
0
0


0
0
#HDR
-1
-1
#GR
nm
%R
1.0
0.0
2500,000000
-1,000000
2251
8
7,122600
0,676300
#DATA

250.000000	nan
251.000000	nan
252.000000	nan
253.000000	nan
254.000000	nan
255.000000	nan
256.000000	nan
257.000000	nan
258.000000	nan
259.000000	4.794744
260.000000	4.782841
261.000000	4.772844
262.000000	4.760148
263.000000	4.746666
264.000000	4.730761
265.000000	4.714867
266.000000	4.699677
267.000000	4.682910
268.000000	4.666345
269.000000	4.650616
270.000000	4.637460
271.000000	4.620114
272.000000	4.604704
273.000000	4.591918
274.000000	4.582091
275.000000	4.571320
276.000000	4.560920
277.000000	4.551121
278.000000	4.540065
279.000000	4.528575
280.000000	4.519833
281.000000	4.514248
282.000000	4.509899
283.000000	4.503331
284.000000	4.493278
285.000000	4.488328
286.000000	4.480704
287.000000	4.474160
288.000000	4.469587
289.000000	4.467772
290.000000	4.463197
291.000000	4.455537
292.000000	4.447379
293.000000	4.440525
294.000000	4.437575
295.000000	4.429876
296.000000	4.427575
297.000000	4.424879
298.000000	4.416463
299.000000	4.408421
300.000000	4.402130
301.000000	4.397375
302.000000	4.394032
303.000000	4.386969
304.000000	4.382866
305.000000	4.381439
306.000000	4.375455
307.000000	4.368124
308.000000	4.366622
309.000000	4.365657
310.000000	4.363249
311.000000	4.360110
312.000000	4.353682
313.000000	4.351242
314.000000	4.348172
315.000000	4.343202
316.000000	4.340030
317.000000	4.354131
318.000000	4.366324
319.000000	4.370312
320.000000	4.389557
321.000000	4.407235
322.000000	4.423469
323.000000	4.441634
324.000000	4.449998
325.000000	4.464754
326.000000	4.469858
327.000000	4.461916
328.000000	4.458140
329.000000	4.455023
330.000000	4.439186
331.000000	4.416055
332.000000	4.398580
333.000000	4.384618
334.000000	4.377543
335.000000	4.360780
336.000000	4.351378
337.000000	4.335146
338.000000	4.323016
339.000000	4.314405
340.000000	4.305906
341.000000	4.309408
342.000000	4.306660
343.000000	4.294843
344.000000	4.284147
345.000000	4.279056
346.000000	4.275787
347.000000	4.273393
348.000000	4.268753
349.000000	4.267154
350.000000	4.260079
351.000000	4.252461
352.000000	4.246803
353.000000	4.249008
354.000000	4.249908
355.000000	4.247120
356.000000	4.244104
357.000000	4.241991
358.000000	4.236779
359.000000	4.233383
360.000000	4.231440
361.000000	4.226452
362.000000	4.223717
363.000000	4.214070
364.000000	4.205258
365.000000	4.201415
366.000000	4.198194
367.000000	4.193035
368.000000	4.185111
369.000000	4.172053
370.000000	4.158278
371.000000	4.145922
372.000000	4.135935
373.000000	4.128194
374.000000	4.116023
375.000000	4.098820
376.000000	4.088743
377.000000	4.077719
378.000000	4.067800
379.000000	4.059540
380.000000	4.053440
381.000000	4.048199
382.000000	4.040760
383.000000	4.033516
384.000000	4.029756
385.000000	4.028506
386.000000	4.020264
387.000000	4.017566
388.000000	4.014750
389.000000	4.011917
390.000000	4.009295
391.000000	4.006833
392.000000	4.004382
393.000000	4.002273
394.000000	4.000226
395.000000	3.997463
396.000000	3.995084
397.000000	3.992853
398.000000	3.990859
399.000000	3.989008
400.000000	3.987027
401.000000	3.985212
402.000000	3.983769
403.000000	3.981364
404.000000	3.978761
405.000000	3.976316
406.000000	3.973655
407.000000	3.971006
408.000000	3.968765
409.000000	3.966648
410.000000	3.964753
411.000000	3.962772
412.000000	3.960546
413.000000	3.958973
414.000000	3.957579
415.000000	3.956322
416.000000	3.954951
417.000000	3.953559
418.000000	3.952132
419.000000	3.950306
420.000000	3.948738
421.000000	3.946999
422.000000	3.945231
423.000000	3.943592
424.000000	3.942311
425.000000	3.940863
426.000000	3.939243
427.000000	3.937420
428.000000	3.935348
429.000000	3.933285
430.000000	3.931467
431.000000	3.929790
432.000000	3.928143
433.000000	3.926610
434.000000	3.924954
435.000000	3.923452
436.000000	3.922151
437.000000	3.920937
438.000000	3.919491
439.000000	3.918262
440.000000	3.917035
441.000000	3.916001
442.000000	3.915143
443.000000	3.914049
444.000000	3.913033
445.000000	3.911929
446.000000	3.910631
447.000000	3.909504
448.000000	3.908970
449.000000	3.908289
450.000000	3.907260
451.000000	3.905864
452.000000	3.904539
453.000000	3.903393
454.000000	3.901978
455.000000	3.900734
456.000000	3.899997
457.000000	3.899341
458.000000	3.898205
459.000000	3.897239
460.000000	3.896370
461.000000	3.896114
462.000000	3.895717
463.000000	3.895116
464.000000	3.894646
465.000000	3.894523
466.000000	3.894527
467.000000	3.894346
468.000000	3.894468
469.000000	3.894896
470.000000	3.895461
471.000000	3.895574
472.000000	3.895693
473.000000	3.896378
474.000000	3.897451
475.000000	3.898317
476.000000	3.898883
477.000000	3.899399
478.000000	3.900109
479.000000	3.900917
480.000000	3.901799
481.000000	3.903126
482.000000	3.904968
483.000000	3.906682
484.000000	3.908497
485.000000	3.910602
486.000000	3.913124
487.000000	3.916022
488.000000	3.919747
489.000000	3.923619
490.000000	3.927479
491.000000	3.931901
492.000000	3.936585
493.000000	3.941755
494.000000	3.947434
495.000000	3.953661
496.000000	3.960635
497.000000	3.968248
498.000000	3.975993
499.000000	3.984714
500.000000	3.994496
501.000000	4.004804
502.000000	4.015879
503.000000	4.027877
504.000000	4.040633
505.000000	4.054445
506.000000	4.069324
507.000000	4.085668
508.000000	4.103446
509.000000	4.122585
510.000000	4.143536
511.000000	4.167426
512.000000	4.193465
513.000000	4.222212
514.000000	4.254265
515.000000	4.289576
516.000000	4.327680
517.000000	4.369389
518.000000	4.414516
519.000000	4.463058
520.000000	4.515154
521.000000	4.569965
522.000000	4.628746
523.000000	4.690626
524.000000	4.755572
525.000000	4.823797
526.000000	4.896431
527.000000	4.972662
528.000000	5.052921
529.000000	5.138092
530.000000	5.228598
531.000000	5.324475
532.000000	5.425329
533.000000	5.531748
534.000000	5.644445
535.000000	5.763003
536.000000	5.886536
537.000000	6.015152
538.000000	6.148409
539.000000	6.285441
540.000000	6.425430
541.000000	6.567797
542.000000	6.712474
543.000000	6.858843
544.000000	7.006294
545.000000	7.154517
546.000000	7.302968
547.000000	7.451664
548.000000	7.600658
549.000000	7.749376
550.000000	7.897824
551.000000	8.047344
552.000000	8.196986
553.000000	8.346997
554.000000	8.497291
555.000000	8.648026
556.000000	8.799623
557.000000	8.950568
558.000000	9.101444
559.000000	9.253013
560.000000	9.400542
561.000000	9.545207
562.000000	9.686956
563.000000	9.824291
564.000000	9.956138
565.000000	10.079994
566.000000	10.195305
567.000000	10.300680
568.000000	10.394337
569.000000	10.473886
570.000000	10.542049
571.000000	10.593401
572.000000	10.627950
573.000000	10.644933
574.000000	10.642790
575.000000	10.622773
576.000000	10.584509
577.000000	10.529427
578.000000	10.456772
579.000000	10.367663
580.000000	10.261706
581.000000	10.143713
582.000000	10.012046
583.000000	9.869336
584.000000	9.716590
585.000000	9.555595
586.000000	9.387729
587.000000	9.213686
588.000000	9.036080
589.000000	8.855575
590.000000	8.674623
591.000000	8.492655
592.000000	8.311458
593.000000	8.130973
594.000000	7.953186
595.000000	7.778718
596.000000	7.606934
597.000000	7.439032
598.000000	7.274609
599.000000	7.114766
600.000000	6.960128
601.000000	6.809472
602.000000	6.664364
603.000000	6.524492
604.000000	6.389794
605.000000	6.259983
606.000000	6.136289
607.000000	6.018292
608.000000	5.905841
609.000000	5.798748
610.000000	5.696736
611.000000	5.600360
612.000000	5.509297
613.000000	5.423528
614.000000	5.342502
615.000000	5.266239
616.000000	5.193920
617.000000	5.125842
618.000000	5.062093
619.000000	5.002518
620.000000	4.946557
621.000000	4.894156
622.000000	4.844779
623.000000	4.798793
624.000000	4.756814
625.000000	4.717714
626.000000	4.681301
627.000000	4.647286
628.000000	4.615710
629.000000	4.586602
630.000000	4.559605
631.000000	4.535289
632.000000	4.512572
633.000000	4.492142
634.000000	4.472827
635.000000	4.455219
636.000000	4.439185
637.000000	4.425119
638.000000	4.412900
639.000000	4.401279
640.000000	4.391399
641.000000	4.382209
642.000000	4.375035
643.000000	4.368857
644.000000	4.363549
645.000000	4.359110
646.000000	4.355434
647.000000	4.352201
648.000000	4.349934
649.000000	4.348966
650.000000	4.348235
651.000000	4.348411
652.000000	4.349084
653.000000	4.349963
654.000000	4.351739
655.000000	4.354304
656.000000	4.357462
657.000000	4.361783
658.000000	4.365793
659.000000	4.370558
660.000000	4.375395
661.000000	4.380595
662.000000	4.386375
663.000000	4.393214
664.000000	4.400089
665.000000	4.407234
666.000000	4.415173
667.000000	4.423260
668.000000	4.431855
669.000000	4.440659
670.000000	4.451111
671.000000	4.461140
672.000000	4.471652
673.000000	4.482009
674.000000	4.493062
675.000000	4.504368
676.000000	4.516359
677.000000	4.528636
678.000000	4.541390
679.000000	4.553905
680.000000	4.566346
681.000000	4.580173
682.000000	4.593511
683.000000	4.606761
684.000000	4.620900
685.000000	4.635224
686.000000	4.649672
687.000000	4.663987
688.000000	4.678974
689.000000	4.694416
690.000000	4.710203
691.000000	4.725998
692.000000	4.742879
693.000000	4.760260
694.000000	4.777785
695.000000	4.795332
696.000000	4.812825
697.000000	4.831209
698.000000	4.849705
699.000000	4.868453
700.000000	4.887091
701.000000	4.906107
702.000000	4.925716
703.000000	4.945620
704.000000	4.965959
705.000000	4.987054
706.000000	5.008888
707.000000	5.030757
708.000000	5.052849
709.000000	5.075512
710.000000	5.098749
711.000000	5.121985
712.000000	5.145262
713.000000	5.169343
714.000000	5.192431
715.000000	5.215338
716.000000	5.238461
717.000000	5.262354
718.000000	5.286482
719.000000	5.310498
720.000000	5.335029
721.000000	5.360113
722.000000	5.385750
723.000000	5.411614
724.000000	5.438659
725.000000	5.466638
726.000000	5.494834
727.000000	5.523069
728.000000	5.551915
729.000000	5.581266
730.000000	5.610132
731.000000	5.638748
732.000000	5.667723
733.000000	5.697016
734.000000	5.726049
735.000000	5.755525
736.000000	5.786397
737.000000	5.817014
738.000000	5.847435
739.000000	5.878274
740.000000	5.909624
741.000000	5.941962
742.000000	5.974337
743.000000	6.006596
744.000000	6.039763
745.000000	6.072658
746.000000	6.105149
747.000000	6.138456
748.000000	6.171879
749.000000	6.206237
750.000000	6.242062
751.000000	6.277589
752.000000	6.312207
753.000000	6.347837
754.000000	6.384769
755.000000	6.421416
756.000000	6.458167
757.000000	6.494997
758.000000	6.532756
759.000000	6.570034
760.000000	6.607230
761.000000	6.645567
762.000000	6.685687
763.000000	6.726109
764.000000	6.764785
765.000000	6.804422
766.000000	6.844793
767.000000	6.886679
768.000000	6.928513
769.000000	6.969669
770.000000	7.010329
771.000000	7.051164
772.000000	7.092657
773.000000	7.135132
774.000000	7.178481
775.000000	7.222101
776.000000	7.264484
777.000000	7.306222
778.000000	7.350403
779.000000	7.395747
780.000000	7.440726
781.000000	7.486633
782.000000	7.532412
783.000000	7.578266
784.000000	7.624093
785.000000	7.670747
786.000000	7.718175
787.000000	7.766798
788.000000	7.814297
789.000000	7.863202
790.000000	7.914138
791.000000	7.964584
792.000000	8.014761
793.000000	8.063456
794.000000	8.113203
795.000000	8.163920
796.000000	8.216384
797.000000	8.266758
798.000000	8.316564
799.000000	8.368309
800.000000	8.421568
801.000000	8.472838
802.000000	8.524849
803.000000	8.576309
804.000000	8.629314
805.000000	8.682909
806.000000	8.736541
807.000000	8.794116
808.000000	8.850183
809.000000	8.903904
810.000000	8.958004
811.000000	9.016008
812.000000	9.071091
813.000000	9.129817
814.000000	9.188083
815.000000	9.245422
816.000000	9.304061
817.000000	9.360992
818.000000	9.418596
819.000000	9.476267
820.000000	9.532405
821.000000	9.588489
822.000000	9.646573
823.000000	9.707414
824.000000	9.767283
825.000000	9.824827
826.000000	9.882079
827.000000	9.939805
828.000000	9.999731
829.000000	10.054552
830.000000	10.112734
831.000000	10.171311
832.000000	10.230814
833.000000	10.284563
834.000000	10.339365
835.000000	10.398350
836.000000	10.458378
837.000000	10.515940
838.000000	10.569412
839.000000	10.632652
840.000000	10.687301
841.000000	10.743905
842.000000	10.806166
843.000000	10.860361
844.000000	10.919602
845.000000	10.976467
846.000000	11.021781
847.000000	11.073399
848.000000	11.131884
849.000000	11.181425
850.000000	11.235949
851.000000	11.290639
852.000000	11.327238
853.000000	11.372139
854.000000	11.415895
855.000000	11.445379
856.000000	11.504160
857.000000	11.574264
858.000000	11.978014
859.000000	12.079840
860.000000	12.156763
861.000000	12.228162
862.000000	12.302954
863.000000	12.385928
864.000000	12.454924
865.000000	12.510195
866.000000	12.563172
867.000000	12.588012
868.000000	12.283475
869.000000	12.266255
870.000000	12.280098
871.000000	12.282317
872.000000	12.281125
873.000000	12.269750
874.000000	12.266785
875.000000	12.288737
876.000000	12.257122
877.000000	12.242820
878.000000	12.231130
879.000000	12.236897
880.000000	12.224140
881.000000	12.226505
882.000000	12.248477
883.000000	12.263145
884.000000	12.266037
885.000000	12.259152
886.000000	12.281023
887.000000	12.307987
888.000000	12.319950
889.000000	12.332160
890.000000	12.346435
891.000000	12.358107
892.000000	12.357603
893.000000	12.365160
894.000000	12.382030
895.000000	12.409628
896.000000	12.438140
897.000000	12.450582
898.000000	12.474310
899.000000	12.495125
900.000000	12.522848
901.000000	12.541353
902.000000	12.565165
903.000000	12.594600
904.000000	12.623400
905.000000	12.654113
906.000000	12.687830
907.000000	12.719500
908.000000	12.742065
909.000000	12.766035
910.000000	12.800783
911.000000	12.842740
912.000000	12.873748
913.000000	12.903875
914.000000	12.932147
915.000000	12.961880
916.000000	13.000238
917.000000	13.040722
918.000000	13.081202
919.000000	13.125910
920.000000	13.165780
921.000000	13.204875
922.000000	13.251073
923.000000	13.293012
924.000000	13.345590
925.000000	13.396430
926.000000	13.433038
927.000000	13.475482
928.000000	13.520157
929.000000	13.563282
930.000000	13.603393
931.000000	13.649158
932.000000	13.699393
933.000000	13.745960
934.000000	13.789025
935.000000	13.831850
936.000000	13.880605
937.000000	13.928563
938.000000	13.977885
939.000000	14.027087
940.000000	14.076277
941.000000	14.126567
942.000000	14.172730
943.000000	14.221797
944.000000	14.268835
945.000000	14.318545
946.000000	14.375320
947.000000	14.430577
948.000000	14.482737
949.000000	14.534478
950.000000	14.587910
951.000000	14.634825
952.000000	14.683515
953.000000	14.737107
954.000000	14.792655
955.000000	14.847875
956.000000	14.899020
957.000000	14.950925
958.000000	15.002320
959.000000	15.056683
960.000000	15.111515
961.000000	15.169115
962.000000	15.226517
963.000000	15.281615
964.000000	15.337492
965.000000	15.391365
966.000000	15.446037
967.000000	15.502030
968.000000	15.559637
969.000000	15.616352
970.000000	15.672608
971.000000	15.729360
972.000000	15.788190
973.000000	15.844817
974.000000	15.899810
975.000000	15.956180
976.000000	16.012113
977.000000	16.069088
978.000000	16.126818
979.000000	16.182335
980.000000	16.236638
981.000000	16.292430
982.000000	16.348307
983.000000	16.406073
984.000000	16.466293
985.000000	16.526880
986.000000	16.585552
987.000000	16.643220
988.000000	16.702582
989.000000	16.761850
990.000000	16.819925
991.000000	16.877185
992.000000	16.935450
993.000000	16.994880
994.000000	17.052663
995.000000	17.109143
996.000000	17.165665
997.000000	17.222338
998.000000	17.279810
999.000000	17.340725
1000.000000	17.402003
1001.000000	17.462355
1002.000000	17.522705
1003.000000	17.582690
1004.000000	17.641345
1005.000000	17.701145
1006.000000	17.763450
1007.000000	17.826058
1008.000000	17.885035
1009.000000	17.941167
1010.000000	17.998985
1011.000000	18.059127
1012.000000	18.118913
1013.000000	18.179145
1014.000000	18.240258
1015.000000	18.300512
1016.000000	18.360293
1017.000000	18.420323
1018.000000	18.482608
1019.000000	18.546000
1020.000000	18.608817
1021.000000	18.670208
1022.000000	18.732087
1023.000000	18.793600
1024.000000	18.854885
1025.000000	18.917190
1026.000000	18.980685
1027.000000	19.044975
1028.000000	19.109202
1029.000000	19.173048
1030.000000	19.237180
1031.000000	19.301943
1032.000000	19.366167
1033.000000	19.429900
1034.000000	19.493595
1035.000000	19.557607
1036.000000	19.621327
1037.000000	19.683805
1038.000000	19.745325
1039.000000	19.807940
1040.000000	19.871520
1041.000000	19.935080
1042.000000	19.997605
1043.000000	20.060800
1044.000000	20.124745
1045.000000	20.188175
1046.000000	20.251123
1047.000000	20.314063
1048.000000	20.378332
1049.000000	20.442575
1050.000000	20.506788
1051.000000	20.570287
1052.000000	20.634150
1053.000000	20.698240
1054.000000	20.761553
1055.000000	20.825187
1056.000000	20.888840
1057.000000	20.952662
1058.000000	21.017492
1059.000000	21.081792
1060.000000	21.145037
1061.000000	21.209605
1062.000000	21.274925
1063.000000	21.340462
1064.000000	21.406750
1065.000000	21.472713
1066.000000	21.538605
1067.000000	21.604675
1068.000000	21.670198
1069.000000	21.736685
1070.000000	21.802623
1071.000000	21.868523
1072.000000	21.933895
1073.000000	21.999133
1074.000000	22.064330
1075.000000	22.129625
1076.000000	22.195300
1077.000000	22.260690
1078.000000	22.324918
1079.000000	22.388358
1080.000000	22.452832
1081.000000	22.516455
1082.000000	22.579890
1083.000000	22.643897
1084.000000	22.707708
1085.000000	22.771452
1086.000000	22.833820
1087.000000	22.896170
1088.000000	22.959197
1089.000000	23.022782
1090.000000	23.085000
1091.000000	23.147977
1092.000000	23.209275
1093.000000	23.270142
1094.000000	23.331618
1095.000000	23.393032
1096.000000	23.453788
1097.000000	23.515580
1098.000000	23.576925
1099.000000	23.637875
1100.000000	23.699203
1101.000000	23.760607
1102.000000	23.823620
1103.000000	23.885242
1104.000000	23.946660
1105.000000	24.007243
1106.000000	24.069305
1107.000000	24.130075
1108.000000	24.191680
1109.000000	24.252235
1110.000000	24.312413
1111.000000	24.370893
1112.000000	24.429247
1113.000000	24.489292
1114.000000	24.547190
1115.000000	24.605387
1116.000000	24.662635
1117.000000	24.720140
1118.000000	24.776177
1119.000000	24.831650
1120.000000	24.888147
1121.000000	24.944287
1122.000000	24.999345
1123.000000	25.053450
1124.000000	25.105742
1125.000000	25.157250
1126.000000	25.207047
1127.000000	25.254740
1128.000000	25.302075
1129.000000	25.347630
1130.000000	25.389968
1131.000000	25.428365
1132.000000	25.466205
1133.000000	25.502300
1134.000000	25.541307
1135.000000	25.578418
1136.000000	25.612865
1137.000000	25.646427
1138.000000	25.676875
1139.000000	25.708288
1140.000000	25.740033
1141.000000	25.773317
1142.000000	25.805590
1143.000000	25.838025
1144.000000	25.868457
1145.000000	25.900057
1146.000000	25.932207
1147.000000	25.965332
1148.000000	26.000450
1149.000000	26.034087
1150.000000	26.066115
1151.000000	26.097785
1152.000000	26.129595
1153.000000	26.157945
1154.000000	26.184812
1155.000000	26.208972
1156.000000	26.233465
1157.000000	26.254350
1158.000000	26.272073
1159.000000	26.287693
1160.000000	26.301775
1161.000000	26.313213
1162.000000	26.321357
1163.000000	26.329770
1164.000000	26.336773
1165.000000	26.342557
1166.000000	26.346543
1167.000000	26.350240
1168.000000	26.353447
1169.000000	26.358033
1170.000000	26.363835
1171.000000	26.371443
1172.000000	26.380532
1173.000000	26.391275
1174.000000	26.401757
1175.000000	26.414175
1176.000000	26.428852
1177.000000	26.445490
1178.000000	26.465347
1179.000000	26.485360
1180.000000	26.506025
1181.000000	26.526880
