PE UV       SUBTECH     SPECTRUM    ASCII       PEDS        4.00        
   -1
INBUCR0113-5.Sample.ASC
24/02/12
13:19:24.00
24/02/12
13:19:24.00
Vinicio Soto Monge
Strigidia glabra. Color verde metálico con ambos élitros (Det: A. Solís) COSTA RICA Prov. Guanacaste. Cañas. Laguna La Vieja Finca M. Campos. 600-700m 13 JUN 2007 J.A Azofeifa M. Campos . Tp. Luz Mercurio L_N_292100_421100 #91629. INB0004090554
250,000000
1
Lambda 1050
1050L1511233
PerkinElmer UV WinLab 6.3.2.0749 / 2.02.05 Lambda 900 UV/VIS/NIR, Aug  7 2015 09:38:08

0
0
3350/servo 860,8/2
0
0
UV/VIS
1
1
1
DoubleDePol,CommonBeamDepol,RBeamAtt,SBeamAtt,60mm sphere, WB InGaAs Detector
0
0
0
0
Program
Program
3350/servo 860,8/2
3350/0,2 860,8/0,2
3350/0,2 860,8/0,2
0
15.00
 
 
 
0
 
860,8
150
860,8
Front
100
on
S:100 R:100
0
0
0
0
 
0
 
 
 
0
 
 
0
0
0
0
0
 
 
 
 
0
0


0
0
#HDR
-1
-1
#GR
nm
%R
1.0
0.0
2500,000000
-1,000000
2251
8
21,392800
1,640800
#DATA

250.000000	nan
251.000000	nan
252.000000	nan
253.000000	nan
254.000000	nan
255.000000	nan
256.000000	nan
257.000000	nan
258.000000	nan
259.000000	5.071259
260.000000	5.055359
261.000000	5.051031
262.000000	5.054976
263.000000	5.039790
264.000000	5.014728
265.000000	4.984769
266.000000	4.931153
267.000000	4.898441
268.000000	4.873743
269.000000	4.829969
270.000000	4.795020
271.000000	4.761049
272.000000	4.723907
273.000000	4.695051
274.000000	4.678675
275.000000	4.666598
276.000000	4.653656
277.000000	4.647067
278.000000	4.624234
279.000000	4.613800
280.000000	4.596231
281.000000	4.572313
282.000000	4.555309
283.000000	4.542666
284.000000	4.535881
285.000000	4.526941
286.000000	4.518847
287.000000	4.507181
288.000000	4.509673
289.000000	4.509227
290.000000	4.511141
291.000000	4.510135
292.000000	4.511301
293.000000	4.508848
294.000000	4.504541
295.000000	4.500451
296.000000	4.503096
297.000000	4.495408
298.000000	4.486486
299.000000	4.484067
300.000000	4.484105
301.000000	4.481008
302.000000	4.478640
303.000000	4.474658
304.000000	4.471084
305.000000	4.471887
306.000000	4.468971
307.000000	4.468784
308.000000	4.466389
309.000000	4.466086
310.000000	4.462464
311.000000	4.459421
312.000000	4.455099
313.000000	4.455701
314.000000	4.458019
315.000000	4.457890
316.000000	4.460949
317.000000	4.503186
318.000000	4.550838
319.000000	4.593105
320.000000	4.644184
321.000000	4.686009
322.000000	4.730013
323.000000	4.766680
324.000000	4.801272
325.000000	4.839281
326.000000	4.866357
327.000000	4.852045
328.000000	4.833471
329.000000	4.810787
330.000000	4.786455
331.000000	4.778666
332.000000	4.763080
333.000000	4.751226
334.000000	4.736459
335.000000	4.720954
336.000000	4.707798
337.000000	4.699506
338.000000	4.682590
339.000000	4.678735
340.000000	4.673374
341.000000	4.660647
342.000000	4.650137
343.000000	4.642366
344.000000	4.645661
345.000000	4.638750
346.000000	4.639851
347.000000	4.641562
348.000000	4.649016
349.000000	4.644511
350.000000	4.638260
351.000000	4.636790
352.000000	4.640013
353.000000	4.641366
354.000000	4.633041
355.000000	4.628655
356.000000	4.621095
357.000000	4.611649
358.000000	4.607086
359.000000	4.610726
360.000000	4.607774
361.000000	4.601791
362.000000	4.594222
363.000000	4.587712
364.000000	4.583540
365.000000	4.578100
366.000000	4.575641
367.000000	4.573699
368.000000	4.564813
369.000000	4.552695
370.000000	4.539489
371.000000	4.527002
372.000000	4.512225
373.000000	4.497268
374.000000	4.476998
375.000000	4.464424
376.000000	4.458471
377.000000	4.443115
378.000000	4.430284
379.000000	4.418171
380.000000	4.411605
381.000000	4.406093
382.000000	4.403134
383.000000	4.399166
384.000000	4.401723
385.000000	4.399367
386.000000	4.389779
387.000000	4.389742
388.000000	4.390129
389.000000	4.391021
390.000000	4.391388
391.000000	4.391900
392.000000	4.392085
393.000000	4.392903
394.000000	4.393340
395.000000	4.393518
396.000000	4.393056
397.000000	4.392471
398.000000	4.392382
399.000000	4.392900
400.000000	4.393069
401.000000	4.392972
402.000000	4.393375
403.000000	4.393841
404.000000	4.394121
405.000000	4.394886
406.000000	4.396353
407.000000	4.398012
408.000000	4.398385
409.000000	4.398308
410.000000	4.398791
411.000000	4.399732
412.000000	4.400269
413.000000	4.401522
414.000000	4.402575
415.000000	4.403392
416.000000	4.403792
417.000000	4.404070
418.000000	4.405237
419.000000	4.406362
420.000000	4.407128
421.000000	4.407478
422.000000	4.407979
423.000000	4.408088
424.000000	4.408073
425.000000	4.408121
426.000000	4.408762
427.000000	4.409635
428.000000	4.410350
429.000000	4.410776
430.000000	4.411029
431.000000	4.411877
432.000000	4.412811
433.000000	4.413527
434.000000	4.414080
435.000000	4.414653
436.000000	4.414802
437.000000	4.414921
438.000000	4.415177
439.000000	4.415882
440.000000	4.417273
441.000000	4.418227
442.000000	4.419017
443.000000	4.420102
444.000000	4.421396
445.000000	4.422353
446.000000	4.423371
447.000000	4.424586
448.000000	4.425729
449.000000	4.426615
450.000000	4.427179
451.000000	4.427868
452.000000	4.428529
453.000000	4.429067
454.000000	4.429677
455.000000	4.430557
456.000000	4.431728
457.000000	4.432707
458.000000	4.433598
459.000000	4.434609
460.000000	4.435589
461.000000	4.436560
462.000000	4.438052
463.000000	4.439502
464.000000	4.440550
465.000000	4.441847
466.000000	4.443405
467.000000	4.444808
468.000000	4.445958
469.000000	4.446878
470.000000	4.447745
471.000000	4.448496
472.000000	4.448426
473.000000	4.448350
474.000000	4.448507
475.000000	4.448207
476.000000	4.447181
477.000000	4.446202
478.000000	4.445439
479.000000	4.444717
480.000000	4.444193
481.000000	4.443923
482.000000	4.444565
483.000000	4.446202
484.000000	4.449133
485.000000	4.453386
486.000000	4.459659
487.000000	4.467628
488.000000	4.477329
489.000000	4.488723
490.000000	4.502159
491.000000	4.517370
492.000000	4.534013
493.000000	4.551649
494.000000	4.570091
495.000000	4.589900
496.000000	4.610584
497.000000	4.632516
498.000000	4.655919
499.000000	4.681050
500.000000	4.707867
501.000000	4.736566
502.000000	4.767497
503.000000	4.801174
504.000000	4.838055
505.000000	4.877638
506.000000	4.920228
507.000000	4.965894
508.000000	5.014856
509.000000	5.067531
510.000000	5.123919
511.000000	5.184681
512.000000	5.249366
513.000000	5.318483
514.000000	5.392427
515.000000	5.471540
516.000000	5.556238
517.000000	5.647010
518.000000	5.744272
519.000000	5.848660
520.000000	5.960830
521.000000	6.080796
522.000000	6.209638
523.000000	6.347694
524.000000	6.494767
525.000000	6.651337
526.000000	6.817488
527.000000	6.992805
528.000000	7.176940
529.000000	7.369014
530.000000	7.568580
531.000000	7.774877
532.000000	7.986393
533.000000	8.201630
534.000000	8.418664
535.000000	8.635735
536.000000	8.850099
537.000000	9.060057
538.000000	9.262771
539.000000	9.456053
540.000000	9.636839
541.000000	9.803329
542.000000	9.952503
543.000000	10.082681
544.000000	10.192004
545.000000	10.278339
546.000000	10.340918
547.000000	10.377911
548.000000	10.389786
549.000000	10.375740
550.000000	10.336193
551.000000	10.270047
552.000000	10.179139
553.000000	10.063241
554.000000	9.924268
555.000000	9.764967
556.000000	9.586705
557.000000	9.392160
558.000000	9.183233
559.000000	8.962547
560.000000	8.724403
561.000000	8.480475
562.000000	8.234805
563.000000	7.990760
564.000000	7.751772
565.000000	7.521063
566.000000	7.302526
567.000000	7.099743
568.000000	6.915296
569.000000	6.752891
570.000000	6.623197
571.000000	6.520337
572.000000	6.444750
573.000000	6.396689
574.000000	6.375594
575.000000	6.378889
576.000000	6.404599
577.000000	6.448958
578.000000	6.508135
579.000000	6.576969
580.000000	6.650893
581.000000	6.724790
582.000000	6.794332
583.000000	6.855760
584.000000	6.904841
585.000000	6.939863
586.000000	6.958509
587.000000	6.960252
588.000000	6.945119
589.000000	6.914270
590.000000	6.869296
591.000000	6.811433
592.000000	6.742808
593.000000	6.667221
594.000000	6.587383
595.000000	6.506431
596.000000	6.427763
597.000000	6.354333
598.000000	6.288830
599.000000	6.233955
600.000000	6.190872
601.000000	6.162433
602.000000	6.149925
603.000000	6.152468
604.000000	6.171010
605.000000	6.203722
606.000000	6.249615
607.000000	6.305732
608.000000	6.369909
609.000000	6.438819
610.000000	6.510225
611.000000	6.580380
612.000000	6.647360
613.000000	6.707885
614.000000	6.759995
615.000000	6.802299
616.000000	6.832972
617.000000	6.852322
618.000000	6.860607
619.000000	6.858993
620.000000	6.848141
621.000000	6.830014
622.000000	6.805407
623.000000	6.777244
624.000000	6.747358
625.000000	6.718535
626.000000	6.692126
627.000000	6.670477
628.000000	6.655955
629.000000	6.649059
630.000000	6.650688
631.000000	6.662882
632.000000	6.685658
633.000000	6.718851
634.000000	6.761795
635.000000	6.813056
636.000000	6.872211
637.000000	6.938125
638.000000	7.007378
639.000000	7.079270
640.000000	7.152886
641.000000	7.224808
642.000000	7.294053
643.000000	7.359281
644.000000	7.419711
645.000000	7.475745
646.000000	7.526523
647.000000	7.571618
648.000000	7.612700
649.000000	7.650161
650.000000	7.684588
651.000000	7.717722
652.000000	7.750160
653.000000	7.783773
654.000000	7.820078
655.000000	7.859416
656.000000	7.903761
657.000000	7.953474
658.000000	8.009010
659.000000	8.070232
660.000000	8.137765
661.000000	8.211909
662.000000	8.292562
663.000000	8.378801
664.000000	8.469719
665.000000	8.563811
666.000000	8.659668
667.000000	8.757749
668.000000	8.856222
669.000000	8.955090
670.000000	9.053176
671.000000	9.149758
672.000000	9.244315
673.000000	9.336365
674.000000	9.425395
675.000000	9.512829
676.000000	9.599241
677.000000	9.683540
678.000000	9.767424
679.000000	9.851409
680.000000	9.935407
681.000000	10.021085
682.000000	10.108081
683.000000	10.197854
684.000000	10.291194
685.000000	10.389661
686.000000	10.491505
687.000000	10.597771
688.000000	10.709164
689.000000	10.824500
690.000000	10.944356
691.000000	11.067754
692.000000	11.194755
693.000000	11.324465
694.000000	11.457086
695.000000	11.589578
696.000000	11.722803
697.000000	11.856268
698.000000	11.987826
699.000000	12.117477
700.000000	12.246267
701.000000	12.374141
702.000000	12.500350
703.000000	12.625497
704.000000	12.749817
705.000000	12.874104
706.000000	12.998294
707.000000	13.124611
708.000000	13.253641
709.000000	13.385655
710.000000	13.521207
711.000000	13.659106
712.000000	13.799962
713.000000	13.944517
714.000000	14.092636
715.000000	14.243580
716.000000	14.398581
717.000000	14.555202
718.000000	14.714067
719.000000	14.874296
720.000000	15.034166
721.000000	15.196153
722.000000	15.359513
723.000000	15.524214
724.000000	15.689990
725.000000	15.855821
726.000000	16.022106
727.000000	16.186019
728.000000	16.347505
729.000000	16.509271
730.000000	16.670928
731.000000	16.830129
732.000000	16.986649
733.000000	17.139521
734.000000	17.288992
735.000000	17.436483
736.000000	17.579768
737.000000	17.721610
738.000000	17.861683
739.000000	17.997518
740.000000	18.128099
741.000000	18.254044
742.000000	18.377483
743.000000	18.496880
744.000000	18.610262
745.000000	18.717912
746.000000	18.821804
747.000000	18.919871
748.000000	19.012235
749.000000	19.100022
750.000000	19.181954
751.000000	19.258779
752.000000	19.329116
753.000000	19.392900
754.000000	19.449457
755.000000	19.497879
756.000000	19.536700
757.000000	19.567933
758.000000	19.591667
759.000000	19.605519
760.000000	19.611076
761.000000	19.608575
762.000000	19.598426
763.000000	19.580596
764.000000	19.556559
765.000000	19.528808
766.000000	19.496201
767.000000	19.459233
768.000000	19.417793
769.000000	19.373784
770.000000	19.329872
771.000000	19.282737
772.000000	19.232881
773.000000	19.183010
774.000000	19.134140
775.000000	19.086315
776.000000	19.040668
777.000000	18.996174
778.000000	18.956165
779.000000	18.920316
780.000000	18.885637
781.000000	18.854079
782.000000	18.830690
783.000000	18.814733
784.000000	18.804288
785.000000	18.796999
786.000000	18.792504
787.000000	18.795111
788.000000	18.801730
789.000000	18.812576
790.000000	18.829842
791.000000	18.855015
792.000000	18.882091
793.000000	18.911072
794.000000	18.942593
795.000000	18.979962
796.000000	19.025237
797.000000	19.072558
798.000000	19.122602
799.000000	19.174638
800.000000	19.230013
801.000000	19.289319
802.000000	19.351658
803.000000	19.416346
804.000000	19.484755
805.000000	19.555094
806.000000	19.622870
807.000000	19.693349
808.000000	19.769448
809.000000	19.847122
810.000000	19.926462
811.000000	20.006765
812.000000	20.086843
813.000000	20.167585
814.000000	20.246150
815.000000	20.323542
816.000000	20.404495
817.000000	20.483175
818.000000	20.559645
819.000000	20.640601
820.000000	20.717434
821.000000	20.792352
822.000000	20.869074
823.000000	20.948260
824.000000	21.028190
825.000000	21.112396
826.000000	21.195941
827.000000	21.277308
828.000000	21.355396
829.000000	21.433105
830.000000	21.513178
831.000000	21.590602
832.000000	21.668627
833.000000	21.741006
834.000000	21.812033
835.000000	21.882469
836.000000	21.952642
837.000000	22.026129
838.000000	22.100802
839.000000	22.169894
840.000000	22.233433
841.000000	22.297702
842.000000	22.364017
843.000000	22.427456
844.000000	22.491875
845.000000	22.555998
846.000000	22.620808
847.000000	22.682277
848.000000	22.741671
849.000000	22.796443
850.000000	22.855133
851.000000	22.901009
852.000000	22.948763
853.000000	23.009883
854.000000	23.065280
855.000000	23.113642
856.000000	23.162091
857.000000	23.225132
858.000000	23.513258
859.000000	23.606904
860.000000	23.723933
861.000000	23.854027
862.000000	23.956514
863.000000	24.054097
864.000000	24.134089
865.000000	24.209763
866.000000	24.301185
867.000000	24.369957
868.000000	24.219000
869.000000	24.275666
870.000000	24.286464
871.000000	24.286348
872.000000	24.292858
873.000000	24.278914
874.000000	24.273112
875.000000	24.271580
876.000000	24.250646
877.000000	24.232902
878.000000	24.199378
879.000000	24.159572
880.000000	24.143688
881.000000	24.137164
882.000000	24.149098
883.000000	24.157670
884.000000	24.196826
885.000000	24.221864
886.000000	24.242502
887.000000	24.263404
888.000000	24.286448
889.000000	24.302460
890.000000	24.324738
891.000000	24.335182
892.000000	24.345308
893.000000	24.355008
894.000000	24.334484
895.000000	24.342714
896.000000	24.344992
897.000000	24.338398
898.000000	24.342858
899.000000	24.358300
900.000000	24.368186
901.000000	24.381382
902.000000	24.387188
903.000000	24.419798
904.000000	24.455734
905.000000	24.477958
906.000000	24.507206
907.000000	24.549254
908.000000	24.585896
909.000000	24.609008
910.000000	24.633804
911.000000	24.659128
912.000000	24.674478
913.000000	24.689238
914.000000	24.709722
915.000000	24.729682
916.000000	24.756592
917.000000	24.778436
918.000000	24.805848
919.000000	24.839592
920.000000	24.870196
921.000000	24.906520
922.000000	24.951322
923.000000	24.986280
924.000000	25.023646
925.000000	25.060522
926.000000	25.091116
927.000000	25.121154
928.000000	25.153384
929.000000	25.181496
930.000000	25.203050
931.000000	25.226828
932.000000	25.250730
933.000000	25.279574
934.000000	25.307186
935.000000	25.333424
936.000000	25.362632
937.000000	25.397480
938.000000	25.423460
939.000000	25.455320
940.000000	25.487236
941.000000	25.520198
942.000000	25.552906
943.000000	25.577424
944.000000	25.606716
945.000000	25.636256
946.000000	25.667714
947.000000	25.693760
948.000000	25.720936
949.000000	25.744098
950.000000	25.772194
951.000000	25.796758
952.000000	25.820834
953.000000	25.847416
954.000000	25.874040
955.000000	25.903212
956.000000	25.927438
957.000000	25.957512
958.000000	25.987446
959.000000	26.017526
960.000000	26.046066
961.000000	26.075796
962.000000	26.106868
963.000000	26.137400
964.000000	26.164466
965.000000	26.189770
966.000000	26.215492
967.000000	26.239140
968.000000	26.262878
969.000000	26.287600
970.000000	26.310960
971.000000	26.332320
972.000000	26.353186
973.000000	26.378434
974.000000	26.403856
975.000000	26.429624
976.000000	26.454024
977.000000	26.476384
978.000000	26.499434
979.000000	26.525264
980.000000	26.549742
981.000000	26.573772
982.000000	26.598524
983.000000	26.620244
984.000000	26.641964
985.000000	26.663332
986.000000	26.686414
987.000000	26.713468
988.000000	26.738028
989.000000	26.757366
990.000000	26.779088
991.000000	26.803080
992.000000	26.826526
993.000000	26.851300
994.000000	26.876398
995.000000	26.899540
996.000000	26.921506
997.000000	26.943916
998.000000	26.967808
999.000000	26.992836
1000.000000	27.017236
1001.000000	27.039894
1002.000000	27.063914
1003.000000	27.085588
1004.000000	27.105222
1005.000000	27.126426
1006.000000	27.148618
1007.000000	27.169478
1008.000000	27.189320
1009.000000	27.210320
1010.000000	27.232614
1011.000000	27.254204
1012.000000	27.272618
1013.000000	27.291688
1014.000000	27.312952
1015.000000	27.334622
1016.000000	27.356520
1017.000000	27.379746
1018.000000	27.404966
1019.000000	27.429794
1020.000000	27.452406
1021.000000	27.475528
1022.000000	27.501720
1023.000000	27.529068
1024.000000	27.554836
1025.000000	27.580588
1026.000000	27.605184
1027.000000	27.627840
1028.000000	27.650278
1029.000000	27.673106
1030.000000	27.696508
1031.000000	27.720844
1032.000000	27.745772
1033.000000	27.771524
1034.000000	27.797904
1035.000000	27.823190
1036.000000	27.849198
1037.000000	27.875634
1038.000000	27.901748
1039.000000	27.927578
1040.000000	27.954102
1041.000000	27.980196
1042.000000	28.005232
1043.000000	28.029208
1044.000000	28.051624
1045.000000	28.073236
1046.000000	28.094666
1047.000000	28.115814
1048.000000	28.137072
1049.000000	28.159332
1050.000000	28.181854
1051.000000	28.205322
1052.000000	28.228470
1053.000000	28.251278
1054.000000	28.275046
1055.000000	28.300060
1056.000000	28.326694
1057.000000	28.354802
1058.000000	28.382150
1059.000000	28.408254
1060.000000	28.434386
1061.000000	28.458892
1062.000000	28.484496
1063.000000	28.511112
1064.000000	28.538156
1065.000000	28.564380
1066.000000	28.588118
1067.000000	28.611022
1068.000000	28.635636
1069.000000	28.661472
1070.000000	28.686426
1071.000000	28.711452
1072.000000	28.734592
1073.000000	28.756556
1074.000000	28.778288
1075.000000	28.799084
1076.000000	28.822824
1077.000000	28.846146
1078.000000	28.867470
1079.000000	28.887728
1080.000000	28.907738
1081.000000	28.926966
1082.000000	28.946662
1083.000000	28.966438
1084.000000	28.985824
1085.000000	29.005128
1086.000000	29.022376
1087.000000	29.040394
1088.000000	29.058618
1089.000000	29.075650
1090.000000	29.092404
1091.000000	29.110608
1092.000000	29.129070
1093.000000	29.146738
1094.000000	29.163670
1095.000000	29.181346
1096.000000	29.198738
1097.000000	29.215144
1098.000000	29.231990
1099.000000	29.248614
1100.000000	29.265890
1101.000000	29.282826
1102.000000	29.299234
1103.000000	29.316950
1104.000000	29.334324
1105.000000	29.351186
1106.000000	29.368860
1107.000000	29.385098
1108.000000	29.401436
1109.000000	29.417574
1110.000000	29.433498
1111.000000	29.448484
1112.000000	29.462980
1113.000000	29.476496
1114.000000	29.489374
1115.000000	29.503142
1116.000000	29.514012
1117.000000	29.525764
1118.000000	29.535716
1119.000000	29.545352
1120.000000	29.553944
1121.000000	29.561932
1122.000000	29.567522
1123.000000	29.571952
1124.000000	29.575106
1125.000000	29.573930
1126.000000	29.572818
1127.000000	29.569948
1128.000000	29.565214
1129.000000	29.558622
1130.000000	29.548858
1131.000000	29.533996
1132.000000	29.518352
1133.000000	29.500222
1134.000000	29.483240
1135.000000	29.468576
1136.000000	29.451090
1137.000000	29.431308
1138.000000	29.410722
1139.000000	29.389034
1140.000000	29.367446
1141.000000	29.349474
1142.000000	29.330172
1143.000000	29.309912
1144.000000	29.289032
1145.000000	29.267320
1146.000000	29.247066
1147.000000	29.227590
1148.000000	29.207468
1149.000000	29.188292
1150.000000	29.168514
1151.000000	29.147468
1152.000000	29.128210
1153.000000	29.107740
1154.000000	29.085020
1155.000000	29.060516
1156.000000	29.033236
1157.000000	29.005290
1158.000000	28.976090
1159.000000	28.943454
1160.000000	28.908050
1161.000000	28.872122
1162.000000	28.833288
1163.000000	28.792600
1164.000000	28.750774
1165.000000	28.706858
1166.000000	28.662376
1167.000000	28.616108
1168.000000	28.570208
1169.000000	28.527326
1170.000000	28.485816
1171.000000	28.444826
