PE UV       SUBTECH     SPECTRUM    ASCII       PEDS        4.00        
   -1
INBUCR0421-4.Sample.ASC
24/02/09
12:37:30.00
24/02/09
12:37:30.00
Vinicio Soto Monge
Chrysina optima. La Catarata. P. N. Tapantí, Prov. Cartago. COSTA RICA. 1700 m. Ago 1994. G. Mora, L_N_190900_560300 #3183. INBIOCRI002037917
250,000000
1
Lambda 1050
1050L1511233
PerkinElmer UV WinLab 6.3.2.0749 / 2.02.05 Lambda 900 UV/VIS/NIR, Aug  7 2015 09:38:08

0
0
3350/servo 860,8/2
0
0
UV/VIS
1
1
1
DoubleDePol,CommonBeamDepol,RBeamAtt,SBeamAtt,60mm sphere, WB InGaAs Detector
0
0
0
0
Program
Program
3350/servo 860,8/2
3350/0,2 860,8/0,2
3350/0,2 860,8/0,2
0
15.00
 
 
 
0
 
860,8
319,2
860,8
Front
100
on
S:100 R:100
0
0
0
0
 
0
 
 
 
0
 
 
0
0
0
0
0
 
 
 
 
0
0


0
0
#HDR
-1
-1
#GR
nm
%R
1.0
0.0
2500,000000
-1,000000
2251
8
18,666700
0,939500
#DATA

250.000000	nan
251.000000	nan
252.000000	nan
253.000000	nan
254.000000	nan
255.000000	nan
256.000000	nan
257.000000	nan
258.000000	nan
259.000000	3.372535
260.000000	3.372924
261.000000	3.373452
262.000000	3.373626
263.000000	3.373315
264.000000	3.373706
265.000000	3.373234
266.000000	3.371374
267.000000	3.369663
268.000000	3.367845
269.000000	3.365368
270.000000	3.364213
271.000000	3.362828
272.000000	3.360169
273.000000	3.359098
274.000000	3.356780
275.000000	3.354711
276.000000	3.354064
277.000000	3.353880
278.000000	3.353269
279.000000	3.353044
280.000000	3.352440
281.000000	3.353837
282.000000	3.353761
283.000000	3.353061
284.000000	3.353748
285.000000	3.355211
286.000000	3.356837
287.000000	3.359739
288.000000	3.361655
289.000000	3.362605
290.000000	3.365261
291.000000	3.365949
292.000000	3.368841
293.000000	3.373061
294.000000	3.377761
295.000000	3.383798
296.000000	3.389569
297.000000	3.393470
298.000000	3.399870
299.000000	3.404664
300.000000	3.408936
301.000000	3.413762
302.000000	3.419161
303.000000	3.421925
304.000000	3.425767
305.000000	3.429277
306.000000	3.433361
307.000000	3.438574
308.000000	3.441892
309.000000	3.445782
310.000000	3.451287
311.000000	3.486160
312.000000	3.490371
313.000000	3.493985
314.000000	3.497607
315.000000	3.528931
316.000000	3.533238
317.000000	3.590173
318.000000	3.650196
319.000000	3.707182
320.000000	3.765451
321.000000	3.784888
322.000000	3.845277
323.000000	3.908518
324.000000	3.965762
325.000000	3.988864
326.000000	4.032072
327.000000	4.028025
328.000000	4.012231
329.000000	4.006438
330.000000	3.994177
331.000000	3.988355
332.000000	3.970194
333.000000	3.952365
334.000000	3.942697
335.000000	3.937051
336.000000	3.941711
337.000000	3.939870
338.000000	3.941826
339.000000	3.940118
340.000000	3.935374
341.000000	3.935838
342.000000	3.940576
343.000000	3.942718
344.000000	3.941526
345.000000	3.943470
346.000000	3.942629
347.000000	3.939037
348.000000	3.941207
349.000000	3.938211
350.000000	3.943111
351.000000	3.951537
352.000000	3.951090
353.000000	3.952673
354.000000	3.952535
355.000000	3.948865
356.000000	3.947062
357.000000	3.949403
358.000000	3.951357
359.000000	3.955295
360.000000	3.956489
361.000000	3.953783
362.000000	3.957416
363.000000	3.985965
364.000000	4.018804
365.000000	4.055760
366.000000	4.088473
367.000000	4.121413
368.000000	4.150531
369.000000	4.179611
370.000000	4.208692
371.000000	4.233561
372.000000	4.260705
373.000000	4.259694
374.000000	4.249447
375.000000	4.267638
376.000000	4.293275
377.000000	4.315035
378.000000	4.340453
379.000000	4.366868
380.000000	4.394447
381.000000	4.454179
382.000000	4.511411
383.000000	4.571282
384.000000	4.637777
385.000000	4.673760
386.000000	4.703908
387.000000	4.766877
388.000000	4.830033
389.000000	4.893076
390.000000	4.956024
391.000000	4.990344
392.000000	5.024571
393.000000	5.087361
394.000000	5.150209
395.000000	5.212833
396.000000	5.275686
397.000000	5.309394
398.000000	5.372128
399.000000	5.434812
400.000000	5.497806
401.000000	5.560611
402.000000	5.622815
403.000000	5.656330
404.000000	5.690391
405.000000	5.753627
406.000000	5.816157
407.000000	5.878728
408.000000	5.912233
409.000000	5.946168
410.000000	5.979531
411.000000	6.013087
412.000000	6.047154
413.000000	6.081064
414.000000	6.143760
415.000000	6.177279
416.000000	6.210937
417.000000	6.244846
418.000000	6.279080
419.000000	6.312970
420.000000	6.346773
421.000000	6.380646
422.000000	6.414635
423.000000	6.448593
424.000000	6.453250
425.000000	6.458073
426.000000	6.463201
427.000000	6.468450
428.000000	6.473430
429.000000	6.478705
430.000000	6.484525
431.000000	6.490331
432.000000	6.496069
433.000000	6.502087
434.000000	6.508337
435.000000	6.485531
436.000000	6.462681
437.000000	6.439909
438.000000	6.417147
439.000000	6.394456
440.000000	6.371870
441.000000	6.349093
442.000000	6.326228
443.000000	6.303378
444.000000	6.280597
445.000000	6.287110
446.000000	6.293940
447.000000	6.300870
448.000000	6.307805
449.000000	6.285644
450.000000	6.263451
451.000000	6.241525
452.000000	6.219637
453.000000	6.197653
454.000000	6.175771
455.000000	6.153568
456.000000	6.131301
457.000000	6.109112
458.000000	6.087149
459.000000	6.094364
460.000000	6.101571
461.000000	6.108728
462.000000	6.115953
463.000000	6.123441
464.000000	6.131047
465.000000	6.138885
466.000000	6.146720
467.000000	6.154462
468.000000	6.162128
469.000000	6.198996
470.000000	6.235983
471.000000	6.272896
472.000000	6.309771
473.000000	6.346546
474.000000	6.383270
475.000000	6.419855
476.000000	6.456097
477.000000	6.492320
478.000000	6.528531
479.000000	6.535193
480.000000	6.541167
481.000000	6.546699
482.000000	6.551694
483.000000	6.585477
484.000000	6.619486
485.000000	6.654020
486.000000	6.689563
487.000000	6.725746
488.000000	6.762208
489.000000	6.799536
490.000000	6.838353
491.000000	6.878539
492.000000	6.919878
493.000000	6.933079
494.000000	6.946917
495.000000	6.960985
496.000000	6.975050
497.000000	6.989057
498.000000	7.003543
499.000000	7.018652
500.000000	7.033618
501.000000	7.048600
502.000000	7.063707
503.000000	7.078923
504.000000	7.123098
505.000000	7.167223
506.000000	7.211366
507.000000	7.255462
508.000000	7.299030
509.000000	7.341941
510.000000	7.413500
511.000000	7.484991
512.000000	7.556471
513.000000	7.656368
514.000000	7.726761
515.000000	7.796816
516.000000	7.866445
517.000000	7.964622
518.000000	8.062580
519.000000	8.160363
520.000000	8.258161
521.000000	8.355405
522.000000	8.452377
523.000000	8.520518
524.000000	8.617976
525.000000	8.715522
526.000000	8.813232
527.000000	8.882035
528.000000	8.951420
529.000000	9.021040
530.000000	9.090693
531.000000	9.160991
532.000000	9.231425
533.000000	9.302187
534.000000	9.344147
535.000000	9.386139
536.000000	9.428310
537.000000	9.471079
538.000000	9.514097
539.000000	9.557360
540.000000	9.601006
541.000000	9.644401
542.000000	9.687891
543.000000	9.731260
544.000000	9.774554
545.000000	9.817975
546.000000	9.861536
547.000000	9.905106
548.000000	9.948399
549.000000	9.991410
550.000000	10.005442
551.000000	10.019580
552.000000	10.033675
553.000000	10.047810
554.000000	10.062073
555.000000	10.076389
556.000000	10.090082
557.000000	10.103387
558.000000	10.116839
559.000000	10.130638
560.000000	10.138502
561.000000	10.144959
562.000000	10.151317
563.000000	10.157253
564.000000	10.162772
565.000000	10.167950
566.000000	10.173340
567.000000	10.178927
568.000000	10.184055
569.000000	10.188753
570.000000	10.198815
571.000000	10.209977
572.000000	10.221485
573.000000	10.233302
574.000000	10.245045
575.000000	10.257141
576.000000	10.269231
577.000000	10.281029
578.000000	10.293018
579.000000	10.305134
580.000000	10.317497
581.000000	10.329792
582.000000	10.341640
583.000000	10.353313
584.000000	10.336168
585.000000	10.319119
586.000000	10.301609
587.000000	10.284223
588.000000	10.266742
589.000000	10.249231
590.000000	10.231688
591.000000	10.214778
592.000000	10.197610
593.000000	10.180823
594.000000	10.193052
595.000000	10.204858
596.000000	10.216873
597.000000	10.228778
598.000000	10.241068
599.000000	10.223530
600.000000	10.206661
601.000000	10.189010
602.000000	10.171910
603.000000	10.154337
604.000000	10.136727
605.000000	10.119294
606.000000	10.101808
607.000000	10.084737
608.000000	10.067068
609.000000	10.079111
610.000000	10.090336
611.000000	10.101912
612.000000	10.113343
613.000000	10.124994
614.000000	10.136705
615.000000	10.148195
616.000000	10.159707
617.000000	10.171129
618.000000	10.182546
619.000000	10.194018
620.000000	10.176469
621.000000	10.158699
622.000000	10.141053
623.000000	10.123244
624.000000	10.105360
625.000000	10.087597
626.000000	10.070074
627.000000	10.052462
628.000000	10.035329
629.000000	10.018944
630.000000	10.031480
631.000000	10.044243
632.000000	10.057315
633.000000	10.070375
634.000000	10.083271
635.000000	10.096441
636.000000	10.110115
637.000000	10.123983
638.000000	10.137211
639.000000	10.150704
640.000000	10.164745
641.000000	10.178877
642.000000	10.192306
643.000000	10.206615
644.000000	10.221260
645.000000	10.236673
646.000000	10.251743
647.000000	10.266802
648.000000	10.282384
649.000000	10.297407
650.000000	10.312735
651.000000	10.357005
652.000000	10.402126
653.000000	10.446822
654.000000	10.490981
655.000000	10.534701
656.000000	10.578998
657.000000	10.623548
658.000000	10.667914
659.000000	10.712342
660.000000	10.756757
661.000000	10.771842
662.000000	10.816167
663.000000	10.860563
664.000000	10.905532
665.000000	10.950172
666.000000	10.994667
667.000000	11.038755
668.000000	11.083238
669.000000	11.156632
670.000000	11.229780
671.000000	11.303381
672.000000	11.347456
673.000000	11.390997
674.000000	11.434460
675.000000	11.478468
676.000000	11.521605
677.000000	11.593949
678.000000	11.666370
679.000000	11.709726
680.000000	11.752539
681.000000	11.795529
682.000000	11.838424
683.000000	11.881771
684.000000	11.954749
685.000000	12.027660
686.000000	12.100806
687.000000	12.144701
688.000000	12.188032
689.000000	12.230932
690.000000	12.274247
691.000000	12.317441
692.000000	12.389827
693.000000	12.462054
694.000000	12.504953
695.000000	12.547723
696.000000	12.591034
697.000000	12.633930
698.000000	12.677733
699.000000	12.722094
700.000000	12.765886
701.000000	12.809692
702.000000	12.852891
703.000000	12.896326
704.000000	12.939427
705.000000	12.981506
706.000000	13.023901
707.000000	13.067295
708.000000	13.110520
709.000000	13.153963
710.000000	13.196562
711.000000	13.238799
712.000000	13.252620
713.000000	13.266830
714.000000	13.281370
715.000000	13.325845
716.000000	13.369845
717.000000	13.413643
718.000000	13.457123
719.000000	13.500253
720.000000	13.544361
721.000000	13.588551
722.000000	13.632541
723.000000	13.676154
724.000000	13.720118
725.000000	13.735105
726.000000	13.750336
727.000000	13.765390
728.000000	13.780266
729.000000	13.795100
730.000000	13.839537
731.000000	13.884222
732.000000	13.929067
733.000000	13.974329
734.000000	14.019276
735.000000	14.064049
736.000000	14.108786
737.000000	14.153418
738.000000	14.198158
739.000000	14.243275
740.000000	14.259130
741.000000	14.274524
742.000000	14.289812
743.000000	14.304727
744.000000	14.318720
745.000000	14.333431
746.000000	14.348865
747.000000	14.393384
748.000000	14.438278
749.000000	14.482622
750.000000	14.526624
751.000000	14.571217
752.000000	14.616687
753.000000	14.661870
754.000000	14.707630
755.000000	14.752729
756.000000	14.796826
757.000000	14.811984
758.000000	14.827008
759.000000	14.841985
760.000000	14.857660
761.000000	14.874418
762.000000	14.891257
763.000000	14.908186
764.000000	14.954143
765.000000	15.000578
766.000000	15.046766
767.000000	15.092006
768.000000	15.137509
769.000000	15.183975
770.000000	15.230569
771.000000	15.276390
772.000000	15.321415
773.000000	15.366721
774.000000	15.383165
775.000000	15.398631
776.000000	15.415497
777.000000	15.433167
778.000000	15.449738
779.000000	15.466605
780.000000	15.482167
781.000000	15.497142
782.000000	15.542157
783.000000	15.585978
784.000000	15.630223
785.000000	15.676343
786.000000	15.721063
787.000000	15.764804
788.000000	15.809656
789.000000	15.854089
790.000000	15.900467
791.000000	15.946874
792.000000	15.962590
793.000000	15.979241
794.000000	15.994900
795.000000	16.010131
796.000000	16.026279
797.000000	16.043064
798.000000	16.060649
799.000000	16.076732
800.000000	16.092688
801.000000	16.138104
802.000000	16.182617
803.000000	16.228561
804.000000	16.276112
805.000000	16.321572
806.000000	16.367070
807.000000	16.414239
808.000000	16.463570
809.000000	16.513526
810.000000	16.562859
811.000000	16.582632
812.000000	16.603030
813.000000	16.622975
814.000000	16.642707
815.000000	16.662494
816.000000	16.680192
817.000000	16.696688
818.000000	16.740206
819.000000	16.784202
820.000000	16.827176
821.000000	16.872038
822.000000	16.914926
823.000000	16.954654
824.000000	16.995818
825.000000	17.036717
826.000000	17.079507
827.000000	17.120378
828.000000	17.132737
829.000000	17.142754
830.000000	17.153315
831.000000	17.164295
832.000000	17.174887
833.000000	17.187271
834.000000	17.196965
835.000000	17.207548
836.000000	17.214151
837.000000	17.251686
838.000000	17.288008
839.000000	17.326605
840.000000	17.365636
841.000000	17.404851
842.000000	17.443058
843.000000	17.478687
844.000000	17.516815
845.000000	17.555241
846.000000	17.592896
847.000000	17.600506
848.000000	17.612506
849.000000	17.613692
850.000000	17.616535
851.000000	17.615774
852.000000	17.617415
853.000000	17.618849
854.000000	17.609798
855.000000	17.604044
856.000000	17.596738
857.000000	17.600895
858.000000	17.884688
859.000000	17.923125
860.000000	17.960856
861.000000	17.977253
862.000000	17.996928
863.000000	18.021068
864.000000	18.054151
865.000000	18.109861
866.000000	18.121971
867.000000	18.123842
868.000000	17.842630
869.000000	17.817940
870.000000	17.791397
871.000000	17.788630
872.000000	17.759378
873.000000	17.754597
874.000000	17.723882
875.000000	17.667470
876.000000	17.685720
877.000000	17.679037
878.000000	17.645360
879.000000	17.636558
880.000000	17.627905
881.000000	17.619050
882.000000	17.636242
883.000000	17.602410
884.000000	17.594970
885.000000	17.587365
886.000000	17.554633
887.000000	17.547677
888.000000	17.566030
889.000000	17.558003
890.000000	17.525440
891.000000	17.518252
892.000000	17.485360
893.000000	17.477467
894.000000	17.468352
895.000000	17.461118
896.000000	17.453202
897.000000	17.444330
898.000000	17.435662
899.000000	17.428475
900.000000	17.446945
901.000000	17.438635
902.000000	17.456610
903.000000	17.475795
904.000000	17.469875
905.000000	17.462978
906.000000	17.457458
907.000000	17.452712
908.000000	17.448417
909.000000	17.443595
910.000000	17.438877
911.000000	17.435543
912.000000	17.431510
913.000000	17.427015
914.000000	17.449060
915.000000	17.470402
916.000000	17.491377
917.000000	17.512802
918.000000	17.534073
919.000000	17.529542
920.000000	17.524620
921.000000	17.519692
922.000000	17.513980
923.000000	17.509388
924.000000	17.502415
925.000000	17.494170
926.000000	17.487390
927.000000	17.479177
928.000000	17.470487
929.000000	17.487738
930.000000	17.504815
931.000000	17.520392
932.000000	17.536092
933.000000	17.551535
934.000000	17.569765
935.000000	17.588415
936.000000	17.605695
937.000000	17.622205
938.000000	17.638628
939.000000	17.654492
940.000000	17.645437
941.000000	17.636192
942.000000	17.652475
943.000000	17.642635
944.000000	17.630175
945.000000	17.618905
946.000000	17.607698
947.000000	17.597415
948.000000	17.586930
949.000000	17.577347
950.000000	17.591777
951.000000	17.606853
952.000000	17.596832
953.000000	17.612108
954.000000	17.628602
955.000000	17.643670
956.000000	17.657467
957.000000	17.671430
958.000000	17.686138
959.000000	17.700350
960.000000	17.714935
961.000000	17.729337
962.000000	17.743510
963.000000	17.757365
964.000000	17.770757
965.000000	17.784365
966.000000	17.798520
967.000000	17.813073
968.000000	17.826608
969.000000	17.838990
970.000000	17.851585
971.000000	17.864965
972.000000	17.877208
973.000000	17.889147
974.000000	17.901738
975.000000	17.914832
976.000000	17.927250
977.000000	17.939397
978.000000	17.951640
979.000000	17.964780
980.000000	17.977282
981.000000	17.989400
982.000000	18.001812
983.000000	18.014465
984.000000	18.025830
985.000000	18.037445
986.000000	18.050127
987.000000	18.062587
988.000000	18.075305
989.000000	18.086895
990.000000	18.098855
991.000000	18.110860
992.000000	18.122825
993.000000	18.133248
994.000000	18.143770
995.000000	18.154830
996.000000	18.165250
997.000000	18.175028
998.000000	18.184920
999.000000	18.195885
1000.000000	18.206028
1001.000000	18.215065
1002.000000	18.224815
1003.000000	18.236175
1004.000000	18.247605
1005.000000	18.257382
1006.000000	18.266790
1007.000000	18.276770
1008.000000	18.286555
1009.000000	18.295718
1010.000000	18.305995
1011.000000	18.316952
1012.000000	18.327295
1013.000000	18.337007
1014.000000	18.346275
1015.000000	18.355980
1016.000000	18.366095
1017.000000	18.375712
1018.000000	18.385510
1019.000000	18.395970
1020.000000	18.405873
1021.000000	18.415337
1022.000000	18.424430
1023.000000	18.432940
1024.000000	18.441620
1025.000000	18.450845
1026.000000	18.460213
1027.000000	18.469102
1028.000000	18.477758
1029.000000	18.486415
1030.000000	18.494960
1031.000000	18.504033
1032.000000	18.513685
1033.000000	18.523770
1034.000000	18.533820
1035.000000	18.543642
1036.000000	18.553023
1037.000000	18.561725
1038.000000	18.569917
1039.000000	18.578448
1040.000000	18.587635
1041.000000	18.596493
1042.000000	18.604377
1043.000000	18.612135
1044.000000	18.619840
1045.000000	18.626732
1046.000000	18.634735
1047.000000	18.643992
1048.000000	18.653365
1049.000000	18.662577
1050.000000	18.671822
1051.000000	18.680473
1052.000000	18.714230
1053.000000	18.747712
1054.000000	18.781950
1055.000000	18.817150
1056.000000	18.851370
1057.000000	18.884720
1058.000000	18.918235
1059.000000	18.952015
1060.000000	18.984918
1061.000000	19.017832
1062.000000	19.026153
1063.000000	19.034992
1064.000000	19.043557
1065.000000	19.051405
1066.000000	19.059088
1067.000000	19.067528
1068.000000	19.076467
1069.000000	19.085220
1070.000000	19.095060
1071.000000	19.105600
1072.000000	19.115265
1073.000000	19.125640
1074.000000	19.135625
1075.000000	19.146088
1076.000000	19.157137
1077.000000	19.167310
1078.000000	19.176355
1079.000000	19.184895
1080.000000	19.193797
1081.000000	19.202545
1082.000000	19.210875
1083.000000	19.218708
1084.000000	19.227377
1085.000000	19.235437
1086.000000	19.243403
1087.000000	19.251915
1088.000000	19.261138
1089.000000	19.270622
1090.000000	19.277855
1091.000000	19.284865
1092.000000	19.293578
1093.000000	19.302753
1094.000000	19.311325
1095.000000	19.320405
1096.000000	19.328865
1097.000000	19.337772
1098.000000	19.371337
1099.000000	19.405015
1100.000000	19.439125
1101.000000	19.473942
1102.000000	19.507690
1103.000000	19.542122
1104.000000	19.576825
1105.000000	19.610067
1106.000000	19.643103
1107.000000	19.676013
1108.000000	19.684052
1109.000000	19.692837
1110.000000	19.702980
1111.000000	19.712812
1112.000000	19.721948
1113.000000	19.729545
1114.000000	19.736272
1115.000000	19.745193
1116.000000	19.754080
1117.000000	19.762408
1118.000000	19.769973
1119.000000	19.775958
1120.000000	19.781435
1121.000000	19.786938
1122.000000	19.794897
1123.000000	19.801705
1124.000000	19.809155
1125.000000	19.815100
1126.000000	19.820888
1127.000000	19.827148
1128.000000	19.834597
1129.000000	19.842580
1130.000000	19.848805
1131.000000	19.852005
1132.000000	19.852300
1133.000000	19.853995
1134.000000	19.856890
1135.000000	19.861965
1136.000000	19.866035
1137.000000	19.867843
1138.000000	19.867610
1139.000000	19.867483
1140.000000	19.867545
1141.000000	19.871063
1142.000000	19.875217
1143.000000	19.878872
1144.000000	19.880758
1145.000000	19.881255
1146.000000	19.882548
1147.000000	19.884413
1148.000000	19.888443
1149.000000	19.891597
1150.000000	19.871073
1151.000000	19.850252
1152.000000	19.829483
1153.000000	19.808788
1154.000000	19.786755
1155.000000	19.765342
1156.000000	19.742902
1157.000000	19.721495
1158.000000	19.699240
1159.000000	19.675305
1160.000000	19.676150
1161.000000	19.675415
1162.000000	19.673623
1163.000000	19.670635
1164.000000	19.668067
1165.000000	19.662500
1166.000000	19.658305
1167.000000	19.653893
1168.000000	19.647907
1169.000000	19.643702
1170.000000	19.638932
