PE UV       SUBTECH     SPECTRUM    ASCII       PEDS        4.00        
   -1
INBUCR0425-4.Sample.ASC
24/02/09
14:27:19.00
24/02/09
14:27:19.00
Vinicio Soto Monge
Verde rugoso. INBIOCRI001320065. Sin cabeza.
250,000000
1
Lambda 1050
1050L1511233
PerkinElmer UV WinLab 6.3.2.0749 / 2.02.05 Lambda 900 UV/VIS/NIR, Aug  7 2015 09:38:08

0
0
3350/servo 860,8/2
0
0
UV/VIS
1
1
1
DoubleDePol,CommonBeamDepol,RBeamAtt,SBeamAtt,60mm sphere, WB InGaAs Detector
0
0
0
0
Program
Program
3350/servo 860,8/2
3350/0,2 860,8/0,2
3350/0,2 860,8/0,2
0
15.00
 
 
 
0
 
860,8
319,2
860,8
Front
100
on
S:100 R:100
0
0
0
0
 
0
 
 
 
0
 
 
0
0
0
0
0
 
 
 
 
0
0


0
0
#HDR
-1
-1
#GR
nm
%R
1.0
0.0
2500,000000
-1,000000
2251
8
17,754400
1,534800
#DATA

250.000000	nan
251.000000	nan
252.000000	nan
253.000000	nan
254.000000	nan
255.000000	nan
256.000000	nan
257.000000	nan
258.000000	nan
259.000000	4.483995
260.000000	4.481456
261.000000	4.511330
262.000000	4.475034
263.000000	4.472431
264.000000	4.436523
265.000000	4.433518
266.000000	4.395887
267.000000	4.359542
268.000000	4.322638
269.000000	4.318584
270.000000	4.281571
271.000000	4.244330
272.000000	4.241273
273.000000	4.238354
274.000000	4.235239
275.000000	4.199475
276.000000	4.197629
277.000000	4.195816
278.000000	4.194019
279.000000	4.191900
280.000000	4.222153
281.000000	4.221454
282.000000	4.219831
283.000000	4.218098
284.000000	4.216346
285.000000	4.246613
286.000000	4.244103
287.000000	4.275075
288.000000	4.272442
289.000000	4.269887
290.000000	4.234470
291.000000	4.232063
292.000000	4.229932
293.000000	4.227385
294.000000	4.225955
295.000000	4.191508
296.000000	4.189618
297.000000	4.153830
298.000000	4.151922
299.000000	4.149899
300.000000	4.148797
301.000000	4.147177
302.000000	4.178469
303.000000	4.210726
304.000000	4.209276
305.000000	4.240129
306.000000	4.271124
307.000000	4.303440
308.000000	4.334994
309.000000	4.366343
310.000000	4.397368
311.000000	4.428975
312.000000	4.427382
313.000000	4.425720
314.000000	4.455921
315.000000	4.453800
316.000000	4.454517
317.000000	4.462315
318.000000	4.472083
319.000000	4.478913
320.000000	4.487890
321.000000	4.496176
322.000000	4.498713
323.000000	4.503867
324.000000	4.506195
325.000000	4.510961
326.000000	4.515806
327.000000	4.509160
328.000000	4.502718
329.000000	4.498760
330.000000	4.492237
331.000000	4.486109
332.000000	4.483938
333.000000	4.479708
334.000000	4.480163
335.000000	4.477476
336.000000	4.472822
337.000000	4.472872
338.000000	4.471646
339.000000	4.469875
340.000000	4.466283
341.000000	4.464213
342.000000	4.463764
343.000000	4.462661
344.000000	4.461857
345.000000	4.460736
346.000000	4.458686
347.000000	4.456027
348.000000	4.453925
349.000000	4.451123
350.000000	4.451267
351.000000	4.449414
352.000000	4.447933
353.000000	4.448005
354.000000	4.445893
355.000000	4.443530
356.000000	4.442777
357.000000	4.441419
358.000000	4.438075
359.000000	4.436681
360.000000	4.435165
361.000000	4.433318
362.000000	4.430964
363.000000	4.428269
364.000000	4.426979
365.000000	4.427476
366.000000	4.427598
367.000000	4.427000
368.000000	4.427695
369.000000	4.427932
370.000000	4.428554
371.000000	4.428351
372.000000	4.428979
373.000000	4.427545
374.000000	4.426009
375.000000	4.423748
376.000000	4.418279
377.000000	4.407313
378.000000	4.397349
379.000000	4.388184
380.000000	4.378531
381.000000	4.370578
382.000000	4.362251
383.000000	4.355714
384.000000	4.349560
385.000000	4.344552
386.000000	4.342245
387.000000	4.346420
388.000000	4.350432
389.000000	4.355047
390.000000	4.359917
391.000000	4.364876
392.000000	4.370544
393.000000	4.376201
394.000000	4.381862
395.000000	4.387627
396.000000	4.393764
397.000000	4.400131
398.000000	4.406517
399.000000	4.412733
400.000000	4.419247
401.000000	4.425737
402.000000	4.432149
403.000000	4.438652
404.000000	4.445199
405.000000	4.452331
406.000000	4.459369
407.000000	4.466339
408.000000	4.473588
409.000000	4.480943
410.000000	4.488131
411.000000	4.495177
412.000000	4.502208
413.000000	4.509421
414.000000	4.516873
415.000000	4.523953
416.000000	4.530865
417.000000	4.537889
418.000000	4.544956
419.000000	4.552079
420.000000	4.558942
421.000000	4.565807
422.000000	4.572562
423.000000	4.579081
424.000000	4.585526
425.000000	4.591862
426.000000	4.631281
427.000000	4.670595
428.000000	4.709144
429.000000	4.747516
430.000000	4.785989
431.000000	4.824630
432.000000	4.863322
433.000000	4.901406
434.000000	4.939279
435.000000	4.976893
436.000000	4.981453
437.000000	4.985864
438.000000	4.990330
439.000000	4.994587
440.000000	4.998522
441.000000	5.002095
442.000000	5.005252
443.000000	5.008440
444.000000	5.011243
445.000000	5.013877
446.000000	5.016388
447.000000	5.018995
448.000000	5.021503
449.000000	5.023383
450.000000	5.025153
451.000000	5.026707
452.000000	5.028076
453.000000	5.029588
454.000000	5.030855
455.000000	5.031994
456.000000	5.033064
457.000000	5.033548
458.000000	5.033925
459.000000	5.034819
460.000000	5.035686
461.000000	5.036522
462.000000	5.037416
463.000000	5.038214
464.000000	5.039189
465.000000	5.040188
466.000000	5.041134
467.000000	5.042323
468.000000	5.043713
469.000000	5.045312
470.000000	5.047020
471.000000	5.048791
472.000000	5.050858
473.000000	5.053265
474.000000	5.056208
475.000000	5.059824
476.000000	5.063807
477.000000	5.068364
478.000000	5.073608
479.000000	5.079295
480.000000	5.085391
481.000000	5.091884
482.000000	5.099016
483.000000	5.107181
484.000000	5.116632
485.000000	5.127688
486.000000	5.140895
487.000000	5.156347
488.000000	5.173811
489.000000	5.226501
490.000000	5.282129
491.000000	5.340814
492.000000	5.402279
493.000000	5.466266
494.000000	5.532526
495.000000	5.600599
496.000000	5.670181
497.000000	5.741363
498.000000	5.814505
499.000000	5.856385
500.000000	5.899865
501.000000	5.977952
502.000000	6.058026
503.000000	6.139999
504.000000	6.223648
505.000000	6.309363
506.000000	6.397159
507.000000	6.486839
508.000000	6.578253
509.000000	6.671710
510.000000	6.799905
511.000000	6.897024
512.000000	6.995949
513.000000	7.096746
514.000000	7.199056
515.000000	7.302684
516.000000	7.407905
517.000000	7.547371
518.000000	7.688128
519.000000	7.829969
520.000000	7.940126
521.000000	8.051531
522.000000	8.163916
523.000000	8.310026
524.000000	8.457398
525.000000	8.606220
526.000000	8.755833
527.000000	8.873104
528.000000	8.991136
529.000000	9.142766
530.000000	9.295057
531.000000	9.447381
532.000000	9.599821
533.000000	9.719534
534.000000	9.871615
535.000000	10.021767
536.000000	10.169725
537.000000	10.315822
538.000000	10.459121
539.000000	10.566007
540.000000	10.668628
541.000000	10.800286
542.000000	10.927474
543.000000	11.049014
544.000000	11.132879
545.000000	11.212547
546.000000	11.288619
547.000000	11.360523
548.000000	11.428564
549.000000	11.493238
550.000000	11.555729
551.000000	11.615518
552.000000	11.672443
553.000000	11.727582
554.000000	11.780440
555.000000	11.831487
556.000000	11.880336
557.000000	11.927195
558.000000	11.972486
559.000000	12.016168
560.000000	12.046482
561.000000	12.039378
562.000000	12.029914
563.000000	12.018430
564.000000	12.004299
565.000000	11.987649
566.000000	11.968191
567.000000	11.946461
568.000000	11.922297
569.000000	11.895894
570.000000	11.877701
571.000000	11.859014
572.000000	11.838311
573.000000	11.781792
574.000000	11.723251
575.000000	11.661962
576.000000	11.598892
577.000000	11.533072
578.000000	11.464412
579.000000	11.392757
580.000000	11.318990
581.000000	11.243027
582.000000	11.164633
583.000000	11.117344
584.000000	11.067701
585.000000	10.983894
586.000000	10.898432
587.000000	10.811929
588.000000	10.724579
589.000000	10.636707
590.000000	10.547208
591.000000	10.457649
592.000000	10.367502
593.000000	10.243749
594.000000	10.120248
595.000000	10.029264
596.000000	9.939098
597.000000	9.850115
598.000000	9.762905
599.000000	9.677143
600.000000	9.594674
601.000000	9.514832
602.000000	9.405986
603.000000	9.333735
604.000000	9.264708
605.000000	9.198636
606.000000	9.135150
607.000000	9.073271
608.000000	9.012399
609.000000	8.952720
610.000000	8.893795
611.000000	8.834458
612.000000	8.807556
613.000000	8.780595
614.000000	8.753467
615.000000	8.726903
616.000000	8.700916
617.000000	8.675913
618.000000	8.652647
619.000000	8.631104
620.000000	8.611405
621.000000	8.594431
622.000000	8.579825
623.000000	8.567555
624.000000	8.558636
625.000000	8.552032
626.000000	8.547321
627.000000	8.544921
628.000000	8.543592
629.000000	8.543652
630.000000	8.544685
631.000000	8.546342
632.000000	8.548200
633.000000	8.551071
634.000000	8.553076
635.000000	8.554942
636.000000	8.556949
637.000000	8.558918
638.000000	8.561003
639.000000	8.563638
640.000000	8.566092
641.000000	8.569328
642.000000	8.573535
643.000000	8.577818
644.000000	8.583162
645.000000	8.590337
646.000000	8.598238
647.000000	8.607099
648.000000	8.617808
649.000000	8.630014
650.000000	8.643865
651.000000	8.658660
652.000000	8.675087
653.000000	8.725642
654.000000	8.777808
655.000000	8.830498
656.000000	8.884407
657.000000	8.939776
658.000000	8.995650
659.000000	9.052130
660.000000	9.110170
661.000000	9.169823
662.000000	9.230286
663.000000	9.259127
664.000000	9.289224
665.000000	9.321407
666.000000	9.387943
667.000000	9.456334
668.000000	9.525981
669.000000	9.597702
670.000000	9.670695
671.000000	9.745403
672.000000	9.822326
673.000000	9.901405
674.000000	10.015030
675.000000	10.130048
676.000000	10.213672
677.000000	10.298503
678.000000	10.385722
679.000000	10.474277
680.000000	10.596855
681.000000	10.720736
682.000000	10.845142
683.000000	10.970373
684.000000	11.063362
685.000000	11.156507
686.000000	11.282172
687.000000	11.408145
688.000000	11.534121
689.000000	11.659593
690.000000	11.751793
691.000000	11.842747
692.000000	11.965583
693.000000	12.087089
694.000000	12.207421
695.000000	12.326905
696.000000	12.413005
697.000000	12.498218
698.000000	12.581491
699.000000	12.695974
700.000000	12.810174
701.000000	12.922979
702.000000	13.002314
703.000000	13.080978
704.000000	13.158846
705.000000	13.236721
706.000000	13.314632
707.000000	13.425532
708.000000	13.536942
709.000000	13.616025
710.000000	13.695283
711.000000	13.775744
712.000000	13.856075
713.000000	13.936778
714.000000	14.051287
715.000000	14.166149
716.000000	14.281321
717.000000	14.362744
718.000000	14.444962
719.000000	14.527840
720.000000	14.610173
721.000000	14.692086
722.000000	14.808024
723.000000	14.924207
724.000000	15.007226
725.000000	15.089321
726.000000	15.171814
727.000000	15.254247
728.000000	15.335767
729.000000	15.416651
730.000000	15.529126
731.000000	15.641594
732.000000	15.720399
733.000000	15.797137
734.000000	15.873030
735.000000	15.949502
736.000000	16.024269
737.000000	16.097737
738.000000	16.170545
739.000000	16.275022
740.000000	16.346780
741.000000	16.416913
742.000000	16.484959
743.000000	16.553192
744.000000	16.620382
745.000000	16.684992
746.000000	16.748725
747.000000	16.811739
748.000000	16.873375
749.000000	16.901410
750.000000	16.928148
751.000000	16.953915
752.000000	16.978925
753.000000	17.002635
754.000000	17.025744
755.000000	17.081411
756.000000	17.135396
757.000000	17.188826
758.000000	17.240863
759.000000	17.290814
760.000000	17.342153
761.000000	17.393867
762.000000	17.443924
763.000000	17.493408
764.000000	17.541618
765.000000	17.556389
766.000000	17.571719
767.000000	17.585925
768.000000	17.600469
769.000000	17.615816
770.000000	17.629281
771.000000	17.640765
772.000000	17.652043
773.000000	17.664175
774.000000	17.676826
775.000000	17.689766
776.000000	17.702308
777.000000	17.714060
778.000000	17.724794
779.000000	17.734451
780.000000	17.744334
781.000000	17.754973
782.000000	17.766148
783.000000	17.776091
784.000000	17.787142
785.000000	17.798610
786.000000	17.808435
787.000000	17.819982
788.000000	17.833742
789.000000	17.848078
790.000000	17.860922
791.000000	17.874139
792.000000	17.887115
793.000000	17.899900
794.000000	17.911707
795.000000	17.922812
796.000000	17.935269
797.000000	17.947565
798.000000	17.958076
799.000000	17.967689
800.000000	17.977774
801.000000	17.985529
802.000000	17.993314
803.000000	17.968118
804.000000	17.941026
805.000000	17.913246
806.000000	17.884185
807.000000	17.851625
808.000000	17.821789
809.000000	17.792927
810.000000	17.763033
811.000000	17.731130
812.000000	17.698202
813.000000	17.697969
814.000000	17.697070
815.000000	17.692579
816.000000	17.656016
817.000000	17.621316
818.000000	17.582532
819.000000	17.541913
820.000000	17.499829
821.000000	17.459049
822.000000	17.416590
823.000000	17.372377
824.000000	17.325550
825.000000	17.278655
826.000000	17.263966
827.000000	17.215145
828.000000	17.163585
829.000000	17.111688
830.000000	17.056785
831.000000	17.001076
832.000000	16.946938
833.000000	16.890282
834.000000	16.831954
835.000000	16.774033
836.000000	16.713900
837.000000	16.651958
838.000000	16.589548
839.000000	16.527217
840.000000	16.468481
841.000000	16.407833
842.000000	16.345387
843.000000	16.282491
844.000000	16.222699
845.000000	16.160147
846.000000	16.095770
847.000000	16.032726
848.000000	15.969792
849.000000	15.901813
850.000000	15.828047
851.000000	15.757705
852.000000	15.688382
853.000000	15.619218
854.000000	15.546777
855.000000	15.475114
856.000000	15.374745
857.000000	15.333257
858.000000	15.576684
859.000000	15.570592
860.000000	15.570165
861.000000	15.570599
862.000000	15.573150
863.000000	15.554401
864.000000	15.541538
865.000000	15.533822
866.000000	15.535071
867.000000	15.536535
868.000000	15.232172
869.000000	15.182305
870.000000	15.133645
871.000000	15.084597
872.000000	15.034627
873.000000	14.960703
874.000000	14.910740
875.000000	14.859448
876.000000	14.832605
877.000000	14.780783
878.000000	14.754208
879.000000	14.703457
880.000000	14.651023
881.000000	14.574940
882.000000	14.523303
883.000000	14.521335
884.000000	14.493845
885.000000	14.466002
886.000000	14.413297
887.000000	14.385503
888.000000	14.356345
889.000000	14.352295
890.000000	14.349195
891.000000	14.345783
892.000000	14.317687
893.000000	14.289320
894.000000	14.261338
895.000000	14.234715
896.000000	14.232085
897.000000	14.206000
898.000000	14.180745
899.000000	14.155402
900.000000	14.130683
901.000000	14.130560
902.000000	14.106860
903.000000	14.083585
904.000000	14.061695
905.000000	14.039195
906.000000	14.017833
907.000000	13.996822
908.000000	13.976600
909.000000	13.957375
910.000000	13.939327
911.000000	13.921472
912.000000	13.929333
913.000000	13.937530
914.000000	13.946357
915.000000	13.956403
916.000000	13.967887
917.000000	13.978947
918.000000	13.989503
919.000000	14.001980
920.000000	14.013070
921.000000	14.026492
922.000000	14.039595
923.000000	14.053063
924.000000	14.065755
925.000000	14.078075
926.000000	14.089745
927.000000	14.101382
928.000000	14.114818
929.000000	14.126435
930.000000	14.139222
931.000000	14.150495
932.000000	14.162552
933.000000	14.175152
934.000000	14.189865
935.000000	14.205457
936.000000	14.222262
937.000000	14.238778
938.000000	14.254560
939.000000	14.295038
940.000000	14.310980
941.000000	14.351352
942.000000	14.391180
943.000000	14.431793
944.000000	14.471433
945.000000	14.510657
946.000000	14.549815
947.000000	14.590995
948.000000	14.631225
949.000000	14.648380
950.000000	14.691012
951.000000	14.709523
952.000000	14.728305
953.000000	14.745632
954.000000	14.764205
955.000000	14.782570
956.000000	14.799822
957.000000	14.816760
958.000000	14.834588
959.000000	14.851550
960.000000	14.869115
961.000000	14.886707
962.000000	14.904535
963.000000	14.922978
964.000000	14.965042
965.000000	15.007450
966.000000	15.051240
967.000000	15.093977
968.000000	15.137472
969.000000	15.181585
970.000000	15.224395
971.000000	15.267003
972.000000	15.310493
973.000000	15.353742
974.000000	15.371925
975.000000	15.390865
976.000000	15.408672
977.000000	15.426678
978.000000	15.443842
979.000000	15.462100
980.000000	15.480625
981.000000	15.498772
982.000000	15.515935
983.000000	15.533243
984.000000	15.575477
985.000000	15.616672
986.000000	15.658095
987.000000	15.699452
988.000000	15.741478
989.000000	15.782585
990.000000	15.824908
991.000000	15.868010
992.000000	15.909878
993.000000	15.951742
994.000000	15.968420
995.000000	15.985745
996.000000	16.002913
997.000000	16.020457
998.000000	16.037525
999.000000	16.053877
1000.000000	16.069390
1001.000000	16.109648
1002.000000	16.150848
1003.000000	16.193235
1004.000000	16.236255
1005.000000	16.278325
1006.000000	16.319517
1007.000000	16.361125
1008.000000	16.402765
1009.000000	16.444653
1010.000000	16.485737
1011.000000	16.501685
1012.000000	16.517840
1013.000000	16.532392
1014.000000	16.547095
1015.000000	16.562442
1016.000000	16.578080
1017.000000	16.593687
1018.000000	16.609260
1019.000000	16.649992
1020.000000	16.691607
1021.000000	16.733573
1022.000000	16.776430
1023.000000	16.819865
1024.000000	16.862468
1025.000000	16.905245
1026.000000	16.948313
1027.000000	16.991535
1028.000000	17.034695
1029.000000	17.052120
1030.000000	17.069160
1031.000000	17.085825
1032.000000	17.101223
1033.000000	17.116685
1034.000000	17.133002
1035.000000	17.174313
1036.000000	17.215647
1037.000000	17.256660
1038.000000	17.297790
1039.000000	17.339155
1040.000000	17.380192
1041.000000	17.421067
1042.000000	17.461742
1043.000000	17.502468
1044.000000	17.542842
1045.000000	17.558107
1046.000000	17.572990
1047.000000	17.587517
1048.000000	17.602075
1049.000000	17.616805
1050.000000	17.632192
1051.000000	17.647787
1052.000000	17.689005
1053.000000	17.729925
1054.000000	17.770212
1055.000000	17.809880
1056.000000	17.849798
1057.000000	17.890037
1058.000000	17.930575
1059.000000	17.971282
1060.000000	18.011060
1061.000000	18.050977
1062.000000	18.065122
1063.000000	18.079183
1064.000000	18.094248
1065.000000	18.110405
1066.000000	18.126548
1067.000000	18.141597
1068.000000	18.182275
1069.000000	18.222270
1070.000000	18.262297
1071.000000	18.302355
1072.000000	18.342875
1073.000000	18.383657
1074.000000	18.423755
1075.000000	18.463348
1076.000000	18.502667
1077.000000	18.542853
1078.000000	18.556995
1079.000000	18.571172
1080.000000	18.585568
1081.000000	18.599647
1082.000000	18.613422
1083.000000	18.626615
1084.000000	18.638933
1085.000000	18.651845
1086.000000	18.689420
1087.000000	18.727348
1088.000000	18.764470
1089.000000	18.801870
1090.000000	18.838835
1091.000000	18.876048
1092.000000	18.912760
1093.000000	18.949078
1094.000000	18.987025
1095.000000	19.024048
1096.000000	19.035532
1097.000000	19.046875
1098.000000	19.058070
1099.000000	19.068587
1100.000000	19.079945
1101.000000	19.091185
1102.000000	19.102328
1103.000000	19.113775
1104.000000	19.123760
1105.000000	19.133465
1106.000000	19.144573
1107.000000	19.179793
1108.000000	19.215048
1109.000000	19.249588
1110.000000	19.283795
1111.000000	19.317110
1112.000000	19.351095
1113.000000	19.383375
1114.000000	19.415955
1115.000000	19.449265
1116.000000	19.481603
1117.000000	19.487860
1118.000000	19.493665
1119.000000	19.499117
1120.000000	19.503585
1121.000000	19.509152
1122.000000	19.514580
1123.000000	19.521735
1124.000000	19.527378
1125.000000	19.530965
1126.000000	19.533317
1127.000000	19.536877
1128.000000	19.540617
1129.000000	19.544895
1130.000000	19.547128
1131.000000	19.545525
1132.000000	19.541222
1133.000000	19.536525
1134.000000	19.533812
1135.000000	19.533378
1136.000000	19.530508
1137.000000	19.525147
1138.000000	19.518880
1139.000000	19.511330
1140.000000	19.505425
1141.000000	19.501610
1142.000000	19.498017
1143.000000	19.493982
1144.000000	19.488875
1145.000000	19.483087
1146.000000	19.480522
1147.000000	19.477853
1148.000000	19.476435
1149.000000	19.475025
1150.000000	19.473783
1151.000000	19.472008
1152.000000	19.472423
1153.000000	19.471773
1154.000000	19.468825
1155.000000	19.463450
1156.000000	19.456482
1157.000000	19.449168
1158.000000	19.439518
1159.000000	19.427935
1160.000000	19.416325
1161.000000	19.403360
1162.000000	19.386990
1163.000000	19.369142
1164.000000	19.350758
1165.000000	19.332973
1166.000000	19.315300
1167.000000	19.297345
1168.000000	19.278845
1169.000000	19.263253
1170.000000	19.246635
1171.000000	19.230830
1172.000000	19.216388
1173.000000	19.204730
1174.000000	19.194718
1175.000000	19.185288
1176.000000	19.177038
1177.000000	19.171298
