PE UV       SUBTECH     SPECTRUM    ASCII       PEDS        4.00        
   -1
INBUCR0211-4.Sample.ASC
24/02/07
16:05:32.00
24/02/07
16:05:32.00
Vinicio Soto Monge
C211 M. E. Tricolor Esc Verde Grande
250,000000
1
Lambda 1050
1050L1511233
PerkinElmer UV WinLab 6.3.2.0749 / 2.02.05 Lambda 900 UV/VIS/NIR, Aug  7 2015 09:38:08

0
0
3350/servo 860,8/2
0
0
UV/VIS
1
1
1
DoubleDePol,CommonBeamDepol,RBeamAtt,SBeamAtt,60mm sphere, WB InGaAs Detector
0
0
0
0
Program
Program
3350/servo 860,8/2
3350/0,2 860,8/0,2
3350/0,2 860,8/0,2
0
15.00
 
 
 
0
 
860,8
319,2
860,8
Front
100
on
S:100 R:100
0
0
0
0
 
0
 
 
 
0
 
 
0
0
0
0
0
 
 
 
 
0
0


0
0
#HDR
-1
-1
#GR
nm
%R
1.0
0.0
2500,000000
-1,000000
2251
8
12,188600
1,285000
#DATA

250.000000	nan
251.000000	nan
252.000000	nan
253.000000	nan
254.000000	nan
255.000000	nan
256.000000	nan
257.000000	nan
258.000000	nan
259.000000	4.208395
260.000000	4.199438
261.000000	4.189592
262.000000	4.177510
263.000000	4.164151
264.000000	4.147987
265.000000	4.133268
266.000000	4.119591
267.000000	4.106109
268.000000	4.088662
269.000000	4.072612
270.000000	4.056969
271.000000	4.043975
272.000000	4.031435
273.000000	4.019638
274.000000	4.010628
275.000000	4.000815
276.000000	3.990778
277.000000	3.981548
278.000000	3.974678
279.000000	3.968464
280.000000	3.960719
281.000000	3.952629
282.000000	3.945451
283.000000	3.939087
284.000000	3.930177
285.000000	3.922659
286.000000	3.916159
287.000000	3.909791
288.000000	3.904932
289.000000	3.901031
290.000000	3.896584
291.000000	3.892330
292.000000	3.886892
293.000000	3.883770
294.000000	3.882940
295.000000	3.878898
296.000000	3.874927
297.000000	3.870371
298.000000	3.865035
299.000000	3.860064
300.000000	3.854684
301.000000	3.849529
302.000000	3.847494
303.000000	3.842695
304.000000	3.836594
305.000000	3.835361
306.000000	3.832298
307.000000	3.828427
308.000000	3.824714
309.000000	3.821039
310.000000	3.819143
311.000000	3.817139
312.000000	3.813445
313.000000	3.811069
314.000000	3.809180
315.000000	3.807303
316.000000	3.807549
317.000000	3.832954
318.000000	3.854015
319.000000	3.866621
320.000000	3.882202
321.000000	3.899359
322.000000	3.914474
323.000000	3.932402
324.000000	3.945659
325.000000	3.955974
326.000000	3.956391
327.000000	3.942742
328.000000	3.930107
329.000000	3.921746
330.000000	3.912880
331.000000	3.901183
332.000000	3.887540
333.000000	3.876048
334.000000	3.870700
335.000000	3.866593
336.000000	3.869685
337.000000	3.860705
338.000000	3.853585
339.000000	3.850468
340.000000	3.845699
341.000000	3.841626
342.000000	3.842311
343.000000	3.839561
344.000000	3.831460
345.000000	3.824351
346.000000	3.821974
347.000000	3.821582
348.000000	3.820172
349.000000	3.818422
350.000000	3.815122
351.000000	3.813009
352.000000	3.813707
353.000000	3.812488
354.000000	3.812939
355.000000	3.813939
356.000000	3.809749
357.000000	3.807424
358.000000	3.810692
359.000000	3.812203
360.000000	3.814687
361.000000	3.817385
362.000000	3.815542
363.000000	3.815090
364.000000	3.819250
365.000000	3.823504
366.000000	3.828618
367.000000	3.834154
368.000000	3.836997
369.000000	3.842081
370.000000	3.848876
371.000000	3.854079
372.000000	3.862218
373.000000	3.871922
374.000000	3.879899
375.000000	3.886665
376.000000	3.893646
377.000000	3.894912
378.000000	3.897325
379.000000	3.901214
380.000000	3.906168
381.000000	3.914055
382.000000	3.923226
383.000000	3.933057
384.000000	3.945083
385.000000	3.960876
386.000000	3.980830
387.000000	4.007992
388.000000	4.036652
389.000000	4.066684
390.000000	4.098234
391.000000	4.131235
392.000000	4.165688
393.000000	4.201598
394.000000	4.239077
395.000000	4.277656
396.000000	4.317205
397.000000	4.358397
398.000000	4.401648
399.000000	4.445908
400.000000	4.490889
401.000000	4.537072
402.000000	4.584247
403.000000	4.632332
404.000000	4.681444
405.000000	4.731043
406.000000	4.781196
407.000000	4.831743
408.000000	4.882548
409.000000	4.934214
410.000000	4.986113
411.000000	5.038302
412.000000	5.090690
413.000000	5.143100
414.000000	5.195775
415.000000	5.248357
416.000000	5.300686
417.000000	5.352651
418.000000	5.404116
419.000000	5.454968
420.000000	5.505304
421.000000	5.555098
422.000000	5.604767
423.000000	5.653449
424.000000	5.700554
425.000000	5.746861
426.000000	5.792418
427.000000	5.836768
428.000000	5.879816
429.000000	5.921605
430.000000	5.962105
431.000000	6.000888
432.000000	6.037389
433.000000	6.072769
434.000000	6.107211
435.000000	6.139524
436.000000	6.170286
437.000000	6.199810
438.000000	6.227113
439.000000	6.252609
440.000000	6.276721
441.000000	6.299219
442.000000	6.319940
443.000000	6.337926
444.000000	6.353631
445.000000	6.367867
446.000000	6.380402
447.000000	6.390866
448.000000	6.399329
449.000000	6.406032
450.000000	6.410705
451.000000	6.413187
452.000000	6.413994
453.000000	6.413928
454.000000	6.412564
455.000000	6.409686
456.000000	6.404854
457.000000	6.398849
458.000000	6.392513
459.000000	6.385259
460.000000	6.377057
461.000000	6.368860
462.000000	6.360160
463.000000	6.350772
464.000000	6.341005
465.000000	6.331317
466.000000	6.322372
467.000000	6.313628
468.000000	6.304641
469.000000	6.296170
470.000000	6.289047
471.000000	6.282449
472.000000	6.277246
473.000000	6.273301
474.000000	6.270708
475.000000	6.269489
476.000000	6.269844
477.000000	6.272197
478.000000	6.277111
479.000000	6.284761
480.000000	6.294480
481.000000	6.306761
482.000000	6.321501
483.000000	6.339726
484.000000	6.361572
485.000000	6.386361
486.000000	6.414945
487.000000	6.447546
488.000000	6.484116
489.000000	6.524065
490.000000	6.568290
491.000000	6.617328
492.000000	6.671754
493.000000	6.731189
494.000000	6.795689
495.000000	6.866022
496.000000	6.941711
497.000000	7.022823
498.000000	7.109601
499.000000	7.202754
500.000000	7.302047
501.000000	7.407495
502.000000	7.519356
503.000000	7.637006
504.000000	7.760931
505.000000	7.891594
506.000000	8.028619
507.000000	8.172363
508.000000	8.323486
509.000000	8.481546
510.000000	8.646458
511.000000	8.818011
512.000000	8.995953
513.000000	9.180398
514.000000	9.371628
515.000000	9.569517
516.000000	9.773697
517.000000	9.984238
518.000000	10.201002
519.000000	10.425154
520.000000	10.657019
521.000000	10.896734
522.000000	11.143360
523.000000	11.396321
524.000000	11.652666
525.000000	11.910309
526.000000	12.167701
527.000000	12.422640
528.000000	12.673828
529.000000	12.920536
530.000000	13.161379
531.000000	13.396509
532.000000	13.625706
533.000000	13.849774
534.000000	14.068511
535.000000	14.281572
536.000000	14.488524
537.000000	14.687466
538.000000	14.877626
539.000000	15.056850
540.000000	15.224460
541.000000	15.378615
542.000000	15.518809
543.000000	15.644915
544.000000	15.757413
545.000000	15.858195
546.000000	15.948441
547.000000	16.030518
548.000000	16.104879
549.000000	16.172575
550.000000	16.235099
551.000000	16.291605
552.000000	16.343218
553.000000	16.390891
554.000000	16.435333
555.000000	16.475142
556.000000	16.511285
557.000000	16.544937
558.000000	16.575910
559.000000	16.603141
560.000000	16.620260
561.000000	16.633637
562.000000	16.643804
563.000000	16.649602
564.000000	16.650214
565.000000	16.647507
566.000000	16.639552
567.000000	16.625283
568.000000	16.605687
569.000000	16.580137
570.000000	16.555386
571.000000	16.526008
572.000000	16.489288
573.000000	16.446146
574.000000	16.398020
575.000000	16.342525
576.000000	16.280930
577.000000	16.214538
578.000000	16.142409
579.000000	16.066143
580.000000	15.984222
581.000000	15.898253
582.000000	15.810194
583.000000	15.718292
584.000000	15.621575
585.000000	15.523138
586.000000	15.424160
587.000000	15.323817
588.000000	15.224690
589.000000	15.128135
590.000000	15.038099
591.000000	14.955074
592.000000	14.879209
593.000000	14.812455
594.000000	14.756701
595.000000	14.709405
596.000000	14.668607
597.000000	14.634653
598.000000	14.604091
599.000000	14.575386
600.000000	14.544712
601.000000	14.511249
602.000000	14.475486
603.000000	14.439575
604.000000	14.402269
605.000000	14.366333
606.000000	14.334112
607.000000	14.306962
608.000000	14.285827
609.000000	14.271538
610.000000	14.263724
611.000000	14.262195
612.000000	14.266187
613.000000	14.272695
614.000000	14.281012
615.000000	14.290370
616.000000	14.300465
617.000000	14.310169
618.000000	14.321936
619.000000	14.335571
620.000000	14.352694
621.000000	14.374676
622.000000	14.401823
623.000000	14.433336
624.000000	14.471446
625.000000	14.515517
626.000000	14.563868
627.000000	14.618000
628.000000	14.674829
629.000000	14.734903
630.000000	14.797884
631.000000	14.863107
632.000000	14.931210
633.000000	15.003294
634.000000	15.078064
635.000000	15.156333
636.000000	15.238176
637.000000	15.322925
638.000000	15.412064
639.000000	15.506541
640.000000	15.603922
641.000000	15.705738
642.000000	15.811311
643.000000	15.919592
644.000000	16.032163
645.000000	16.146465
646.000000	16.263978
647.000000	16.382503
648.000000	16.502340
649.000000	16.622451
650.000000	16.745468
651.000000	16.869358
652.000000	16.993248
653.000000	17.118622
654.000000	17.244272
655.000000	17.372184
656.000000	17.501068
657.000000	17.631884
658.000000	17.764806
659.000000	17.898645
660.000000	18.033643
661.000000	18.168839
662.000000	18.304972
663.000000	18.441094
664.000000	18.577268
665.000000	18.712209
666.000000	18.847075
667.000000	18.980664
668.000000	19.113482
669.000000	19.246101
670.000000	19.378212
671.000000	19.510184
672.000000	19.641204
673.000000	19.771579
674.000000	19.901345
675.000000	20.031130
676.000000	20.159588
677.000000	20.288210
678.000000	20.415254
679.000000	20.541480
680.000000	20.666323
681.000000	20.791040
682.000000	20.915533
683.000000	21.038663
684.000000	21.159615
685.000000	21.279338
686.000000	21.399069
687.000000	21.518326
688.000000	21.636026
689.000000	21.752957
690.000000	21.868325
691.000000	21.980860
692.000000	22.092487
693.000000	22.202798
694.000000	22.312546
695.000000	22.420722
696.000000	22.526573
697.000000	22.631290
698.000000	22.737174
699.000000	22.841285
700.000000	22.944700
701.000000	23.047772
702.000000	23.149446
703.000000	23.250959
704.000000	23.351667
705.000000	23.450660
706.000000	23.549681
707.000000	23.647502
708.000000	23.743188
709.000000	23.836012
710.000000	23.926622
711.000000	24.015649
712.000000	24.104040
713.000000	24.190765
714.000000	24.275351
715.000000	24.359287
716.000000	24.441526
717.000000	24.521195
718.000000	24.598141
719.000000	24.676552
720.000000	24.756165
721.000000	24.834636
722.000000	24.910229
723.000000	24.983260
724.000000	25.055223
725.000000	25.127879
726.000000	25.198382
727.000000	25.266859
728.000000	25.333779
729.000000	25.398232
730.000000	25.459049
731.000000	25.517533
732.000000	25.575322
733.000000	25.633155
734.000000	25.690929
735.000000	25.743408
736.000000	25.794964
737.000000	25.847935
738.000000	25.899824
739.000000	25.950057
740.000000	25.999857
741.000000	26.048332
742.000000	26.093957
743.000000	26.136935
744.000000	26.178196
745.000000	26.220015
746.000000	26.261058
747.000000	26.299345
748.000000	26.336587
749.000000	26.370635
750.000000	26.400585
751.000000	26.431525
752.000000	26.465044
753.000000	26.496208
754.000000	26.524388
755.000000	26.552444
756.000000	26.578991
757.000000	26.603099
758.000000	26.627922
759.000000	26.654524
760.000000	26.681783
761.000000	26.705845
762.000000	26.726553
763.000000	26.748764
764.000000	26.770613
765.000000	26.788563
766.000000	26.806300
767.000000	26.824794
768.000000	26.841610
769.000000	26.856834
770.000000	26.871756
771.000000	26.885669
772.000000	26.900227
773.000000	26.913917
774.000000	26.930471
775.000000	26.950244
776.000000	26.969973
777.000000	26.987889
778.000000	27.005682
779.000000	27.021827
780.000000	27.037493
781.000000	27.053430
782.000000	27.069503
783.000000	27.086695
784.000000	27.100486
785.000000	27.113378
786.000000	27.127353
787.000000	27.142100
788.000000	27.153632
789.000000	27.166204
790.000000	27.179572
791.000000	27.193343
792.000000	27.205632
793.000000	27.219033
794.000000	27.232863
795.000000	27.244830
796.000000	27.257208
797.000000	27.272518
798.000000	27.288808
799.000000	27.307780
800.000000	27.322061
801.000000	27.339019
802.000000	27.357965
803.000000	27.373754
804.000000	27.388370
805.000000	27.407299
806.000000	27.420751
807.000000	27.433362
808.000000	27.450079
809.000000	27.468269
810.000000	27.487628
811.000000	27.505611
812.000000	27.517695
813.000000	27.533016
814.000000	27.550424
815.000000	27.563356
816.000000	27.581701
817.000000	27.593477
818.000000	27.603806
819.000000	27.609278
820.000000	27.620705
821.000000	27.632001
822.000000	27.648259
823.000000	27.664582
824.000000	27.677929
825.000000	27.690352
826.000000	27.699108
827.000000	27.707501
828.000000	27.714669
829.000000	27.721718
830.000000	27.726383
831.000000	27.732914
832.000000	27.738262
833.000000	27.736624
834.000000	27.738224
835.000000	27.741172
836.000000	27.742434
837.000000	27.748408
838.000000	27.754608
839.000000	27.759985
840.000000	27.765442
841.000000	27.766411
842.000000	27.771913
843.000000	27.775526
844.000000	27.780727
845.000000	27.783794
846.000000	27.777891
847.000000	27.783657
848.000000	27.779988
849.000000	27.770436
850.000000	27.771012
851.000000	27.775913
852.000000	27.771844
853.000000	27.767171
854.000000	27.766166
855.000000	27.751597
856.000000	27.755980
857.000000	27.749065
858.000000	27.778121
859.000000	27.825261
860.000000	27.886092
861.000000	27.923658
862.000000	27.965420
863.000000	28.001313
864.000000	28.012033
865.000000	28.077369
866.000000	28.117273
867.000000	28.167143
868.000000	28.174325
869.000000	28.178617
870.000000	28.154015
871.000000	28.165643
872.000000	28.166048
873.000000	28.160618
874.000000	28.178320
875.000000	28.173690
876.000000	28.181490
877.000000	28.163632
878.000000	28.161518
879.000000	28.143512
880.000000	28.136613
881.000000	28.118858
882.000000	28.112793
883.000000	28.114067
884.000000	28.101105
885.000000	28.064635
886.000000	28.048023
887.000000	28.048752
888.000000	28.030188
889.000000	28.019485
890.000000	28.005178
891.000000	27.979878
892.000000	27.957255
893.000000	27.946775
894.000000	27.930942
895.000000	27.924865
896.000000	27.905715
897.000000	27.887145
898.000000	27.872200
899.000000	27.854167
900.000000	27.844670
901.000000	27.833370
902.000000	27.823942
903.000000	27.810420
904.000000	27.805200
905.000000	27.791172
906.000000	27.790825
907.000000	27.783050
908.000000	27.784748
909.000000	27.782660
910.000000	27.773973
911.000000	27.773220
912.000000	27.774763
913.000000	27.777360
914.000000	27.781495
915.000000	27.789675
916.000000	27.786345
917.000000	27.785513
918.000000	27.789885
919.000000	27.797688
920.000000	27.806320
921.000000	27.814155
922.000000	27.815215
923.000000	27.818920
924.000000	27.820290
925.000000	27.829158
926.000000	27.835577
927.000000	27.844335
928.000000	27.850398
929.000000	27.860685
930.000000	27.864302
931.000000	27.870070
932.000000	27.874230
933.000000	27.879525
934.000000	27.892635
935.000000	27.899495
936.000000	27.905180
937.000000	27.915140
938.000000	27.930418
939.000000	27.942183
940.000000	27.959827
941.000000	27.976325
942.000000	27.992655
943.000000	28.006328
944.000000	28.020563
945.000000	28.037225
946.000000	28.058743
947.000000	28.079690
948.000000	28.098230
949.000000	28.117900
950.000000	28.136805
951.000000	28.158110
952.000000	28.181432
953.000000	28.207460
954.000000	28.232067
955.000000	28.256885
956.000000	28.282522
957.000000	28.307730
958.000000	28.334122
959.000000	28.363173
960.000000	28.391327
961.000000	28.422672
962.000000	28.455720
963.000000	28.488490
964.000000	28.522287
965.000000	28.557670
966.000000	28.590830
967.000000	28.623225
968.000000	28.658243
969.000000	28.694960
970.000000	28.731570
971.000000	28.766335
972.000000	28.800865
973.000000	28.836587
974.000000	28.875833
975.000000	28.914580
976.000000	28.953355
977.000000	28.994058
978.000000	29.034562
979.000000	29.075675
980.000000	29.118542
981.000000	29.161560
982.000000	29.205062
983.000000	29.247378
984.000000	29.288518
985.000000	29.332170
986.000000	29.376970
987.000000	29.420797
988.000000	29.465400
989.000000	29.510475
990.000000	29.554935
991.000000	29.599625
992.000000	29.646053
993.000000	29.693233
994.000000	29.740807
995.000000	29.788360
996.000000	29.837053
997.000000	29.887693
998.000000	29.937988
999.000000	29.987710
1000.000000	30.038448
1001.000000	30.089630
1002.000000	30.140760
1003.000000	30.192190
1004.000000	30.243660
1005.000000	30.294788
1006.000000	30.346010
1007.000000	30.396738
1008.000000	30.446722
1009.000000	30.497360
1010.000000	30.547975
1011.000000	30.598350
1012.000000	30.648452
1013.000000	30.700518
1014.000000	30.753947
1015.000000	30.807618
1016.000000	30.861080
1017.000000	30.914720
1018.000000	30.970198
1019.000000	31.026905
1020.000000	31.083770
1021.000000	31.141835
1022.000000	31.200007
1023.000000	31.258170
1024.000000	31.316355
1025.000000	31.375602
1026.000000	31.436275
1027.000000	31.497053
1028.000000	31.557795
1029.000000	31.618268
1030.000000	31.679340
1031.000000	31.739800
1032.000000	31.799892
1033.000000	31.860512
1034.000000	31.921430
1035.000000	31.981518
1036.000000	32.040152
1037.000000	32.098817
1038.000000	32.158188
1039.000000	32.218070
1040.000000	32.277693
1041.000000	32.337148
1042.000000	32.396430
1043.000000	32.455343
1044.000000	32.512715
1045.000000	32.571093
1046.000000	32.629665
1047.000000	32.687348
1048.000000	32.744858
1049.000000	32.802505
1050.000000	32.860070
1051.000000	32.917145
1052.000000	32.975487
1053.000000	33.034250
1054.000000	33.094880
1055.000000	33.155093
1056.000000	33.214328
1057.000000	33.273512
1058.000000	33.333877
1059.000000	33.394782
1060.000000	33.456763
1061.000000	33.517898
1062.000000	33.578077
1063.000000	33.637817
1064.000000	33.698350
1065.000000	33.757948
1066.000000	33.816890
1067.000000	33.876490
1068.000000	33.935353
1069.000000	33.995405
1070.000000	34.053492
1071.000000	34.110743
1072.000000	34.169818
1073.000000	34.228118
1074.000000	34.284740
1075.000000	34.342455
1076.000000	34.400640
1077.000000	34.458692
1078.000000	34.516017
1079.000000	34.571430
1080.000000	34.627140
1081.000000	34.685485
1082.000000	34.741127
1083.000000	34.796625
1084.000000	34.852198
1085.000000	34.906008
1086.000000	34.960532
1087.000000	35.014208
1088.000000	35.067935
1089.000000	35.121855
1090.000000	35.176102
1091.000000	35.228387
1092.000000	35.281050
1093.000000	35.333287
1094.000000	35.385917
1095.000000	35.438060
1096.000000	35.488765
1097.000000	35.538612
1098.000000	35.587982
1099.000000	35.637192
1100.000000	35.684800
1101.000000	35.732215
1102.000000	35.778413
1103.000000	35.825217
1104.000000	35.873013
1105.000000	35.921660
1106.000000	35.969430
1107.000000	36.016387
1108.000000	36.063075
1109.000000	36.108410
1110.000000	36.152685
1111.000000	36.196052
1112.000000	36.238442
1113.000000	36.279950
1114.000000	36.320733
1115.000000	36.359322
1116.000000	36.397140
1117.000000	36.435277
1118.000000	36.473098
1119.000000	36.509535
1120.000000	36.545800
1121.000000	36.580083
1122.000000	36.615237
1123.000000	36.647117
1124.000000	36.675195
1125.000000	36.700830
1126.000000	36.723760
1127.000000	36.744502
1128.000000	36.763258
1129.000000	36.779048
1130.000000	36.789192
1131.000000	36.796185
1132.000000	36.799352
1133.000000	36.803190
1134.000000	36.806220
1135.000000	36.808277
1136.000000	36.805915
1137.000000	36.800235
1138.000000	36.791230
1139.000000	36.783378
1140.000000	36.776468
1141.000000	36.769250
1142.000000	36.761275
1143.000000	36.753138
1144.000000	36.744552
1145.000000	36.736677
1146.000000	36.732303
1147.000000	36.728628
1148.000000	36.726053
1149.000000	36.722475
1150.000000	36.718575
1151.000000	36.715195
1152.000000	36.712530
1153.000000	36.706970
1154.000000	36.697870
1155.000000	36.683747
1156.000000	36.667603
1157.000000	36.649693
1158.000000	36.629375
1159.000000	36.603680
1160.000000	36.576375
1161.000000	36.544990
1162.000000	36.508605
1163.000000	36.469768
1164.000000	36.429615
1165.000000	36.389648
1166.000000	36.348613
1167.000000	36.306677
1168.000000	36.263423
1169.000000	36.221915
1170.000000	36.180392
1171.000000	36.141557
1172.000000	36.106578
1173.000000	36.075347
