PE UV       SUBTECH     SPECTRUM    ASCII       PEDS        4.00        
   -1
INBUCR0235-4.Sample.ASC
24/02/08
15:15:41.00
24/02/08
15:15:41.00
Vinicio Soto Monge
C. boucardi. Det A. Solís. COSTA RICA. Prov Limón. PI. La Amistad. Caribe. Camp 3: Fila Bugu, orilla campamento. 1500-1600m 25-26 FEB 2007 B. Gamboa M. Moraga Tp. Luz L_S_375729_551282 #90732. INB0004065423 
250,000000
1
Lambda 1050
1050L1511233
PerkinElmer UV WinLab 6.3.2.0749 / 2.02.05 Lambda 900 UV/VIS/NIR, Aug  7 2015 09:38:08

0
0
3350/servo 860,8/2
0
0
UV/VIS
1
1
1
DoubleDePol,CommonBeamDepol,RBeamAtt,SBeamAtt,60mm sphere, WB InGaAs Detector
0
0
0
0
Program
Program
3350/servo 860,8/2
3350/0,2 860,8/0,2
3350/0,2 860,8/0,2
0
15.00
 
 
 
0
 
860,8
319,2
860,8
Front
100
on
S:100 R:100
0
0
0
0
 
0
 
 
 
0
 
 
0
0
0
0
0
 
 
 
 
0
0


0
0
#HDR
-1
-1
#GR
nm
%R
1.0
0.0
2500,000000
-1,000000
2251
8
8,716100
0,646100
#DATA

250.000000	nan
251.000000	nan
252.000000	nan
253.000000	nan
254.000000	nan
255.000000	nan
256.000000	nan
257.000000	nan
258.000000	nan
259.000000	3.845578
260.000000	3.836797
261.000000	3.827336
262.000000	3.816084
263.000000	3.805213
264.000000	3.795772
265.000000	3.786135
266.000000	3.772701
267.000000	3.758929
268.000000	3.749104
269.000000	3.739731
270.000000	3.729551
271.000000	3.715900
272.000000	3.705215
273.000000	3.696592
274.000000	3.687486
275.000000	3.679027
276.000000	3.670741
277.000000	3.664846
278.000000	3.658185
279.000000	3.650001
280.000000	3.643876
281.000000	3.642029
282.000000	3.637202
283.000000	3.631676
284.000000	3.627333
285.000000	3.621985
286.000000	3.619815
287.000000	3.616009
288.000000	3.613490
289.000000	3.611450
290.000000	3.607826
291.000000	3.601210
292.000000	3.598087
293.000000	3.595317
294.000000	3.590883
295.000000	3.588355
296.000000	3.583269
297.000000	3.578381
298.000000	3.573998
299.000000	3.568379
300.000000	3.565707
301.000000	3.562071
302.000000	3.559712
303.000000	3.557057
304.000000	3.553645
305.000000	3.551153
306.000000	3.548931
307.000000	3.549650
308.000000	3.548132
309.000000	3.546553
310.000000	3.542276
311.000000	3.542372
312.000000	3.538741
313.000000	3.532453
314.000000	3.530327
315.000000	3.526259
316.000000	3.523837
317.000000	3.533543
318.000000	3.542011
319.000000	3.556387
320.000000	3.566345
321.000000	3.572232
322.000000	3.581067
323.000000	3.592124
324.000000	3.600159
325.000000	3.609561
326.000000	3.616453
327.000000	3.609942
328.000000	3.601681
329.000000	3.592689
330.000000	3.586830
331.000000	3.585682
332.000000	3.579622
333.000000	3.569222
334.000000	3.562664
335.000000	3.551874
336.000000	3.544145
337.000000	3.538150
338.000000	3.531407
339.000000	3.520297
340.000000	3.512255
341.000000	3.502140
342.000000	3.494637
343.000000	3.496391
344.000000	3.489507
345.000000	3.487889
346.000000	3.481214
347.000000	3.472112
348.000000	3.464026
349.000000	3.457558
350.000000	3.452691
351.000000	3.447519
352.000000	3.441564
353.000000	3.432659
354.000000	3.431431
355.000000	3.425539
356.000000	3.418915
357.000000	3.414405
358.000000	3.416203
359.000000	3.414947
360.000000	3.411870
361.000000	3.407727
362.000000	3.405445
363.000000	3.400850
364.000000	3.392963
365.000000	3.388847
366.000000	3.386474
367.000000	3.384958
368.000000	3.380452
369.000000	3.375603
370.000000	3.371738
371.000000	3.367979
372.000000	3.363466
373.000000	3.357527
374.000000	3.350571
375.000000	3.345481
376.000000	3.345321
377.000000	3.337581
378.000000	3.330651
379.000000	3.326622
380.000000	3.321329
381.000000	3.318886
382.000000	3.317440
383.000000	3.317569
384.000000	3.320877
385.000000	3.322415
386.000000	3.321664
387.000000	3.327003
388.000000	3.332935
389.000000	3.339052
390.000000	3.345700
391.000000	3.352362
392.000000	3.359238
393.000000	3.366239
394.000000	3.373987
395.000000	3.381843
396.000000	3.390135
397.000000	3.398810
398.000000	3.407611
399.000000	3.416708
400.000000	3.426182
401.000000	3.436526
402.000000	3.447713
403.000000	3.459846
404.000000	3.472378
405.000000	3.485743
406.000000	3.499959
407.000000	3.514733
408.000000	3.530363
409.000000	3.547032
410.000000	3.564567
411.000000	3.582638
412.000000	3.601306
413.000000	3.620714
414.000000	3.640980
415.000000	3.662247
416.000000	3.684490
417.000000	3.707230
418.000000	3.731079
419.000000	3.755536
420.000000	3.780196
421.000000	3.805184
422.000000	3.831187
423.000000	3.858167
424.000000	3.885528
425.000000	3.913179
426.000000	3.941578
427.000000	3.970931
428.000000	4.000950
429.000000	4.031433
430.000000	4.062825
431.000000	4.095010
432.000000	4.127593
433.000000	4.160446
434.000000	4.194041
435.000000	4.228541
436.000000	4.263608
437.000000	4.298659
438.000000	4.334051
439.000000	4.370109
440.000000	4.406606
441.000000	4.443709
442.000000	4.481012
443.000000	4.518469
444.000000	4.556374
445.000000	4.594290
446.000000	4.632033
447.000000	4.670520
448.000000	4.709246
449.000000	4.747673
450.000000	4.786035
451.000000	4.824301
452.000000	4.862717
453.000000	4.901578
454.000000	4.939925
455.000000	4.977940
456.000000	5.016528
457.000000	5.054878
458.000000	5.092670
459.000000	5.130361
460.000000	5.168046
461.000000	5.205348
462.000000	5.242526
463.000000	5.279433
464.000000	5.316156
465.000000	5.352742
466.000000	5.388372
467.000000	5.423463
468.000000	5.458379
469.000000	5.492865
470.000000	5.526565
471.000000	5.559889
472.000000	5.592777
473.000000	5.624756
474.000000	5.656140
475.000000	5.686654
476.000000	5.716352
477.000000	5.745094
478.000000	5.773227
479.000000	5.800523
480.000000	5.826856
481.000000	5.852120
482.000000	5.875496
483.000000	5.897380
484.000000	5.918071
485.000000	5.937417
486.000000	5.955745
487.000000	5.973216
488.000000	5.989045
489.000000	6.003582
490.000000	6.017416
491.000000	6.030107
492.000000	6.042198
493.000000	6.053832
494.000000	6.064847
495.000000	6.075479
496.000000	6.085787
497.000000	6.095330
498.000000	6.104945
499.000000	6.114685
500.000000	6.124184
501.000000	6.134492
502.000000	6.144927
503.000000	6.155679
504.000000	6.166786
505.000000	6.178442
506.000000	6.189998
507.000000	6.202442
508.000000	6.215950
509.000000	6.230078
510.000000	6.244764
511.000000	6.259314
512.000000	6.275091
513.000000	6.291718
514.000000	6.309305
515.000000	6.328044
516.000000	6.348360
517.000000	6.369822
518.000000	6.391385
519.000000	6.413914
520.000000	6.438013
521.000000	6.463746
522.000000	6.490162
523.000000	6.517916
524.000000	6.546993
525.000000	6.577139
526.000000	6.607974
527.000000	6.639741
528.000000	6.672607
529.000000	6.706715
530.000000	6.741779
531.000000	6.777138
532.000000	6.813609
533.000000	6.850898
534.000000	6.888491
535.000000	6.926550
536.000000	6.965616
537.000000	7.005442
538.000000	7.045677
539.000000	7.086210
540.000000	7.127038
541.000000	7.168624
542.000000	7.210630
543.000000	7.252847
544.000000	7.295268
545.000000	7.338368
546.000000	7.381666
547.000000	7.425336
548.000000	7.469859
549.000000	7.514935
550.000000	7.559677
551.000000	7.605329
552.000000	7.651524
553.000000	7.698335
554.000000	7.746019
555.000000	7.794084
556.000000	7.843060
557.000000	7.892580
558.000000	7.943440
559.000000	7.994251
560.000000	8.045359
561.000000	8.096763
562.000000	8.149100
563.000000	8.202107
564.000000	8.256528
565.000000	8.311739
566.000000	8.367656
567.000000	8.424500
568.000000	8.481528
569.000000	8.539860
570.000000	8.601117
571.000000	8.662843
572.000000	8.725683
573.000000	8.789427
574.000000	8.853561
575.000000	8.918738
576.000000	8.984873
577.000000	9.051728
578.000000	9.118774
579.000000	9.185871
580.000000	9.253059
581.000000	9.322083
582.000000	9.391083
583.000000	9.459990
584.000000	9.529350
585.000000	9.598692
586.000000	9.668002
587.000000	9.737121
588.000000	9.806834
589.000000	9.876636
590.000000	9.946826
591.000000	10.015320
592.000000	10.083152
593.000000	10.150382
594.000000	10.216377
595.000000	10.282306
596.000000	10.347176
597.000000	10.410862
598.000000	10.473952
599.000000	10.536327
600.000000	10.596845
601.000000	10.656424
602.000000	10.715224
603.000000	10.772991
604.000000	10.829791
605.000000	10.885464
606.000000	10.939369
607.000000	10.992777
608.000000	11.043383
609.000000	11.093263
610.000000	11.141552
611.000000	11.188536
612.000000	11.233895
613.000000	11.278089
614.000000	11.320592
615.000000	11.360880
616.000000	11.402895
617.000000	11.442335
618.000000	11.480652
619.000000	11.516969
620.000000	11.552649
621.000000	11.586808
622.000000	11.619187
623.000000	11.649933
624.000000	11.679292
625.000000	11.706957
626.000000	11.730272
627.000000	11.754016
628.000000	11.776591
629.000000	11.798281
630.000000	11.818557
631.000000	11.838030
632.000000	11.857519
633.000000	11.876859
634.000000	11.895624
635.000000	11.913767
636.000000	11.931887
637.000000	11.949073
638.000000	11.966220
639.000000	11.983010
640.000000	12.000003
641.000000	12.017101
642.000000	12.034575
643.000000	12.052130
644.000000	12.070074
645.000000	12.088648
646.000000	12.107936
647.000000	12.127998
648.000000	12.149370
649.000000	12.171815
650.000000	12.194637
651.000000	12.219517
652.000000	12.243737
653.000000	12.269062
654.000000	12.296483
655.000000	12.325958
656.000000	12.357419
657.000000	12.391097
658.000000	12.427188
659.000000	12.464782
660.000000	12.504187
661.000000	12.545523
662.000000	12.590910
663.000000	12.638292
664.000000	12.687443
665.000000	12.739168
666.000000	12.792686
667.000000	12.847797
668.000000	12.905278
669.000000	12.967152
670.000000	13.032892
671.000000	13.100637
672.000000	13.172256
673.000000	13.248228
674.000000	13.328809
675.000000	13.414139
676.000000	13.504931
677.000000	13.600989
678.000000	13.702429
679.000000	13.808912
680.000000	13.921873
681.000000	14.043366
682.000000	14.171997
683.000000	14.308292
684.000000	14.452890
685.000000	14.606336
686.000000	14.768533
687.000000	14.940199
688.000000	15.123228
689.000000	15.316858
690.000000	15.520753
691.000000	15.736262
692.000000	15.963253
693.000000	16.203041
694.000000	16.455222
695.000000	16.719602
696.000000	16.995629
697.000000	17.283635
698.000000	17.582035
699.000000	17.893760
700.000000	18.218086
701.000000	18.551243
702.000000	18.896158
703.000000	19.251242
704.000000	19.615442
705.000000	19.987623
706.000000	20.367771
707.000000	20.755585
708.000000	21.148778
709.000000	21.542646
710.000000	21.937984
711.000000	22.334450
712.000000	22.727840
713.000000	23.116076
714.000000	23.497817
715.000000	23.873125
716.000000	24.239072
717.000000	24.593517
718.000000	24.938292
719.000000	25.271556
720.000000	25.589910
721.000000	25.895004
722.000000	26.186828
723.000000	26.464665
724.000000	26.727307
725.000000	26.972908
726.000000	27.204166
727.000000	27.421202
728.000000	27.622033
729.000000	27.806319
730.000000	27.976944
731.000000	28.134406
732.000000	28.277760
733.000000	28.406365
734.000000	28.524770
735.000000	28.635676
736.000000	28.737591
737.000000	28.830905
738.000000	28.916448
739.000000	28.996338
740.000000	29.071853
741.000000	29.141334
742.000000	29.204924
743.000000	29.267498
744.000000	29.324853
745.000000	29.375466
746.000000	29.424213
747.000000	29.469011
748.000000	29.510684
749.000000	29.551135
750.000000	29.588026
751.000000	29.621380
752.000000	29.654499
753.000000	29.684497
754.000000	29.715809
755.000000	29.747400
756.000000	29.774029
757.000000	29.801274
758.000000	29.827735
759.000000	29.854435
760.000000	29.882988
761.000000	29.913535
762.000000	29.941687
763.000000	29.967593
764.000000	29.992162
765.000000	30.015826
766.000000	30.041393
767.000000	30.065872
768.000000	30.089545
769.000000	30.110975
770.000000	30.128999
771.000000	30.144400
772.000000	30.158450
773.000000	30.174868
774.000000	30.189590
775.000000	30.202368
776.000000	30.212505
777.000000	30.223191
778.000000	30.235890
779.000000	30.245287
780.000000	30.255638
781.000000	30.267408
782.000000	30.278328
783.000000	30.286344
784.000000	30.293480
785.000000	30.304579
786.000000	30.313571
787.000000	30.317304
788.000000	30.315072
789.000000	30.318448
790.000000	30.319406
791.000000	30.319449
792.000000	30.320789
793.000000	30.322648
794.000000	30.319426
795.000000	30.311782
796.000000	30.305686
797.000000	30.301976
798.000000	30.302831
799.000000	30.296577
800.000000	30.293406
801.000000	30.286291
802.000000	30.279355
803.000000	30.271713
804.000000	30.268790
805.000000	30.267594
806.000000	30.267450
807.000000	30.267971
808.000000	30.265343
809.000000	30.268800
810.000000	30.269247
811.000000	30.276671
812.000000	30.281681
813.000000	30.285124
814.000000	30.292165
815.000000	30.300695
816.000000	30.314116
817.000000	30.325881
818.000000	30.344283
819.000000	30.363812
820.000000	30.382222
821.000000	30.399304
822.000000	30.419666
823.000000	30.449303
824.000000	30.474782
825.000000	30.500059
826.000000	30.518240
827.000000	30.539583
828.000000	30.561443
829.000000	30.576463
830.000000	30.596365
831.000000	30.615937
832.000000	30.633396
833.000000	30.647262
834.000000	30.659518
835.000000	30.669161
836.000000	30.675187
837.000000	30.675734
838.000000	30.666222
839.000000	30.655383
840.000000	30.651219
841.000000	30.632874
842.000000	30.614554
843.000000	30.592419
844.000000	30.566113
845.000000	30.538050
846.000000	30.509873
847.000000	30.473183
848.000000	30.445167
849.000000	30.421687
850.000000	30.398106
851.000000	30.372294
852.000000	30.336328
853.000000	30.293934
854.000000	30.258679
855.000000	30.214674
856.000000	30.161661
857.000000	30.123396
858.000000	29.982497
859.000000	29.995436
860.000000	30.005714
861.000000	30.018478
862.000000	30.033713
863.000000	30.048178
864.000000	30.065796
865.000000	30.093842
866.000000	30.135396
867.000000	30.173581
868.000000	30.297817
869.000000	30.240562
870.000000	30.197750
871.000000	30.154968
872.000000	30.113790
873.000000	30.061898
874.000000	30.005305
875.000000	29.951248
876.000000	29.892280
877.000000	29.817478
878.000000	29.746823
879.000000	29.711655
880.000000	29.636960
881.000000	29.572497
882.000000	29.517340
883.000000	29.472292
884.000000	29.408372
885.000000	29.330597
886.000000	29.272968
887.000000	29.218618
888.000000	29.170335
889.000000	29.101740
890.000000	29.049535
891.000000	28.984282
892.000000	28.905583
893.000000	28.841080
894.000000	28.792257
895.000000	28.745725
896.000000	28.677602
897.000000	28.616245
898.000000	28.549625
899.000000	28.501630
900.000000	28.437462
901.000000	28.383075
902.000000	28.337847
903.000000	28.272255
904.000000	28.207212
905.000000	28.144315
906.000000	28.090958
907.000000	28.034402
908.000000	27.978547
909.000000	27.915345
910.000000	27.862550
911.000000	27.814775
912.000000	27.763095
913.000000	27.717715
914.000000	27.669092
915.000000	27.625970
916.000000	27.572623
917.000000	27.522000
918.000000	27.475090
919.000000	27.425767
920.000000	27.382635
921.000000	27.337595
922.000000	27.294802
923.000000	27.252977
924.000000	27.219707
925.000000	27.189235
926.000000	27.161455
927.000000	27.134180
928.000000	27.109495
929.000000	27.088032
930.000000	27.061405
931.000000	27.033015
932.000000	27.008357
933.000000	26.986695
934.000000	26.962187
935.000000	26.934680
936.000000	26.909910
937.000000	26.891920
938.000000	26.872678
939.000000	26.849480
940.000000	26.831698
941.000000	26.813300
942.000000	26.794773
943.000000	26.783485
944.000000	26.773868
945.000000	26.760728
946.000000	26.750117
947.000000	26.736355
948.000000	26.726385
949.000000	26.726382
950.000000	26.726620
951.000000	26.728695
952.000000	26.731750
953.000000	26.734723
954.000000	26.738588
955.000000	26.750437
956.000000	26.760433
957.000000	26.774883
958.000000	26.789955
959.000000	26.801800
960.000000	26.815565
961.000000	26.831738
962.000000	26.847732
963.000000	26.863585
964.000000	26.880470
965.000000	26.899505
966.000000	26.923928
967.000000	26.948830
968.000000	26.971640
969.000000	26.994903
970.000000	27.021230
971.000000	27.049500
972.000000	27.079748
973.000000	27.109298
974.000000	27.138128
975.000000	27.166502
976.000000	27.196470
977.000000	27.228750
978.000000	27.263310
979.000000	27.299327
980.000000	27.335748
981.000000	27.373750
982.000000	27.413338
983.000000	27.454040
984.000000	27.497512
985.000000	27.539265
986.000000	27.580125
987.000000	27.621440
988.000000	27.664903
989.000000	27.709707
990.000000	27.754620
991.000000	27.799242
992.000000	27.843597
993.000000	27.888137
994.000000	27.933182
995.000000	27.980185
996.000000	28.029390
997.000000	28.080092
998.000000	28.130145
999.000000	28.178558
1000.000000	28.226682
1001.000000	28.277527
1002.000000	28.329003
1003.000000	28.381745
1004.000000	28.434688
1005.000000	28.488132
1006.000000	28.540315
1007.000000	28.592788
1008.000000	28.646348
1009.000000	28.701602
1010.000000	28.758373
1011.000000	28.812962
1012.000000	28.867620
1013.000000	28.923190
1014.000000	28.979422
1015.000000	29.037665
1016.000000	29.096835
1017.000000	29.154160
1018.000000	29.211450
1019.000000	29.269838
1020.000000	29.328245
1021.000000	29.388915
1022.000000	29.450660
1023.000000	29.512540
1024.000000	29.574615
1025.000000	29.635537
1026.000000	29.697360
1027.000000	29.760585
1028.000000	29.824553
1029.000000	29.887552
1030.000000	29.950610
1031.000000	30.012630
1032.000000	30.074725
1033.000000	30.137657
1034.000000	30.200300
1035.000000	30.262650
1036.000000	30.325423
1037.000000	30.388290
1038.000000	30.450030
1039.000000	30.511345
1040.000000	30.573152
1041.000000	30.635515
1042.000000	30.698052
1043.000000	30.759297
1044.000000	30.820580
1045.000000	30.882785
1046.000000	30.943863
1047.000000	31.004645
1048.000000	31.066347
1049.000000	31.128980
1050.000000	31.190893
1051.000000	31.252337
1052.000000	31.315078
1053.000000	31.377792
1054.000000	31.440228
1055.000000	31.501505
1056.000000	31.563145
1057.000000	31.624643
1058.000000	31.685955
1059.000000	31.747042
1060.000000	31.806902
1061.000000	31.867705
1062.000000	31.926882
1063.000000	31.987687
1064.000000	32.048895
1065.000000	32.110928
1066.000000	32.172800
1067.000000	32.234020
1068.000000	32.295813
1069.000000	32.357745
1070.000000	32.422213
1071.000000	32.484975
1072.000000	32.547803
1073.000000	32.610410
1074.000000	32.672582
1075.000000	32.734565
1076.000000	32.795327
1077.000000	32.856572
1078.000000	32.917037
1079.000000	32.976937
1080.000000	33.034440
1081.000000	33.092290
1082.000000	33.150777
1083.000000	33.207342
1084.000000	33.263778
1085.000000	33.319767
1086.000000	33.377080
1087.000000	33.433943
1088.000000	33.490325
1089.000000	33.547413
1090.000000	33.604833
1091.000000	33.662058
1092.000000	33.717185
1093.000000	33.773428
1094.000000	33.829808
1095.000000	33.884318
1096.000000	33.938493
1097.000000	33.991703
1098.000000	34.044780
1099.000000	34.097575
1100.000000	34.150500
1101.000000	34.202427
1102.000000	34.254680
1103.000000	34.306607
1104.000000	34.357768
1105.000000	34.410345
1106.000000	34.462600
1107.000000	34.514595
1108.000000	34.565418
1109.000000	34.614793
1110.000000	34.664457
1111.000000	34.713475
1112.000000	34.762720
1113.000000	34.809470
1114.000000	34.857388
1115.000000	34.903672
1116.000000	34.949000
1117.000000	34.993073
1118.000000	35.037985
1119.000000	35.081648
1120.000000	35.120090
1121.000000	35.161175
1122.000000	35.201115
1123.000000	35.240812
1124.000000	35.275447
1125.000000	35.309535
1126.000000	35.341715
1127.000000	35.372712
1128.000000	35.401400
1129.000000	35.428148
1130.000000	35.454395
1131.000000	35.470535
1132.000000	35.484205
1133.000000	35.496640
1134.000000	35.511647
1135.000000	35.525662
1136.000000	35.534475
1137.000000	35.540893
1138.000000	35.544022
1139.000000	35.545272
1140.000000	35.546657
1141.000000	35.553308
1142.000000	35.558028
1143.000000	35.562472
1144.000000	35.564628
1145.000000	35.566185
1146.000000	35.572128
1147.000000	35.579005
1148.000000	35.587310
1149.000000	35.594655
1150.000000	35.601640
1151.000000	35.608550
1152.000000	35.615568
1153.000000	35.620427
1154.000000	35.621685
1155.000000	35.620308
1156.000000	35.614623
1157.000000	35.606652
1158.000000	35.594470
1159.000000	35.580227
1160.000000	35.564290
1161.000000	35.542202
1162.000000	35.518440
1163.000000	35.493608
1164.000000	35.468117
1165.000000	35.441032
1166.000000	35.413920
1167.000000	35.386805
1168.000000	35.360322
1169.000000	35.335490
