PE UV       SUBTECH     SPECTRUM    ASCII       PEDS        4.00        
   -1
INBUCR0321-4.Sample.ASC
24/02/08
17:14:49.00
24/02/08
17:14:49.00
Vinicio Soto Monge
COSTA RICA, Prov. Guanacaste. Sector Santa María, 25 km al NE. de Liberia. 790 m. 9-27 OCT 1996. D. Briceño. Foso L_N_304700_393450 #44748. INBIOCRI002492827. Sin cabeza. (Aparentemente Phanaeus pyrois)
250,000000
1
Lambda 1050
1050L1511233
PerkinElmer UV WinLab 6.3.2.0749 / 2.02.05 Lambda 900 UV/VIS/NIR, Aug  7 2015 09:38:08

0
0
3350/servo 860,8/2
0
0
UV/VIS
1
1
1
DoubleDePol,CommonBeamDepol,RBeamAtt,SBeamAtt,60mm sphere, WB InGaAs Detector
0
0
0
0
Program
Program
3350/servo 860,8/2
3350/0,2 860,8/0,2
3350/0,2 860,8/0,2
0
15.00
 
 
 
0
 
860,8
319,2
860,8
Front
100
on
S:100 R:100
0
0
0
0
 
0
 
 
 
0
 
 
0
0
0
0
0
 
 
 
 
0
0


0
0
#HDR
-1
-1
#GR
nm
%R
1.0
0.0
2500,000000
-1,000000
2251
8
6,205400
0,362100
#DATA

250.000000	nan
251.000000	nan
252.000000	nan
253.000000	nan
254.000000	nan
255.000000	nan
256.000000	nan
257.000000	nan
258.000000	nan
259.000000	3.588918
260.000000	3.585672
261.000000	3.585125
262.000000	3.584732
263.000000	3.583589
264.000000	3.581586
265.000000	3.577919
266.000000	3.574238
267.000000	3.570763
268.000000	3.569047
269.000000	3.564752
270.000000	3.561622
271.000000	3.558918
272.000000	3.557166
273.000000	3.554861
274.000000	3.555291
275.000000	3.555460
276.000000	3.557657
277.000000	3.559175
278.000000	3.561042
279.000000	3.565560
280.000000	3.573797
281.000000	3.580326
282.000000	3.587071
283.000000	3.597343
284.000000	3.603395
285.000000	3.613179
286.000000	3.622018
287.000000	3.632027
288.000000	3.644524
289.000000	3.657169
290.000000	3.666426
291.000000	3.678280
292.000000	3.690787
293.000000	3.703590
294.000000	3.719012
295.000000	3.737040
296.000000	3.754700
297.000000	3.774060
298.000000	3.792239
299.000000	3.810100
300.000000	3.830659
301.000000	3.849791
302.000000	3.870434
303.000000	3.888775
304.000000	3.911444
305.000000	3.930125
306.000000	3.954446
307.000000	3.979205
308.000000	4.005753
309.000000	4.038787
310.000000	4.073229
311.000000	4.112197
312.000000	4.151387
313.000000	4.198447
314.000000	4.243599
315.000000	4.291850
316.000000	4.337548
317.000000	4.397491
318.000000	4.445433
319.000000	4.489965
320.000000	4.542991
321.000000	4.600530
322.000000	4.656071
323.000000	4.688591
324.000000	4.727111
325.000000	4.770167
326.000000	4.809077
327.000000	4.827632
328.000000	4.858080
329.000000	4.885853
330.000000	4.908259
331.000000	4.921125
332.000000	4.931685
333.000000	4.960341
334.000000	4.986099
335.000000	5.003320
336.000000	5.027445
337.000000	5.052210
338.000000	5.072384
339.000000	5.095752
340.000000	5.117190
341.000000	5.142521
342.000000	5.165767
343.000000	5.193345
344.000000	5.214421
345.000000	5.237452
346.000000	5.256925
347.000000	5.283509
348.000000	5.314708
349.000000	5.340173
350.000000	5.362124
351.000000	5.383973
352.000000	5.408007
353.000000	5.427139
354.000000	5.450548
355.000000	5.471571
356.000000	5.495582
357.000000	5.517685
358.000000	5.538866
359.000000	5.560590
360.000000	5.582092
361.000000	5.601871
362.000000	5.624599
363.000000	5.649110
364.000000	5.671630
365.000000	5.693769
366.000000	5.710791
367.000000	5.727741
368.000000	5.745852
369.000000	5.762418
370.000000	5.779196
371.000000	5.794631
372.000000	5.811362
373.000000	5.822861
374.000000	5.828952
375.000000	5.843602
376.000000	5.885313
377.000000	5.945425
378.000000	6.002855
379.000000	6.064142
380.000000	6.125874
381.000000	6.188156
382.000000	6.247870
383.000000	6.310719
384.000000	6.378204
385.000000	6.440542
386.000000	6.477190
387.000000	6.493896
388.000000	6.510656
389.000000	6.527682
390.000000	6.544543
391.000000	6.560109
392.000000	6.575360
393.000000	6.590168
394.000000	6.605659
395.000000	6.620735
396.000000	6.635823
397.000000	6.651237
398.000000	6.666792
399.000000	6.682314
400.000000	6.697334
401.000000	6.712558
402.000000	6.728157
403.000000	6.744030
404.000000	6.759026
405.000000	6.773552
406.000000	6.788234
407.000000	6.803519
408.000000	6.818244
409.000000	6.831932
410.000000	6.845210
411.000000	6.858560
412.000000	6.871708
413.000000	6.885036
414.000000	6.898347
415.000000	6.912060
416.000000	6.925482
417.000000	6.937408
418.000000	6.949367
419.000000	6.962210
420.000000	6.975169
421.000000	6.987602
422.000000	6.999158
423.000000	7.009999
424.000000	7.020504
425.000000	7.029527
426.000000	7.038106
427.000000	7.047071
428.000000	7.055271
429.000000	7.062250
430.000000	7.068622
431.000000	7.074931
432.000000	7.081755
433.000000	7.088206
434.000000	7.094351
435.000000	7.101412
436.000000	7.108654
437.000000	7.116646
438.000000	7.124719
439.000000	7.133308
440.000000	7.143398
441.000000	7.154411
442.000000	7.165673
443.000000	7.176922
444.000000	7.188897
445.000000	7.200815
446.000000	7.212333
447.000000	7.222990
448.000000	7.233364
449.000000	7.243618
450.000000	7.252158
451.000000	7.259584
452.000000	7.266305
453.000000	7.272317
454.000000	7.277422
455.000000	7.281572
456.000000	7.285263
457.000000	7.288598
458.000000	7.292115
459.000000	7.295153
460.000000	7.298628
461.000000	7.303540
462.000000	7.309799
463.000000	7.317343
464.000000	7.326643
465.000000	7.337812
466.000000	7.351651
467.000000	7.367644
468.000000	7.385666
469.000000	7.406110
470.000000	7.429109
471.000000	7.453445
472.000000	7.479112
473.000000	7.506576
474.000000	7.535171
475.000000	7.565055
476.000000	7.595034
477.000000	7.625343
478.000000	7.655978
479.000000	7.687299
480.000000	7.718125
481.000000	7.747979
482.000000	7.776428
483.000000	7.803006
484.000000	7.827132
485.000000	7.848716
486.000000	7.867671
487.000000	7.883662
488.000000	7.897049
489.000000	7.907168
490.000000	7.914692
491.000000	7.920549
492.000000	7.924406
493.000000	7.927180
494.000000	7.929919
495.000000	7.932179
496.000000	7.934824
497.000000	7.937753
498.000000	7.941325
499.000000	7.945300
500.000000	7.950024
501.000000	7.954776
502.000000	7.960380
503.000000	7.967100
504.000000	7.973663
505.000000	7.980435
506.000000	7.987493
507.000000	7.995258
508.000000	8.003567
509.000000	8.012871
510.000000	8.022644
511.000000	8.033728
512.000000	8.045544
513.000000	8.058022
514.000000	8.071864
515.000000	8.087192
516.000000	8.103334
517.000000	8.120719
518.000000	8.138737
519.000000	8.157015
520.000000	8.175942
521.000000	8.195241
522.000000	8.214739
523.000000	8.233778
524.000000	8.251846
525.000000	8.269102
526.000000	8.285681
527.000000	8.300842
528.000000	8.315403
529.000000	8.328733
530.000000	8.340785
531.000000	8.351150
532.000000	8.360160
533.000000	8.367982
534.000000	8.375400
535.000000	8.381629
536.000000	8.387168
537.000000	8.391988
538.000000	8.395599
539.000000	8.399244
540.000000	8.402062
541.000000	8.404920
542.000000	8.407421
543.000000	8.409957
544.000000	8.411976
545.000000	8.414211
546.000000	8.416820
547.000000	8.419144
548.000000	8.421622
549.000000	8.423604
550.000000	8.425861
551.000000	8.428121
552.000000	8.430292
553.000000	8.432293
554.000000	8.434974
555.000000	8.437563
556.000000	8.439579
557.000000	8.442350
558.000000	8.444655
559.000000	8.446898
560.000000	8.465144
561.000000	8.484120
562.000000	8.503773
563.000000	8.523284
564.000000	8.542935
565.000000	8.562486
566.000000	8.582219
567.000000	8.601722
568.000000	8.622008
569.000000	8.642343
570.000000	8.647286
571.000000	8.651546
572.000000	8.655605
573.000000	8.660042
574.000000	8.664340
575.000000	8.668474
576.000000	8.673114
577.000000	8.677647
578.000000	8.682285
579.000000	8.687135
580.000000	8.691659
581.000000	8.695989
582.000000	8.701217
583.000000	8.706563
584.000000	8.711497
585.000000	8.717276
586.000000	8.721804
587.000000	8.727253
588.000000	8.731794
589.000000	8.736619
590.000000	8.742407
591.000000	8.747935
592.000000	8.752479
593.000000	8.757186
594.000000	8.762675
595.000000	8.767552
596.000000	8.773079
597.000000	8.777855
598.000000	8.783402
599.000000	8.788703
600.000000	8.793814
601.000000	8.798800
602.000000	8.804133
603.000000	8.809015
604.000000	8.813705
605.000000	8.818407
606.000000	8.823415
607.000000	8.828596
608.000000	8.833341
609.000000	8.838146
610.000000	8.842189
611.000000	8.847921
612.000000	8.853067
613.000000	8.858113
614.000000	8.863063
615.000000	8.868322
616.000000	8.873178
617.000000	8.878544
618.000000	8.883680
619.000000	8.889534
620.000000	8.895086
621.000000	8.898969
622.000000	8.903227
623.000000	8.908062
624.000000	8.912540
625.000000	8.918304
626.000000	8.924018
627.000000	8.928878
628.000000	8.934226
629.000000	8.938946
630.000000	8.944698
631.000000	8.950865
632.000000	8.957328
633.000000	8.963170
634.000000	8.970010
635.000000	8.975307
636.000000	8.981578
637.000000	8.988790
638.000000	8.996209
639.000000	9.004018
640.000000	9.011149
641.000000	9.019112
642.000000	9.026916
643.000000	9.035584
644.000000	9.043761
645.000000	9.053642
646.000000	9.064163
647.000000	9.074612
648.000000	9.084933
649.000000	9.095633
650.000000	9.107502
651.000000	9.118992
652.000000	9.130985
653.000000	9.143056
654.000000	9.154888
655.000000	9.166364
656.000000	9.176303
657.000000	9.185675
658.000000	9.195867
659.000000	9.206219
660.000000	9.216773
661.000000	9.228026
662.000000	9.238990
663.000000	9.250064
664.000000	9.260954
665.000000	9.271151
666.000000	9.281217
667.000000	9.291660
668.000000	9.302386
669.000000	9.312163
670.000000	9.321371
671.000000	9.330655
672.000000	9.341264
673.000000	9.351233
674.000000	9.361878
675.000000	9.373087
676.000000	9.385605
677.000000	9.398496
678.000000	9.409906
679.000000	9.422004
680.000000	9.434168
681.000000	9.445949
682.000000	9.455701
683.000000	9.465746
684.000000	9.476467
685.000000	9.487052
686.000000	9.497643
687.000000	9.508458
688.000000	9.519891
689.000000	9.531411
690.000000	9.542972
691.000000	9.554584
692.000000	9.567563
693.000000	9.580620
694.000000	9.593148
695.000000	9.605472
696.000000	9.618005
697.000000	9.630966
698.000000	9.645054
699.000000	9.658677
700.000000	9.672856
701.000000	9.688068
702.000000	9.703052
703.000000	9.718469
704.000000	9.734349
705.000000	9.751099
706.000000	9.766957
707.000000	9.782129
708.000000	9.796836
709.000000	9.812872
710.000000	9.829030
711.000000	9.844498
712.000000	9.861223
713.000000	9.877851
714.000000	9.893595
715.000000	9.909496
716.000000	9.927000
717.000000	9.944992
718.000000	9.962618
719.000000	9.978978
720.000000	9.995999
721.000000	10.014425
722.000000	10.032265
723.000000	10.049680
724.000000	10.068459
725.000000	10.087770
726.000000	10.107090
727.000000	10.126818
728.000000	10.146819
729.000000	10.167589
730.000000	10.187559
731.000000	10.207434
732.000000	10.227566
733.000000	10.248960
734.000000	10.269787
735.000000	10.290989
736.000000	10.312290
737.000000	10.333168
738.000000	10.354913
739.000000	10.377631
740.000000	10.401564
741.000000	10.425671
742.000000	10.449041
743.000000	10.472528
744.000000	10.497636
745.000000	10.523049
746.000000	10.548055
747.000000	10.573752
748.000000	10.600169
749.000000	10.625945
750.000000	10.651694
751.000000	10.677413
752.000000	10.705149
753.000000	10.732486
754.000000	10.758435
755.000000	10.783277
756.000000	10.810363
757.000000	10.838234
758.000000	10.865826
759.000000	10.894741
760.000000	10.923314
761.000000	10.951217
762.000000	10.979107
763.000000	11.007561
764.000000	11.038134
765.000000	11.070381
766.000000	11.100122
767.000000	11.131310
768.000000	11.161914
769.000000	11.191996
770.000000	11.222251
771.000000	11.254996
772.000000	11.287390
773.000000	11.318605
774.000000	11.349847
775.000000	11.381602
776.000000	11.416260
777.000000	11.448726
778.000000	11.482774
779.000000	11.518062
780.000000	11.554389
781.000000	11.588498
782.000000	11.621077
783.000000	11.658362
784.000000	11.696458
785.000000	11.734288
786.000000	11.771134
787.000000	11.807979
788.000000	11.845328
789.000000	11.881330
790.000000	11.917508
791.000000	11.956782
792.000000	11.997260
793.000000	12.035226
794.000000	12.071585
795.000000	12.107346
796.000000	12.144387
797.000000	12.183646
798.000000	12.219739
799.000000	12.258996
800.000000	12.298090
801.000000	12.335477
802.000000	12.375867
803.000000	12.416356
804.000000	12.455944
805.000000	12.496712
806.000000	12.535030
807.000000	12.573037
808.000000	12.616468
809.000000	12.655925
810.000000	12.697707
811.000000	12.739694
812.000000	12.777826
813.000000	12.816551
814.000000	12.859048
815.000000	12.901330
816.000000	12.945198
817.000000	12.988715
818.000000	13.029006
819.000000	13.073599
820.000000	13.115446
821.000000	13.156355
822.000000	13.199238
823.000000	13.242726
824.000000	13.281256
825.000000	13.322611
826.000000	13.363531
827.000000	13.406303
828.000000	13.447217
829.000000	13.485645
830.000000	13.526862
831.000000	13.568328
832.000000	13.608705
833.000000	13.649390
834.000000	13.690721
835.000000	13.727239
836.000000	13.763235
837.000000	13.797593
838.000000	13.837501
839.000000	13.873672
840.000000	13.910583
841.000000	13.947871
842.000000	13.980376
843.000000	14.012645
844.000000	14.048326
845.000000	14.079316
846.000000	14.112840
847.000000	14.149211
848.000000	14.177742
849.000000	14.201586
850.000000	14.226291
851.000000	14.247355
852.000000	14.269749
853.000000	14.302963
854.000000	14.328500
855.000000	14.346627
856.000000	14.359179
857.000000	14.403138
858.000000	14.583961
859.000000	14.670882
860.000000	14.741120
861.000000	14.804685
862.000000	14.856036
863.000000	14.904777
864.000000	14.962218
865.000000	15.024886
866.000000	15.075052
867.000000	15.084922
868.000000	14.946690
869.000000	14.913375
870.000000	14.891000
871.000000	14.871565
872.000000	14.861950
873.000000	14.850645
874.000000	14.821790
875.000000	14.809840
876.000000	14.808488
877.000000	14.793735
878.000000	14.823960
879.000000	14.826650
880.000000	14.820830
881.000000	14.813533
882.000000	14.815378
883.000000	14.810675
884.000000	14.816033
885.000000	14.812130
886.000000	14.806257
887.000000	14.823628
888.000000	14.798370
889.000000	14.810337
890.000000	14.819460
891.000000	14.839805
892.000000	14.853515
893.000000	14.864120
894.000000	14.864335
895.000000	14.870040
896.000000	14.885290
897.000000	14.888205
898.000000	14.914853
899.000000	14.925890
900.000000	14.951748
901.000000	14.967183
902.000000	14.978733
903.000000	14.996020
904.000000	15.027122
905.000000	15.047815
906.000000	15.057153
907.000000	15.082843
908.000000	15.099622
909.000000	15.119175
910.000000	15.139707
911.000000	15.161128
912.000000	15.188565
913.000000	15.214960
914.000000	15.242558
915.000000	15.276818
916.000000	15.317513
917.000000	15.345692
918.000000	15.374148
919.000000	15.399090
920.000000	15.413958
921.000000	15.441567
922.000000	15.474630
923.000000	15.501820
924.000000	15.524897
925.000000	15.548325
926.000000	15.573067
927.000000	15.598445
928.000000	15.621957
929.000000	15.651193
930.000000	15.687275
931.000000	15.714872
932.000000	15.743377
933.000000	15.769005
934.000000	15.799295
935.000000	15.829422
936.000000	15.858552
937.000000	15.893702
938.000000	15.929712
939.000000	15.961290
940.000000	15.992253
941.000000	16.022223
942.000000	16.047620
943.000000	16.079638
944.000000	16.114430
945.000000	16.146635
946.000000	16.181980
947.000000	16.214548
948.000000	16.243983
949.000000	16.274828
950.000000	16.309052
951.000000	16.344978
952.000000	16.379490
953.000000	16.414805
954.000000	16.446823
955.000000	16.478410
956.000000	16.511418
957.000000	16.545670
958.000000	16.580845
959.000000	16.614680
960.000000	16.647218
961.000000	16.678897
962.000000	16.712810
963.000000	16.747243
964.000000	16.779287
965.000000	16.814718
966.000000	16.849848
967.000000	16.882082
968.000000	16.914150
969.000000	16.952157
970.000000	16.989135
971.000000	17.026913
972.000000	17.063973
973.000000	17.098807
974.000000	17.136008
975.000000	17.171595
976.000000	17.205390
977.000000	17.240483
978.000000	17.277548
979.000000	17.310623
980.000000	17.343792
981.000000	17.379198
982.000000	17.413720
983.000000	17.448880
984.000000	17.485402
985.000000	17.523177
986.000000	17.559690
987.000000	17.594600
988.000000	17.629875
989.000000	17.665625
990.000000	17.700508
991.000000	17.736493
992.000000	17.774528
993.000000	17.812015
994.000000	17.847258
995.000000	17.879838
996.000000	17.913693
997.000000	17.949680
998.000000	17.985238
999.000000	18.021790
1000.000000	18.059372
1001.000000	18.094760
1002.000000	18.128795
1003.000000	18.163200
1004.000000	18.197913
1005.000000	18.234080
1006.000000	18.270167
1007.000000	18.305743
1008.000000	18.342675
1009.000000	18.378120
1010.000000	18.412278
1011.000000	18.448218
1012.000000	18.485032
1013.000000	18.521062
1014.000000	18.557240
1015.000000	18.593480
1016.000000	18.630083
1017.000000	18.667282
1018.000000	18.703992
1019.000000	18.740482
1020.000000	18.776103
1021.000000	18.811785
1022.000000	18.848075
1023.000000	18.884528
1024.000000	18.921780
1025.000000	18.957305
1026.000000	18.992978
1027.000000	19.030450
1028.000000	19.066978
1029.000000	19.102935
1030.000000	19.140678
1031.000000	19.177640
1032.000000	19.213113
1033.000000	19.248690
1034.000000	19.283603
1035.000000	19.320412
1036.000000	19.357482
1037.000000	19.392947
1038.000000	19.427892
1039.000000	19.464355
1040.000000	19.500467
1041.000000	19.536645
1042.000000	19.572990
1043.000000	19.609633
1044.000000	19.647825
1045.000000	19.686073
1046.000000	19.724190
1047.000000	19.761805
1048.000000	19.798648
1049.000000	19.834730
1050.000000	19.870520
1051.000000	19.906713
1052.000000	19.943272
1053.000000	19.979132
1054.000000	20.015010
1055.000000	20.050642
1056.000000	20.084835
1057.000000	20.119755
1058.000000	20.155900
1059.000000	20.193575
1060.000000	20.232367
1061.000000	20.270205
1062.000000	20.307060
1063.000000	20.343710
1064.000000	20.380515
1065.000000	20.417797
1066.000000	20.455960
1067.000000	20.493295
1068.000000	20.530850
1069.000000	20.567847
1070.000000	20.603300
1071.000000	20.637770
1072.000000	20.673568
1073.000000	20.710575
1074.000000	20.746240
1075.000000	20.781100
1076.000000	20.815485
1077.000000	20.850047
1078.000000	20.884200
1079.000000	20.918130
1080.000000	20.953685
1081.000000	20.989358
1082.000000	21.024865
1083.000000	21.059108
1084.000000	21.092440
1085.000000	21.125385
1086.000000	21.158395
1087.000000	21.192645
1088.000000	21.228223
1089.000000	21.263475
1090.000000	21.297178
1091.000000	21.330357
1092.000000	21.362932
1093.000000	21.396510
1094.000000	21.430780
1095.000000	21.464570
1096.000000	21.497937
1097.000000	21.530553
1098.000000	21.562182
1099.000000	21.593953
1100.000000	21.626725
1101.000000	21.660808
1102.000000	21.695625
1103.000000	21.729598
1104.000000	21.764455
1105.000000	21.798742
1106.000000	21.832755
1107.000000	21.865977
1108.000000	21.899543
1109.000000	21.933135
1110.000000	21.966987
1111.000000	22.000595
1112.000000	22.032485
1113.000000	22.063680
1114.000000	22.094023
1115.000000	22.124913
1116.000000	22.156053
1117.000000	22.186795
1118.000000	22.216227
1119.000000	22.245995
1120.000000	22.272880
1121.000000	22.299330
1122.000000	22.327225
1123.000000	22.355863
1124.000000	22.383255
1125.000000	22.408662
1126.000000	22.432763
1127.000000	22.456255
1128.000000	22.481155
1129.000000	22.503485
1130.000000	22.523917
1131.000000	22.542943
1132.000000	22.561237
1133.000000	22.579270
1134.000000	22.598553
1135.000000	22.617737
1136.000000	22.637503
1137.000000	22.656997
1138.000000	22.673170
1139.000000	22.690350
1140.000000	22.710552
1141.000000	22.731180
1142.000000	22.750605
1143.000000	22.770145
1144.000000	22.787817
1145.000000	22.807935
1146.000000	22.828910
1147.000000	22.849263
1148.000000	22.869900
1149.000000	22.890230
1150.000000	22.910450
1151.000000	22.931132
1152.000000	22.950392
1153.000000	22.968602
1154.000000	22.986645
1155.000000	23.003465
1156.000000	23.017070
1157.000000	23.030420
1158.000000	23.044050
1159.000000	23.055930
1160.000000	23.067138
1161.000000	23.074343
1162.000000	23.082918
1163.000000	23.089185
1164.000000	23.095273
1165.000000	23.101315
1166.000000	23.109523
1167.000000	23.115698
1168.000000	23.122010
1169.000000	23.127680
1170.000000	23.133392
1171.000000	23.142140
1172.000000	23.149800
1173.000000	23.159310
1174.000000	23.169920
1175.000000	23.179005
