PE UV       SUBTECH     SPECTRUM    ASCII       PEDS        4.00        
   -1
INBUCR0213-4.Sample.ASC
24/02/08
09:11:44.00
24/02/08
09:11:44.00
Vinicio Soto Monge
Chrysina optima Det: A. Solís. INBIOCRI002037918
250,000000
1
Lambda 1050
1050L1511233
PerkinElmer UV WinLab 6.3.2.0749 / 2.02.05 Lambda 900 UV/VIS/NIR, Aug  7 2015 09:38:08

0
0
3350/servo 860,8/2
0
0
UV/VIS
1
1
1
DoubleDePol,CommonBeamDepol,RBeamAtt,SBeamAtt,60mm sphere, WB InGaAs Detector
0
0
0
0
Program
Program
3350/servo 860,8/2
3350/0,2 860,8/0,2
3350/0,2 860,8/0,2
0
15.00
 
 
 
0
 
860,8
319,2
860,8
Front
100
on
S:100 R:100
0
0
0
0
 
0
 
 
 
0
 
 
0
0
0
0
0
 
 
 
 
0
0


0
0
#HDR
-1
-1
#GR
nm
%R
1.0
0.0
2500,000000
-1,000000
2251
8
15,057700
1,409800
#DATA

250.000000	nan
251.000000	nan
252.000000	nan
253.000000	nan
254.000000	nan
255.000000	nan
256.000000	nan
257.000000	nan
258.000000	nan
259.000000	3.873163
260.000000	3.865573
261.000000	3.856110
262.000000	3.843859
263.000000	3.833996
264.000000	3.824221
265.000000	3.809815
266.000000	3.796092
267.000000	3.784984
268.000000	3.769380
269.000000	3.756756
270.000000	3.742446
271.000000	3.729329
272.000000	3.719590
273.000000	3.707160
274.000000	3.695141
275.000000	3.687773
276.000000	3.681356
277.000000	3.672729
278.000000	3.667991
279.000000	3.661170
280.000000	3.656132
281.000000	3.653116
282.000000	3.650191
283.000000	3.646702
284.000000	3.645140
285.000000	3.641369
286.000000	3.639481
287.000000	3.637292
288.000000	3.633973
289.000000	3.634354
290.000000	3.633024
291.000000	3.631760
292.000000	3.629032
293.000000	3.628797
294.000000	3.627347
295.000000	3.624956
296.000000	3.621710
297.000000	3.619655
298.000000	3.618855
299.000000	3.617399
300.000000	3.612930
301.000000	3.609848
302.000000	3.607047
303.000000	3.602659
304.000000	3.597419
305.000000	3.595334
306.000000	3.591948
307.000000	3.590337
308.000000	3.587134
309.000000	3.582382
310.000000	3.583268
311.000000	3.580923
312.000000	3.580495
313.000000	3.582284
314.000000	3.584279
315.000000	3.585603
316.000000	3.589584
317.000000	3.611688
318.000000	3.640128
319.000000	3.668733
320.000000	3.685697
321.000000	3.697386
322.000000	3.719458
323.000000	3.739341
324.000000	3.761169
325.000000	3.782936
326.000000	3.795154
327.000000	3.790288
328.000000	3.784593
329.000000	3.778057
330.000000	3.783887
331.000000	3.797851
332.000000	3.805119
333.000000	3.811803
334.000000	3.819737
335.000000	3.823957
336.000000	3.841845
337.000000	3.859193
338.000000	3.878312
339.000000	3.900890
340.000000	3.929187
341.000000	3.958817
342.000000	3.992546
343.000000	4.037752
344.000000	4.086374
345.000000	4.145357
346.000000	4.213819
347.000000	4.291188
348.000000	4.375635
349.000000	4.477775
350.000000	4.590779
351.000000	4.719710
352.000000	4.860032
353.000000	5.015103
354.000000	5.190418
355.000000	5.387389
356.000000	5.598603
357.000000	5.831368
358.000000	6.084507
359.000000	6.353215
360.000000	6.639836
361.000000	6.945347
362.000000	7.270127
363.000000	7.611410
364.000000	7.967646
365.000000	8.338935
366.000000	8.726352
367.000000	9.122005
368.000000	9.526893
369.000000	9.940541
370.000000	10.355605
371.000000	10.771603
372.000000	11.189585
373.000000	11.607955
374.000000	12.020506
375.000000	12.421498
376.000000	12.808131
377.000000	13.185301
378.000000	13.551120
379.000000	13.904406
380.000000	14.248477
381.000000	14.578671
382.000000	14.893159
383.000000	15.190357
384.000000	15.474053
385.000000	15.746930
386.000000	16.006882
387.000000	16.253996
388.000000	16.487026
389.000000	16.703189
390.000000	16.904833
391.000000	17.094789
392.000000	17.269882
393.000000	17.431628
394.000000	17.580235
395.000000	17.714019
396.000000	17.836161
397.000000	17.943776
398.000000	18.037121
399.000000	18.118539
400.000000	18.185798
401.000000	18.237604
402.000000	18.276034
403.000000	18.299830
404.000000	18.311933
405.000000	18.312899
406.000000	18.301994
407.000000	18.281728
408.000000	18.254170
409.000000	18.220110
410.000000	18.183584
411.000000	18.146498
412.000000	18.109848
413.000000	18.077116
414.000000	18.047476
415.000000	18.022891
416.000000	18.005826
417.000000	17.995571
418.000000	17.991756
419.000000	17.995017
420.000000	18.003905
421.000000	18.019221
422.000000	18.039450
423.000000	18.064067
424.000000	18.094149
425.000000	18.127496
426.000000	18.165325
427.000000	18.207798
428.000000	18.253584
429.000000	18.302423
430.000000	18.354465
431.000000	18.408005
432.000000	18.463704
433.000000	18.520315
434.000000	18.576614
435.000000	18.632409
436.000000	18.685617
437.000000	18.735686
438.000000	18.781575
439.000000	18.822560
440.000000	18.858897
441.000000	18.889750
442.000000	18.914709
443.000000	18.932845
444.000000	18.943866
445.000000	18.949642
446.000000	18.949824
447.000000	18.944149
448.000000	18.933543
449.000000	18.918326
450.000000	18.899534
451.000000	18.877796
452.000000	18.854194
453.000000	18.830263
454.000000	18.807664
455.000000	18.786978
456.000000	18.767968
457.000000	18.751156
458.000000	18.737105
459.000000	18.726232
460.000000	18.717627
461.000000	18.711753
462.000000	18.707458
463.000000	18.704457
464.000000	18.701756
465.000000	18.698069
466.000000	18.693944
467.000000	18.689432
468.000000	18.685063
469.000000	18.679725
470.000000	18.672850
471.000000	18.665732
472.000000	18.659739
473.000000	18.654990
474.000000	18.652391
475.000000	18.651214
476.000000	18.651761
477.000000	18.654462
478.000000	18.659790
479.000000	18.668470
480.000000	18.679665
481.000000	18.691212
482.000000	18.701339
483.000000	18.711029
484.000000	18.721161
485.000000	18.732351
486.000000	18.744958
487.000000	18.757489
488.000000	18.769944
489.000000	18.782275
490.000000	18.795368
491.000000	18.811270
492.000000	18.831344
493.000000	18.853764
494.000000	18.877402
495.000000	18.902129
496.000000	18.926312
497.000000	18.953134
498.000000	18.981841
499.000000	19.012462
500.000000	19.045686
501.000000	19.080598
502.000000	19.116578
503.000000	19.155150
504.000000	19.196596
505.000000	19.241386
506.000000	19.289651
507.000000	19.341740
508.000000	19.397428
509.000000	19.457170
510.000000	19.522038
511.000000	19.593509
512.000000	19.672375
513.000000	19.758769
514.000000	19.854279
515.000000	19.959845
516.000000	20.076134
517.000000	20.201495
518.000000	20.336276
519.000000	20.480488
520.000000	20.633081
521.000000	20.792432
522.000000	20.957927
523.000000	21.129323
524.000000	21.304014
525.000000	21.480527
526.000000	21.658470
527.000000	21.838510
528.000000	22.021516
529.000000	22.206776
530.000000	22.395400
531.000000	22.588125
532.000000	22.786589
533.000000	22.988612
534.000000	23.194518
535.000000	23.404087
536.000000	23.617583
537.000000	23.832598
538.000000	24.047986
539.000000	24.262076
540.000000	24.472844
541.000000	24.679290
542.000000	24.878164
543.000000	25.069615
544.000000	25.253341
545.000000	25.428205
546.000000	25.592450
547.000000	25.746169
548.000000	25.889411
549.000000	26.022212
550.000000	26.143221
551.000000	26.253029
552.000000	26.351951
553.000000	26.441826
554.000000	26.521295
555.000000	26.591618
556.000000	26.654164
557.000000	26.709684
558.000000	26.758209
559.000000	26.800457
560.000000	26.827572
561.000000	26.847278
562.000000	26.864741
563.000000	26.878484
564.000000	26.889075
565.000000	26.898198
566.000000	26.906229
567.000000	26.913914
568.000000	26.920931
569.000000	26.926695
570.000000	26.943491
571.000000	26.963674
572.000000	26.982598
573.000000	27.000164
574.000000	27.017204
575.000000	27.032906
576.000000	27.045569
577.000000	27.055174
578.000000	27.060347
579.000000	27.064186
580.000000	27.063817
581.000000	27.057791
582.000000	27.046062
583.000000	27.029791
584.000000	27.006565
585.000000	26.976735
586.000000	26.941691
587.000000	26.900647
588.000000	26.855838
589.000000	26.805408
590.000000	26.749355
591.000000	26.688840
592.000000	26.626309
593.000000	26.561888
594.000000	26.496720
595.000000	26.429619
596.000000	26.362433
597.000000	26.293250
598.000000	26.220592
599.000000	26.145065
600.000000	26.067556
601.000000	25.987098
602.000000	25.900679
603.000000	25.806379
604.000000	25.707651
605.000000	25.605336
606.000000	25.496398
607.000000	25.383603
608.000000	25.270881
609.000000	25.156743
610.000000	25.042463
611.000000	24.928698
612.000000	24.816960
613.000000	24.707566
614.000000	24.597157
615.000000	24.485153
616.000000	24.374040
617.000000	24.262355
618.000000	24.148298
619.000000	24.032806
620.000000	23.914866
621.000000	23.795547
622.000000	23.677406
623.000000	23.561174
624.000000	23.449850
625.000000	23.344725
626.000000	23.246743
627.000000	23.156846
628.000000	23.076054
629.000000	23.005182
630.000000	22.944492
631.000000	22.895398
632.000000	22.855691
633.000000	22.824626
634.000000	22.800297
635.000000	22.783824
636.000000	22.773255
637.000000	22.769529
638.000000	22.769915
639.000000	22.775077
640.000000	22.784813
641.000000	22.797374
642.000000	22.813521
643.000000	22.836012
644.000000	22.864019
645.000000	22.896547
646.000000	22.934834
647.000000	22.977841
648.000000	23.027259
649.000000	23.082280
650.000000	23.143740
651.000000	23.209687
652.000000	23.283412
653.000000	23.361937
654.000000	23.446423
655.000000	23.535447
656.000000	23.629091
657.000000	23.727947
658.000000	23.832596
659.000000	23.943111
660.000000	24.058999
661.000000	24.182601
662.000000	24.309390
663.000000	24.441635
664.000000	24.578496
665.000000	24.721400
666.000000	24.869091
667.000000	25.020873
668.000000	25.172750
669.000000	25.325596
670.000000	25.479894
671.000000	25.633880
672.000000	25.788487
673.000000	25.942464
674.000000	26.097383
675.000000	26.251163
676.000000	26.403931
677.000000	26.556669
678.000000	26.712365
679.000000	26.868437
680.000000	27.025926
681.000000	27.186599
682.000000	27.347539
683.000000	27.509385
684.000000	27.670457
685.000000	27.830830
686.000000	27.990242
687.000000	28.146699
688.000000	28.301271
689.000000	28.453716
690.000000	28.602303
691.000000	28.746247
692.000000	28.888655
693.000000	29.029148
694.000000	29.167689
695.000000	29.305123
696.000000	29.441050
697.000000	29.576520
698.000000	29.707771
699.000000	29.837175
700.000000	29.965459
701.000000	30.092584
702.000000	30.215191
703.000000	30.331664
704.000000	30.443981
705.000000	30.552606
706.000000	30.657937
707.000000	30.759202
708.000000	30.859907
709.000000	30.959014
710.000000	31.053921
711.000000	31.144878
712.000000	31.235099
713.000000	31.326067
714.000000	31.415485
715.000000	31.504151
716.000000	31.591648
717.000000	31.675619
718.000000	31.756259
719.000000	31.833783
720.000000	31.908719
721.000000	31.983500
722.000000	32.055015
723.000000	32.123193
724.000000	32.191573
725.000000	32.257898
726.000000	32.323279
727.000000	32.390523
728.000000	32.459491
729.000000	32.528760
730.000000	32.598426
731.000000	32.667004
732.000000	32.736857
733.000000	32.806875
734.000000	32.872944
735.000000	32.937930
736.000000	33.003834
737.000000	33.068476
738.000000	33.129754
739.000000	33.190595
740.000000	33.251674
741.000000	33.311074
742.000000	33.370601
743.000000	33.431119
744.000000	33.492924
745.000000	33.555749
746.000000	33.616610
747.000000	33.675759
748.000000	33.735593
749.000000	33.796651
750.000000	33.858188
751.000000	33.920375
752.000000	33.981721
753.000000	34.041136
754.000000	34.098697
755.000000	34.154748
756.000000	34.209191
757.000000	34.265744
758.000000	34.323575
759.000000	34.379318
760.000000	34.435984
761.000000	34.494788
762.000000	34.552871
763.000000	34.610816
764.000000	34.674196
765.000000	34.736652
766.000000	34.799549
767.000000	34.862476
768.000000	34.922246
769.000000	34.982176
770.000000	35.040371
771.000000	35.097307
772.000000	35.152823
773.000000	35.209003
774.000000	35.260614
775.000000	35.312673
776.000000	35.368973
777.000000	35.426821
778.000000	35.487497
779.000000	35.546535
780.000000	35.607392
781.000000	35.667247
782.000000	35.732052
783.000000	35.797230
784.000000	35.863688
785.000000	35.933906
786.000000	35.998628
787.000000	36.060837
788.000000	36.123944
789.000000	36.190737
790.000000	36.256615
791.000000	36.321164
792.000000	36.383115
793.000000	36.449500
794.000000	36.519188
795.000000	36.583577
796.000000	36.649674
797.000000	36.718543
798.000000	36.786271
799.000000	36.852827
800.000000	36.922048
801.000000	36.992295
802.000000	37.063114
803.000000	37.129014
804.000000	37.194460
805.000000	37.266236
806.000000	37.341470
807.000000	37.409804
808.000000	37.482362
809.000000	37.554668
810.000000	37.626333
811.000000	37.695523
812.000000	37.765874
813.000000	37.836412
814.000000	37.903953
815.000000	37.970911
816.000000	38.038416
817.000000	38.113042
818.000000	38.182659
819.000000	38.249591
820.000000	38.311997
821.000000	38.383182
822.000000	38.447551
823.000000	38.516119
824.000000	38.584798
825.000000	38.659151
826.000000	38.725748
827.000000	38.788948
828.000000	38.857599
829.000000	38.925238
830.000000	38.992839
831.000000	39.057715
832.000000	39.127769
833.000000	39.191264
834.000000	39.248662
835.000000	39.293226
836.000000	39.342669
837.000000	39.398768
838.000000	39.454324
839.000000	39.504953
840.000000	39.553271
841.000000	39.602594
842.000000	39.646757
843.000000	39.696817
844.000000	39.752163
845.000000	39.811650
846.000000	39.871115
847.000000	39.917338
848.000000	39.952535
849.000000	39.996648
850.000000	40.049101
851.000000	40.100003
852.000000	40.141459
853.000000	40.178847
854.000000	40.230289
855.000000	40.267169
856.000000	40.301681
857.000000	40.337868
858.000000	40.458503
859.000000	40.554097
860.000000	40.666104
861.000000	40.757822
862.000000	40.874367
863.000000	40.992903
864.000000	41.091008
865.000000	41.187751
866.000000	41.291826
867.000000	41.386450
868.000000	41.413317
869.000000	41.455400
870.000000	41.459502
871.000000	41.483398
872.000000	41.497375
873.000000	41.505277
874.000000	41.508570
875.000000	41.525490
876.000000	41.541078
877.000000	41.559767
878.000000	41.566192
879.000000	41.556808
880.000000	41.568937
881.000000	41.569020
882.000000	41.566030
883.000000	41.568662
884.000000	41.574213
885.000000	41.585605
886.000000	41.582867
887.000000	41.583815
888.000000	41.575465
889.000000	41.574790
890.000000	41.560878
891.000000	41.553557
892.000000	41.541202
893.000000	41.526600
894.000000	41.512595
895.000000	41.491765
896.000000	41.475185
897.000000	41.452715
898.000000	41.434303
899.000000	41.419945
900.000000	41.412343
901.000000	41.403047
902.000000	41.393120
903.000000	41.376363
904.000000	41.349800
905.000000	41.324072
906.000000	41.298948
907.000000	41.278395
908.000000	41.255630
909.000000	41.244630
910.000000	41.225968
911.000000	41.198683
912.000000	41.170460
913.000000	41.145415
914.000000	41.138687
915.000000	41.128260
916.000000	41.113613
917.000000	41.097333
918.000000	41.082138
919.000000	41.059585
920.000000	41.039162
921.000000	41.024375
922.000000	41.011198
923.000000	40.996403
924.000000	40.972998
925.000000	40.945740
926.000000	40.919210
927.000000	40.892403
928.000000	40.866118
929.000000	40.842897
930.000000	40.821497
931.000000	40.798670
932.000000	40.769775
933.000000	40.739045
934.000000	40.705777
935.000000	40.676300
936.000000	40.644970
937.000000	40.617082
938.000000	40.585325
939.000000	40.549372
940.000000	40.509160
941.000000	40.466542
942.000000	40.429353
943.000000	40.392865
944.000000	40.356950
945.000000	40.318972
946.000000	40.281645
947.000000	40.240820
948.000000	40.203482
949.000000	40.167930
950.000000	40.132855
951.000000	40.099535
952.000000	40.066745
953.000000	40.031233
954.000000	39.996250
955.000000	39.960523
956.000000	39.924730
957.000000	39.891390
958.000000	39.858345
959.000000	39.822040
960.000000	39.785845
961.000000	39.751408
962.000000	39.713035
963.000000	39.675715
964.000000	39.639628
965.000000	39.604945
966.000000	39.571787
967.000000	39.539585
968.000000	39.506217
969.000000	39.473867
970.000000	39.442307
971.000000	39.408455
972.000000	39.376970
973.000000	39.347000
974.000000	39.318812
975.000000	39.288562
976.000000	39.258720
977.000000	39.229268
978.000000	39.200380
979.000000	39.174230
980.000000	39.147622
981.000000	39.123135
982.000000	39.100527
983.000000	39.077645
984.000000	39.054785
985.000000	39.033110
986.000000	39.011375
987.000000	38.990695
988.000000	38.970232
989.000000	38.949707
990.000000	38.930818
991.000000	38.913885
992.000000	38.896882
993.000000	38.880373
994.000000	38.864128
995.000000	38.848680
996.000000	38.833825
997.000000	38.819038
998.000000	38.806188
999.000000	38.795420
1000.000000	38.785275
1001.000000	38.775130
1002.000000	38.765305
1003.000000	38.754975
1004.000000	38.745068
1005.000000	38.736623
1006.000000	38.728490
1007.000000	38.720745
1008.000000	38.713307
1009.000000	38.704420
1010.000000	38.696530
1011.000000	38.689120
1012.000000	38.683020
1013.000000	38.680392
1014.000000	38.677975
1015.000000	38.675675
1016.000000	38.674655
1017.000000	38.674195
1018.000000	38.674805
1019.000000	38.677315
1020.000000	38.680695
1021.000000	38.685407
1022.000000	38.690888
1023.000000	38.696125
1024.000000	38.702770
1025.000000	38.711008
1026.000000	38.720357
1027.000000	38.730537
1028.000000	38.740965
1029.000000	38.752192
1030.000000	38.763662
1031.000000	38.774532
1032.000000	38.785472
1033.000000	38.797607
1034.000000	38.810385
1035.000000	38.823855
1036.000000	38.836670
1037.000000	38.850310
1038.000000	38.864865
1039.000000	38.878878
1040.000000	38.892835
1041.000000	38.906883
1042.000000	38.921093
1043.000000	38.934637
1044.000000	38.948512
1045.000000	38.961285
1046.000000	38.974603
1047.000000	38.988540
1048.000000	39.001658
1049.000000	39.014780
1050.000000	39.028062
1051.000000	39.042293
1052.000000	39.057632
1053.000000	39.072907
1054.000000	39.088413
1055.000000	39.104628
1056.000000	39.120648
1057.000000	39.136580
1058.000000	39.152938
1059.000000	39.169165
1060.000000	39.186063
1061.000000	39.203198
1062.000000	39.219130
1063.000000	39.236525
1064.000000	39.253560
1065.000000	39.270202
1066.000000	39.287748
1067.000000	39.303950
1068.000000	39.320687
1069.000000	39.338735
1070.000000	39.357292
1071.000000	39.376025
1072.000000	39.394672
1073.000000	39.413823
1074.000000	39.433298
1075.000000	39.453255
1076.000000	39.472665
1077.000000	39.493118
1078.000000	39.513430
1079.000000	39.533135
1080.000000	39.553355
1081.000000	39.571778
1082.000000	39.589843
1083.000000	39.608432
1084.000000	39.626295
1085.000000	39.642787
1086.000000	39.658305
1087.000000	39.675753
1088.000000	39.692750
1089.000000	39.709173
1090.000000	39.724955
1091.000000	39.740943
1092.000000	39.757525
1093.000000	39.771432
1094.000000	39.785103
1095.000000	39.798495
1096.000000	39.812693
1097.000000	39.825527
1098.000000	39.836820
1099.000000	39.847825
1100.000000	39.856318
1101.000000	39.864245
1102.000000	39.872980
1103.000000	39.881435
1104.000000	39.889580
1105.000000	39.898278
1106.000000	39.905780
1107.000000	39.910785
1108.000000	39.915715
1109.000000	39.919740
1110.000000	39.924620
1111.000000	39.929392
1112.000000	39.931597
1113.000000	39.931947
1114.000000	39.930380
1115.000000	39.927977
1116.000000	39.925963
1117.000000	39.924315
1118.000000	39.921748
1119.000000	39.917980
1120.000000	39.912390
1121.000000	39.905820
1122.000000	39.898015
1123.000000	39.890115
1124.000000	39.881302
1125.000000	39.869645
1126.000000	39.853870
1127.000000	39.835098
1128.000000	39.815752
1129.000000	39.792365
1130.000000	39.764460
1131.000000	39.731938
1132.000000	39.693443
1133.000000	39.653410
1134.000000	39.612968
1135.000000	39.571535
1136.000000	39.527187
1137.000000	39.479505
1138.000000	39.428458
1139.000000	39.376535
1140.000000	39.327703
1141.000000	39.278868
1142.000000	39.233423
1143.000000	39.187695
1144.000000	39.141295
1145.000000	39.096128
1146.000000	39.054680
1147.000000	39.014150
1148.000000	38.974807
1149.000000	38.938397
1150.000000	38.901365
1151.000000	38.865473
1152.000000	38.829217
1153.000000	38.790022
1154.000000	38.747343
1155.000000	38.701685
1156.000000	38.651333
1157.000000	38.598907
1158.000000	38.542555
1159.000000	38.481933
1160.000000	38.416623
1161.000000	38.346080
1162.000000	38.273130
1163.000000	38.197428
1164.000000	38.120233
1165.000000	38.040035
1166.000000	37.960462
