PE UV       SUBTECH     SPECTRUM    ASCII       PEDS        4.00        
   -1
INBUCR0224-4.Sample.ASC
24/02/08
10:57:45.00
24/02/08
10:57:45.00
Vinicio Soto Monge
Sin élitros ni cabeza. C. Aurigans (M.H.)
250,000000
1
Lambda 1050
1050L1511233
PerkinElmer UV WinLab 6.3.2.0749 / 2.02.05 Lambda 900 UV/VIS/NIR, Aug  7 2015 09:38:08

0
0
3350/servo 860,8/2
0
0
UV/VIS
1
1
1
DoubleDePol,CommonBeamDepol,RBeamAtt,SBeamAtt,60mm sphere, WB InGaAs Detector
0
0
0
0
Program
Program
3350/servo 860,8/2
3350/0,2 860,8/0,2
3350/0,2 860,8/0,2
0
15.00
 
 
 
0
 
860,8
319,2
860,8
Front
100
on
S:100 R:100
0
0
0
0
 
0
 
 
 
0
 
 
0
0
0
0
0
 
 
 
 
0
0


0
0
#HDR
-1
-1
#GR
nm
%R
1.0
0.0
2500,000000
-1,000000
2251
8
12,227400
0,892200
#DATA

250.000000	nan
251.000000	nan
252.000000	nan
253.000000	nan
254.000000	nan
255.000000	nan
256.000000	nan
257.000000	nan
258.000000	nan
259.000000	1.940219
260.000000	1.937066
261.000000	1.934332
262.000000	1.929670
263.000000	1.924271
264.000000	1.918446
265.000000	1.914639
266.000000	1.907873
267.000000	1.900157
268.000000	1.893063
269.000000	1.885775
270.000000	1.879297
271.000000	1.872879
272.000000	1.865880
273.000000	1.862109
274.000000	1.858841
275.000000	1.855672
276.000000	1.853739
277.000000	1.851297
278.000000	1.848274
279.000000	1.845453
280.000000	1.844559
281.000000	1.842777
282.000000	1.841697
283.000000	1.839140
284.000000	1.836693
285.000000	1.833214
286.000000	1.829879
287.000000	1.828679
288.000000	1.829354
289.000000	1.830057
290.000000	1.827411
291.000000	1.825132
292.000000	1.824214
293.000000	1.825429
294.000000	1.826004
295.000000	1.828768
296.000000	1.832128
297.000000	1.836790
298.000000	1.841093
299.000000	1.842665
300.000000	1.846386
301.000000	1.851729
302.000000	1.857956
303.000000	1.858594
304.000000	1.862887
305.000000	1.865913
306.000000	1.869094
307.000000	1.872684
308.000000	1.872931
309.000000	1.876157
310.000000	1.878398
311.000000	1.879258
312.000000	1.880562
313.000000	1.885725
314.000000	1.887396
315.000000	1.888729
316.000000	1.894626
317.000000	1.923792
318.000000	1.953745
319.000000	1.981684
320.000000	2.012824
321.000000	2.037289
322.000000	2.066255
323.000000	2.093198
324.000000	2.119229
325.000000	2.141953
326.000000	2.159814
327.000000	2.153996
328.000000	2.150930
329.000000	2.147615
330.000000	2.141462
331.000000	2.140762
332.000000	2.135797
333.000000	2.131312
334.000000	2.129547
335.000000	2.128756
336.000000	2.130881
337.000000	2.130999
338.000000	2.127896
339.000000	2.127441
340.000000	2.124461
341.000000	2.117875
342.000000	2.116221
343.000000	2.117230
344.000000	2.114124
345.000000	2.114528
346.000000	2.113134
347.000000	2.108362
348.000000	2.108353
349.000000	2.108009
350.000000	2.108415
351.000000	2.113755
352.000000	2.111703
353.000000	2.108311
354.000000	2.111058
355.000000	2.113048
356.000000	2.113543
357.000000	2.117603
358.000000	2.119059
359.000000	2.121552
360.000000	2.124605
361.000000	2.129130
362.000000	2.134130
363.000000	2.139432
364.000000	2.143309
365.000000	2.148082
366.000000	2.150461
367.000000	2.154284
368.000000	2.159093
369.000000	2.163608
370.000000	2.169968
371.000000	2.173124
372.000000	2.175948
373.000000	2.180680
374.000000	2.182250
375.000000	2.183888
376.000000	2.191775
377.000000	2.187677
378.000000	2.184010
379.000000	2.180043
380.000000	2.176240
381.000000	2.174461
382.000000	2.174629
383.000000	2.173149
384.000000	2.172747
385.000000	2.172351
386.000000	2.170242
387.000000	2.178528
388.000000	2.186667
389.000000	2.195050
390.000000	2.203164
391.000000	2.210669
392.000000	2.218164
393.000000	2.226217
394.000000	2.234876
395.000000	2.243119
396.000000	2.250666
397.000000	2.258225
398.000000	2.265730
399.000000	2.273160
400.000000	2.280444
401.000000	2.287825
402.000000	2.294998
403.000000	2.302547
404.000000	2.309604
405.000000	2.316554
406.000000	2.323411
407.000000	2.330400
408.000000	2.337524
409.000000	2.344539
410.000000	2.351702
411.000000	2.359063
412.000000	2.366428
413.000000	2.373435
414.000000	2.380427
415.000000	2.387900
416.000000	2.395586
417.000000	2.403003
418.000000	2.410476
419.000000	2.418311
420.000000	2.426392
421.000000	2.434808
422.000000	2.443157
423.000000	2.451420
424.000000	2.459934
425.000000	2.468332
426.000000	2.476987
427.000000	2.486049
428.000000	2.495646
429.000000	2.505447
430.000000	2.514700
431.000000	2.523739
432.000000	2.533227
433.000000	2.543196
434.000000	2.553473
435.000000	2.563867
436.000000	2.574576
437.000000	2.585747
438.000000	2.596896
439.000000	2.607470
440.000000	2.618548
441.000000	2.629972
442.000000	2.641645
443.000000	2.652827
444.000000	2.664076
445.000000	2.676075
446.000000	2.687625
447.000000	2.698804
448.000000	2.709959
449.000000	2.721207
450.000000	2.732727
451.000000	2.743984
452.000000	2.755069
453.000000	2.766757
454.000000	2.778489
455.000000	2.789725
456.000000	2.800980
457.000000	2.812221
458.000000	2.823734
459.000000	2.835571
460.000000	2.847148
461.000000	2.858979
462.000000	2.871023
463.000000	2.883018
464.000000	2.894835
465.000000	2.906432
466.000000	2.918129
467.000000	2.930414
468.000000	2.942895
469.000000	2.955195
470.000000	2.967559
471.000000	2.980289
472.000000	2.993015
473.000000	3.005506
474.000000	3.018175
475.000000	3.031229
476.000000	3.044409
477.000000	3.057440
478.000000	3.070438
479.000000	3.083616
480.000000	3.096828
481.000000	3.109399
482.000000	3.121636
483.000000	3.134392
484.000000	3.147656
485.000000	3.161019
486.000000	3.174624
487.000000	3.188289
488.000000	3.202321
489.000000	3.216821
490.000000	3.231540
491.000000	3.247030
492.000000	3.263389
493.000000	3.279865
494.000000	3.296208
495.000000	3.312857
496.000000	3.329955
497.000000	3.347246
498.000000	3.364205
499.000000	3.381051
500.000000	3.398167
501.000000	3.415882
502.000000	3.433452
503.000000	3.451186
504.000000	3.469073
505.000000	3.486833
506.000000	3.504124
507.000000	3.521504
508.000000	3.539020
509.000000	3.556990
510.000000	3.575092
511.000000	3.592592
512.000000	3.610183
513.000000	3.627407
514.000000	3.644804
515.000000	3.662343
516.000000	3.680015
517.000000	3.697695
518.000000	3.715867
519.000000	3.733945
520.000000	3.752027
521.000000	3.770588
522.000000	3.789438
523.000000	3.808796
524.000000	3.828335
525.000000	3.848395
526.000000	3.869117
527.000000	3.890331
528.000000	3.911464
529.000000	3.932880
530.000000	3.954535
531.000000	3.976656
532.000000	3.998885
533.000000	4.021042
534.000000	4.043715
535.000000	4.066976
536.000000	4.090033
537.000000	4.113206
538.000000	4.136585
539.000000	4.160095
540.000000	4.184286
541.000000	4.208089
542.000000	4.231919
543.000000	4.256255
544.000000	4.280561
545.000000	4.304114
546.000000	4.327812
547.000000	4.351412
548.000000	4.375465
549.000000	4.399404
550.000000	4.422716
551.000000	4.446523
552.000000	4.470635
553.000000	4.494609
554.000000	4.518424
555.000000	4.542266
556.000000	4.566239
557.000000	4.590448
558.000000	4.614479
559.000000	4.638361
560.000000	4.657893
561.000000	4.676489
562.000000	4.694756
563.000000	4.713007
564.000000	4.730973
565.000000	4.748931
566.000000	4.766737
567.000000	4.784938
568.000000	4.802234
569.000000	4.820074
570.000000	4.842759
571.000000	4.866239
572.000000	4.889595
573.000000	4.912976
574.000000	4.936752
575.000000	4.961098
576.000000	4.985132
577.000000	5.008912
578.000000	5.033440
579.000000	5.058149
580.000000	5.082335
581.000000	5.107084
582.000000	5.132282
583.000000	5.157470
584.000000	5.183011
585.000000	5.208495
586.000000	5.234440
587.000000	5.260575
588.000000	5.287389
589.000000	5.313559
590.000000	5.340496
591.000000	5.366902
592.000000	5.393500
593.000000	5.420390
594.000000	5.447034
595.000000	5.473386
596.000000	5.500542
597.000000	5.527698
598.000000	5.554248
599.000000	5.581088
600.000000	5.608132
601.000000	5.636102
602.000000	5.663386
603.000000	5.690426
604.000000	5.718123
605.000000	5.746541
606.000000	5.774731
607.000000	5.802008
608.000000	5.829874
609.000000	5.858424
610.000000	5.886449
611.000000	5.914351
612.000000	5.943450
613.000000	5.972666
614.000000	6.001813
615.000000	6.030870
616.000000	6.059424
617.000000	6.089346
618.000000	6.119308
619.000000	6.148113
620.000000	6.177987
621.000000	6.207505
622.000000	6.237102
623.000000	6.266125
624.000000	6.295999
625.000000	6.325648
626.000000	6.356267
627.000000	6.386285
628.000000	6.416568
629.000000	6.448318
630.000000	6.480617
631.000000	6.512729
632.000000	6.544835
633.000000	6.577773
634.000000	6.611093
635.000000	6.644743
636.000000	6.677552
637.000000	6.712108
638.000000	6.747172
639.000000	6.782890
640.000000	6.817616
641.000000	6.853126
642.000000	6.888756
643.000000	6.926017
644.000000	6.962822
645.000000	6.999585
646.000000	7.037279
647.000000	7.075594
648.000000	7.114001
649.000000	7.151464
650.000000	7.190216
651.000000	7.229920
652.000000	7.270257
653.000000	7.309574
654.000000	7.348985
655.000000	7.389744
656.000000	7.430593
657.000000	7.470551
658.000000	7.510220
659.000000	7.551239
660.000000	7.592287
661.000000	7.632723
662.000000	7.673899
663.000000	7.715606
664.000000	7.757061
665.000000	7.797305
666.000000	7.838871
667.000000	7.879941
668.000000	7.921927
669.000000	7.963751
670.000000	8.005492
671.000000	8.046907
672.000000	8.087586
673.000000	8.129178
674.000000	8.170440
675.000000	8.212334
676.000000	8.253699
677.000000	8.296080
678.000000	8.338651
679.000000	8.380754
680.000000	8.422994
681.000000	8.465468
682.000000	8.507723
683.000000	8.549684
684.000000	8.592672
685.000000	8.635377
686.000000	8.679061
687.000000	8.722475
688.000000	8.765790
689.000000	8.808451
690.000000	8.850964
691.000000	8.895530
692.000000	8.940775
693.000000	8.985127
694.000000	9.030537
695.000000	9.076398
696.000000	9.120365
697.000000	9.164376
698.000000	9.208259
699.000000	9.253614
700.000000	9.298820
701.000000	9.343341
702.000000	9.388137
703.000000	9.434299
704.000000	9.479290
705.000000	9.525087
706.000000	9.571885
707.000000	9.617992
708.000000	9.664245
709.000000	9.711736
710.000000	9.758801
711.000000	9.805922
712.000000	9.853073
713.000000	9.899032
714.000000	9.946025
715.000000	9.992148
716.000000	10.038494
717.000000	10.086877
718.000000	10.134198
719.000000	10.180387
720.000000	10.228698
721.000000	10.276002
722.000000	10.323114
723.000000	10.371546
724.000000	10.419864
725.000000	10.468976
726.000000	10.518063
727.000000	10.566212
728.000000	10.615223
729.000000	10.663620
730.000000	10.711436
731.000000	10.760788
732.000000	10.811335
733.000000	10.861955
734.000000	10.911630
735.000000	10.960603
736.000000	11.009488
737.000000	11.058947
738.000000	11.109335
739.000000	11.160291
740.000000	11.211490
741.000000	11.263025
742.000000	11.314577
743.000000	11.364736
744.000000	11.415385
745.000000	11.468129
746.000000	11.521346
747.000000	11.573885
748.000000	11.625625
749.000000	11.677860
750.000000	11.730346
751.000000	11.781509
752.000000	11.831505
753.000000	11.883501
754.000000	11.937060
755.000000	11.989793
756.000000	12.041899
757.000000	12.094167
758.000000	12.147865
759.000000	12.201039
760.000000	12.254123
761.000000	12.310044
762.000000	12.365900
763.000000	12.420255
764.000000	12.475463
765.000000	12.532009
766.000000	12.589324
767.000000	12.645950
768.000000	12.702400
769.000000	12.759827
770.000000	12.816814
771.000000	12.872187
772.000000	12.929286
773.000000	12.988584
774.000000	13.045456
775.000000	13.101953
776.000000	13.158594
777.000000	13.216465
778.000000	13.275328
779.000000	13.334323
780.000000	13.393648
781.000000	13.452590
782.000000	13.511048
783.000000	13.568533
784.000000	13.627477
785.000000	13.686162
786.000000	13.743726
787.000000	13.802219
788.000000	13.859844
789.000000	13.918363
790.000000	13.977333
791.000000	14.035429
792.000000	14.095197
793.000000	14.157782
794.000000	14.219631
795.000000	14.280421
796.000000	14.343824
797.000000	14.407860
798.000000	14.470780
799.000000	14.532409
800.000000	14.594518
801.000000	14.657709
802.000000	14.720858
803.000000	14.782113
804.000000	14.842014
805.000000	14.902139
806.000000	14.962111
807.000000	15.021104
808.000000	15.082853
809.000000	15.146667
810.000000	15.207383
811.000000	15.268503
812.000000	15.331117
813.000000	15.391791
814.000000	15.454604
815.000000	15.517000
816.000000	15.578946
817.000000	15.638140
818.000000	15.694960
819.000000	15.752679
820.000000	15.810190
821.000000	15.867626
822.000000	15.921025
823.000000	15.976294
824.000000	16.028577
825.000000	16.084076
826.000000	16.137505
827.000000	16.190582
828.000000	16.247257
829.000000	16.298987
830.000000	16.351604
831.000000	16.402937
832.000000	16.455512
833.000000	16.507663
834.000000	16.563188
835.000000	16.612054
836.000000	16.663569
837.000000	16.715347
838.000000	16.766944
839.000000	16.819767
840.000000	16.867813
841.000000	16.914410
842.000000	16.959473
843.000000	17.003514
844.000000	17.046249
845.000000	17.093694
846.000000	17.133870
847.000000	17.188418
848.000000	17.226226
849.000000	17.263303
850.000000	17.311798
851.000000	17.362442
852.000000	17.416657
853.000000	17.474299
854.000000	17.513393
855.000000	17.553253
856.000000	17.594072
857.000000	17.617197
858.000000	17.731394
859.000000	17.794736
860.000000	17.853358
861.000000	17.910982
862.000000	17.966253
863.000000	18.018439
864.000000	18.088309
865.000000	18.156054
866.000000	18.227332
867.000000	18.302458
868.000000	18.299333
869.000000	18.348483
870.000000	18.395027
871.000000	18.440647
872.000000	18.484743
873.000000	18.526880
874.000000	18.569040
875.000000	18.610720
876.000000	18.651693
877.000000	18.693210
878.000000	18.735607
879.000000	18.776443
880.000000	18.817743
881.000000	18.858527
882.000000	18.899120
883.000000	18.940280
884.000000	18.981630
885.000000	19.021987
886.000000	19.062957
887.000000	19.103583
888.000000	19.142023
889.000000	19.180783
890.000000	19.218940
891.000000	19.257667
892.000000	19.296120
893.000000	19.334047
894.000000	19.371703
895.000000	19.410217
896.000000	19.448103
897.000000	19.484083
898.000000	19.522603
899.000000	19.557880
900.000000	19.594787
901.000000	19.631470
902.000000	19.668997
903.000000	19.705217
904.000000	19.741130
905.000000	19.777380
906.000000	19.812693
907.000000	19.850540
908.000000	19.886370
909.000000	19.925353
910.000000	19.962467
911.000000	19.997637
912.000000	20.033157
913.000000	20.071673
914.000000	20.109300
915.000000	20.144380
916.000000	20.181353
917.000000	20.216507
918.000000	20.251233
919.000000	20.285320
920.000000	20.320027
921.000000	20.356850
922.000000	20.391853
923.000000	20.424120
924.000000	20.457077
925.000000	20.492190
926.000000	20.526560
927.000000	20.559587
928.000000	20.592203
929.000000	20.624497
930.000000	20.656403
931.000000	20.688040
932.000000	20.721423
933.000000	20.754880
934.000000	20.787913
935.000000	20.819493
936.000000	20.850133
937.000000	20.883763
938.000000	20.915000
939.000000	20.946253
940.000000	20.975300
941.000000	21.004630
942.000000	21.031830
943.000000	21.059697
944.000000	21.085110
945.000000	21.111653
946.000000	21.139467
947.000000	21.164880
948.000000	21.192223
949.000000	21.220703
950.000000	21.250757
951.000000	21.279823
952.000000	21.308670
953.000000	21.337677
954.000000	21.367763
955.000000	21.397967
956.000000	21.425293
957.000000	21.453683
958.000000	21.482050
959.000000	21.509110
960.000000	21.536177
961.000000	21.562517
962.000000	21.589663
963.000000	21.615627
964.000000	21.641337
965.000000	21.666373
966.000000	21.694087
967.000000	21.720290
968.000000	21.745540
969.000000	21.770123
970.000000	21.795737
971.000000	21.822580
972.000000	21.847147
973.000000	21.872207
974.000000	21.898513
975.000000	21.924277
976.000000	21.947633
977.000000	21.971310
978.000000	21.996753
979.000000	22.022830
980.000000	22.047813
981.000000	22.071127
982.000000	22.095830
983.000000	22.120027
984.000000	22.142953
985.000000	22.165430
986.000000	22.189873
987.000000	22.214017
988.000000	22.236937
989.000000	22.259773
990.000000	22.282253
991.000000	22.304677
992.000000	22.326253
993.000000	22.348303
994.000000	22.369993
995.000000	22.392440
996.000000	22.413893
997.000000	22.435613
998.000000	22.457273
999.000000	22.477820
1000.000000	22.498403
1001.000000	22.518280
1002.000000	22.538523
1003.000000	22.558610
1004.000000	22.579447
1005.000000	22.600080
1006.000000	22.620303
1007.000000	22.640200
1008.000000	22.659697
1009.000000	22.679607
1010.000000	22.699993
1011.000000	22.721777
1012.000000	22.743673
1013.000000	22.764303
1014.000000	22.784127
1015.000000	22.803623
1016.000000	22.823220
1017.000000	22.843717
1018.000000	22.864847
1019.000000	22.886713
1020.000000	22.907497
1021.000000	22.927417
1022.000000	22.948097
1023.000000	22.970490
1024.000000	22.992983
1025.000000	23.015583
1026.000000	23.039070
1027.000000	23.062293
1028.000000	23.083940
1029.000000	23.104207
1030.000000	23.125343
1031.000000	23.146900
1032.000000	23.167487
1033.000000	23.187797
1034.000000	23.209417
1035.000000	23.230283
1036.000000	23.250453
1037.000000	23.270743
1038.000000	23.292247
1039.000000	23.314003
1040.000000	23.334853
1041.000000	23.356390
1042.000000	23.377840
1043.000000	23.398987
1044.000000	23.419807
1045.000000	23.440857
1046.000000	23.461067
1047.000000	23.480700
1048.000000	23.501290
1049.000000	23.522833
1050.000000	23.544830
1051.000000	23.565720
1052.000000	23.586877
1053.000000	23.607943
1054.000000	23.628183
1055.000000	23.648030
1056.000000	23.669133
1057.000000	23.690187
1058.000000	23.709763
1059.000000	23.729400
1060.000000	23.748673
1061.000000	23.768340
1062.000000	23.787693
1063.000000	23.808053
1064.000000	23.828457
1065.000000	23.848707
1066.000000	23.868590
1067.000000	23.888513
1068.000000	23.909120
1069.000000	23.929447
1070.000000	23.950273
1071.000000	23.971527
1072.000000	23.992740
1073.000000	24.013563
1074.000000	24.034067
1075.000000	24.055287
1076.000000	24.076013
1077.000000	24.096603
1078.000000	24.117017
1079.000000	24.135643
1080.000000	24.153590
1081.000000	24.171697
1082.000000	24.189340
1083.000000	24.206437
1084.000000	24.222963
1085.000000	24.239967
1086.000000	24.257683
1087.000000	24.275913
1088.000000	24.293310
1089.000000	24.311543
1090.000000	24.329490
1091.000000	24.347340
1092.000000	24.365717
1093.000000	24.383333
1094.000000	24.400627
1095.000000	24.417793
1096.000000	24.434673
1097.000000	24.450743
1098.000000	24.467380
1099.000000	24.482753
1100.000000	24.498667
1101.000000	24.513373
1102.000000	24.527833
1103.000000	24.542693
1104.000000	24.557763
1105.000000	24.572217
1106.000000	24.585030
1107.000000	24.597213
1108.000000	24.608637
1109.000000	24.621140
1110.000000	24.632900
1111.000000	24.644987
1112.000000	24.657187
1113.000000	24.668600
1114.000000	24.680103
1115.000000	24.690703
1116.000000	24.702077
1117.000000	24.713367
1118.000000	24.723677
1119.000000	24.734447
1120.000000	24.745300
1121.000000	24.756247
1122.000000	24.767040
1123.000000	24.777813
1124.000000	24.786473
1125.000000	24.795203
1126.000000	24.802400
1127.000000	24.807903
1128.000000	24.814847
1129.000000	24.820213
1130.000000	24.821803
1131.000000	24.819150
1132.000000	24.812573
1133.000000	24.806773
1134.000000	24.803923
1135.000000	24.800670
1136.000000	24.793283
1137.000000	24.784190
1138.000000	24.773050
1139.000000	24.760733
1140.000000	24.749840
1141.000000	24.742003
1142.000000	24.734337
1143.000000	24.724260
1144.000000	24.713503
1145.000000	24.701943
1146.000000	24.694023
1147.000000	24.689320
1148.000000	24.684673
1149.000000	24.680500
1150.000000	24.677573
1151.000000	24.672823
1152.000000	24.669967
1153.000000	24.666877
1154.000000	24.659983
1155.000000	24.651343
1156.000000	24.642107
1157.000000	24.630873
1158.000000	24.618493
1159.000000	24.603253
1160.000000	24.583633
1161.000000	24.563640
1162.000000	24.542323
1163.000000	24.517423
1164.000000	24.493847
1165.000000	24.468250
1166.000000	24.442247
1167.000000	24.415523
1168.000000	24.386880
1169.000000	24.359423
1170.000000	24.334067
1171.000000	24.311327
1172.000000	24.286980
1173.000000	24.268250
1174.000000	24.248877
1175.000000	24.233573
1176.000000	24.218440
1177.000000	24.204220
1178.000000	24.192917
1179.000000	24.182573
1180.000000	24.173510
1181.000000	24.164083
1182.000000	24.159087
