PE UV       SUBTECH     SPECTRUM    ASCII       PEDS        4.00        
   -1
INBUCR0221-4.Sample.ASC
24/02/08
10:06:51.00
24/02/08
10:06:51.00
Vinicio Soto Monge
Chrysina chrysopedila. INB0004085457 INBIOCRI Costa Rica. Élitro Izq falta. La Catarata, P. N. Tapantí. Prov Cartago COSTA RICA 1700 m. Ago 1994 G. Mora. L. N. 190900_560300 #3183
250,000000
1
Lambda 1050
1050L1511233
PerkinElmer UV WinLab 6.3.2.0749 / 2.02.05 Lambda 900 UV/VIS/NIR, Aug  7 2015 09:38:08

0
0
3350/servo 860,8/2
0
0
UV/VIS
1
1
1
DoubleDePol,CommonBeamDepol,RBeamAtt,SBeamAtt,60mm sphere, WB InGaAs Detector
0
0
0
0
Program
Program
3350/servo 860,8/2
3350/0,2 860,8/0,2
3350/0,2 860,8/0,2
0
15.00
 
 
 
0
 
860,8
319,2
860,8
Front
100
on
S:100 R:100
0
0
0
0
 
0
 
 
 
0
 
 
0
0
0
0
0
 
 
 
 
0
0


0
0
#HDR
-1
-1
#GR
nm
%R
1.0
0.0
2500,000000
-1,000000
2251
8
16,383500
1,343400
#DATA

250.000000	nan
251.000000	nan
252.000000	nan
253.000000	nan
254.000000	nan
255.000000	nan
256.000000	nan
257.000000	nan
258.000000	nan
259.000000	4.177387
260.000000	4.166532
261.000000	4.153771
262.000000	4.141083
263.000000	4.126489
264.000000	4.113832
265.000000	4.097315
266.000000	4.082844
267.000000	4.068640
268.000000	4.051660
269.000000	4.035323
270.000000	4.017357
271.000000	4.002274
272.000000	3.985824
273.000000	3.972910
274.000000	3.960463
275.000000	3.950180
276.000000	3.939135
277.000000	3.928300
278.000000	3.917283
279.000000	3.910363
280.000000	3.903651
281.000000	3.897440
282.000000	3.892860
283.000000	3.886776
284.000000	3.880745
285.000000	3.875150
286.000000	3.868763
287.000000	3.864890
288.000000	3.862462
289.000000	3.858382
290.000000	3.854848
291.000000	3.851863
292.000000	3.846536
293.000000	3.842074
294.000000	3.837891
295.000000	3.834358
296.000000	3.832347
297.000000	3.828424
298.000000	3.824739
299.000000	3.820271
300.000000	3.817088
301.000000	3.812195
302.000000	3.808653
303.000000	3.805376
304.000000	3.801480
305.000000	3.798965
306.000000	3.795383
307.000000	3.792374
308.000000	3.791124
309.000000	3.786148
310.000000	3.783570
311.000000	3.779978
312.000000	3.775633
313.000000	3.771992
314.000000	3.768109
315.000000	3.763433
316.000000	3.761962
317.000000	3.783122
318.000000	3.801226
319.000000	3.822618
320.000000	3.841905
321.000000	3.850262
322.000000	3.866024
323.000000	3.882570
324.000000	3.902477
325.000000	3.918185
326.000000	3.927241
327.000000	3.912974
328.000000	3.899424
329.000000	3.893200
330.000000	3.888476
331.000000	3.894166
332.000000	3.890941
333.000000	3.884267
334.000000	3.877296
335.000000	3.874071
336.000000	3.872101
337.000000	3.874412
338.000000	3.877033
339.000000	3.876846
340.000000	3.878068
341.000000	3.883952
342.000000	3.888790
343.000000	3.902138
344.000000	3.908724
345.000000	3.917868
346.000000	3.934009
347.000000	3.948029
348.000000	3.961501
349.000000	3.975413
350.000000	3.987244
351.000000	4.002373
352.000000	4.026188
353.000000	4.044576
354.000000	4.072409
355.000000	4.102272
356.000000	4.131196
357.000000	4.166190
358.000000	4.207925
359.000000	4.248757
360.000000	4.294250
361.000000	4.341651
362.000000	4.391143
363.000000	4.447023
364.000000	4.504876
365.000000	4.566502
366.000000	4.631374
367.000000	4.699592
368.000000	4.768736
369.000000	4.843778
370.000000	4.924674
371.000000	5.011859
372.000000	5.100523
373.000000	5.189516
374.000000	5.284934
375.000000	5.385411
376.000000	5.494314
377.000000	5.599977
378.000000	5.713760
379.000000	5.832303
380.000000	5.953460
381.000000	6.075652
382.000000	6.205287
383.000000	6.341504
384.000000	6.479201
385.000000	6.618585
386.000000	6.759522
387.000000	6.908001
388.000000	7.058086
389.000000	7.208188
390.000000	7.358693
391.000000	7.509649
392.000000	7.659471
393.000000	7.809024
394.000000	7.958518
395.000000	8.105641
396.000000	8.249483
397.000000	8.391046
398.000000	8.529523
399.000000	8.664463
400.000000	8.795947
401.000000	8.923922
402.000000	9.046832
403.000000	9.164317
404.000000	9.276103
405.000000	9.383810
406.000000	9.487096
407.000000	9.584892
408.000000	9.676523
409.000000	9.763141
410.000000	9.844357
411.000000	9.918767
412.000000	9.988425
413.000000	10.053287
414.000000	10.111638
415.000000	10.163599
416.000000	10.209893
417.000000	10.250602
418.000000	10.285364
419.000000	10.314078
420.000000	10.337290
421.000000	10.355412
422.000000	10.367115
423.000000	10.372948
424.000000	10.373883
425.000000	10.369043
426.000000	10.358760
427.000000	10.343215
428.000000	10.322759
429.000000	10.297504
430.000000	10.267382
431.000000	10.232666
432.000000	10.193667
433.000000	10.149539
434.000000	10.100329
435.000000	10.047396
436.000000	9.990865
437.000000	9.930994
438.000000	9.867280
439.000000	9.799854
440.000000	9.729255
441.000000	9.655006
442.000000	9.578224
443.000000	9.499396
444.000000	9.419053
445.000000	9.336874
446.000000	9.252986
447.000000	9.167955
448.000000	9.082368
449.000000	8.997004
450.000000	8.911769
451.000000	8.827316
452.000000	8.744118
453.000000	8.662611
454.000000	8.583409
455.000000	8.506605
456.000000	8.432675
457.000000	8.362026
458.000000	8.294886
459.000000	8.231191
460.000000	8.171756
461.000000	8.118099
462.000000	8.069520
463.000000	8.025938
464.000000	7.988257
465.000000	7.957077
466.000000	7.932203
467.000000	7.914286
468.000000	7.903839
469.000000	7.901111
470.000000	7.906159
471.000000	7.918789
472.000000	7.939038
473.000000	7.967873
474.000000	8.005014
475.000000	8.049897
476.000000	8.103108
477.000000	8.163684
478.000000	8.232529
479.000000	8.309344
480.000000	8.392955
481.000000	8.482634
482.000000	8.578896
483.000000	8.681467
484.000000	8.790319
485.000000	8.906196
486.000000	9.028514
487.000000	9.157031
488.000000	9.290798
489.000000	9.429266
490.000000	9.573952
491.000000	9.724763
492.000000	9.881462
493.000000	10.044262
494.000000	10.213062
495.000000	10.386310
496.000000	10.563956
497.000000	10.747837
498.000000	10.938552
499.000000	11.137277
500.000000	11.343947
501.000000	11.559228
502.000000	11.783293
503.000000	12.016052
504.000000	12.257238
505.000000	12.507331
506.000000	12.765590
507.000000	13.030307
508.000000	13.301249
509.000000	13.577643
510.000000	13.859308
511.000000	14.145426
512.000000	14.435827
513.000000	14.729870
514.000000	15.027749
515.000000	15.329242
516.000000	15.635229
517.000000	15.946094
518.000000	16.261527
519.000000	16.580954
520.000000	16.904102
521.000000	17.231338
522.000000	17.561890
523.000000	17.894387
524.000000	18.227232
525.000000	18.558766
526.000000	18.885747
527.000000	19.204692
528.000000	19.512163
529.000000	19.805106
530.000000	20.080439
531.000000	20.336043
532.000000	20.568636
533.000000	20.777547
534.000000	20.962455
535.000000	21.124241
536.000000	21.264781
537.000000	21.387179
538.000000	21.494005
539.000000	21.589225
540.000000	21.673880
541.000000	21.752224
542.000000	21.828063
543.000000	21.902497
544.000000	21.977865
545.000000	22.055148
546.000000	22.134514
547.000000	22.216314
548.000000	22.299917
549.000000	22.384347
550.000000	22.469743
551.000000	22.552781
552.000000	22.632363
553.000000	22.707132
554.000000	22.774359
555.000000	22.832312
556.000000	22.879869
557.000000	22.915776
558.000000	22.939120
559.000000	22.948065
560.000000	22.936838
561.000000	22.908831
562.000000	22.865787
563.000000	22.809201
564.000000	22.737902
565.000000	22.653875
566.000000	22.556739
567.000000	22.447052
568.000000	22.324837
569.000000	22.191107
570.000000	22.051235
571.000000	21.901184
572.000000	21.739440
573.000000	21.563751
574.000000	21.377338
575.000000	21.178105
576.000000	20.967890
577.000000	20.745580
578.000000	20.511725
579.000000	20.265380
580.000000	20.009444
581.000000	19.743730
582.000000	19.467337
583.000000	19.183640
584.000000	18.894377
585.000000	18.600854
586.000000	18.304366
587.000000	18.008949
588.000000	17.717646
589.000000	17.432881
590.000000	17.155368
591.000000	16.888013
592.000000	16.632771
593.000000	16.389840
594.000000	16.156516
595.000000	15.934291
596.000000	15.721197
597.000000	15.514231
598.000000	15.311923
599.000000	15.113803
600.000000	14.918099
601.000000	14.724708
602.000000	14.534189
603.000000	14.347704
604.000000	14.167353
605.000000	13.993535
606.000000	13.829087
607.000000	13.675553
608.000000	13.533550
609.000000	13.403389
610.000000	13.284295
611.000000	13.175690
612.000000	13.075945
613.000000	12.984246
614.000000	12.898188
615.000000	12.817747
616.000000	12.741331
617.000000	12.668953
618.000000	12.600158
619.000000	12.537720
620.000000	12.481460
621.000000	12.433183
622.000000	12.393692
623.000000	12.362401
624.000000	12.340923
625.000000	12.328805
626.000000	12.325749
627.000000	12.330656
628.000000	12.343837
629.000000	12.362097
630.000000	12.385459
631.000000	12.411913
632.000000	12.442161
633.000000	12.476397
634.000000	12.514530
635.000000	12.556021
636.000000	12.601594
637.000000	12.652025
638.000000	12.707338
639.000000	12.768370
640.000000	12.837242
641.000000	12.912164
642.000000	12.993831
643.000000	13.081626
644.000000	13.175587
645.000000	13.275389
646.000000	13.380331
647.000000	13.489998
648.000000	13.602435
649.000000	13.717630
650.000000	13.836119
651.000000	13.958013
652.000000	14.082781
653.000000	14.210205
654.000000	14.340022
655.000000	14.471858
656.000000	14.606816
657.000000	14.744762
658.000000	14.887260
659.000000	15.034261
660.000000	15.183613
661.000000	15.335845
662.000000	15.490882
663.000000	15.650415
664.000000	15.813861
665.000000	15.980063
666.000000	16.147660
667.000000	16.317449
668.000000	16.489072
669.000000	16.661664
670.000000	16.837085
671.000000	17.016313
672.000000	17.198303
673.000000	17.382062
674.000000	17.566556
675.000000	17.754359
676.000000	17.947155
677.000000	18.142877
678.000000	18.342725
679.000000	18.546866
680.000000	18.753135
681.000000	18.963189
682.000000	19.175296
683.000000	19.389121
684.000000	19.607142
685.000000	19.827273
686.000000	20.049117
687.000000	20.275065
688.000000	20.501611
689.000000	20.730420
690.000000	20.963182
691.000000	21.197672
692.000000	21.434562
693.000000	21.675732
694.000000	21.918518
695.000000	22.163585
696.000000	22.411613
697.000000	22.660153
698.000000	22.913343
699.000000	23.167706
700.000000	23.423846
701.000000	23.683594
702.000000	23.947530
703.000000	24.212526
704.000000	24.480690
705.000000	24.753141
706.000000	25.026832
707.000000	25.303531
708.000000	25.582072
709.000000	25.864586
710.000000	26.148548
711.000000	26.433372
712.000000	26.718972
713.000000	27.005606
714.000000	27.294053
715.000000	27.583607
716.000000	27.874808
717.000000	28.165598
718.000000	28.455446
719.000000	28.744754
720.000000	29.033945
721.000000	29.322289
722.000000	29.610699
723.000000	29.899006
724.000000	30.186899
725.000000	30.472605
726.000000	30.756603
727.000000	31.039663
728.000000	31.320208
729.000000	31.597445
730.000000	31.871300
731.000000	32.142225
732.000000	32.409468
733.000000	32.673878
734.000000	32.932448
735.000000	33.186241
736.000000	33.435309
737.000000	33.678237
738.000000	33.918136
739.000000	34.154345
740.000000	34.385455
741.000000	34.609782
742.000000	34.828161
743.000000	35.041927
744.000000	35.248816
745.000000	35.449245
746.000000	35.643265
747.000000	35.832396
748.000000	36.014876
749.000000	36.191040
750.000000	36.363523
751.000000	36.532442
752.000000	36.696451
753.000000	36.853784
754.000000	37.009578
755.000000	37.162182
756.000000	37.309400
757.000000	37.452352
758.000000	37.593016
759.000000	37.730161
760.000000	37.863893
761.000000	37.998482
762.000000	38.127536
763.000000	38.254227
764.000000	38.378556
765.000000	38.499132
766.000000	38.619056
767.000000	38.735768
768.000000	38.852810
769.000000	38.969410
770.000000	39.080201
771.000000	39.183355
772.000000	39.285670
773.000000	39.387538
774.000000	39.487926
775.000000	39.588880
776.000000	39.687576
777.000000	39.789055
778.000000	39.885050
779.000000	39.977627
780.000000	40.072198
781.000000	40.169094
782.000000	40.265763
783.000000	40.357796
784.000000	40.448495
785.000000	40.538498
786.000000	40.629576
787.000000	40.715229
788.000000	40.798972
789.000000	40.884576
790.000000	40.966176
791.000000	41.045667
792.000000	41.121387
793.000000	41.194848
794.000000	41.267726
795.000000	41.339153
796.000000	41.403821
797.000000	41.469922
798.000000	41.538094
799.000000	41.603442
800.000000	41.670430
801.000000	41.733779
802.000000	41.798441
803.000000	41.864202
804.000000	41.919930
805.000000	41.973539
806.000000	42.029263
807.000000	42.087248
808.000000	42.140485
809.000000	42.188366
810.000000	42.231718
811.000000	42.272381
812.000000	42.311030
813.000000	42.353084
814.000000	42.398097
815.000000	42.435115
816.000000	42.465851
817.000000	42.493454
818.000000	42.521824
819.000000	42.545398
820.000000	42.567633
821.000000	42.591253
822.000000	42.617983
823.000000	42.636240
824.000000	42.649156
825.000000	42.663855
826.000000	42.681493
827.000000	42.693677
828.000000	42.707636
829.000000	42.721133
830.000000	42.734730
831.000000	42.743684
832.000000	42.745125
833.000000	42.741338
834.000000	42.739979
835.000000	42.733823
836.000000	42.730535
837.000000	42.727168
838.000000	42.717832
839.000000	42.705541
840.000000	42.692537
841.000000	42.677723
842.000000	42.669705
843.000000	42.660121
844.000000	42.645524
845.000000	42.635363
846.000000	42.624474
847.000000	42.597663
848.000000	42.568358
849.000000	42.542371
850.000000	42.509805
851.000000	42.473187
852.000000	42.414788
853.000000	42.379902
854.000000	42.324392
855.000000	42.276009
856.000000	42.231797
857.000000	42.188663
858.000000	42.235004
859.000000	42.296439
860.000000	42.346502
861.000000	42.394963
862.000000	42.454289
863.000000	42.489627
864.000000	42.547154
865.000000	42.605593
866.000000	42.647615
867.000000	42.680808
868.000000	42.635050
869.000000	42.554983
870.000000	42.497065
871.000000	42.427328
872.000000	42.391013
873.000000	42.333402
874.000000	42.258945
875.000000	42.177475
876.000000	42.105730
877.000000	42.048695
878.000000	41.991160
879.000000	41.944635
880.000000	41.877707
881.000000	41.826172
882.000000	41.748755
883.000000	41.690722
884.000000	41.651095
885.000000	41.612178
886.000000	41.560913
887.000000	41.507958
888.000000	41.441575
889.000000	41.390542
890.000000	41.342595
891.000000	41.299125
892.000000	41.245760
893.000000	41.191815
894.000000	41.134400
895.000000	41.077908
896.000000	41.031793
897.000000	40.988633
898.000000	40.946298
899.000000	40.893893
900.000000	40.858922
901.000000	40.817020
902.000000	40.778717
903.000000	40.744880
904.000000	40.716323
905.000000	40.687258
906.000000	40.659595
907.000000	40.633472
908.000000	40.606927
909.000000	40.582495
910.000000	40.549828
911.000000	40.523518
912.000000	40.511882
913.000000	40.499430
914.000000	40.484277
915.000000	40.467095
916.000000	40.448127
917.000000	40.433588
918.000000	40.424570
919.000000	40.417920
920.000000	40.417292
921.000000	40.413525
922.000000	40.397760
923.000000	40.389035
924.000000	40.380410
925.000000	40.377835
926.000000	40.371433
927.000000	40.365765
928.000000	40.354818
929.000000	40.346882
930.000000	40.342770
931.000000	40.342658
932.000000	40.342018
933.000000	40.335780
934.000000	40.332498
935.000000	40.326808
936.000000	40.327548
937.000000	40.332027
938.000000	40.339115
939.000000	40.343830
940.000000	40.341517
941.000000	40.340227
942.000000	40.342742
943.000000	40.348590
944.000000	40.354040
945.000000	40.356737
946.000000	40.360835
947.000000	40.362105
948.000000	40.366133
949.000000	40.369838
950.000000	40.376928
951.000000	40.383863
952.000000	40.387738
953.000000	40.394740
954.000000	40.403148
955.000000	40.413990
956.000000	40.422760
957.000000	40.431835
958.000000	40.441167
959.000000	40.452637
960.000000	40.462020
961.000000	40.472065
962.000000	40.483202
963.000000	40.490077
964.000000	40.498440
965.000000	40.506655
966.000000	40.514492
967.000000	40.521812
968.000000	40.527642
969.000000	40.533288
970.000000	40.540435
971.000000	40.548388
972.000000	40.556785
973.000000	40.568240
974.000000	40.577520
975.000000	40.586335
976.000000	40.596698
977.000000	40.606405
978.000000	40.617870
979.000000	40.629018
980.000000	40.638162
981.000000	40.646000
982.000000	40.654480
983.000000	40.663348
984.000000	40.673320
985.000000	40.682057
986.000000	40.690045
987.000000	40.698768
988.000000	40.708798
989.000000	40.719642
990.000000	40.731203
991.000000	40.742125
992.000000	40.752933
993.000000	40.764755
994.000000	40.778190
995.000000	40.791692
996.000000	40.803798
997.000000	40.814925
998.000000	40.826577
999.000000	40.839733
1000.000000	40.852497
1001.000000	40.864155
1002.000000	40.876115
1003.000000	40.888290
1004.000000	40.898700
1005.000000	40.909520
1006.000000	40.922040
1007.000000	40.934207
1008.000000	40.944632
1009.000000	40.954063
1010.000000	40.965643
1011.000000	40.979273
1012.000000	40.992105
1013.000000	41.002462
1014.000000	41.013072
1015.000000	41.024192
1016.000000	41.036357
1017.000000	41.051052
1018.000000	41.064925
1019.000000	41.077942
1020.000000	41.091607
1021.000000	41.105665
1022.000000	41.121220
1023.000000	41.138253
1024.000000	41.155168
1025.000000	41.172013
1026.000000	41.188208
1027.000000	41.204347
1028.000000	41.222853
1029.000000	41.242300
1030.000000	41.259833
1031.000000	41.276938
1032.000000	41.294078
1033.000000	41.312307
1034.000000	41.330472
1035.000000	41.348860
1036.000000	41.367148
1037.000000	41.385532
1038.000000	41.403017
1039.000000	41.420378
1040.000000	41.437840
1041.000000	41.455112
1042.000000	41.473390
1043.000000	41.490723
1044.000000	41.507695
1045.000000	41.523530
1046.000000	41.541138
1047.000000	41.557653
1048.000000	41.573003
1049.000000	41.589742
1050.000000	41.608033
1051.000000	41.626852
1052.000000	41.643022
1053.000000	41.658590
1054.000000	41.674800
1055.000000	41.692377
1056.000000	41.709535
1057.000000	41.726675
1058.000000	41.745035
1059.000000	41.762790
1060.000000	41.779257
1061.000000	41.797370
1062.000000	41.816680
1063.000000	41.835425
1064.000000	41.854008
1065.000000	41.872858
1066.000000	41.890673
1067.000000	41.910070
1068.000000	41.929547
1069.000000	41.948587
1070.000000	41.967360
1071.000000	41.982400
1072.000000	41.997982
1073.000000	42.014940
1074.000000	42.032280
1075.000000	42.048662
1076.000000	42.064687
1077.000000	42.080160
1078.000000	42.096715
1079.000000	42.112875
1080.000000	42.129305
1081.000000	42.147728
1082.000000	42.164050
1083.000000	42.180253
1084.000000	42.196213
1085.000000	42.211960
1086.000000	42.226878
1087.000000	42.241805
1088.000000	42.254480
1089.000000	42.266875
1090.000000	42.279348
1091.000000	42.291042
1092.000000	42.303778
1093.000000	42.315735
1094.000000	42.327737
1095.000000	42.339105
1096.000000	42.349998
1097.000000	42.360273
1098.000000	42.371125
1099.000000	42.381448
1100.000000	42.390693
1101.000000	42.398645
1102.000000	42.405740
1103.000000	42.412543
1104.000000	42.418132
1105.000000	42.422562
1106.000000	42.428330
1107.000000	42.433988
1108.000000	42.437475
1109.000000	42.440877
1110.000000	42.443345
1111.000000	42.445563
1112.000000	42.447012
1113.000000	42.447775
1114.000000	42.447520
1115.000000	42.448752
1116.000000	42.448120
1117.000000	42.444632
1118.000000	42.441270
1119.000000	42.434900
1120.000000	42.428248
1121.000000	42.422878
1122.000000	42.415458
1123.000000	42.406458
1124.000000	42.393293
1125.000000	42.377575
1126.000000	42.358400
1127.000000	42.338878
1128.000000	42.317243
1129.000000	42.295927
1130.000000	42.268852
1131.000000	42.234262
1132.000000	42.197182
1133.000000	42.158960
1134.000000	42.124117
1135.000000	42.087418
1136.000000	42.048325
1137.000000	42.006658
1138.000000	41.961253
1139.000000	41.914153
1140.000000	41.871470
1141.000000	41.832892
1142.000000	41.794385
1143.000000	41.755758
1144.000000	41.717588
1145.000000	41.680235
1146.000000	41.648100
1147.000000	41.618000
1148.000000	41.591288
1149.000000	41.564197
1150.000000	41.537330
1151.000000	41.509090
1152.000000	41.482883
1153.000000	41.456820
1154.000000	41.427785
1155.000000	41.395373
1156.000000	41.358830
1157.000000	41.320338
1158.000000	41.278610
1159.000000	41.234895
1160.000000	41.187510
1161.000000	41.137302
1162.000000	41.082977
1163.000000	41.025153
1164.000000	40.965550
