PE UV       SUBTECH     SPECTRUM    ASCII       PEDS        4.00        
   -1
INBUCR0413-4.Sample.ASC
24/02/09
11:45:23.00
24/02/09
11:45:23.00
Vinicio Soto Monge
Chrysina batesi. Det: A. Solís. COSTA RICA. Prov. Limón. P. I. La Amistad. Est Valle del Silencio. 2475 m. 26-30 MAR 2003. R. Delgado. M. Alfaro. R. González. D. Rubí. Tp de Luz. L_S_340258_577465 #73640. INB0003714895.  Falta élitro izquierdo.
250,000000
1
Lambda 1050
1050L1511233
PerkinElmer UV WinLab 6.3.2.0749 / 2.02.05 Lambda 900 UV/VIS/NIR, Aug  7 2015 09:38:08

0
0
3350/servo 860,8/2
0
0
UV/VIS
1
1
1
DoubleDePol,CommonBeamDepol,RBeamAtt,SBeamAtt,60mm sphere, WB InGaAs Detector
0
0
0
0
Program
Program
3350/servo 860,8/2
3350/0,2 860,8/0,2
3350/0,2 860,8/0,2
0
15.00
 
 
 
0
 
860,8
319,2
860,8
Front
100
on
S:100 R:100
0
0
0
0
 
0
 
 
 
0
 
 
0
0
0
0
0
 
 
 
 
0
0


0
0
#HDR
-1
-1
#GR
nm
%R
1.0
0.0
2500,000000
-1,000000
2251
8
20,287000
2,009600
#DATA

250.000000	nan
251.000000	nan
252.000000	nan
253.000000	nan
254.000000	nan
255.000000	nan
256.000000	nan
257.000000	nan
258.000000	nan
259.000000	5.004186
260.000000	4.999469
261.000000	4.995130
262.000000	4.990578
263.000000	4.985592
264.000000	4.980853
265.000000	4.977317
266.000000	4.976510
267.000000	4.973877
268.000000	4.970097
269.000000	4.966177
270.000000	4.962362
271.000000	4.959255
272.000000	4.958034
273.000000	4.956034
274.000000	4.953886
275.000000	4.950550
276.000000	4.944923
277.000000	4.940854
278.000000	4.938685
279.000000	4.937444
280.000000	4.934747
281.000000	4.931523
282.000000	4.929026
283.000000	4.926966
284.000000	4.924838
285.000000	4.924408
286.000000	4.922925
287.000000	4.921213
288.000000	4.920443
289.000000	4.918514
290.000000	4.918974
291.000000	4.917712
292.000000	4.915882
293.000000	4.913721
294.000000	4.912465
295.000000	4.912201
296.000000	4.911068
297.000000	4.910398
298.000000	4.908617
299.000000	4.908704
300.000000	4.908401
301.000000	4.907392
302.000000	4.907388
303.000000	4.907328
304.000000	4.905442
305.000000	4.901662
306.000000	4.902775
307.000000	4.902432
308.000000	4.903715
309.000000	4.903114
310.000000	4.903761
311.000000	4.905965
312.000000	4.904873
313.000000	4.904905
314.000000	4.906043
315.000000	4.907522
316.000000	4.909145
317.000000	4.928975
318.000000	4.936404
319.000000	4.964795
320.000000	4.984974
321.000000	5.006279
322.000000	5.025502
323.000000	5.048145
324.000000	5.068057
325.000000	5.092264
326.000000	5.110386
327.000000	5.101700
328.000000	5.109639
329.000000	5.091179
330.000000	5.082708
331.000000	5.074533
332.000000	5.073870
333.000000	5.062110
334.000000	5.063157
335.000000	5.053744
336.000000	5.039975
337.000000	5.040967
338.000000	5.029321
339.000000	5.025171
340.000000	5.024213
341.000000	5.019303
342.000000	5.014793
343.000000	5.017996
344.000000	5.046420
345.000000	5.083586
346.000000	5.124024
347.000000	5.163384
348.000000	5.206695
349.000000	5.251081
350.000000	5.288328
351.000000	5.327527
352.000000	5.363394
353.000000	5.400882
354.000000	5.403070
355.000000	5.406378
356.000000	5.412217
357.000000	5.417900
358.000000	5.464139
359.000000	5.508894
360.000000	5.554444
361.000000	5.603834
362.000000	5.653649
363.000000	5.705667
364.000000	5.758927
365.000000	5.810221
366.000000	5.866693
367.000000	5.959036
368.000000	6.018048
369.000000	6.079076
370.000000	6.140618
371.000000	6.204661
372.000000	6.273264
373.000000	6.373001
374.000000	6.473860
375.000000	6.580446
376.000000	6.694974
377.000000	6.801283
378.000000	6.910655
379.000000	7.024151
380.000000	7.144906
381.000000	7.268280
382.000000	7.431693
383.000000	7.570067
384.000000	7.714390
385.000000	7.861668
386.000000	8.044047
387.000000	8.205365
388.000000	8.369694
389.000000	8.538294
390.000000	8.710387
391.000000	8.921037
392.000000	9.097121
393.000000	9.274809
394.000000	9.455004
395.000000	9.636412
396.000000	9.782535
397.000000	9.965155
398.000000	10.147361
399.000000	10.328596
400.000000	10.508857
401.000000	10.652181
402.000000	10.794068
403.000000	10.934260
404.000000	11.071557
405.000000	11.205506
406.000000	11.336093
407.000000	11.427911
408.000000	11.517025
409.000000	11.602956
410.000000	11.685064
411.000000	11.763682
412.000000	11.838862
413.000000	11.910202
414.000000	11.977771
415.000000	12.041624
416.000000	12.101769
417.000000	12.158305
418.000000	12.210974
419.000000	12.259576
420.000000	12.304843
421.000000	12.346143
422.000000	12.382872
423.000000	12.415294
424.000000	12.444059
425.000000	12.469503
426.000000	12.491552
427.000000	12.508917
428.000000	12.485332
429.000000	12.457116
430.000000	12.424439
431.000000	12.387480
432.000000	12.346418
433.000000	12.300684
434.000000	12.250005
435.000000	12.194285
436.000000	12.133609
437.000000	12.068870
438.000000	12.036636
439.000000	12.000255
440.000000	11.959367
441.000000	11.914263
442.000000	11.864936
443.000000	11.811670
444.000000	11.755092
445.000000	11.696973
446.000000	11.638078
447.000000	11.578088
448.000000	11.517147
449.000000	11.456370
450.000000	11.396442
451.000000	11.337597
452.000000	11.280814
453.000000	11.227171
454.000000	11.141411
455.000000	11.059238
456.000000	10.981002
457.000000	10.907409
458.000000	10.838398
459.000000	10.774561
460.000000	10.716695
461.000000	10.664610
462.000000	10.618236
463.000000	10.577426
464.000000	10.577370
465.000000	10.544686
466.000000	10.514636
467.000000	10.486527
468.000000	10.459887
469.000000	10.433704
470.000000	10.406799
471.000000	10.378515
472.000000	10.347806
473.000000	10.313745
474.000000	10.275749
475.000000	10.269538
476.000000	10.258705
477.000000	10.243513
478.000000	10.224079
479.000000	10.199743
480.000000	10.169580
481.000000	10.133515
482.000000	10.092599
483.000000	10.048295
484.000000	10.002223
485.000000	9.955597
486.000000	9.908866
487.000000	9.862554
488.000000	9.817211
489.000000	9.773927
490.000000	9.733638
491.000000	9.733555
492.000000	9.738019
493.000000	9.746303
494.000000	9.757862
495.000000	9.772646
496.000000	9.792021
497.000000	9.853024
498.000000	9.919978
499.000000	9.994291
500.000000	10.077709
501.000000	10.170942
502.000000	10.274183
503.000000	10.389127
504.000000	10.553737
505.000000	10.733208
506.000000	10.928360
507.000000	11.140954
508.000000	11.372933
509.000000	11.625842
510.000000	11.936718
511.000000	12.234138
512.000000	12.553884
513.000000	12.929285
514.000000	13.283387
515.000000	13.683736
516.000000	14.088409
517.000000	14.455101
518.000000	14.851000
519.000000	15.233934
520.000000	15.564316
521.000000	15.874948
522.000000	16.199482
523.000000	16.465961
524.000000	16.711484
525.000000	16.901349
526.000000	17.110555
527.000000	17.305059
528.000000	17.450578
529.000000	17.585634
530.000000	17.710599
531.000000	17.827063
532.000000	17.936070
533.000000	18.038096
534.000000	18.134567
535.000000	18.226261
536.000000	18.278080
537.000000	18.327939
538.000000	18.376067
539.000000	18.423790
540.000000	18.472337
541.000000	18.521180
542.000000	18.535055
543.000000	18.550041
544.000000	18.565918
545.000000	18.583401
546.000000	18.602108
547.000000	18.621865
548.000000	18.643093
549.000000	18.664464
550.000000	18.685322
551.000000	18.705708
552.000000	18.725756
553.000000	18.745023
554.000000	18.763603
555.000000	18.781289
556.000000	18.797904
557.000000	18.814049
558.000000	18.829464
559.000000	18.844309
560.000000	18.839759
561.000000	18.830983
562.000000	18.819938
563.000000	18.806751
564.000000	18.791486
565.000000	18.773764
566.000000	18.753877
567.000000	18.731014
568.000000	18.703810
569.000000	18.672757
570.000000	18.655179
571.000000	18.636048
572.000000	18.613267
573.000000	18.586184
574.000000	18.555539
575.000000	18.520811
576.000000	18.483534
577.000000	18.442608
578.000000	18.364731
579.000000	18.286702
580.000000	18.210178
581.000000	18.134965
582.000000	18.060636
583.000000	17.986505
584.000000	17.910705
585.000000	17.833271
586.000000	17.750427
587.000000	17.626567
588.000000	17.531796
589.000000	17.430011
590.000000	17.321923
591.000000	17.210002
592.000000	17.097994
593.000000	16.989541
594.000000	16.888210
595.000000	16.796850
596.000000	16.718439
597.000000	16.652648
598.000000	16.598103
599.000000	16.552299
600.000000	16.511121
601.000000	16.467440
602.000000	16.415257
603.000000	16.352914
604.000000	16.276496
605.000000	16.186433
606.000000	16.084027
607.000000	16.010261
608.000000	15.896949
609.000000	15.786177
610.000000	15.683779
611.000000	15.596813
612.000000	15.528931
613.000000	15.479015
614.000000	15.446855
615.000000	15.427124
616.000000	15.414634
617.000000	15.401343
618.000000	15.419855
619.000000	15.427208
620.000000	15.420642
621.000000	15.397442
622.000000	15.359266
623.000000	15.308307
624.000000	15.250422
625.000000	15.191154
626.000000	15.136651
627.000000	15.093376
628.000000	15.064663
629.000000	15.052961
630.000000	15.021985
631.000000	15.006428
632.000000	15.002191
633.000000	15.003966
634.000000	15.004878
635.000000	14.999975
636.000000	14.984082
637.000000	14.954039
638.000000	14.909760
639.000000	14.851527
640.000000	14.819027
641.000000	14.780901
642.000000	14.742117
643.000000	14.708923
644.000000	14.685879
645.000000	14.677272
646.000000	14.685217
647.000000	14.709966
648.000000	14.749619
649.000000	14.800168
650.000000	14.855672
651.000000	14.911691
652.000000	14.960944
653.000000	14.999388
654.000000	15.024221
655.000000	15.033349
656.000000	15.063590
657.000000	15.080680
658.000000	15.086520
659.000000	15.087317
660.000000	15.087868
661.000000	15.092389
662.000000	15.105858
663.000000	15.130783
664.000000	15.168420
665.000000	15.217361
666.000000	15.239140
667.000000	15.266798
668.000000	15.295208
669.000000	15.320125
670.000000	15.337460
671.000000	15.343101
672.000000	15.335471
673.000000	15.314311
674.000000	15.280979
675.000000	15.274493
676.000000	15.262675
677.000000	15.248667
678.000000	15.238741
679.000000	15.236345
680.000000	15.246141
681.000000	15.270557
682.000000	15.310685
683.000000	15.364291
684.000000	15.430223
685.000000	15.468984
686.000000	15.512863
687.000000	15.558284
688.000000	15.601826
689.000000	15.675272
690.000000	15.740329
691.000000	15.795055
692.000000	15.839642
693.000000	15.877639
694.000000	15.910432
695.000000	15.940795
696.000000	15.972901
697.000000	16.009434
698.000000	16.052725
699.000000	16.070261
700.000000	16.099066
701.000000	16.140309
702.000000	16.192574
703.000000	16.253919
704.000000	16.321327
705.000000	16.427711
706.000000	16.533689
707.000000	16.637463
708.000000	16.735799
709.000000	16.827342
710.000000	16.910607
711.000000	16.986054
712.000000	17.053140
713.000000	17.112647
714.000000	17.167790
715.000000	17.184881
716.000000	17.200911
717.000000	17.217937
718.000000	17.238308
719.000000	17.262668
720.000000	17.290875
721.000000	17.322433
722.000000	17.356998
723.000000	17.394549
724.000000	17.432524
725.000000	17.469795
726.000000	17.504997
727.000000	17.536088
728.000000	17.562900
729.000000	17.583809
730.000000	17.598621
731.000000	17.607635
732.000000	17.577065
733.000000	17.542649
734.000000	17.504506
735.000000	17.465119
736.000000	17.426092
737.000000	17.387771
738.000000	17.349640
739.000000	17.313566
740.000000	17.280111
741.000000	17.249772
742.000000	17.257169
743.000000	17.264520
744.000000	17.271311
745.000000	17.275236
746.000000	17.277018
747.000000	17.240120
748.000000	17.199662
749.000000	17.155620
750.000000	17.107735
751.000000	17.055354
752.000000	16.999588
753.000000	16.941684
754.000000	16.882777
755.000000	16.823997
756.000000	16.763258
757.000000	16.739684
758.000000	16.717815
759.000000	16.660054
760.000000	16.604163
761.000000	16.549911
762.000000	16.495848
763.000000	16.441412
764.000000	16.385982
765.000000	16.329158
766.000000	16.271397
767.000000	16.173323
768.000000	16.071568
769.000000	16.003467
770.000000	15.931960
771.000000	15.857428
772.000000	15.779786
773.000000	15.700064
774.000000	15.617643
775.000000	15.534320
776.000000	15.451520
777.000000	15.369731
778.000000	15.288397
779.000000	15.207748
780.000000	15.129222
781.000000	15.051447
782.000000	14.973995
783.000000	14.898197
784.000000	14.824093
785.000000	14.712629
786.000000	14.598647
787.000000	14.520457
788.000000	14.441234
789.000000	14.359831
790.000000	14.274334
791.000000	14.185754
792.000000	14.095930
793.000000	14.003217
794.000000	13.907262
795.000000	13.812032
796.000000	13.717713
797.000000	13.623131
798.000000	13.529213
799.000000	13.437541
800.000000	13.348100
801.000000	13.260272
802.000000	13.174967
803.000000	13.092101
804.000000	13.011139
805.000000	12.967965
806.000000	12.925739
807.000000	12.883209
808.000000	12.805888
809.000000	12.727894
810.000000	12.648905
811.000000	12.570256
812.000000	12.487611
813.000000	12.403674
814.000000	12.321211
815.000000	12.236179
816.000000	12.150731
817.000000	12.066160
818.000000	12.016964
819.000000	11.968307
820.000000	11.922237
821.000000	11.876006
822.000000	11.833773
823.000000	11.792444
824.000000	11.755410
825.000000	11.718987
826.000000	11.681828
827.000000	11.646085
828.000000	11.612171
829.000000	11.578747
830.000000	11.545607
831.000000	11.515987
832.000000	11.487897
833.000000	11.459300
834.000000	11.427271
835.000000	11.397382
836.000000	11.368912
837.000000	11.341130
838.000000	11.313521
839.000000	11.287990
840.000000	11.259641
841.000000	11.228557
842.000000	11.199982
843.000000	11.173767
844.000000	11.149636
845.000000	11.122635
846.000000	11.105803
847.000000	11.088072
848.000000	11.065561
849.000000	11.041468
850.000000	11.022152
851.000000	11.009942
852.000000	10.993689
853.000000	10.978501
854.000000	10.966805
855.000000	10.954852
856.000000	10.935672
857.000000	10.925610
858.000000	11.272995
859.000000	11.295924
860.000000	11.320021
861.000000	11.316912
862.000000	11.344125
863.000000	11.373960
864.000000	11.377489
865.000000	11.388297
866.000000	11.401559
867.000000	11.410865
868.000000	11.046322
869.000000	11.011180
870.000000	11.001783
871.000000	11.017435
872.000000	10.983748
873.000000	10.975003
874.000000	10.967657
875.000000	10.936350
876.000000	10.905552
877.000000	10.875158
878.000000	10.868968
879.000000	10.863630
880.000000	10.834410
881.000000	10.806605
882.000000	10.802555
883.000000	10.774885
884.000000	10.772457
885.000000	10.794517
886.000000	10.791682
887.000000	10.813752
888.000000	10.837875
889.000000	10.836417
890.000000	10.859855
891.000000	10.883218
892.000000	10.907490
893.000000	10.932142
894.000000	10.956862
895.000000	10.957558
896.000000	10.982975
897.000000	10.984690
898.000000	10.986683
899.000000	11.014380
900.000000	11.017518
901.000000	11.021503
902.000000	11.025607
903.000000	11.028720
904.000000	11.032438
905.000000	11.061595
906.000000	11.090687
907.000000	11.093518
908.000000	11.097247
909.000000	11.127590
910.000000	11.156488
911.000000	11.185450
912.000000	11.215795
913.000000	11.246380
914.000000	11.277378
915.000000	11.308093
916.000000	11.341000
917.000000	11.398405
918.000000	11.453935
919.000000	11.482667
920.000000	11.512612
921.000000	11.543185
922.000000	11.572825
923.000000	11.603625
924.000000	11.633142
925.000000	11.661252
926.000000	11.688352
927.000000	11.716303
928.000000	11.744872
929.000000	11.773175
930.000000	11.800685
931.000000	11.827082
932.000000	11.852628
933.000000	11.878747
934.000000	11.904763
935.000000	11.932405
936.000000	11.959793
937.000000	11.985542
938.000000	12.012943
939.000000	12.040895
940.000000	12.068845
941.000000	12.094975
942.000000	12.122535
943.000000	12.149070
944.000000	12.175408
945.000000	12.200825
946.000000	12.227280
947.000000	12.254257
948.000000	12.278557
949.000000	12.303212
950.000000	12.353880
951.000000	12.406340
952.000000	12.458587
953.000000	12.509275
954.000000	12.561153
955.000000	12.613810
956.000000	12.663820
957.000000	12.715113
958.000000	12.767647
959.000000	12.820000
960.000000	12.846427
961.000000	12.872635
962.000000	12.898735
963.000000	12.925810
964.000000	12.951317
965.000000	12.975655
966.000000	13.001323
967.000000	13.026822
968.000000	13.051780
969.000000	13.075498
970.000000	13.099912
971.000000	13.123622
972.000000	13.147348
973.000000	13.196427
974.000000	13.221052
975.000000	13.271242
976.000000	13.321392
977.000000	13.371278
978.000000	13.420960
979.000000	13.471922
980.000000	13.521773
981.000000	13.571990
982.000000	13.622185
983.000000	13.646852
984.000000	13.696360
985.000000	13.720710
986.000000	13.745152
987.000000	13.769252
988.000000	13.794175
989.000000	13.818305
990.000000	13.842350
991.000000	13.891432
992.000000	13.939933
993.000000	13.988437
994.000000	14.037110
995.000000	14.086410
996.000000	14.134533
997.000000	14.182643
998.000000	14.230863
999.000000	14.279882
1000.000000	14.329063
1001.000000	14.352915
1002.000000	14.376750
1003.000000	14.400893
1004.000000	14.424920
1005.000000	14.447820
1006.000000	14.471600
1007.000000	14.495173
1008.000000	14.517795
1009.000000	14.565127
1010.000000	14.612502
1011.000000	14.660383
1012.000000	14.708268
1013.000000	14.755365
1014.000000	14.802477
1015.000000	14.850433
1016.000000	14.898568
1017.000000	14.947295
1018.000000	14.996403
1019.000000	15.020202
1020.000000	15.043768
1021.000000	15.066790
1022.000000	15.090500
1023.000000	15.114812
1024.000000	15.138348
1025.000000	15.161200
1026.000000	15.208695
1027.000000	15.255980
1028.000000	15.303392
1029.000000	15.350262
1030.000000	15.397980
1031.000000	15.446475
1032.000000	15.493553
1033.000000	15.540168
1034.000000	15.587730
1035.000000	15.635537
1036.000000	15.658390
1037.000000	15.681213
1038.000000	15.703540
1039.000000	15.725845
1040.000000	15.747958
1041.000000	15.769590
1042.000000	15.816413
1043.000000	15.863127
1044.000000	15.909195
1045.000000	15.955670
1046.000000	16.001863
1047.000000	16.047685
1048.000000	16.094000
1049.000000	16.140860
1050.000000	16.188015
1051.000000	16.235340
1052.000000	16.257777
1053.000000	16.280297
1054.000000	16.303193
1055.000000	16.325055
1056.000000	16.347182
1057.000000	16.369795
1058.000000	16.417437
1059.000000	16.464517
1060.000000	16.510050
1061.000000	16.555578
1062.000000	16.601843
1063.000000	16.648090
1064.000000	16.694052
1065.000000	16.740488
1066.000000	16.787302
1067.000000	16.833717
1068.000000	16.854757
1069.000000	16.876235
1070.000000	16.898712
1071.000000	16.920952
1072.000000	16.942277
1073.000000	16.964237
1074.000000	16.985945
1075.000000	17.031827
1076.000000	17.077168
1077.000000	17.122825
1078.000000	17.169078
1079.000000	17.215557
1080.000000	17.261580
1081.000000	17.308020
1082.000000	17.353932
1083.000000	17.399445
1084.000000	17.445065
1085.000000	17.466573
1086.000000	17.488053
1087.000000	17.509300
1088.000000	17.529253
1089.000000	17.548927
1090.000000	17.568385
1091.000000	17.612490
1092.000000	17.657258
1093.000000	17.701775
1094.000000	17.746218
1095.000000	17.789822
1096.000000	17.833347
1097.000000	17.876210
1098.000000	17.919243
1099.000000	17.962125
1100.000000	18.005792
1101.000000	18.024215
1102.000000	18.041863
1103.000000	18.059655
1104.000000	18.076628
1105.000000	18.094350
1106.000000	18.112132
1107.000000	18.131183
1108.000000	18.149275
1109.000000	18.167435
1110.000000	18.185260
1111.000000	18.228357
1112.000000	18.271432
1113.000000	18.313785
1114.000000	18.356492
1115.000000	18.399603
1116.000000	18.441848
1117.000000	18.482638
1118.000000	18.524812
1119.000000	18.566498
1120.000000	18.607525
1121.000000	18.622622
1122.000000	18.638983
1123.000000	18.655117
1124.000000	18.671330
1125.000000	18.686988
1126.000000	18.702267
1127.000000	18.717245
1128.000000	18.732315
1129.000000	18.746968
1130.000000	18.761500
1131.000000	18.773553
1132.000000	18.782595
1133.000000	18.791550
1134.000000	18.827850
1135.000000	18.865012
1136.000000	18.901815
1137.000000	18.936875
1138.000000	18.969955
1139.000000	19.003535
1140.000000	19.036985
1141.000000	19.071433
1142.000000	19.106785
1143.000000	19.142795
1144.000000	19.150475
1145.000000	19.157835
1146.000000	19.165650
1147.000000	19.174798
1148.000000	19.184113
1149.000000	19.192663
1150.000000	19.202182
1151.000000	19.210878
1152.000000	19.221435
1153.000000	19.231750
1154.000000	19.241375
1155.000000	19.249905
1156.000000	19.256788
1157.000000	19.263303
1158.000000	19.269855
1159.000000	19.275823
