PE UV       SUBTECH     SPECTRUM    ASCII       PEDS        4.00        
   -1
INBUCR0414-4.Sample.ASC
24/02/09
12:01:12.00
24/02/09
12:01:12.00
Vinicio Soto Monge
Chrysina optima. Det: A. Solís. COSTA RICA. Prov. Cartago, R. Grande de Orosi, desde Puente R. Dos Amigos hasta la Represa. 1400-1800m. NOV 1997. R. Delgado. Trampa de Luz. L_N_186600_562000 #48891. INBIOCRI002596554. Falta élitro izquierdo. 
250,000000
1
Lambda 1050
1050L1511233
PerkinElmer UV WinLab 6.3.2.0749 / 2.02.05 Lambda 900 UV/VIS/NIR, Aug  7 2015 09:38:08

0
0
3350/servo 860,8/2
0
0
UV/VIS
1
1
1
DoubleDePol,CommonBeamDepol,RBeamAtt,SBeamAtt,60mm sphere, WB InGaAs Detector
0
0
0
0
Program
Program
3350/servo 860,8/2
3350/0,2 860,8/0,2
3350/0,2 860,8/0,2
0
15.00
 
 
 
0
 
860,8
319,2
860,8
Front
100
on
S:100 R:100
0
0
0
0
 
0
 
 
 
0
 
 
0
0
0
0
0
 
 
 
 
0
0


0
0
#HDR
-1
-1
#GR
nm
%R
1.0
0.0
2500,000000
-1,000000
2251
8
21,126600
1,122700
#DATA

250.000000	nan
251.000000	nan
252.000000	nan
253.000000	nan
254.000000	nan
255.000000	nan
256.000000	nan
257.000000	nan
258.000000	nan
259.000000	4.269589
260.000000	4.268156
261.000000	4.265398
262.000000	4.262541
263.000000	4.260673
264.000000	4.259274
265.000000	4.257504
266.000000	4.254619
267.000000	4.250828
268.000000	4.248333
269.000000	4.245570
270.000000	4.241512
271.000000	4.237711
272.000000	4.236608
273.000000	4.234011
274.000000	4.230355
275.000000	4.226975
276.000000	4.225164
277.000000	4.221435
278.000000	4.219470
279.000000	4.216932
280.000000	4.213913
281.000000	4.212836
282.000000	4.210222
283.000000	4.208622
284.000000	4.206944
285.000000	4.206672
286.000000	4.204568
287.000000	4.205139
288.000000	4.204016
289.000000	4.203665
290.000000	4.204895
291.000000	4.203415
292.000000	4.201206
293.000000	4.199360
294.000000	4.200882
295.000000	4.197629
296.000000	4.197006
297.000000	4.192867
298.000000	4.189090
299.000000	4.185755
300.000000	4.182622
301.000000	4.181373
302.000000	4.180788
303.000000	4.179040
304.000000	4.174046
305.000000	4.173781
306.000000	4.173438
307.000000	4.174625
308.000000	4.175391
309.000000	4.210689
310.000000	4.242346
311.000000	4.274935
312.000000	4.307247
313.000000	4.340842
314.000000	4.373358
315.000000	4.405297
316.000000	4.440816
317.000000	4.543113
318.000000	4.680107
319.000000	4.783769
320.000000	4.883513
321.000000	4.979198
322.000000	5.080882
323.000000	5.159758
324.000000	5.254573
325.000000	5.334274
326.000000	5.405413
327.000000	5.419923
328.000000	5.400966
329.000000	5.374936
330.000000	5.362488
331.000000	5.346069
332.000000	5.320841
333.000000	5.323426
334.000000	5.313154
335.000000	5.354470
336.000000	5.393475
337.000000	5.418902
338.000000	5.440865
339.000000	5.468782
340.000000	5.489590
341.000000	5.518746
342.000000	5.545490
343.000000	5.568854
344.000000	5.592007
345.000000	5.575992
346.000000	5.571244
347.000000	5.568159
348.000000	5.570583
349.000000	5.571773
350.000000	5.570389
351.000000	5.562927
352.000000	5.560177
353.000000	5.555695
354.000000	5.551331
355.000000	5.552935
356.000000	5.547415
357.000000	5.545145
358.000000	5.541053
359.000000	5.538741
360.000000	5.533347
361.000000	5.532619
362.000000	5.530062
363.000000	5.531421
364.000000	5.528580
365.000000	5.521245
366.000000	5.516400
367.000000	5.508955
368.000000	5.495840
369.000000	5.487247
370.000000	5.479639
371.000000	5.468557
372.000000	5.460475
373.000000	5.442375
374.000000	5.420907
375.000000	5.403289
376.000000	5.398598
377.000000	5.357377
378.000000	5.320079
379.000000	5.277404
380.000000	5.239644
381.000000	5.205721
382.000000	5.171071
383.000000	5.142302
384.000000	5.120148
385.000000	5.096879
386.000000	5.060174
387.000000	5.061094
388.000000	5.062995
389.000000	5.064785
390.000000	5.066075
391.000000	5.067351
392.000000	5.068833
393.000000	5.069822
394.000000	5.070725
395.000000	5.071034
396.000000	5.104267
397.000000	5.137206
398.000000	5.169933
399.000000	5.202614
400.000000	5.235197
401.000000	5.267623
402.000000	5.300051
403.000000	5.333220
404.000000	5.365926
405.000000	5.398471
406.000000	5.398668
407.000000	5.398958
408.000000	5.399001
409.000000	5.399206
410.000000	5.399619
411.000000	5.400253
412.000000	5.400719
413.000000	5.400956
414.000000	5.401426
415.000000	5.401833
416.000000	5.402016
417.000000	5.402506
418.000000	5.403014
419.000000	5.403333
420.000000	5.403858
421.000000	5.404367
422.000000	5.404846
423.000000	5.405344
424.000000	5.405904
425.000000	5.406594
426.000000	5.407109
427.000000	5.440568
428.000000	5.474054
429.000000	5.507738
430.000000	5.541617
431.000000	5.575351
432.000000	5.609323
433.000000	5.643407
434.000000	5.677478
435.000000	5.711445
436.000000	5.745592
437.000000	5.746724
438.000000	5.747839
439.000000	5.748933
440.000000	5.749932
441.000000	5.751108
442.000000	5.751891
443.000000	5.752329
444.000000	5.752848
445.000000	5.753483
446.000000	5.754288
447.000000	5.755178
448.000000	5.756038
449.000000	5.756965
450.000000	5.757762
451.000000	5.758251
452.000000	5.759053
453.000000	5.760153
454.000000	5.761219
455.000000	5.762408
456.000000	5.763408
457.000000	5.764300
458.000000	5.765378
459.000000	5.766533
460.000000	5.767823
461.000000	5.769498
462.000000	5.771325
463.000000	5.773086
464.000000	5.775105
465.000000	5.777109
466.000000	5.779255
467.000000	5.781454
468.000000	5.783584
469.000000	5.785687
470.000000	5.787798
471.000000	5.789639
472.000000	5.791209
473.000000	5.792955
474.000000	5.794487
475.000000	5.795866
476.000000	5.797052
477.000000	5.798181
478.000000	5.799193
479.000000	5.799988
480.000000	5.800177
481.000000	5.800015
482.000000	5.799522
483.000000	5.798774
484.000000	5.798423
485.000000	5.831435
486.000000	5.864898
487.000000	5.898806
488.000000	5.933379
489.000000	5.968649
490.000000	6.005023
491.000000	6.042524
492.000000	6.080941
493.000000	6.120245
494.000000	6.159973
495.000000	6.167015
496.000000	6.174426
497.000000	6.182291
498.000000	6.190419
499.000000	6.198924
500.000000	6.207608
501.000000	6.216355
502.000000	6.225539
503.000000	6.267872
504.000000	6.310580
505.000000	6.353855
506.000000	6.397406
507.000000	6.441385
508.000000	6.485869
509.000000	6.530890
510.000000	6.576705
511.000000	6.623538
512.000000	6.671439
513.000000	6.720340
514.000000	6.770414
515.000000	6.821867
516.000000	6.875392
517.000000	6.930894
518.000000	6.988940
519.000000	7.049858
520.000000	7.114599
521.000000	7.183523
522.000000	7.290273
523.000000	7.370295
524.000000	7.457529
525.000000	7.553158
526.000000	7.658088
527.000000	7.774184
528.000000	7.903165
529.000000	8.047040
530.000000	8.207235
531.000000	8.386071
532.000000	8.552072
533.000000	8.771639
534.000000	9.012871
535.000000	9.275586
536.000000	9.559024
537.000000	9.861295
538.000000	10.179888
539.000000	10.511821
540.000000	10.852877
541.000000	11.198139
542.000000	11.542866
543.000000	11.849409
544.000000	12.146246
545.000000	12.428755
546.000000	12.693651
547.000000	12.938197
548.000000	13.161161
549.000000	13.361691
550.000000	13.540024
551.000000	13.696272
552.000000	13.832455
553.000000	13.950153
554.000000	14.050641
555.000000	14.136586
556.000000	14.209840
557.000000	14.274036
558.000000	14.328863
559.000000	14.375452
560.000000	14.398965
561.000000	14.414347
562.000000	14.424622
563.000000	14.431133
564.000000	14.434489
565.000000	14.435119
566.000000	14.433503
567.000000	14.429229
568.000000	14.423168
569.000000	14.416387
570.000000	14.424728
571.000000	14.435790
572.000000	14.446978
573.000000	14.457331
574.000000	14.466966
575.000000	14.476500
576.000000	14.486304
577.000000	14.495373
578.000000	14.505300
579.000000	14.515597
580.000000	14.525994
581.000000	14.536849
582.000000	14.546538
583.000000	14.556628
584.000000	14.567168
585.000000	14.577847
586.000000	14.588051
587.000000	14.598408
588.000000	14.607230
589.000000	14.615951
590.000000	14.624582
591.000000	14.632572
592.000000	14.640392
593.000000	14.647661
594.000000	14.654260
595.000000	14.659937
596.000000	14.665131
597.000000	14.670094
598.000000	14.675117
599.000000	14.678701
600.000000	14.681602
601.000000	14.683137
602.000000	14.683482
603.000000	14.682779
604.000000	14.679243
605.000000	14.672692
606.000000	14.663174
607.000000	14.650213
608.000000	14.632844
609.000000	14.609821
610.000000	14.580068
611.000000	14.542884
612.000000	14.497272
613.000000	14.442338
614.000000	14.378424
615.000000	14.307276
616.000000	14.228680
617.000000	14.145375
618.000000	14.061803
619.000000	13.982499
620.000000	13.912264
621.000000	13.855258
622.000000	13.817062
623.000000	13.798808
624.000000	13.802779
625.000000	13.826618
626.000000	13.870087
627.000000	13.928773
628.000000	13.997791
629.000000	14.071928
630.000000	14.145291
631.000000	14.212571
632.000000	14.269253
633.000000	14.311937
634.000000	14.371195
635.000000	14.413790
636.000000	14.438253
637.000000	14.444904
638.000000	14.434847
639.000000	14.408869
640.000000	14.369546
641.000000	14.318916
642.000000	14.259025
643.000000	14.196048
644.000000	14.100945
645.000000	14.011807
646.000000	13.935359
647.000000	13.875702
648.000000	13.836571
649.000000	13.820365
650.000000	13.827531
651.000000	13.858929
652.000000	13.912102
653.000000	13.982421
654.000000	14.065888
655.000000	14.155789
656.000000	14.246517
657.000000	14.333109
658.000000	14.410248
659.000000	14.474142
660.000000	14.522433
661.000000	14.552531
662.000000	14.565276
663.000000	14.559567
664.000000	14.536376
665.000000	14.531649
666.000000	14.513168
667.000000	14.484918
668.000000	14.449595
669.000000	14.410111
670.000000	14.371676
671.000000	14.338796
672.000000	14.314736
673.000000	14.303631
674.000000	14.309619
675.000000	14.301778
676.000000	14.314503
677.000000	14.346232
678.000000	14.396949
679.000000	14.464730
680.000000	14.546999
681.000000	14.638073
682.000000	14.732751
683.000000	14.829457
684.000000	14.922879
685.000000	15.009392
686.000000	15.086057
687.000000	15.151102
688.000000	15.204580
689.000000	15.247043
690.000000	15.277106
691.000000	15.297927
692.000000	15.310830
693.000000	15.316401
694.000000	15.350468
695.000000	15.382417
696.000000	15.414840
697.000000	15.449956
698.000000	15.489106
699.000000	15.533560
700.000000	15.585574
701.000000	15.646347
702.000000	15.717326
703.000000	15.798923
704.000000	15.856912
705.000000	15.923276
706.000000	15.996970
707.000000	16.076376
708.000000	16.159095
709.000000	16.244669
710.000000	16.329400
711.000000	16.411383
712.000000	16.488404
713.000000	16.558603
714.000000	16.622784
715.000000	16.680217
716.000000	16.731006
717.000000	16.775564
718.000000	16.814108
719.000000	16.846516
720.000000	16.874540
721.000000	16.898142
722.000000	16.919402
723.000000	16.939976
724.000000	16.958406
725.000000	16.976379
726.000000	17.027316
727.000000	17.077539
728.000000	17.128438
729.000000	17.180542
730.000000	17.233506
731.000000	17.287289
732.000000	17.342481
733.000000	17.398492
734.000000	17.456015
735.000000	17.513917
736.000000	17.538480
737.000000	17.563667
738.000000	17.588146
739.000000	17.611274
740.000000	17.634430
741.000000	17.659073
742.000000	17.682804
743.000000	17.704565
744.000000	17.724426
745.000000	17.742749
746.000000	17.759994
747.000000	17.775553
748.000000	17.791221
749.000000	17.806991
750.000000	17.821097
751.000000	17.833091
752.000000	17.845365
753.000000	17.891216
754.000000	17.937144
755.000000	17.984280
756.000000	18.032949
757.000000	18.083205
758.000000	18.133530
759.000000	18.184059
760.000000	18.236151
761.000000	18.289927
762.000000	18.344607
763.000000	18.367886
764.000000	18.392483
765.000000	18.417163
766.000000	18.440702
767.000000	18.464043
768.000000	18.487907
769.000000	18.511312
770.000000	18.534635
771.000000	18.556402
772.000000	18.576893
773.000000	18.597897
774.000000	18.618273
775.000000	18.637136
776.000000	18.657142
777.000000	18.677516
778.000000	18.730931
779.000000	18.785718
780.000000	18.840090
781.000000	18.896003
782.000000	18.952742
783.000000	19.007885
784.000000	19.063762
785.000000	19.120777
786.000000	19.179073
787.000000	19.237785
788.000000	19.264289
789.000000	19.293309
790.000000	19.321248
791.000000	19.349479
792.000000	19.377205
793.000000	19.405380
794.000000	19.432903
795.000000	19.460608
796.000000	19.488309
797.000000	19.515362
798.000000	19.541635
799.000000	19.564852
800.000000	19.622964
801.000000	19.680481
802.000000	19.736340
803.000000	19.791337
804.000000	19.847635
805.000000	19.904218
806.000000	19.959205
807.000000	20.016546
808.000000	20.074225
809.000000	20.134300
810.000000	20.162887
811.000000	20.189148
812.000000	20.218500
813.000000	20.248894
814.000000	20.277169
815.000000	20.304291
816.000000	20.330447
817.000000	20.357593
818.000000	20.383046
819.000000	20.405784
820.000000	20.424632
821.000000	20.445157
822.000000	20.497019
823.000000	20.545387
824.000000	20.594878
825.000000	20.646892
826.000000	20.697834
827.000000	20.746497
828.000000	20.796728
829.000000	20.845683
830.000000	20.897376
831.000000	20.947578
832.000000	20.964279
833.000000	20.981358
834.000000	20.995715
835.000000	21.008413
836.000000	21.019909
837.000000	21.032268
838.000000	21.039385
839.000000	21.047926
840.000000	21.053324
841.000000	21.059739
842.000000	21.066505
843.000000	21.070432
844.000000	21.075032
845.000000	21.079541
846.000000	21.084214
847.000000	21.083593
848.000000	21.079789
849.000000	21.075971
850.000000	21.082159
851.000000	21.079876
852.000000	21.063561
853.000000	21.054606
854.000000	21.081447
855.000000	21.066862
856.000000	21.068367
857.000000	21.133255
858.000000	21.500696
859.000000	21.595606
860.000000	21.711632
861.000000	21.815316
862.000000	21.963239
863.000000	22.088247
864.000000	22.157502
865.000000	22.245702
866.000000	22.347307
867.000000	22.390583
868.000000	22.116553
869.000000	22.114505
870.000000	22.084488
871.000000	22.101063
872.000000	22.063695
873.000000	22.071967
874.000000	22.077777
875.000000	22.106380
876.000000	22.109997
877.000000	22.111378
878.000000	22.111450
879.000000	22.110900
880.000000	22.109060
881.000000	22.107405
882.000000	22.129580
883.000000	22.101675
884.000000	22.096858
885.000000	22.090308
886.000000	22.080578
887.000000	22.072035
888.000000	22.085410
889.000000	22.097925
890.000000	22.110595
891.000000	22.069875
892.000000	22.028500
893.000000	22.010620
894.000000	21.991640
895.000000	21.972785
896.000000	21.952627
897.000000	21.930190
898.000000	21.905323
899.000000	21.880370
900.000000	21.855107
901.000000	21.830683
902.000000	21.803767
903.000000	21.773090
904.000000	21.767148
905.000000	21.759255
906.000000	21.727075
907.000000	21.694427
908.000000	21.663833
909.000000	21.633970
910.000000	21.599405
911.000000	21.587110
912.000000	21.576293
913.000000	21.567698
914.000000	21.533225
915.000000	21.497775
916.000000	21.485747
917.000000	21.473212
918.000000	21.458940
919.000000	21.443685
920.000000	21.428103
921.000000	21.413390
922.000000	21.396730
923.000000	21.353735
924.000000	21.310230
925.000000	21.267905
926.000000	21.224285
927.000000	21.178497
928.000000	21.157585
929.000000	21.109410
930.000000	21.061692
931.000000	21.014210
932.000000	20.990620
933.000000	20.968753
934.000000	20.947772
935.000000	20.926718
936.000000	20.907087
937.000000	20.889625
938.000000	20.846700
939.000000	20.829100
940.000000	20.812257
941.000000	20.793642
942.000000	20.751637
943.000000	20.734227
944.000000	20.716200
945.000000	20.698190
946.000000	20.680810
947.000000	20.663025
948.000000	20.646730
949.000000	20.632618
950.000000	20.617642
951.000000	20.606833
952.000000	20.597485
953.000000	20.587382
954.000000	20.579632
955.000000	20.571742
956.000000	20.562648
957.000000	20.553920
958.000000	20.545883
959.000000	20.537835
960.000000	20.532488
961.000000	20.525923
962.000000	20.519047
963.000000	20.513390
964.000000	20.506702
965.000000	20.500432
966.000000	20.495673
967.000000	20.490690
968.000000	20.486175
969.000000	20.481042
970.000000	20.476622
971.000000	20.472047
972.000000	20.468268
973.000000	20.464512
974.000000	20.461420
975.000000	20.458655
976.000000	20.456010
977.000000	20.454880
978.000000	20.453815
979.000000	20.453073
980.000000	20.451852
981.000000	20.452648
982.000000	20.453228
983.000000	20.453618
984.000000	20.453720
985.000000	20.454695
986.000000	20.456920
987.000000	20.458960
988.000000	20.460435
989.000000	20.462045
990.000000	20.463865
991.000000	20.464590
992.000000	20.465685
993.000000	20.467278
994.000000	20.469357
995.000000	20.471215
996.000000	20.471655
997.000000	20.472040
998.000000	20.473510
999.000000	20.475460
1000.000000	20.477213
1001.000000	20.479095
1002.000000	20.480303
1003.000000	20.481857
1004.000000	20.483358
1005.000000	20.485600
1006.000000	20.488557
1007.000000	20.491810
1008.000000	20.493975
1009.000000	20.495897
1010.000000	20.498310
1011.000000	20.500360
1012.000000	20.502770
1013.000000	20.505295
1014.000000	20.507925
1015.000000	20.509593
1016.000000	20.511155
1017.000000	20.513507
1018.000000	20.517832
1019.000000	20.523110
1020.000000	20.528782
1021.000000	20.535280
1022.000000	20.542253
1023.000000	20.549610
1024.000000	20.556783
1025.000000	20.564400
1026.000000	20.572195
1027.000000	20.578922
1028.000000	20.584895
1029.000000	20.591105
1030.000000	20.598038
1031.000000	20.604660
1032.000000	20.610112
1033.000000	20.615118
1034.000000	20.620480
1035.000000	20.625608
1036.000000	20.630845
1037.000000	20.636942
1038.000000	20.643073
1039.000000	20.648610
1040.000000	20.653495
1041.000000	20.658677
1042.000000	20.665073
1043.000000	20.671823
1044.000000	20.678265
1045.000000	20.684875
1046.000000	20.691885
1047.000000	20.697548
1048.000000	20.702765
1049.000000	20.708650
1050.000000	20.714453
1051.000000	20.720063
1052.000000	20.725125
1053.000000	20.730013
1054.000000	20.735692
1055.000000	20.741530
1056.000000	20.746525
1057.000000	20.752372
1058.000000	20.759283
1059.000000	20.765525
1060.000000	20.771515
1061.000000	20.777995
1062.000000	20.784728
1063.000000	20.792048
1064.000000	20.798715
1065.000000	20.804493
1066.000000	20.811327
1067.000000	20.818428
1068.000000	20.824530
1069.000000	20.831242
1070.000000	20.838790
1071.000000	20.846533
1072.000000	20.853983
1073.000000	20.860958
1074.000000	20.867448
1075.000000	20.875397
1076.000000	20.882893
1077.000000	20.890410
1078.000000	20.898003
1079.000000	20.904605
1080.000000	20.909510
1081.000000	20.913877
1082.000000	20.918820
1083.000000	20.924475
1084.000000	20.930470
1085.000000	20.936070
1086.000000	20.941305
1087.000000	20.945918
1088.000000	20.951115
1089.000000	20.956582
1090.000000	20.963330
1091.000000	20.969403
1092.000000	20.974355
1093.000000	20.978065
1094.000000	20.982145
1095.000000	20.986187
1096.000000	20.990240
1097.000000	20.993833
1098.000000	20.997195
1099.000000	21.001385
1100.000000	21.004372
1101.000000	21.008167
1102.000000	21.012182
1103.000000	21.015880
1104.000000	21.019385
1105.000000	21.022095
1106.000000	21.024345
1107.000000	21.027063
1108.000000	21.028785
1109.000000	21.029043
1110.000000	21.029882
1111.000000	21.030268
1112.000000	21.030595
1113.000000	21.031595
1114.000000	21.031713
1115.000000	21.032295
1116.000000	21.033720
1117.000000	21.034630
1118.000000	21.034855
1119.000000	21.034727
1120.000000	21.033963
1121.000000	21.033110
1122.000000	21.032647
1123.000000	21.031398
1124.000000	21.030628
1125.000000	21.028335
1126.000000	21.025505
1127.000000	21.020478
1128.000000	21.016245
1129.000000	21.011715
1130.000000	21.005827
1131.000000	20.996272
1132.000000	20.981977
1133.000000	20.968538
1134.000000	20.955752
1135.000000	20.946115
1136.000000	20.932600
1137.000000	20.919187
1138.000000	20.904205
1139.000000	20.888172
1140.000000	20.872208
1141.000000	20.857955
1142.000000	20.847175
1143.000000	20.834855
1144.000000	20.821148
1145.000000	20.806087
1146.000000	20.795455
1147.000000	20.785068
1148.000000	20.776048
1149.000000	20.766547
1150.000000	20.758280
1151.000000	20.751075
1152.000000	20.743023
1153.000000	20.710897
1154.000000	20.677257
1155.000000	20.641138
1156.000000	20.602525
1157.000000	20.564195
1158.000000	20.523103
1159.000000	20.482495
1160.000000	20.438980
1161.000000	20.392833
1162.000000	20.345002
1163.000000	20.319690
1164.000000	20.294435
1165.000000	20.267935
