PE UV       SUBTECH     SPECTRUM    ASCII       PEDS        4.00        
   -1
INBUCR0426-4.Sample.ASC
24/02/09
14:39:33.00
24/02/09
14:39:33.00
Vinicio Soto Monge
Chrysina resplendens .COSTA RICA. Prov. Guanacaste. Cañas. P.N. Volcán Tenorio. Río Martirio. La Rejolla. 1000-1100m. 14-15 JUN 2007. J. A. Azofeifa. M. Campos. Tp. Luz  Mercurio. #91628.. INB0004090510. Un élitro está en un vial con desecante.
250,000000
1
Lambda 1050
1050L1511233
PerkinElmer UV WinLab 6.3.2.0749 / 2.02.05 Lambda 900 UV/VIS/NIR, Aug  7 2015 09:38:08

0
0
3350/servo 860,8/2
0
0
UV/VIS
1
1
1
DoubleDePol,CommonBeamDepol,RBeamAtt,SBeamAtt,60mm sphere, WB InGaAs Detector
0
0
0
0
Program
Program
3350/servo 860,8/2
3350/0,2 860,8/0,2
3350/0,2 860,8/0,2
0
15.00
 
 
 
0
 
860,8
319,2
860,8
Front
100
on
S:100 R:100
0
0
0
0
 
0
 
 
 
0
 
 
0
0
0
0
0
 
 
 
 
0
0


0
0
#HDR
-1
-1
#GR
nm
%R
1.0
0.0
2500,000000
-1,000000
2251
8
18,062000
1,326400
#DATA

250.000000	nan
251.000000	nan
252.000000	nan
253.000000	nan
254.000000	nan
255.000000	nan
256.000000	nan
257.000000	nan
258.000000	nan
259.000000	3.817106
260.000000	3.847956
261.000000	3.877589
262.000000	3.907121
263.000000	3.937096
264.000000	3.964060
265.000000	3.993148
266.000000	3.990459
267.000000	3.986931
268.000000	3.984254
269.000000	3.980788
270.000000	3.976071
271.000000	3.970456
272.000000	3.965371
273.000000	3.961312
274.000000	3.958099
275.000000	3.952650
276.000000	3.947717
277.000000	3.942403
278.000000	3.936625
279.000000	3.932215
280.000000	3.928935
281.000000	3.928690
282.000000	3.929701
283.000000	3.929311
284.000000	3.928447
285.000000	3.929151
286.000000	3.930325
287.000000	3.933398
288.000000	3.935407
289.000000	3.938028
290.000000	3.941749
291.000000	3.944759
292.000000	3.946045
293.000000	3.949606
294.000000	3.954252
295.000000	3.958045
296.000000	3.961649
297.000000	3.967648
298.000000	3.974937
299.000000	3.982539
300.000000	3.987976
301.000000	3.992287
302.000000	3.997523
303.000000	4.001339
304.000000	4.005471
305.000000	4.009725
306.000000	4.047290
307.000000	4.082571
308.000000	4.116038
309.000000	4.150604
310.000000	4.187482
311.000000	4.257128
312.000000	4.326412
313.000000	4.395433
314.000000	4.465132
315.000000	4.566777
316.000000	4.636768
317.000000	4.790140
318.000000	4.941689
319.000000	5.084498
320.000000	5.244417
321.000000	5.397376
322.000000	5.546626
323.000000	5.691584
324.000000	5.842398
325.000000	5.956728
326.000000	6.063890
327.000000	6.083335
328.000000	6.112227
329.000000	6.147453
330.000000	6.200131
331.000000	6.227262
332.000000	6.252827
333.000000	6.281607
334.000000	6.302228
335.000000	6.328932
336.000000	6.358150
337.000000	6.385956
338.000000	6.415287
339.000000	6.444227
340.000000	6.434765
341.000000	6.429684
342.000000	6.430268
343.000000	6.430214
344.000000	6.432242
345.000000	6.431482
346.000000	6.432970
347.000000	6.444464
348.000000	6.444639
349.000000	6.478200
350.000000	6.515078
351.000000	6.547117
352.000000	6.575054
353.000000	6.608762
354.000000	6.637708
355.000000	6.666240
356.000000	6.695489
357.000000	6.723876
358.000000	6.757101
359.000000	6.757207
360.000000	6.756688
361.000000	6.754414
362.000000	6.754974
363.000000	6.752451
364.000000	6.752906
365.000000	6.754937
366.000000	6.758911
367.000000	6.757950
368.000000	6.754629
369.000000	6.749167
370.000000	6.741555
371.000000	6.736557
372.000000	6.732518
373.000000	6.728257
374.000000	6.720112
375.000000	6.716509
376.000000	6.684631
377.000000	6.644285
378.000000	6.605691
379.000000	6.570181
380.000000	6.536646
381.000000	6.502568
382.000000	6.468863
383.000000	6.434718
384.000000	6.405296
385.000000	6.372110
386.000000	6.365116
387.000000	6.368062
388.000000	6.370451
389.000000	6.372760
390.000000	6.375788
391.000000	6.379062
392.000000	6.382038
393.000000	6.384845
394.000000	6.387267
395.000000	6.389609
396.000000	6.392229
397.000000	6.395178
398.000000	6.397786
399.000000	6.400306
400.000000	6.402472
401.000000	6.404786
402.000000	6.407064
403.000000	6.409901
404.000000	6.412523
405.000000	6.414981
406.000000	6.417417
407.000000	6.419555
408.000000	6.422095
409.000000	6.424575
410.000000	6.426530
411.000000	6.428366
412.000000	6.430669
413.000000	6.432747
414.000000	6.434997
415.000000	6.437415
416.000000	6.439453
417.000000	6.441681
418.000000	6.444027
419.000000	6.446380
420.000000	6.449136
421.000000	6.452191
422.000000	6.454964
423.000000	6.457605
424.000000	6.460325
425.000000	6.463363
426.000000	6.466513
427.000000	6.469397
428.000000	6.472416
429.000000	6.475693
430.000000	6.478954
431.000000	6.482088
432.000000	6.485019
433.000000	6.488161
434.000000	6.491519
435.000000	6.494717
436.000000	6.498266
437.000000	6.502063
438.000000	6.505629
439.000000	6.509033
440.000000	6.512640
441.000000	6.516481
442.000000	6.520383
443.000000	6.523789
444.000000	6.527040
445.000000	6.530907
446.000000	6.534863
447.000000	6.570796
448.000000	6.606775
449.000000	6.642512
450.000000	6.678257
451.000000	6.714033
452.000000	6.750066
453.000000	6.786412
454.000000	6.823129
455.000000	6.859708
456.000000	6.895943
457.000000	6.900227
458.000000	6.904451
459.000000	6.908989
460.000000	6.913465
461.000000	6.917962
462.000000	6.922579
463.000000	6.927407
464.000000	6.931951
465.000000	6.936014
466.000000	6.940083
467.000000	6.944198
468.000000	6.948637
469.000000	6.953026
470.000000	6.957257
471.000000	6.961226
472.000000	6.965190
473.000000	6.969027
474.000000	6.972557
475.000000	6.976058
476.000000	6.979515
477.000000	6.982852
478.000000	6.985625
479.000000	6.988105
480.000000	6.989928
481.000000	6.990726
482.000000	6.990827
483.000000	6.990758
484.000000	6.991077
485.000000	6.992111
486.000000	6.993912
487.000000	6.996285
488.000000	6.999520
489.000000	7.003674
490.000000	7.009194
491.000000	7.016423
492.000000	7.024805
493.000000	7.033895
494.000000	7.043509
495.000000	7.085174
496.000000	7.126693
497.000000	7.167857
498.000000	7.209145
499.000000	7.250484
500.000000	7.291817
501.000000	7.333182
502.000000	7.374725
503.000000	7.416451
504.000000	7.457946
505.000000	7.467239
506.000000	7.476630
507.000000	7.486480
508.000000	7.495998
509.000000	7.505040
510.000000	7.513595
511.000000	7.521957
512.000000	7.529929
513.000000	7.537448
514.000000	7.544773
515.000000	7.551810
516.000000	7.558378
517.000000	7.564376
518.000000	7.570223
519.000000	7.575919
520.000000	7.581878
521.000000	7.587468
522.000000	7.592987
523.000000	7.598375
524.000000	7.603880
525.000000	7.609580
526.000000	7.615451
527.000000	7.621755
528.000000	7.628907
529.000000	7.636268
530.000000	7.643737
531.000000	7.651653
532.000000	7.659884
533.000000	7.668610
534.000000	7.709868
535.000000	7.751231
536.000000	7.793041
537.000000	7.834952
538.000000	7.876440
539.000000	7.918256
540.000000	7.960390
541.000000	8.002847
542.000000	8.045333
543.000000	8.087814
544.000000	8.098201
545.000000	8.109067
546.000000	8.119868
547.000000	8.130821
548.000000	8.141695
549.000000	8.152744
550.000000	8.163762
551.000000	8.174425
552.000000	8.185348
553.000000	8.196482
554.000000	8.207639
555.000000	8.218425
556.000000	8.229067
557.000000	8.239538
558.000000	8.250362
559.000000	8.260766
560.000000	8.266247
561.000000	8.270843
562.000000	8.274907
563.000000	8.278949
564.000000	8.282564
565.000000	8.285757
566.000000	8.288833
567.000000	8.292445
568.000000	8.295700
569.000000	8.299082
570.000000	8.307367
571.000000	8.316426
572.000000	8.325563
573.000000	8.334687
574.000000	8.343801
575.000000	8.353541
576.000000	8.363564
577.000000	8.373359
578.000000	8.383124
579.000000	8.393022
580.000000	8.402971
581.000000	8.413122
582.000000	8.423334
583.000000	8.465198
584.000000	8.507859
585.000000	8.550292
586.000000	8.592767
587.000000	8.634548
588.000000	8.676539
589.000000	8.718807
590.000000	8.761053
591.000000	8.803806
592.000000	8.846820
593.000000	8.858208
594.000000	8.869030
595.000000	8.879717
596.000000	8.889955
597.000000	8.900929
598.000000	8.911961
599.000000	8.922721
600.000000	8.933080
601.000000	8.943429
602.000000	8.953798
603.000000	8.964269
604.000000	8.975096
605.000000	8.986113
606.000000	8.997773
607.000000	9.009225
608.000000	9.020370
609.000000	9.031665
610.000000	9.043565
611.000000	9.055069
612.000000	9.066712
613.000000	9.077904
614.000000	9.089617
615.000000	9.101681
616.000000	9.113056
617.000000	9.124259
618.000000	9.135843
619.000000	9.147638
620.000000	9.159185
621.000000	9.170689
622.000000	9.182133
623.000000	9.194170
624.000000	9.205547
625.000000	9.248896
626.000000	9.292414
627.000000	9.336716
628.000000	9.380898
629.000000	9.425130
630.000000	9.469069
631.000000	9.514264
632.000000	9.559784
633.000000	9.605111
634.000000	9.650998
635.000000	9.664832
636.000000	9.679397
637.000000	9.693589
638.000000	9.708318
639.000000	9.723804
640.000000	9.740259
641.000000	9.756056
642.000000	9.771838
643.000000	9.788031
644.000000	9.804459
645.000000	9.821683
646.000000	9.838703
647.000000	9.856170
648.000000	9.873889
649.000000	9.891227
650.000000	9.908698
651.000000	9.926524
652.000000	9.944831
653.000000	9.963339
654.000000	9.981880
655.000000	10.032446
656.000000	10.083636
657.000000	10.134987
658.000000	10.185892
659.000000	10.236610
660.000000	10.287357
661.000000	10.337895
662.000000	10.388430
663.000000	10.438887
664.000000	10.489650
665.000000	10.508031
666.000000	10.526348
667.000000	10.544505
668.000000	10.563021
669.000000	10.582233
670.000000	10.601708
671.000000	10.620653
672.000000	10.639573
673.000000	10.658475
674.000000	10.676927
675.000000	10.695476
676.000000	10.714269
677.000000	10.733092
678.000000	10.751878
679.000000	10.770290
680.000000	10.788355
681.000000	10.806910
682.000000	10.825581
683.000000	10.875729
684.000000	10.926082
685.000000	10.976708
686.000000	11.027164
687.000000	11.078323
688.000000	11.129783
689.000000	11.180342
690.000000	11.230729
691.000000	11.281845
692.000000	11.332511
693.000000	11.351877
694.000000	11.370829
695.000000	11.389548
696.000000	11.408120
697.000000	11.425775
698.000000	11.443107
699.000000	11.461625
700.000000	11.480756
701.000000	11.499328
702.000000	11.518569
703.000000	11.537857
704.000000	11.557419
705.000000	11.577291
706.000000	11.596981
707.000000	11.616943
708.000000	11.668518
709.000000	11.720127
710.000000	11.771239
711.000000	11.822435
712.000000	11.873555
713.000000	11.925372
714.000000	11.976824
715.000000	12.028005
716.000000	12.079818
717.000000	12.131454
718.000000	12.152357
719.000000	12.172897
720.000000	12.193878
721.000000	12.215293
722.000000	12.236345
723.000000	12.256697
724.000000	12.277202
725.000000	12.297337
726.000000	12.317574
727.000000	12.338958
728.000000	12.359805
729.000000	12.380808
730.000000	12.400807
731.000000	12.451987
732.000000	12.503600
733.000000	12.555350
734.000000	12.607188
735.000000	12.660308
736.000000	12.713893
737.000000	12.766689
738.000000	12.820003
739.000000	12.873843
740.000000	12.928658
741.000000	12.952282
742.000000	12.975066
743.000000	12.997569
744.000000	13.021064
745.000000	13.044127
746.000000	13.065311
747.000000	13.086512
748.000000	13.107767
749.000000	13.128737
750.000000	13.150004
751.000000	13.203070
752.000000	13.256883
753.000000	13.311455
754.000000	13.366126
755.000000	13.419993
756.000000	13.475430
757.000000	13.532579
758.000000	13.589662
759.000000	13.646520
760.000000	13.703675
761.000000	13.729860
762.000000	13.754935
763.000000	13.779287
764.000000	13.804398
765.000000	13.830534
766.000000	13.855627
767.000000	13.878926
768.000000	13.902646
769.000000	13.926658
770.000000	13.981522
771.000000	14.036160
772.000000	14.092381
773.000000	14.148733
774.000000	14.203591
775.000000	14.257980
776.000000	14.313362
777.000000	14.368991
778.000000	14.424170
779.000000	14.479864
780.000000	14.504174
781.000000	14.527882
782.000000	14.551796
783.000000	14.575815
784.000000	14.599721
785.000000	14.624157
786.000000	14.648672
787.000000	14.673746
788.000000	14.730556
789.000000	14.786979
790.000000	14.842898
791.000000	14.899579
792.000000	14.955615
793.000000	15.011555
794.000000	15.070464
795.000000	15.127993
796.000000	15.184057
797.000000	15.242132
798.000000	15.270876
799.000000	15.297964
800.000000	15.324093
801.000000	15.350756
802.000000	15.378139
803.000000	15.405646
804.000000	15.430336
805.000000	15.456598
806.000000	15.484303
807.000000	15.542389
808.000000	15.598282
809.000000	15.655605
810.000000	15.714840
811.000000	15.772395
812.000000	15.829691
813.000000	15.886362
814.000000	15.944874
815.000000	16.005314
816.000000	16.064662
817.000000	16.089947
818.000000	16.112600
819.000000	16.136670
820.000000	16.161076
821.000000	16.184384
822.000000	16.207304
823.000000	16.230444
824.000000	16.252724
825.000000	16.270737
826.000000	16.290260
827.000000	16.312127
828.000000	16.334593
829.000000	16.387772
830.000000	16.438851
831.000000	16.490940
832.000000	16.541173
833.000000	16.592550
834.000000	16.641457
835.000000	16.690138
836.000000	16.738619
837.000000	16.785845
838.000000	16.835196
839.000000	16.852194
840.000000	16.867488
841.000000	16.882579
842.000000	16.899272
843.000000	16.916640
844.000000	16.931915
845.000000	16.948732
846.000000	16.960285
847.000000	16.973804
848.000000	16.986225
849.000000	16.992708
850.000000	17.005814
851.000000	17.013916
852.000000	17.017640
853.000000	17.028623
854.000000	17.042312
855.000000	17.047988
856.000000	17.064217
857.000000	17.090247
858.000000	17.484900
859.000000	17.550100
860.000000	17.611698
861.000000	17.680216
862.000000	17.778926
863.000000	17.868318
864.000000	17.908661
865.000000	17.981213
866.000000	18.022880
867.000000	18.076165
868.000000	17.760995
869.000000	17.755108
870.000000	17.748695
871.000000	17.763648
872.000000	17.727053
873.000000	17.689957
874.000000	17.676615
875.000000	17.638247
876.000000	17.647642
877.000000	17.607675
878.000000	17.566660
879.000000	17.551172
880.000000	17.533663
881.000000	17.467913
882.000000	17.452455
883.000000	17.436200
884.000000	17.420027
885.000000	17.404383
886.000000	17.365213
887.000000	17.350985
888.000000	17.336575
889.000000	17.321750
890.000000	17.308315
891.000000	17.319187
892.000000	17.279940
893.000000	17.265660
894.000000	17.277763
895.000000	17.263943
896.000000	17.250835
897.000000	17.237158
898.000000	17.223480
899.000000	17.211120
900.000000	17.199775
901.000000	17.187778
902.000000	17.176347
903.000000	17.166335
904.000000	17.155883
905.000000	17.170567
906.000000	17.185195
907.000000	17.200457
908.000000	17.217607
909.000000	17.232433
910.000000	17.222730
911.000000	17.216417
912.000000	17.233515
913.000000	17.225095
914.000000	17.217495
915.000000	17.210308
916.000000	17.202915
917.000000	17.195908
918.000000	17.188305
919.000000	17.183845
920.000000	17.203693
921.000000	17.220815
922.000000	17.238410
923.000000	17.256823
924.000000	17.273320
925.000000	17.291752
926.000000	17.309410
927.000000	17.327278
928.000000	17.342932
929.000000	17.357800
930.000000	17.371350
931.000000	17.384945
932.000000	17.401108
933.000000	17.417420
934.000000	17.435890
935.000000	17.453080
936.000000	17.470562
937.000000	17.487592
938.000000	17.506442
939.000000	17.497335
940.000000	17.489925
941.000000	17.506922
942.000000	17.521180
943.000000	17.536095
944.000000	17.549243
945.000000	17.537440
946.000000	17.526020
947.000000	17.513915
948.000000	17.501175
949.000000	17.515955
950.000000	17.530995
951.000000	17.521615
952.000000	17.512383
953.000000	17.501975
954.000000	17.491600
955.000000	17.505675
956.000000	17.519865
957.000000	17.534695
958.000000	17.549187
959.000000	17.563535
960.000000	17.576555
961.000000	17.590293
962.000000	17.603875
963.000000	17.617220
964.000000	17.630007
965.000000	17.642618
966.000000	17.655280
967.000000	17.667630
968.000000	17.679945
969.000000	17.691643
970.000000	17.703732
971.000000	17.716000
972.000000	17.728603
973.000000	17.740603
974.000000	17.752598
975.000000	17.764930
976.000000	17.776410
977.000000	17.788362
978.000000	17.800410
979.000000	17.811747
980.000000	17.822938
981.000000	17.833723
982.000000	17.844595
983.000000	17.855495
984.000000	17.866582
985.000000	17.877440
986.000000	17.888140
987.000000	17.898645
988.000000	17.909617
989.000000	17.920960
990.000000	17.931620
991.000000	17.941273
992.000000	17.951428
993.000000	17.962105
994.000000	17.972478
995.000000	17.982185
996.000000	17.992213
997.000000	18.002750
998.000000	18.012663
999.000000	18.021863
1000.000000	18.031073
1001.000000	18.041708
1002.000000	18.051742
1003.000000	18.061268
1004.000000	18.070815
1005.000000	18.080845
1006.000000	18.090277
1007.000000	18.098410
1008.000000	18.106877
1009.000000	18.116305
1010.000000	18.125985
1011.000000	18.134823
1012.000000	18.143248
1013.000000	18.151630
1014.000000	18.160633
1015.000000	18.169715
1016.000000	18.178762
1017.000000	18.188315
1018.000000	18.198005
1019.000000	18.207763
1020.000000	18.218197
1021.000000	18.228510
1022.000000	18.238943
1023.000000	18.249490
1024.000000	18.258932
1025.000000	18.268368
1026.000000	18.278703
1027.000000	18.288745
1028.000000	18.298768
1029.000000	18.308868
1030.000000	18.317988
1031.000000	18.327240
1032.000000	18.336498
1033.000000	18.345645
1034.000000	18.355718
1035.000000	18.365407
1036.000000	18.374285
1037.000000	18.383010
1038.000000	18.391790
1039.000000	18.400565
1040.000000	18.409672
1041.000000	18.418222
1042.000000	18.426092
1043.000000	18.432860
1044.000000	18.440027
1045.000000	18.449165
1046.000000	18.458275
1047.000000	18.466697
1048.000000	18.474908
1049.000000	18.482875
1050.000000	18.491280
1051.000000	18.500160
1052.000000	18.509235
1053.000000	18.519112
1054.000000	18.528780
1055.000000	18.536975
1056.000000	18.545217
1057.000000	18.553983
1058.000000	18.562902
1059.000000	18.572152
1060.000000	18.580005
1061.000000	18.587673
1062.000000	18.596120
1063.000000	18.604605
1064.000000	18.612380
1065.000000	18.619808
1066.000000	18.627390
1067.000000	18.635562
1068.000000	18.644195
1069.000000	18.652992
1070.000000	18.662402
1071.000000	18.671615
1072.000000	18.681295
1073.000000	18.691533
1074.000000	18.701358
1075.000000	18.711693
1076.000000	18.721827
1077.000000	18.731637
1078.000000	18.740815
1079.000000	18.748683
1080.000000	18.756120
1081.000000	18.763083
1082.000000	18.769497
1083.000000	18.776187
1084.000000	18.783115
1085.000000	18.789305
1086.000000	18.795673
1087.000000	18.802653
1088.000000	18.809050
1089.000000	18.815818
1090.000000	18.822102
1091.000000	18.828855
1092.000000	18.836002
1093.000000	18.842230
1094.000000	18.848375
1095.000000	18.854837
1096.000000	18.860418
1097.000000	18.865563
1098.000000	18.870910
1099.000000	18.876280
1100.000000	18.882573
1101.000000	18.889075
1102.000000	18.894355
1103.000000	18.900243
1104.000000	18.905525
1105.000000	18.910515
1106.000000	18.915762
1107.000000	18.920275
1108.000000	18.925018
1109.000000	18.928947
1110.000000	18.932557
1111.000000	18.935895
1112.000000	18.938770
1113.000000	18.940665
1114.000000	18.943278
1115.000000	18.944520
1116.000000	18.945790
1117.000000	18.947942
1118.000000	18.949605
1119.000000	18.951105
1120.000000	18.952680
1121.000000	18.954795
1122.000000	18.958370
1123.000000	18.962520
1124.000000	18.966448
1125.000000	18.971315
1126.000000	18.975860
1127.000000	18.979330
1128.000000	18.981545
1129.000000	18.984637
1130.000000	18.986973
1131.000000	18.985643
1132.000000	18.981775
1133.000000	18.978417
1134.000000	18.976487
1135.000000	18.975997
1136.000000	18.973935
1137.000000	18.970490
1138.000000	18.966990
1139.000000	18.962652
1140.000000	18.958170
1141.000000	18.955777
1142.000000	18.954185
1143.000000	18.951863
1144.000000	18.947783
1145.000000	18.943140
1146.000000	18.939935
1147.000000	18.937310
1148.000000	18.935163
1149.000000	18.934442
1150.000000	18.933420
1151.000000	18.931980
1152.000000	18.931893
1153.000000	18.931307
1154.000000	18.930100
1155.000000	18.927350
1156.000000	18.923425
1157.000000	18.918585
1158.000000	18.914618
1159.000000	18.907853
1160.000000	18.900447
1161.000000	18.891240
1162.000000	18.880645
1163.000000	18.869627
1164.000000	18.857908
1165.000000	18.845613
1166.000000	18.832630
1167.000000	18.820322
1168.000000	18.806537
1169.000000	18.793850
1170.000000	18.782220
