PE UV       SUBTECH     SPECTRUM    ASCII       PEDS        4.00        
   -1
INBUCR0436-4.Sample.ASC
24/02/09
16:13:20.00
24/02/09
16:13:20.00
Vinicio Soto Monge
COSTA RICA. Prov. Alajuela. Guatuso. P.N. Volcán Tenorio. Punto 4: Cerro Montezuma. 1510 m. 27 AGO 2008. INB0004169209 INBIOCRI COSTA RICA .
250,000000
1
Lambda 1050
1050L1511233
PerkinElmer UV WinLab 6.3.2.0749 / 2.02.05 Lambda 900 UV/VIS/NIR, Aug  7 2015 09:38:08

0
0
3350/servo 860,8/2
0
0
UV/VIS
1
1
1
DoubleDePol,CommonBeamDepol,RBeamAtt,SBeamAtt,60mm sphere, WB InGaAs Detector
0
0
0
0
Program
Program
3350/servo 860,8/2
3350/0,2 860,8/0,2
3350/0,2 860,8/0,2
0
15.00
 
 
 
0
 
860,8
319,2
860,8
Front
100
on
S:100 R:100
0
0
0
0
 
0
 
 
 
0
 
 
0
0
0
0
0
 
 
 
 
0
0


0
0
#HDR
-1
-1
#GR
nm
%R
1.0
0.0
2500,000000
-1,000000
2251
8
16,644400
0,693400
#DATA

250.000000	nan
251.000000	nan
252.000000	nan
253.000000	nan
254.000000	nan
255.000000	nan
256.000000	nan
257.000000	nan
258.000000	nan
259.000000	3.561989
260.000000	3.560949
261.000000	3.559630
262.000000	3.559859
263.000000	3.559918
264.000000	3.557432
265.000000	3.554587
266.000000	3.552657
267.000000	3.548791
268.000000	3.548179
269.000000	3.547394
270.000000	3.545727
271.000000	3.544248
272.000000	3.541946
273.000000	3.539653
274.000000	3.539577
275.000000	3.537606
276.000000	3.535963
277.000000	3.534981
278.000000	3.532558
279.000000	3.531386
280.000000	3.530553
281.000000	3.529693
282.000000	3.529398
283.000000	3.529467
284.000000	3.530221
285.000000	3.531096
286.000000	3.533394
287.000000	3.534953
288.000000	3.536311
289.000000	3.538715
290.000000	3.541304
291.000000	3.543236
292.000000	3.545746
293.000000	3.548560
294.000000	3.551867
295.000000	3.554225
296.000000	3.556276
297.000000	3.559060
298.000000	3.564017
299.000000	3.567350
300.000000	3.569250
301.000000	3.572614
302.000000	3.577068
303.000000	3.579805
304.000000	3.581718
305.000000	3.586745
306.000000	3.590004
307.000000	3.593784
308.000000	3.596288
309.000000	3.596428
310.000000	3.600164
311.000000	3.601976
312.000000	3.605609
313.000000	3.609449
314.000000	3.613723
315.000000	3.616142
316.000000	3.620851
317.000000	3.644795
318.000000	3.653482
319.000000	3.679130
320.000000	3.694180
321.000000	3.712093
322.000000	3.725622
323.000000	3.741718
324.000000	3.758378
325.000000	3.777124
326.000000	3.784666
327.000000	3.772735
328.000000	3.771892
329.000000	3.761283
330.000000	3.768099
331.000000	3.767321
332.000000	3.767100
333.000000	3.756483
334.000000	3.747194
335.000000	3.741716
336.000000	3.743300
337.000000	3.743765
338.000000	3.746886
339.000000	3.748073
340.000000	3.735695
341.000000	3.732577
342.000000	3.729418
343.000000	3.730571
344.000000	3.731728
345.000000	3.727942
346.000000	3.729999
347.000000	3.732325
348.000000	3.732558
349.000000	3.730898
350.000000	3.733241
351.000000	3.731273
352.000000	3.729689
353.000000	3.731078
354.000000	3.730860
355.000000	3.735243
356.000000	3.733651
357.000000	3.733576
358.000000	3.738719
359.000000	3.739524
360.000000	3.741409
361.000000	3.743369
362.000000	3.744328
363.000000	3.746909
364.000000	3.751063
365.000000	3.749492
366.000000	3.750061
367.000000	3.748926
368.000000	3.748379
369.000000	3.749372
370.000000	3.746957
371.000000	3.744854
372.000000	3.747067
373.000000	3.745821
374.000000	3.740361
375.000000	3.735860
376.000000	3.733890
377.000000	3.760129
378.000000	3.784039
379.000000	3.809869
380.000000	3.838404
381.000000	3.867468
382.000000	3.893697
383.000000	3.923304
384.000000	3.955039
385.000000	3.987019
386.000000	4.016856
387.000000	4.020253
388.000000	4.023280
389.000000	4.026289
390.000000	4.029883
391.000000	4.033559
392.000000	4.036980
393.000000	4.040050
394.000000	4.042846
395.000000	4.045834
396.000000	4.049159
397.000000	4.052428
398.000000	4.055644
399.000000	4.058940
400.000000	4.062347
401.000000	4.065657
402.000000	4.069197
403.000000	4.072695
404.000000	4.076248
405.000000	4.080059
406.000000	4.083450
407.000000	4.086942
408.000000	4.090616
409.000000	4.094128
410.000000	4.097288
411.000000	4.100554
412.000000	4.103814
413.000000	4.107138
414.000000	4.110538
415.000000	4.113695
416.000000	4.117083
417.000000	4.120596
418.000000	4.123977
419.000000	4.127307
420.000000	4.131126
421.000000	4.135162
422.000000	4.138958
423.000000	4.142583
424.000000	4.146067
425.000000	4.149607
426.000000	4.153336
427.000000	4.157091
428.000000	4.161069
429.000000	4.165051
430.000000	4.168813
431.000000	4.172729
432.000000	4.176856
433.000000	4.181191
434.000000	4.185633
435.000000	4.190135
436.000000	4.194417
437.000000	4.198409
438.000000	4.202430
439.000000	4.206831
440.000000	4.211355
441.000000	4.215591
442.000000	4.219813
443.000000	4.224245
444.000000	4.259399
445.000000	4.294407
446.000000	4.329706
447.000000	4.365571
448.000000	4.401486
449.000000	4.436965
450.000000	4.472436
451.000000	4.508117
452.000000	4.543712
453.000000	4.579414
454.000000	4.584373
455.000000	4.589340
456.000000	4.594406
457.000000	4.599245
458.000000	4.604060
459.000000	4.609113
460.000000	4.614260
461.000000	4.619529
462.000000	4.624946
463.000000	4.630315
464.000000	4.635738
465.000000	4.641399
466.000000	4.646968
467.000000	4.652377
468.000000	4.657887
469.000000	4.663580
470.000000	4.669045
471.000000	4.674271
472.000000	4.679444
473.000000	4.684735
474.000000	4.690022
475.000000	4.695090
476.000000	4.699937
477.000000	4.704823
478.000000	4.709653
479.000000	4.714345
480.000000	4.718868
481.000000	4.723081
482.000000	4.726925
483.000000	4.730681
484.000000	4.734849
485.000000	4.739270
486.000000	4.775203
487.000000	4.811748
488.000000	4.848689
489.000000	4.886026
490.000000	4.924005
491.000000	4.962845
492.000000	5.002525
493.000000	5.042621
494.000000	5.082763
495.000000	5.123359
496.000000	5.133178
497.000000	5.142571
498.000000	5.152053
499.000000	5.161646
500.000000	5.171357
501.000000	5.181201
502.000000	5.221952
503.000000	5.262777
504.000000	5.303569
505.000000	5.344294
506.000000	5.384520
507.000000	5.424915
508.000000	5.465379
509.000000	5.505579
510.000000	5.545529
511.000000	5.585141
512.000000	5.593797
513.000000	5.632885
514.000000	5.671656
515.000000	5.710039
516.000000	5.748433
517.000000	5.786691
518.000000	5.824452
519.000000	5.862186
520.000000	5.930842
521.000000	5.999522
522.000000	6.068017
523.000000	6.105641
524.000000	6.143605
525.000000	6.181790
526.000000	6.251031
527.000000	6.320443
528.000000	6.390138
529.000000	6.460063
530.000000	6.499379
531.000000	6.569965
532.000000	6.640694
533.000000	6.711941
534.000000	6.783500
535.000000	6.886056
536.000000	6.957893
537.000000	7.030058
538.000000	7.102175
539.000000	7.174493
540.000000	7.277684
541.000000	7.350228
542.000000	7.422873
543.000000	7.495541
544.000000	7.568224
545.000000	7.609931
546.000000	7.651608
547.000000	7.693291
548.000000	7.766095
549.000000	7.838642
550.000000	7.880416
551.000000	7.921883
552.000000	7.963307
553.000000	8.004766
554.000000	8.046059
555.000000	8.087142
556.000000	8.128451
557.000000	8.169773
558.000000	8.179779
559.000000	8.190150
560.000000	8.195123
561.000000	8.199192
562.000000	8.203093
563.000000	8.206760
564.000000	8.210467
565.000000	8.214105
566.000000	8.217393
567.000000	8.220403
568.000000	8.223725
569.000000	8.226714
570.000000	8.234954
571.000000	8.244025
572.000000	8.253279
573.000000	8.231498
574.000000	8.209608
575.000000	8.187989
576.000000	8.166469
577.000000	8.144998
578.000000	8.123565
579.000000	8.102139
580.000000	8.080551
581.000000	8.059002
582.000000	8.037389
583.000000	8.015996
584.000000	7.994684
585.000000	7.973841
586.000000	7.952587
587.000000	7.931393
588.000000	7.910372
589.000000	7.889008
590.000000	7.836760
591.000000	7.784497
592.000000	7.732043
593.000000	7.710688
594.000000	7.689343
595.000000	7.667271
596.000000	7.645930
597.000000	7.623970
598.000000	7.601838
599.000000	7.580399
600.000000	7.589404
601.000000	7.598460
602.000000	7.607983
603.000000	7.616926
604.000000	7.626042
605.000000	7.635385
606.000000	7.644310
607.000000	7.622844
608.000000	7.600988
609.000000	7.578645
610.000000	7.557088
611.000000	7.535434
612.000000	7.513468
613.000000	7.492080
614.000000	7.470146
615.000000	7.448472
616.000000	7.426499
617.000000	7.435396
618.000000	7.444667
619.000000	7.453866
620.000000	7.462836
621.000000	7.472078
622.000000	7.481175
623.000000	7.489862
624.000000	7.499194
625.000000	7.508187
626.000000	7.517474
627.000000	7.526666
628.000000	7.536165
629.000000	7.545738
630.000000	7.555481
631.000000	7.595529
632.000000	7.636201
633.000000	7.676914
634.000000	7.716887
635.000000	7.757175
636.000000	7.797900
637.000000	7.838621
638.000000	7.878985
639.000000	7.919626
640.000000	7.960279
641.000000	7.970207
642.000000	7.980238
643.000000	7.990082
644.000000	8.000411
645.000000	8.010672
646.000000	8.021071
647.000000	8.030963
648.000000	8.040968
649.000000	8.051139
650.000000	8.061313
651.000000	8.102190
652.000000	8.142598
653.000000	8.183466
654.000000	8.224116
655.000000	8.264482
656.000000	8.304358
657.000000	8.344793
658.000000	8.385407
659.000000	8.425751
660.000000	8.465997
661.000000	8.475649
662.000000	8.485108
663.000000	8.525118
664.000000	8.565828
665.000000	8.606081
666.000000	8.646546
667.000000	8.687317
668.000000	8.727907
669.000000	8.768459
670.000000	8.809027
671.000000	8.849573
672.000000	8.921037
673.000000	8.961696
674.000000	9.001638
675.000000	9.042692
676.000000	9.083445
677.000000	9.123454
678.000000	9.163065
679.000000	9.202888
680.000000	9.273969
681.000000	9.345148
682.000000	9.385465
683.000000	9.425360
684.000000	9.465638
685.000000	9.505504
686.000000	9.545215
687.000000	9.616671
688.000000	9.688767
689.000000	9.760161
690.000000	9.800074
691.000000	9.839715
692.000000	9.880181
693.000000	9.951716
694.000000	10.022410
695.000000	10.093595
696.000000	10.165663
697.000000	10.206017
698.000000	10.245659
699.000000	10.285774
700.000000	10.356468
701.000000	10.427330
702.000000	10.497772
703.000000	10.537716
704.000000	10.578383
705.000000	10.618890
706.000000	10.658923
707.000000	10.699401
708.000000	10.770909
709.000000	10.842045
710.000000	10.882468
711.000000	10.923031
712.000000	10.964372
713.000000	11.005490
714.000000	11.046262
715.000000	11.086983
716.000000	11.127450
717.000000	11.167981
718.000000	11.208403
719.000000	11.249404
720.000000	11.290674
721.000000	11.331810
722.000000	11.372125
723.000000	11.413016
724.000000	11.454320
725.000000	11.495541
726.000000	11.537087
727.000000	11.578569
728.000000	11.589163
729.000000	11.599394
730.000000	11.609831
731.000000	11.620834
732.000000	11.631829
733.000000	11.642434
734.000000	11.652931
735.000000	11.663116
736.000000	11.672971
737.000000	11.714064
738.000000	11.755963
739.000000	11.797908
740.000000	11.839625
741.000000	11.880936
742.000000	11.922116
743.000000	11.963665
744.000000	12.005354
745.000000	12.046768
746.000000	12.088653
747.000000	12.099929
748.000000	12.110360
749.000000	12.121122
750.000000	12.132080
751.000000	12.142705
752.000000	12.153572
753.000000	12.163819
754.000000	12.174237
755.000000	12.185375
756.000000	12.196861
757.000000	12.208072
758.000000	12.219618
759.000000	12.231275
760.000000	12.242556
761.000000	12.254747
762.000000	12.266660
763.000000	12.278464
764.000000	12.289907
765.000000	12.301678
766.000000	12.313156
767.000000	12.324533
768.000000	12.335133
769.000000	12.345064
770.000000	12.355773
771.000000	12.365962
772.000000	12.376615
773.000000	12.387913
774.000000	12.399541
775.000000	12.410254
776.000000	12.421321
777.000000	12.432543
778.000000	12.445090
779.000000	12.459149
780.000000	12.472249
781.000000	12.484533
782.000000	12.496859
783.000000	12.509886
784.000000	12.522661
785.000000	12.535538
786.000000	12.548003
787.000000	12.559961
788.000000	12.572113
789.000000	12.583280
790.000000	12.596557
791.000000	12.610270
792.000000	12.624107
793.000000	12.636762
794.000000	12.649154
795.000000	12.662055
796.000000	12.675366
797.000000	12.719506
798.000000	12.764117
799.000000	12.809184
800.000000	12.852766
801.000000	12.896544
802.000000	12.940180
803.000000	12.984645
804.000000	13.029723
805.000000	13.075608
806.000000	13.119584
807.000000	13.132276
808.000000	13.144869
809.000000	13.158453
810.000000	13.172677
811.000000	13.188482
812.000000	13.202404
813.000000	13.216792
814.000000	13.231114
815.000000	13.243761
816.000000	13.258257
817.000000	13.273303
818.000000	13.288935
819.000000	13.303112
820.000000	13.315070
821.000000	13.325480
822.000000	13.338147
823.000000	13.350895
824.000000	13.363144
825.000000	13.375383
826.000000	13.386481
827.000000	13.399816
828.000000	13.409692
829.000000	13.421847
830.000000	13.436153
831.000000	13.448258
832.000000	13.460562
833.000000	13.470327
834.000000	13.479473
835.000000	13.489548
836.000000	13.498939
837.000000	13.506231
838.000000	13.514260
839.000000	13.522304
840.000000	13.527752
841.000000	13.538149
842.000000	13.545436
843.000000	13.524268
844.000000	13.504325
845.000000	13.514661
846.000000	13.493275
847.000000	13.503322
848.000000	13.483258
849.000000	13.484084
850.000000	13.486378
851.000000	13.460722
852.000000	13.431199
853.000000	13.435312
854.000000	13.431703
855.000000	13.404479
856.000000	13.412975
857.000000	13.393250
858.000000	13.645976
859.000000	13.660403
860.000000	13.674818
861.000000	13.690340
862.000000	13.713432
863.000000	13.732937
864.000000	13.760185
865.000000	13.780652
866.000000	13.799155
867.000000	13.814563
868.000000	13.589163
869.000000	13.528332
870.000000	13.492980
871.000000	13.482490
872.000000	13.470930
873.000000	13.459772
874.000000	13.423298
875.000000	13.386690
876.000000	13.375307
877.000000	13.339005
878.000000	13.277382
879.000000	13.267305
880.000000	13.256422
881.000000	13.219785
882.000000	13.208895
883.000000	13.171637
884.000000	13.184825
885.000000	13.173400
886.000000	13.137750
887.000000	13.126942
888.000000	13.140960
889.000000	13.129430
890.000000	13.093617
891.000000	13.083288
892.000000	13.047982
893.000000	13.038610
894.000000	13.004370
895.000000	12.995640
896.000000	12.984965
897.000000	12.976020
898.000000	12.966390
899.000000	12.982345
900.000000	12.999340
901.000000	13.016223
902.000000	13.007788
903.000000	12.999488
904.000000	12.991798
905.000000	12.984755
906.000000	12.978473
907.000000	12.971347
908.000000	12.966680
909.000000	12.960477
910.000000	12.954480
911.000000	12.948515
912.000000	12.966797
913.000000	12.986788
914.000000	13.007785
915.000000	13.027927
916.000000	13.048030
917.000000	13.068375
918.000000	13.088047
919.000000	13.108742
920.000000	13.128467
921.000000	13.149265
922.000000	13.169830
923.000000	13.190402
924.000000	13.209445
925.000000	13.228485
926.000000	13.221915
927.000000	13.214770
928.000000	13.232285
929.000000	13.248990
930.000000	13.265607
931.000000	13.281930
932.000000	13.299492
933.000000	13.315265
934.000000	13.330795
935.000000	13.321395
936.000000	13.362765
937.000000	13.404845
938.000000	13.422220
939.000000	13.414585
940.000000	13.407173
941.000000	13.398300
942.000000	13.389413
943.000000	13.380157
944.000000	13.370525
945.000000	13.386170
946.000000	13.376593
947.000000	13.391458
948.000000	13.379907
949.000000	13.393747
950.000000	13.408585
951.000000	13.424177
952.000000	13.437648
953.000000	13.453613
954.000000	13.493957
955.000000	13.533410
956.000000	13.572915
957.000000	13.587150
958.000000	13.602053
959.000000	13.617080
960.000000	13.630552
961.000000	13.644605
962.000000	13.659105
963.000000	13.672725
964.000000	13.661775
965.000000	13.675665
966.000000	13.689110
967.000000	13.677365
968.000000	13.689910
969.000000	13.727832
970.000000	13.741763
971.000000	13.755225
972.000000	13.794455
973.000000	13.832195
974.000000	13.870817
975.000000	13.884263
976.000000	13.897248
977.000000	13.935165
978.000000	13.973785
979.000000	13.987565
980.000000	14.025507
981.000000	14.062832
982.000000	14.075482
983.000000	14.088340
984.000000	14.100058
985.000000	14.112177
986.000000	14.124935
987.000000	14.136945
988.000000	14.148840
989.000000	14.160200
990.000000	14.171700
991.000000	14.183253
992.000000	14.194990
993.000000	14.206633
994.000000	14.218560
995.000000	14.230363
996.000000	14.241950
997.000000	14.254257
998.000000	14.266708
999.000000	14.279270
1000.000000	14.291890
1001.000000	14.305162
1002.000000	14.318072
1003.000000	14.330388
1004.000000	14.341503
1005.000000	14.352370
1006.000000	14.363825
1007.000000	14.376218
1008.000000	14.388492
1009.000000	14.400417
1010.000000	14.412252
1011.000000	14.423050
1012.000000	14.433582
1013.000000	14.444517
1014.000000	14.456658
1015.000000	14.469577
1016.000000	14.481947
1017.000000	14.492957
1018.000000	14.504163
1019.000000	14.515495
1020.000000	14.526250
1021.000000	14.562848
1022.000000	14.574270
1023.000000	14.610563
1024.000000	14.647425
1025.000000	14.683438
1026.000000	14.718863
1027.000000	14.755437
1028.000000	14.791910
1029.000000	14.827222
1030.000000	14.863117
1031.000000	14.874370
1032.000000	14.911022
1033.000000	14.923050
1034.000000	14.934425
1035.000000	14.946145
1036.000000	14.958305
1037.000000	14.969360
1038.000000	14.980882
1039.000000	14.993690
1040.000000	15.005873
1041.000000	15.017368
1042.000000	15.028862
1043.000000	15.040612
1044.000000	15.052312
1045.000000	15.063895
1046.000000	15.075297
1047.000000	15.086200
1048.000000	15.096515
1049.000000	15.107518
1050.000000	15.119133
1051.000000	15.130717
1052.000000	15.141820
1053.000000	15.153252
1054.000000	15.165035
1055.000000	15.176780
1056.000000	15.189075
1057.000000	15.201412
1058.000000	15.213838
1059.000000	15.225497
1060.000000	15.237245
1061.000000	15.249302
1062.000000	15.261210
1063.000000	15.272410
1064.000000	15.283880
1065.000000	15.295805
1066.000000	15.332135
1067.000000	15.369295
1068.000000	15.407013
1069.000000	15.444748
1070.000000	15.481823
1071.000000	15.518807
1072.000000	15.556262
1073.000000	15.593643
1074.000000	15.629655
1075.000000	15.666333
1076.000000	15.678847
1077.000000	15.690397
1078.000000	15.701120
1079.000000	15.711433
1080.000000	15.722380
1081.000000	15.733280
1082.000000	15.744215
1083.000000	15.755575
1084.000000	15.767408
1085.000000	15.777857
1086.000000	15.788063
1087.000000	15.799398
1088.000000	15.810485
1089.000000	15.821553
1090.000000	15.833080
1091.000000	15.845198
1092.000000	15.856618
1093.000000	15.866445
1094.000000	15.877042
1095.000000	15.888268
1096.000000	15.899047
1097.000000	15.909055
1098.000000	15.919643
1099.000000	15.931222
1100.000000	15.941993
1101.000000	15.952032
1102.000000	15.962305
1103.000000	15.972975
1104.000000	15.983205
1105.000000	15.992960
1106.000000	16.003665
1107.000000	16.014440
1108.000000	16.024245
1109.000000	16.033567
1110.000000	16.042533
1111.000000	16.051115
1112.000000	16.059900
1113.000000	16.069675
1114.000000	16.078007
1115.000000	16.111372
1116.000000	16.119585
1117.000000	16.152905
1118.000000	16.187027
1119.000000	16.220080
1120.000000	16.252655
1121.000000	16.287243
1122.000000	16.322110
1123.000000	16.355287
1124.000000	16.389930
1125.000000	16.398228
1126.000000	16.431447
1127.000000	16.439512
1128.000000	16.447965
1129.000000	16.456820
1130.000000	16.465562
1131.000000	16.470795
1132.000000	16.473293
1133.000000	16.478192
1134.000000	16.458760
1135.000000	16.464858
1136.000000	16.445725
1137.000000	16.425542
1138.000000	16.403633
1139.000000	16.380257
1140.000000	16.358912
1141.000000	16.337383
1142.000000	16.316803
1143.000000	16.295525
1144.000000	16.299190
1145.000000	16.277715
1146.000000	16.280812
1147.000000	16.284105
1148.000000	16.288467
1149.000000	16.294175
1150.000000	16.298818
1151.000000	16.303958
1152.000000	16.310300
1153.000000	16.316385
1154.000000	16.321265
1155.000000	16.325828
1156.000000	16.329160
1157.000000	16.332798
1158.000000	16.334235
1159.000000	16.335910
1160.000000	16.337510
1161.000000	16.338043
1162.000000	16.337405
1163.000000	16.335992
1164.000000	16.333617
1165.000000	16.330757
1166.000000	16.327190
1167.000000	16.323270
1168.000000	16.321020
1169.000000	16.318310
1170.000000	16.314258
1171.000000	16.311732
1172.000000	16.310207
1173.000000	16.308847
1174.000000	16.307700
1175.000000	16.306160
1176.000000	16.306027
