PE UV       SUBTECH     SPECTRUM    ASCII       PEDS        4.00        
   -1
CICIMAUCR0252-1.Sample.ASC
24/06/24
16:27:38.00
24/06/24
16:27:38.00
Vinicio Soto Monge
C. resplendens. Sex F.Dorsal. 
250,000000
1
Lambda 1050
1050L1511233
PerkinElmer UV WinLab 6.3.2.0749 / 2.02.05 Lambda 900 UV/VIS/NIR, Aug  7 2015 09:38:08

0
0
3350/servo 860,8/2
0
0
UV/VIS
1
1
1
DoubleDePol,CommonBeamDepol,RBeamAtt,SBeamAtt,60mm sphere, WB InGaAs Detector
0
0
0
0
Program
Program
3350/servo 860,8/2
3350/0,2 860,8/0,2
3350/0,2 860,8/0,2
0
15.00
 
 
 
0
 
860,8
319,2
860,8
Front
100
on
S:100 R:100
0
0
0
0
 
0
 
 
 
0
 
 
0
0
0
0
0
 
 
 
 
0
0


0
0
#HDR
-1
-1
#GR
nm
%R
1.0
0.0
2500,000000
-1,000000
2251
8
89,699100
5,514600
#DATA
2482.000000	8.029201
2481.000000	8.080698
2480.000000	8.097197
2479.000000	8.082799
2478.000000	7.988109
2477.000000	8.102557
2476.000000	8.094570
2475.000000	8.039711
2474.000000	8.115274
2473.000000	8.043915
2472.000000	8.121264
2471.000000	8.148588
2470.000000	8.102978
2469.000000	8.089000
2468.000000	8.160884
2467.000000	8.142808
2466.000000	8.152057
2465.000000	8.207231
2464.000000	8.213011
2463.000000	8.218581
2462.000000	8.258307
2461.000000	8.308332
2460.000000	8.350895
2459.000000	8.398397
2458.000000	8.416158
2457.000000	8.471228
2456.000000	8.514211
2455.000000	8.559402
2454.000000	8.579265
2453.000000	8.638853
2452.000000	8.674060
2451.000000	8.758030
2450.000000	8.810052
2449.000000	8.864385
2448.000000	8.923448
2447.000000	8.958760
2446.000000	9.026441
2445.000000	9.090758
2444.000000	9.165901
2443.000000	9.189757
2442.000000	9.268158
2441.000000	9.338991
2440.000000	9.398474
2439.000000	9.466365
2438.000000	9.506616
2437.000000	9.557587
2436.000000	9.612867
2435.000000	9.679707
2434.000000	9.725318
2433.000000	9.779441
2432.000000	9.848068
2431.000000	9.880332
2430.000000	9.906815
2429.000000	9.972815
2428.000000	10.052161
2427.000000	10.092832
2426.000000	10.114797
2425.000000	10.171127
2424.000000	10.218945
2423.000000	10.248372
2422.000000	10.301654
2421.000000	10.347581
2420.000000	10.371332
2419.000000	10.412003
2418.000000	10.471487
2417.000000	10.499757
2416.000000	10.534648
2415.000000	10.563234
2414.000000	10.607479
2413.000000	10.636590
2412.000000	10.661497
2411.000000	10.694812
2410.000000	10.729808
2409.000000	10.748305
2408.000000	10.760286
2407.000000	10.798961
2406.000000	10.828702
2405.000000	10.849931
2404.000000	10.874944
2403.000000	10.902373
2402.000000	10.930118
2401.000000	10.960911
2400.000000	11.002633
2399.000000	11.052868
2398.000000	11.112772
2397.000000	11.153233
2396.000000	11.174567
2395.000000	11.203994
2394.000000	11.240777
2393.000000	11.264423
2392.000000	11.281238
2391.000000	11.297948
2390.000000	11.331999
2389.000000	11.360164
2388.000000	11.366680
2387.000000	11.394950
2386.000000	11.413342
2385.000000	11.424061
2384.000000	11.440876
2383.000000	11.449284
2382.000000	11.462210
2381.000000	11.472405
2380.000000	11.485226
2379.000000	11.487958
2378.000000	11.499204
2377.000000	11.508767
2376.000000	11.500360
2375.000000	11.504353
2374.000000	11.504774
2373.000000	11.499519
2372.000000	11.503618
2371.000000	11.484385
2370.000000	11.467465
2369.000000	11.482914
2368.000000	11.470198
2367.000000	11.456115
2366.000000	11.453277
2365.000000	11.453172
2364.000000	11.442873
2363.000000	11.417545
2362.000000	11.387278
2361.000000	11.358167
2360.000000	11.346186
2359.000000	11.338094
2358.000000	11.328530
2357.000000	11.312241
2356.000000	11.286493
2355.000000	11.278821
2354.000000	11.273146
2353.000000	11.258538
2352.000000	11.262426
2351.000000	11.269993
2350.000000	11.261270
2349.000000	11.258748
2348.000000	11.288700
2347.000000	11.316129
2346.000000	11.330422
2345.000000	11.357326
2344.000000	11.389800
2343.000000	11.395476
2342.000000	11.423431
2341.000000	11.481127
2340.000000	11.506350
2339.000000	11.535881
2338.000000	11.562575
2337.000000	11.598307
2336.000000	11.638033
2335.000000	11.664937
2334.000000	11.677549
2333.000000	11.673975
2332.000000	11.674711
2331.000000	11.688583
2330.000000	11.690895
2329.000000	11.697096
2328.000000	11.700354
2327.000000	11.675447
2326.000000	11.661784
2325.000000	11.640345
2324.000000	11.617540
2323.000000	11.601355
2322.000000	11.579075
2321.000000	11.540401
2320.000000	11.507611
2319.000000	11.436357
2318.000000	11.386332
2317.000000	11.328110
2316.000000	11.262006
2315.000000	11.211561
2314.000000	11.148084
2313.000000	11.078827
2312.000000	11.025334
2311.000000	10.961962
2310.000000	10.888711
2309.000000	10.851087
2308.000000	10.828492
2307.000000	10.783512
2306.000000	10.752614
2305.000000	10.748620
2304.000000	10.738636
2303.000000	10.768063
2302.000000	10.802008
2301.000000	10.827021
2300.000000	10.873157
2299.000000	10.938210
2298.000000	10.983086
2297.000000	11.032795
2296.000000	11.107833
2295.000000	11.170784
2294.000000	11.237834
2293.000000	11.301101
2292.000000	11.352597
2291.000000	11.418386
2290.000000	11.452121
2289.000000	11.524216
2288.000000	11.555534
2287.000000	11.584750
2286.000000	11.615858
2285.000000	11.617540
2284.000000	11.611339
2283.000000	11.637087
2282.000000	11.615017
2281.000000	11.600725
2280.000000	11.597151
2279.000000	11.578024
2278.000000	11.564887
2277.000000	11.528525
2276.000000	11.489745
2275.000000	11.492478
2274.000000	11.477029
2273.000000	11.450545
2272.000000	11.444660
2271.000000	11.426899
2270.000000	11.456430
2269.000000	11.478395
2268.000000	11.503723
2267.000000	11.539350
2266.000000	11.606295
2265.000000	11.687217
2264.000000	11.756474
2263.000000	11.845489
2262.000000	11.975596
2261.000000	12.121362
2260.000000	12.265341
2259.000000	12.395447
2258.000000	12.563703
2257.000000	12.775363
2256.000000	12.923126
2255.000000	13.113977
2254.000000	13.288643
2253.000000	13.462785
2252.000000	13.660572
2251.000000	13.838392
2250.000000	14.004125
2249.000000	14.162397
2248.000000	14.335277
2247.000000	14.473686
2246.000000	14.600115
2245.000000	14.715613
2244.000000	14.833844
2243.000000	14.945980
2242.000000	15.044138
2241.000000	15.126217
2240.000000	15.217438
2239.000000	15.318854
2238.000000	15.383487
2237.000000	15.435614
2236.000000	15.477547
2235.000000	15.526521
2234.000000	15.578227
2233.000000	15.616586
2232.000000	15.643280
2231.000000	15.676805
2230.000000	15.689101
2229.000000	15.686369
2228.000000	15.709385
2227.000000	15.716426
2226.000000	15.716846
2225.000000	15.687525
2224.000000	15.666296
2223.000000	15.664930
2222.000000	15.616166
2221.000000	15.587265
2220.000000	15.558364
2219.000000	15.506658
2218.000000	15.486900
2217.000000	15.455372
2216.000000	15.388217
2215.000000	15.377812
2214.000000	15.345548
2213.000000	15.319485
2212.000000	15.248336
2211.000000	15.219120
2210.000000	15.183283
2209.000000	15.148181
2208.000000	15.109507
2207.000000	15.099523
2206.000000	15.047186
2205.000000	15.048657
2204.000000	14.999053
2203.000000	14.987282
2202.000000	14.975511
2201.000000	14.931162
2200.000000	14.923595
2199.000000	14.897952
2198.000000	14.876828
2197.000000	14.844459
2196.000000	14.841621
2195.000000	14.843093
2194.000000	14.800424
2193.000000	14.800004
2192.000000	14.776148
2191.000000	14.757441
2190.000000	14.754813
2189.000000	14.740310
2188.000000	14.724546
2187.000000	14.721814
2186.000000	14.693333
2185.000000	14.660544
2184.000000	14.654238
2183.000000	14.613987
2182.000000	14.609994
2181.000000	14.588870
2180.000000	14.562281
2179.000000	14.528020
2178.000000	14.508683
2177.000000	14.497543
2176.000000	14.496177
2175.000000	14.501431
2174.000000	14.474002
2173.000000	14.453718
2172.000000	14.437219
2171.000000	14.431018
2170.000000	14.450040
2169.000000	14.450145
2168.000000	14.449515
2167.000000	14.447308
2166.000000	14.466014
2165.000000	14.483250
2164.000000	14.492708
2163.000000	14.489766
2162.000000	14.508788
2161.000000	14.537899
2160.000000	14.543364
2159.000000	14.600955
2158.000000	14.621554
2157.000000	14.639630
2156.000000	14.675047
2155.000000	14.713091
2154.000000	14.737368
2153.000000	14.785291
2152.000000	14.836997
2151.000000	14.865162
2150.000000	14.932633
2149.000000	14.977088
2148.000000	15.013976
2147.000000	15.054122
2146.000000	15.095739
2145.000000	15.151860
2144.000000	15.197050
2143.000000	15.233938
2142.000000	15.282176
2141.000000	15.317278
2140.000000	15.370771
2139.000000	15.408815
2138.000000	15.433302
2137.000000	15.480279
2136.000000	15.517483
2135.000000	15.540288
2134.000000	15.569294
2133.000000	15.604606
2132.000000	15.647379
2131.000000	15.669134
2130.000000	15.703499
2129.000000	15.734607
2128.000000	15.744171
2127.000000	15.761406
2126.000000	15.758884
2125.000000	15.779167
2124.000000	15.802603
2123.000000	15.825619
2122.000000	15.817316
2121.000000	15.819944
2120.000000	15.821100
2119.000000	15.834447
2118.000000	15.844326
2117.000000	15.835077
2116.000000	15.826460
2115.000000	15.834972
2114.000000	15.830138
2113.000000	15.817527
2112.000000	15.803234
2111.000000	15.782740
2110.000000	15.780954
2109.000000	15.763613
2108.000000	15.770339
2107.000000	15.756887
2106.000000	15.744381
2105.000000	15.733661
2104.000000	15.721050
2103.000000	15.701187
2102.000000	15.685949
2101.000000	15.665140
2100.000000	15.636029
2099.000000	15.629513
2098.000000	15.628672
2097.000000	15.605026
2096.000000	15.586950
2095.000000	15.568138
2094.000000	15.549221
2093.000000	15.547855
2092.000000	15.543546
2091.000000	15.528202
2090.000000	15.509916
2089.000000	15.500562
2088.000000	15.488792
2087.000000	15.467878
2086.000000	15.454111
2085.000000	15.447280
2084.000000	15.425315
2083.000000	15.396204
2082.000000	15.368879
2081.000000	15.346704
2080.000000	15.312549
2079.000000	15.280915
2078.000000	15.244763
2077.000000	15.210923
2076.000000	15.175085
2075.000000	15.123905
2074.000000	15.080185
2073.000000	15.029110
2072.000000	14.977718
2071.000000	14.929585
2070.000000	14.877774
2069.000000	14.820813
2068.000000	14.762275
2067.000000	14.712566
2066.000000	14.660229
2065.000000	14.601796
2064.000000	14.552087
2063.000000	14.500590
2062.000000	14.430493
2061.000000	14.382149
2060.000000	14.338850
2059.000000	14.297759
2058.000000	14.267912
2057.000000	14.236699
2056.000000	14.213368
2055.000000	14.191508
2054.000000	14.184467
2053.000000	14.187515
2052.000000	14.201597
2051.000000	14.229132
2050.000000	14.252463
2049.000000	14.289666
2048.000000	14.323612
2047.000000	14.365439
2046.000000	14.430072
2045.000000	14.474422
2044.000000	14.536112
2043.000000	14.597487
2042.000000	14.649614
2041.000000	14.731483
2040.000000	14.789495
2039.000000	14.829115
2038.000000	14.882503
2037.000000	14.929690
2036.000000	14.975196
2035.000000	15.032367
2034.000000	15.069361
2033.000000	15.094058
2032.000000	15.118965
2031.000000	15.156484
2030.000000	15.201044
2029.000000	15.209031
2028.000000	15.214916
2027.000000	15.226477
2026.000000	15.244343
2025.000000	15.251594
2024.000000	15.258425
2023.000000	15.266202
2022.000000	15.253381
2021.000000	15.253696
2020.000000	15.256954
2019.000000	15.255693
2018.000000	15.243502
2017.000000	15.234043
2016.000000	15.212184
2015.000000	15.198837
2014.000000	15.177608
2013.000000	15.163630
2012.000000	15.125061
2011.000000	15.105198
2010.000000	15.065052
2009.000000	15.042036
2008.000000	14.993272
2007.000000	14.958696
2006.000000	14.926538
2005.000000	14.886812
2004.000000	14.825227
2003.000000	14.759543
2002.000000	14.710043
2001.000000	14.657601
2000.000000	14.606841
1999.000000	14.540842
1998.000000	14.477890
1997.000000	14.405165
1996.000000	14.337169
1995.000000	14.282835
1994.000000	14.212947
1993.000000	14.148840
1992.000000	14.055306
1991.000000	13.979638
1990.000000	13.925410
1989.000000	13.843962
1988.000000	13.749692
1987.000000	13.679069
1986.000000	13.594153
1985.000000	13.525841
1984.000000	13.430836
1983.000000	13.356114
1982.000000	13.256064
1981.000000	13.187438
1980.000000	13.104308
1979.000000	13.019602
1978.000000	12.938364
1977.000000	12.872575
1976.000000	12.769793
1975.000000	12.700956
1974.000000	12.625499
1973.000000	12.534592
1972.000000	12.466806
1971.000000	12.397444
1970.000000	12.296974
1969.000000	12.232972
1968.000000	12.168864
1967.000000	12.092145
1966.000000	12.000083
1965.000000	11.957835
1964.000000	11.875231
1963.000000	11.782958
1962.000000	11.726628
1961.000000	11.652851
1960.000000	11.571824
1959.000000	11.527789
1958.000000	11.439720
1957.000000	11.387699
1956.000000	11.326218
1955.000000	11.250445
1954.000000	11.200631
1953.000000	11.134842
1952.000000	11.057492
1951.000000	11.014719
1950.000000	10.949981
1949.000000	10.902583
1948.000000	10.874523
1947.000000	10.813884
1946.000000	10.767958
1945.000000	10.724238
1944.000000	10.700487
1943.000000	10.672637
1942.000000	10.637746
1941.000000	10.641004
1940.000000	10.612839
1939.000000	10.565021
1938.000000	10.577842
1937.000000	10.586250
1936.000000	10.561447
1935.000000	10.610527
1934.000000	10.619144
1933.000000	10.632491
1932.000000	10.664230
1931.000000	10.693551
1930.000000	10.749146
1929.000000	10.784983
1928.000000	10.867167
1927.000000	10.914774
1926.000000	10.999901
1925.000000	11.076304
1924.000000	11.157647
1923.000000	11.249500
1922.000000	11.357116
1921.000000	11.474927
1920.000000	11.620272
1919.000000	11.780015
1918.000000	11.892887
1917.000000	12.038442
1916.000000	12.196714
1915.000000	12.325770
1914.000000	12.505481
1913.000000	12.685613
1912.000000	12.903683
1911.000000	13.107146
1910.000000	13.290850
1909.000000	13.508501
1908.000000	13.687686
1907.000000	13.909540
1906.000000	14.195187
1905.000000	14.481674
1904.000000	14.749349
1903.000000	15.054332
1902.000000	15.332727
1901.000000	15.642229
1900.000000	15.964659
1899.000000	16.342472
1898.000000	16.714506
1897.000000	17.072352
1896.000000	17.408128
1895.000000	17.761876
1894.000000	18.100699
1893.000000	18.475571
1892.000000	18.887120
1891.000000	19.356996
1890.000000	19.811003
1889.000000	20.230750
1888.000000	20.690432
1887.000000	21.113962
1886.000000	21.553151
1885.000000	21.954506
1884.000000	22.434156
1883.000000	22.936507
1882.000000	23.390829
1881.000000	23.836429
1880.000000	24.277720
1879.000000	24.654588
1878.000000	25.054997
1877.000000	25.445107
1876.000000	25.829226
1875.000000	26.201785
1874.000000	26.550593
1873.000000	26.898981
1872.000000	27.263237
1871.000000	27.574632
1870.000000	27.902210
1869.000000	28.167363
1868.000000	28.432621
1867.000000	28.626100
1866.000000	28.801712
1865.000000	28.953678
1864.000000	29.117941
1863.000000	29.251621
1862.000000	29.381832
1861.000000	29.543362
1860.000000	29.690284
1859.000000	29.825856
1858.000000	29.940303
1857.000000	30.049076
1856.000000	30.115916
1855.000000	30.164154
1854.000000	30.260000
1853.000000	30.316751
1852.000000	30.351432
1851.000000	30.365199
1850.000000	30.423316
1849.000000	30.477965
1848.000000	30.513592
1847.000000	30.543754
1846.000000	30.520949
1845.000000	30.473131
1844.000000	30.500140
1843.000000	30.487739
1842.000000	30.530618
1841.000000	30.577700
1840.000000	30.557732
1839.000000	30.551006
1838.000000	30.535872
1837.000000	30.522841
1836.000000	30.510335
1835.000000	30.487424
1834.000000	30.442128
1833.000000	30.383170
1832.000000	30.344601
1831.000000	30.324423
1830.000000	30.307818
1829.000000	30.269458
1828.000000	30.230994
1827.000000	30.196208
1826.000000	30.151227
1825.000000	30.112237
1824.000000	30.079133
1823.000000	30.066521
1822.000000	30.062423
1821.000000	30.071146
1820.000000	30.045608
1819.000000	30.011452
1818.000000	29.983392
1817.000000	29.954806
1816.000000	29.930529
1815.000000	29.923909
1814.000000	29.906988
1813.000000	29.894903
1812.000000	29.887020
1811.000000	29.861062
1810.000000	29.826486
1809.000000	29.796534
1808.000000	29.782031
1807.000000	29.758490
1806.000000	29.732532
1805.000000	29.696274
1804.000000	29.659386
1803.000000	29.641520
1802.000000	29.614931
1801.000000	29.586451
1800.000000	29.560598
1799.000000	29.520557
1798.000000	29.489134
1797.000000	29.459707
1796.000000	29.428179
1795.000000	29.404953
1794.000000	29.373530
1793.000000	29.337693
1792.000000	29.307741
1791.000000	29.281572
1790.000000	29.265703
1789.000000	29.242793
1788.000000	29.213156
1787.000000	29.192032
1786.000000	29.161660
1785.000000	29.136542
1784.000000	29.109008
1783.000000	29.073486
1782.000000	29.045846
1781.000000	29.018311
1780.000000	28.985312
1779.000000	28.961771
1778.000000	28.937494
1777.000000	28.900711
1776.000000	28.853734
1775.000000	28.813903
1774.000000	28.774703
1773.000000	28.736659
1772.000000	28.689051
1771.000000	28.640077
1770.000000	28.579122
1769.000000	28.537925
1768.000000	28.505662
1767.000000	28.453430
1766.000000	28.406137
1765.000000	28.369670
1764.000000	28.342765
1763.000000	28.338562
1762.000000	28.344447
1761.000000	28.345603
1760.000000	28.364310
1759.000000	28.388061
1758.000000	28.438716
1757.000000	28.487901
1756.000000	28.532250
1755.000000	28.567982
1754.000000	28.611807
1753.000000	28.651217
1752.000000	28.680749
1751.000000	28.701347
1750.000000	28.712802
1749.000000	28.711856
1748.000000	28.707127
1747.000000	28.690312
1746.000000	28.668873
1745.000000	28.633036
1744.000000	28.584482
1743.000000	28.524684
1742.000000	28.449751
1741.000000	28.375134
1740.000000	28.288747
1739.000000	28.192060
1738.000000	28.082657
1737.000000	27.981767
1736.000000	27.896745
1735.000000	27.824441
1734.000000	27.767374
1733.000000	27.732483
1732.000000	27.717665
1731.000000	27.706210
1730.000000	27.708101
1729.000000	27.733954
1728.000000	27.770948
1727.000000	27.831167
1726.000000	27.887182
1725.000000	27.933844
1724.000000	27.964111
1723.000000	27.993222
1722.000000	28.060377
1721.000000	28.101154
1720.000000	28.171041
1719.000000	28.228633
1718.000000	28.282546
1717.000000	28.371982
1716.000000	28.441764
1715.000000	28.535193
1714.000000	28.622211
1713.000000	28.717006
1712.000000	28.776805
1711.000000	28.822941
1710.000000	28.878956
1709.000000	28.938335
1708.000000	28.961140
1707.000000	28.987203
1706.000000	28.998028
1705.000000	28.972700
1704.000000	28.959248
1703.000000	28.941908
1702.000000	28.909118
1701.000000	28.841017
1700.000000	28.781534
1699.000000	28.713853
1698.000000	28.631249
1697.000000	28.583747
1696.000000	28.509550
1695.000000	28.473818
1694.000000	28.444181
1693.000000	28.439767
1692.000000	28.490633
1691.000000	28.533196
1690.000000	28.594571
1689.000000	28.666351
1688.000000	28.732980
1687.000000	28.775964
1686.000000	28.812327
1685.000000	28.886733
1684.000000	28.971755
1683.000000	29.074011
1682.000000	29.196551
1681.000000	29.378049
1680.000000	29.580776
1679.000000	29.824174
1678.000000	30.084808
1677.000000	30.364043
1676.000000	30.624677
1675.000000	30.862926
1674.000000	31.096760
1673.000000	31.290029
1672.000000	31.459966
1671.000000	31.621076
1670.000000	31.781660
1669.000000	31.923012
1668.000000	32.032204
1667.000000	32.118172
1666.000000	32.202772
1665.000000	32.278335
1664.000000	32.352006
1663.000000	32.407391
1662.000000	32.468766
1661.000000	32.530036
1660.000000	32.567134
1659.000000	32.623255
1658.000000	32.646691
1657.000000	32.659722
1656.000000	32.679480
1655.000000	32.695770
1654.000000	32.732658
1653.000000	32.726352
1652.000000	32.731502
1651.000000	32.714161
1650.000000	32.701655
1649.000000	32.707015
1648.000000	32.669181
1647.000000	32.644484
1646.000000	32.611904
1645.000000	32.601815
1644.000000	32.581112
1643.000000	32.546641
1642.000000	32.513851
1641.000000	32.462776
1640.000000	32.439129
1639.000000	32.391942
1638.000000	32.360939
1637.000000	32.342968
1636.000000	32.289790
1635.000000	32.240186
1634.000000	32.209288
1633.000000	32.175133
1632.000000	32.116700
1631.000000	32.071300
1630.000000	32.024112
1629.000000	31.954330
1628.000000	31.895372
1627.000000	31.857643
1626.000000	31.809194
1625.000000	31.756542
1624.000000	31.719129
1623.000000	31.661537
1622.000000	31.596168
1621.000000	31.533637
1620.000000	31.515351
1619.000000	31.470055
1618.000000	31.422342
1617.000000	31.372002
1616.000000	31.309261
1615.000000	31.261128
1614.000000	31.207320
1613.000000	31.172218
1612.000000	31.140375
1611.000000	31.079000
1610.000000	31.032968
1609.000000	30.983784
1608.000000	30.962345
1607.000000	30.900024
1606.000000	30.850209
1605.000000	30.801446
