PE UV       SUBTECH     SPECTRUM    ASCII       PEDS        4.00        
   -1
C.CHRY.6713-TX3.ASC
23/11/29
14:23:42.00
23/11/29
14:23:42.00
Vinicio Soto Monge
C. CHRYSARGYREA INBIOCRI002426713
250,000000
1
Lambda 1050
1050L1511233
PerkinElmer UV WinLab 6.3.2.0749 / 2.02.05 Lambda 900 UV/VIS/NIR, Aug  7 2015 09:38:08

0
0
3350/servo 860,8/2
0
0
UV/VIS
1
1
1
DoubleDePol,CommonBeamDepol,RBeamAtt,SBeamAtt,60mm sphere, WB InGaAs Detector
0
0
0
0
Program
Program
3350/servo 860,8/2
3350/0,4 860,8/0,4
3350/0,4 860,8/0,4
0
20.00
 
 
 
0
 
860,8
319,2
860,8
Front
100
on
S:100 R:100
0
0
0
0
 
0
 
 
 
0
 
 
0
0
0
0
0
 
 
 
 
0
0


0
0
#HDR
-1
-1
#GR
nm
%T
1.0
0.0
2200,000000
-1,000000
1951
8
49,319150
0,212376
#DATA
284.000000	0.266413
285.000000	0.266291
286.000000	0.266706
287.000000	0.267015
288.000000	0.267318
289.000000	0.267945
290.000000	0.268695
291.000000	0.269542
292.000000	0.270152
293.000000	0.270583
294.000000	0.271140
295.000000	0.271766
296.000000	0.272363
297.000000	0.272663
298.000000	0.272849
299.000000	0.273136
300.000000	0.273600
301.000000	0.273923
302.000000	0.274578
303.000000	0.275013
304.000000	0.275655
305.000000	0.276002
306.000000	0.277191
307.000000	0.277208
308.000000	0.277781
309.000000	0.278770
310.000000	0.279149
311.000000	0.279557
312.000000	0.280526
313.000000	0.280671
314.000000	0.281199
315.000000	0.281748
316.000000	0.282374
317.000000	0.284840
318.000000	0.287168
319.000000	0.287375
320.000000	0.287989
321.000000	0.290229
322.000000	0.290791
323.000000	0.293328
324.000000	0.292988
325.000000	0.294565
326.000000	0.295787
327.000000	0.297570
328.000000	0.300554
329.000000	0.302015
330.000000	0.304501
331.000000	0.306929
332.000000	0.307810
333.000000	0.310006
334.000000	0.311899
335.000000	0.313765
336.000000	0.315849
337.000000	0.317635
338.000000	0.319658
339.000000	0.321534
340.000000	0.324594
341.000000	0.326735
342.000000	0.328982
343.000000	0.330685
344.000000	0.332232
345.000000	0.335114
346.000000	0.338185
347.000000	0.340417
348.000000	0.342793
349.000000	0.344974
350.000000	0.347145
351.000000	0.349474
352.000000	0.350219
353.000000	0.351056
354.000000	0.353918
355.000000	0.357340
356.000000	0.358813
357.000000	0.361889
358.000000	0.363112
359.000000	0.367356
360.000000	0.369134
361.000000	0.371028
362.000000	0.373211
363.000000	0.374005
364.000000	0.376640
365.000000	0.378354
366.000000	0.379770
367.000000	0.383368
368.000000	0.385468
369.000000	0.387358
370.000000	0.389793
371.000000	0.392376
372.000000	0.394879
373.000000	0.396556
374.000000	0.398400
375.000000	0.399687
376.000000	0.401642
377.000000	0.403750
378.000000	0.406199
379.000000	0.408364
380.000000	0.409676
381.000000	0.410933
382.000000	0.412635
383.000000	0.414628
384.000000	0.416393
385.000000	0.418004
386.000000	0.419365
387.000000	0.420732
388.000000	0.422207
389.000000	0.423588
390.000000	0.424524
391.000000	0.425753
392.000000	0.426861
393.000000	0.427922
394.000000	0.428848
395.000000	0.430151
396.000000	0.431356
397.000000	0.432223
398.000000	0.433428
399.000000	0.433986
400.000000	0.434712
401.000000	0.436003
402.000000	0.436773
403.000000	0.437504
404.000000	0.438211
405.000000	0.438473
406.000000	0.438914
407.000000	0.439255
408.000000	0.440256
409.000000	0.441044
410.000000	0.441569
411.000000	0.441827
412.000000	0.442519
413.000000	0.443189
414.000000	0.443966
415.000000	0.444649
416.000000	0.445203
417.000000	0.445757
418.000000	0.446302
419.000000	0.446826
420.000000	0.447309
421.000000	0.447733
422.000000	0.448136
423.000000	0.448533
424.000000	0.448850
425.000000	0.449100
426.000000	0.449399
427.000000	0.449700
428.000000	0.449962
429.000000	0.450131
430.000000	0.450275
431.000000	0.450409
432.000000	0.450584
433.000000	0.450826
434.000000	0.451019
435.000000	0.451106
436.000000	0.451119
437.000000	0.451188
438.000000	0.451322
439.000000	0.451400
440.000000	0.451427
441.000000	0.451382
442.000000	0.451343
443.000000	0.451373
444.000000	0.451301
445.000000	0.451148
446.000000	0.450977
447.000000	0.450840
448.000000	0.450670
449.000000	0.450421
450.000000	0.450223
451.000000	0.449986
452.000000	0.449732
453.000000	0.449465
454.000000	0.449177
455.000000	0.448879
456.000000	0.448627
457.000000	0.448366
458.000000	0.448034
459.000000	0.447730
460.000000	0.447449
461.000000	0.447136
462.000000	0.446761
463.000000	0.446397
464.000000	0.446068
465.000000	0.445704
466.000000	0.445354
467.000000	0.444993
468.000000	0.444603
469.000000	0.444235
470.000000	0.443833
471.000000	0.443424
472.000000	0.443000
473.000000	0.442553
474.000000	0.442183
475.000000	0.441793
476.000000	0.441349
477.000000	0.440904
478.000000	0.440384
479.000000	0.439971
480.000000	0.439598
481.000000	0.439259
482.000000	0.438952
483.000000	0.438627
484.000000	0.438210
485.000000	0.437782
486.000000	0.437467
487.000000	0.437107
488.000000	0.436669
489.000000	0.436238
490.000000	0.435861
491.000000	0.435584
492.000000	0.435268
493.000000	0.434920
494.000000	0.434534
495.000000	0.434138
496.000000	0.433731
497.000000	0.433291
498.000000	0.432804
499.000000	0.432357
500.000000	0.432021
501.000000	0.431629
502.000000	0.431292
503.000000	0.430987
504.000000	0.430654
505.000000	0.430373
506.000000	0.430026
507.000000	0.429684
508.000000	0.429410
509.000000	0.429125
510.000000	0.428910
511.000000	0.428753
512.000000	0.428622
513.000000	0.428512
514.000000	0.428384
515.000000	0.428374
516.000000	0.428347
517.000000	0.428365
518.000000	0.428443
519.000000	0.428791
520.000000	0.429249
521.000000	0.429746
522.000000	0.430460
523.000000	0.431347
524.000000	0.432297
525.000000	0.433198
526.000000	0.434167
527.000000	0.435247
528.000000	0.436464
529.000000	0.437892
530.000000	0.439247
531.000000	0.440671
532.000000	0.442177
533.000000	0.443750
534.000000	0.445328
535.000000	0.446999
536.000000	0.448759
537.000000	0.450539
538.000000	0.452335
539.000000	0.454222
540.000000	0.456194
541.000000	0.458336
542.000000	0.460557
543.000000	0.462896
544.000000	0.465223
545.000000	0.467745
546.000000	0.470387
547.000000	0.473158
548.000000	0.475989
549.000000	0.479015
550.000000	0.482071
551.000000	0.485372
552.000000	0.488846
553.000000	0.492615
554.000000	0.496480
555.000000	0.500598
556.000000	0.504933
557.000000	0.509374
558.000000	0.514152
559.000000	0.519239
560.000000	0.524692
561.000000	0.530458
562.000000	0.536534
563.000000	0.543188
564.000000	0.550287
565.000000	0.558117
566.000000	0.566506
567.000000	0.575544
568.000000	0.585239
569.000000	0.595641
570.000000	0.606739
571.000000	0.618686
572.000000	0.631621
573.000000	0.645398
574.000000	0.660165
575.000000	0.675997
576.000000	0.692696
577.000000	0.710468
578.000000	0.729411
579.000000	0.749634
580.000000	0.771027
581.000000	0.793739
582.000000	0.817785
583.000000	0.843323
584.000000	0.870220
585.000000	0.898647
586.000000	0.928528
587.000000	0.959679
588.000000	0.992251
589.000000	1.026493
590.000000	1.062134
591.000000	1.099542
592.000000	1.138676
593.000000	1.179544
594.000000	1.222334
595.000000	1.267173
596.000000	1.313970
597.000000	1.362865
598.000000	1.413713
599.000000	1.466684
600.000000	1.521627
601.000000	1.578646
602.000000	1.637583
603.000000	1.698473
604.000000	1.761068
605.000000	1.824979
606.000000	1.890406
607.000000	1.956981
608.000000	2.024943
609.000000	2.094425
610.000000	2.165504
611.000000	2.238809
612.000000	2.314288
613.000000	2.391888
614.000000	2.471898
615.000000	2.554013
616.000000	2.638238
617.000000	2.724256
618.000000	2.811769
619.000000	2.900687
620.000000	2.990852
621.000000	3.082010
622.000000	3.174158
623.000000	3.266916
624.000000	3.360100
625.000000	3.453919
626.000000	3.548194
627.000000	3.643026
628.000000	3.738373
629.000000	3.834982
630.000000	3.932597
631.000000	4.031616
632.000000	4.132399
633.000000	4.234801
634.000000	4.338806
635.000000	4.444494
636.000000	4.551465
637.000000	4.659512
638.000000	4.768053
639.000000	4.876910
640.000000	4.986163
641.000000	5.095204
642.000000	5.204172
643.000000	5.312558
644.000000	5.420309
645.000000	5.527530
646.000000	5.633998
647.000000	5.740213
648.000000	5.846669
649.000000	5.953465
650.000000	6.061216
651.000000	6.170013
652.000000	6.280318
653.000000	6.392183
654.000000	6.505371
655.000000	6.619777
656.000000	6.735422
657.000000	6.851985
658.000000	6.969354
659.000000	7.086990
660.000000	7.204439
661.000000	7.321006
662.000000	7.436773
663.000000	7.551408
664.000000	7.663857
665.000000	7.774340
666.000000	7.882613
667.000000	7.988569
668.000000	8.092738
669.000000	8.195511
670.000000	8.297228
671.000000	8.398828
672.000000	8.500996
673.000000	8.604101
674.000000	8.708678
675.000000	8.814939
676.000000	8.922881
677.000000	9.032238
678.000000	9.142854
679.000000	9.254173
680.000000	9.365344
681.000000	9.475582
682.000000	9.584012
683.000000	9.689374
684.000000	9.791433
685.000000	9.889563
686.000000	9.983495
687.000000	10.073242
688.000000	10.159521
689.000000	10.243008
690.000000	10.324284
691.000000	10.403960
692.000000	10.483337
693.000000	10.562823
694.000000	10.643032
695.000000	10.724646
696.000000	10.808008
697.000000	10.893022
698.000000	10.979511
699.000000	11.067480
700.000000	11.156828
701.000000	11.246889
702.000000	11.336703
703.000000	11.425522
704.000000	11.512364
705.000000	11.596633
706.000000	11.677507
707.000000	11.754787
708.000000	11.828629
709.000000	11.899071
710.000000	11.966556
711.000000	12.031455
712.000000	12.094926
713.000000	12.158173
714.000000	12.221526
715.000000	12.285397
716.000000	12.350692
717.000000	12.418080
718.000000	12.487853
719.000000	12.559947
720.000000	12.634285
721.000000	12.710650
722.000000	12.788753
723.000000	12.867873
724.000000	12.947627
725.000000	13.027267
726.000000	13.106023
727.000000	13.183500
728.000000	13.259421
729.000000	13.333619
730.000000	13.406047
731.000000	13.477334
732.000000	13.547751
733.000000	13.617812
734.000000	13.687464
735.000000	13.756874
736.000000	13.826959
737.000000	13.898319
738.000000	13.971020
739.000000	14.045500
740.000000	14.122298
741.000000	14.201296
742.000000	14.282117
743.000000	14.364731
744.000000	14.448705
745.000000	14.533284
746.000000	14.618655
747.000000	14.703697
748.000000	14.787365
749.000000	14.869917
750.000000	14.952094
751.000000	15.032794
752.000000	15.111762
753.000000	15.189942
754.000000	15.267108
755.000000	15.343635
756.000000	15.420471
757.000000	15.497738
758.000000	15.574759
759.000000	15.652440
760.000000	15.730969
761.000000	15.810054
762.000000	15.890619
763.000000	15.972128
764.000000	16.054196
765.000000	16.137002
766.000000	16.219718
767.000000	16.302657
768.000000	16.385142
769.000000	16.467366
770.000000	16.549112
771.000000	16.629723
772.000000	16.709673
773.000000	16.788359
774.000000	16.866757
775.000000	16.944010
776.000000	17.020420
777.000000	17.096963
778.000000	17.173414
779.000000	17.249826
780.000000	17.327246
781.000000	17.405589
782.000000	17.484363
783.000000	17.564680
784.000000	17.646615
785.000000	17.728739
786.000000	17.812101
787.000000	17.895881
788.000000	17.979096
789.000000	18.062014
790.000000	18.145299
791.000000	18.227496
792.000000	18.307783
793.000000	18.387233
794.000000	18.465182
795.000000	18.541647
796.000000	18.616975
797.000000	18.689884
798.000000	18.760670
799.000000	18.831123
800.000000	18.900223
801.000000	18.969920
802.000000	19.039325
803.000000	19.108950
804.000000	19.178480
805.000000	19.247929
806.000000	19.318159
807.000000	19.389038
808.000000	19.461252
809.000000	19.531808
810.000000	19.603320
811.000000	19.672831
812.000000	19.741534
813.000000	19.809541
814.000000	19.877026
815.000000	19.942588
816.000000	20.007729
817.000000	20.072367
818.000000	20.134303
819.000000	20.195900
820.000000	20.256788
821.000000	20.316872
822.000000	20.377143
823.000000	20.439271
824.000000	20.500400
825.000000	20.562713
826.000000	20.626271
827.000000	20.690002
828.000000	20.755110
829.000000	20.822105
830.000000	20.889033
831.000000	20.959090
832.000000	21.029843
833.000000	21.102155
834.000000	21.173904
835.000000	21.247243
836.000000	21.319842
837.000000	21.393825
838.000000	21.465880
839.000000	21.537618
840.000000	21.609349
841.000000	21.681934
842.000000	21.753921
843.000000	21.827130
844.000000	21.902080
845.000000	21.976565
846.000000	22.050505
847.000000	22.128586
848.000000	22.208597
849.000000	22.290021
850.000000	22.375217
851.000000	22.458381
852.000000	22.539913
853.000000	22.626260
854.000000	22.712365
855.000000	22.793151
856.000000	22.879590
857.000000	22.969471
858.000000	23.092559
859.000000	23.172925
860.000000	23.273803
861.000000	23.383478
862.000000	23.488344
863.000000	23.597231
864.000000	23.717108
865.000000	23.802314
866.000000	23.909961
867.000000	24.018515
868.000000	24.136929
869.000000	24.231159
870.000000	24.341380
871.000000	24.466558
872.000000	24.574950
873.000000	24.689675
874.000000	24.804094
875.000000	24.931289
876.000000	25.048396
877.000000	25.191156
878.000000	25.312097
879.000000	25.428126
880.000000	25.549961
881.000000	25.676791
882.000000	25.814950
883.000000	25.938835
884.000000	26.053205
885.000000	26.173215
886.000000	26.293951
887.000000	26.416453
888.000000	26.544660
889.000000	26.682336
890.000000	26.831641
891.000000	26.966689
892.000000	27.125447
893.000000	27.239840
894.000000	27.400242
895.000000	27.546180
896.000000	27.685078
897.000000	27.845986
898.000000	27.978424
899.000000	28.100592
900.000000	28.274519
901.000000	28.426449
902.000000	28.592044
903.000000	28.747032
904.000000	28.932389
905.000000	29.111811
906.000000	29.289211
907.000000	29.469900
908.000000	29.637615
909.000000	29.816193
910.000000	29.998234
911.000000	30.181095
912.000000	30.350914
913.000000	30.534000
914.000000	30.720248
915.000000	30.917751
916.000000	31.110663
917.000000	31.292551
918.000000	31.495763
919.000000	31.715768
920.000000	31.931428
921.000000	32.139225
922.000000	32.361213
923.000000	32.575072
924.000000	32.774156
925.000000	32.978200
926.000000	33.209197
927.000000	33.411381
928.000000	33.620167
929.000000	33.841429
930.000000	34.060023
931.000000	34.283693
932.000000	34.489438
933.000000	34.720886
934.000000	34.939175
935.000000	35.146653
936.000000	35.350451
937.000000	35.562462
938.000000	35.772926
939.000000	35.968575
940.000000	36.167869
941.000000	36.354023
942.000000	36.545940
943.000000	36.759856
944.000000	36.962208
945.000000	37.142787
946.000000	37.348495
947.000000	37.531533
948.000000	37.722266
949.000000	37.926483
950.000000	38.130390
951.000000	38.333651
952.000000	38.532651
953.000000	38.717035
954.000000	38.893435
955.000000	39.073670
956.000000	39.257707
957.000000	39.428511
958.000000	39.615934
959.000000	39.810082
960.000000	39.989308
961.000000	40.162687
962.000000	40.333741
963.000000	40.497423
964.000000	40.645254
965.000000	40.800933
966.000000	40.968118
967.000000	41.138586
968.000000	41.291575
969.000000	41.451807
970.000000	41.619066
971.000000	41.789814
972.000000	41.923699
973.000000	42.056796
974.000000	42.207750
975.000000	42.348859
976.000000	42.484446
977.000000	42.616267
978.000000	42.746474
979.000000	42.887574
980.000000	43.026388
981.000000	43.142778
982.000000	43.265366
983.000000	43.392764
984.000000	43.515257
985.000000	43.609864
986.000000	43.709614
987.000000	43.807210
988.000000	43.904477
989.000000	44.010457
990.000000	44.115432
991.000000	44.232388
992.000000	44.341504
993.000000	44.433580
994.000000	44.522782
995.000000	44.610163
996.000000	44.688462
997.000000	44.764680
998.000000	44.861506
999.000000	44.970594
1000.000000	45.051823
1001.000000	45.105151
1002.000000	45.161455
1003.000000	45.237677
1004.000000	45.318520
1005.000000	45.382530
1006.000000	45.441788
1007.000000	45.516848
1008.000000	45.595137
1009.000000	45.666941
1010.000000	45.728650
1011.000000	45.785451
1012.000000	45.845178
1013.000000	45.899085
1014.000000	45.958116
1015.000000	46.014671
1016.000000	46.072958
1017.000000	46.133074
1018.000000	46.189907
1019.000000	46.247909
1020.000000	46.325617
1021.000000	46.392337
1022.000000	46.440103
1023.000000	46.494802
1024.000000	46.544264
1025.000000	46.578808
1026.000000	46.610201
1027.000000	46.664198
1028.000000	46.719363
1029.000000	46.766117
1030.000000	46.810931
1031.000000	46.844205
1032.000000	46.887550
1033.000000	46.910003
1034.000000	46.929484
1035.000000	46.974480
1036.000000	47.024752
1037.000000	47.066707
1038.000000	47.106209
1039.000000	47.131095
1040.000000	47.167760
1041.000000	47.219711
1042.000000	47.262471
1043.000000	47.307846
1044.000000	47.346553
1045.000000	47.381473
1046.000000	47.430612
1047.000000	47.472085
1048.000000	47.512895
1049.000000	47.537858
1050.000000	47.577460
1051.000000	47.614166
1052.000000	47.652091
1053.000000	47.687266
1054.000000	47.714944
1055.000000	47.723832
1056.000000	47.748785
1057.000000	47.782621
1058.000000	47.820123
1059.000000	47.864261
1060.000000	47.908833
1061.000000	47.948570
1062.000000	47.960945
1063.000000	47.982337
1064.000000	48.000096
1065.000000	48.027946
1066.000000	48.064645
1067.000000	48.089075
1068.000000	48.110230
1069.000000	48.123850
1070.000000	48.158304
1071.000000	48.184548
1072.000000	48.214068
1073.000000	48.242189
1074.000000	48.282198
1075.000000	48.302062
1076.000000	48.319153
1077.000000	48.339567
1078.000000	48.347795
1079.000000	48.371380
1080.000000	48.410033
1081.000000	48.439571
1082.000000	48.491349
1083.000000	48.533900
1084.000000	48.557531
1085.000000	48.565537
1086.000000	48.586782
1087.000000	48.601663
1088.000000	48.624980
1089.000000	48.652737
1090.000000	48.695216
1091.000000	48.723114
1092.000000	48.749461
1093.000000	48.778985
1094.000000	48.802538
1095.000000	48.820084
1096.000000	48.834512
1097.000000	48.872983
1098.000000	48.894966
1099.000000	48.937453
1100.000000	48.973507
1101.000000	48.994811
1102.000000	49.030118
1103.000000	49.063624
1104.000000	49.088166
1105.000000	49.096370
1106.000000	49.105624
1107.000000	49.137037
1108.000000	49.167936
1109.000000	49.183855
1110.000000	49.217517
1111.000000	49.218893
1112.000000	49.231372
1113.000000	49.272965
1114.000000	49.280714
1115.000000	49.273808
1116.000000	49.285651
1117.000000	49.286128
1118.000000	49.294308
1119.000000	49.292896
1120.000000	49.319567
1121.000000	49.336836
1122.000000	49.353050
1123.000000	49.392336
1124.000000	49.388047
1125.000000	49.395621
1126.000000	49.413143
1127.000000	49.435732
1128.000000	49.455828
1129.000000	49.459729
1130.000000	49.498361
1131.000000	49.525067
1132.000000	49.520531
1133.000000	49.523690
1134.000000	49.555141
1135.000000	49.541673
1136.000000	49.544926
1137.000000	49.541686
1138.000000	49.574802
1139.000000	49.589663
1140.000000	49.589910
1141.000000	49.591575
1142.000000	49.591147
1143.000000	49.586780
1144.000000	49.592025
1145.000000	49.589564
1146.000000	49.609362
1147.000000	49.626053
1148.000000	49.615897
1149.000000	49.624266
1150.000000	49.647061
1151.000000	49.651948
1152.000000	49.690564
1153.000000	49.684956
1154.000000	49.710246
1155.000000	49.727483
1156.000000	49.734844
1157.000000	49.749203
1158.000000	49.717505
1159.000000	49.728533
1160.000000	49.725719
1161.000000	49.709621
1162.000000	49.706451
1163.000000	49.683996
1164.000000	49.693463
1165.000000	49.670522
1166.000000	49.668916
1167.000000	49.672304
1168.000000	49.661351
1169.000000	49.640174
1170.000000	49.657469
1171.000000	49.675190
1172.000000	49.677288
1173.000000	49.662247
1174.000000	49.666499
1175.000000	49.677184
1176.000000	49.673700
1177.000000	49.678014
1178.000000	49.669884
1179.000000	49.670989
1180.000000	49.672585
1181.000000	49.670008
1182.000000	49.651602
1183.000000	49.656251
1184.000000	49.658176
1185.000000	49.647904
1186.000000	49.639532
1187.000000	49.609164
1188.000000	49.611643
1189.000000	49.612301
1190.000000	49.597681
1191.000000	49.601590
1192.000000	49.595889
1193.000000	49.605950
1194.000000	49.626961
1195.000000	49.629827
1196.000000	49.633170
1197.000000	49.626153
1198.000000	49.641062
1199.000000	49.635460
1200.000000	49.628632
1201.000000	49.641766
1202.000000	49.661234
1203.000000	49.687254
1204.000000	49.686733
1205.000000	49.696342
1206.000000	49.685994
1207.000000	49.702382
1208.000000	49.711171
1209.000000	49.727749
1210.000000	49.733846
