PE UV       SUBTECH     SPECTRUM    ASCII       PEDS        4.00        
   -1
P.GRAT.3610-TX3.ASC
23/11/30
13:34:42.00
23/11/30
13:34:42.00
Vinicio Soto Monge
PTENOMELA GRATIOSA 03610
250,000000
1
Lambda 1050
1050L1511233
PerkinElmer UV WinLab 6.3.2.0749 / 2.02.05 Lambda 900 UV/VIS/NIR, Aug  7 2015 09:38:08

0
0
3350/servo 860,8/2
0
0
UV/VIS
1
1
1
DoubleDePol,CommonBeamDepol,RBeamAtt,SBeamAtt,60mm sphere, WB InGaAs Detector
0
0
0
0
Program
Program
3350/servo 860,8/2
3350/0,4 860,8/0,4
3350/0,4 860,8/0,4
0
20.00
 
 
 
0
 
860,8
319,2
860,8
Front
100
on
S:100 R:100
0
0
0
0
 
0
 
 
 
0
 
 
0
0
0
0
0
 
 
 
 
0
0


0
0
#HDR
-1
-1
#GR
nm
%T
1.0
0.0
2200,000000
-1,000000
1951
8
63,190396
0,115787
#DATA
284.000000	0.155975
285.000000	0.157045
286.000000	0.158213
287.000000	0.159407
288.000000	0.160639
289.000000	0.161679
290.000000	0.162985
291.000000	0.164023
292.000000	0.164377
293.000000	0.165096
294.000000	0.166057
295.000000	0.167159
296.000000	0.168191
297.000000	0.168826
298.000000	0.170150
299.000000	0.171138
300.000000	0.172092
301.000000	0.173602
302.000000	0.174670
303.000000	0.175243
304.000000	0.176225
305.000000	0.176874
306.000000	0.177883
307.000000	0.178734
308.000000	0.179532
309.000000	0.180941
310.000000	0.182450
311.000000	0.183359
312.000000	0.185029
313.000000	0.186149
314.000000	0.187460
315.000000	0.188573
316.000000	0.189124
317.000000	0.188621
318.000000	0.192254
319.000000	0.194886
320.000000	0.197062
321.000000	0.198865
322.000000	0.201065
323.000000	0.203891
324.000000	0.206309
325.000000	0.209115
326.000000	0.211438
327.000000	0.215226
328.000000	0.218185
329.000000	0.220536
330.000000	0.221559
331.000000	0.223872
332.000000	0.226907
333.000000	0.229375
334.000000	0.232502
335.000000	0.234984
336.000000	0.237001
337.000000	0.239072
338.000000	0.242486
339.000000	0.245564
340.000000	0.248266
341.000000	0.250595
342.000000	0.253113
343.000000	0.255787
344.000000	0.257734
345.000000	0.260483
346.000000	0.263104
347.000000	0.265387
348.000000	0.268367
349.000000	0.270777
350.000000	0.273504
351.000000	0.276374
352.000000	0.280649
353.000000	0.280916
354.000000	0.281573
355.000000	0.283065
356.000000	0.285574
357.000000	0.287475
358.000000	0.289372
359.000000	0.291122
360.000000	0.292547
361.000000	0.294762
362.000000	0.296009
363.000000	0.297656
364.000000	0.299389
365.000000	0.302533
366.000000	0.304278
367.000000	0.306226
368.000000	0.308023
369.000000	0.309581
370.000000	0.312143
371.000000	0.315176
372.000000	0.317242
373.000000	0.318914
374.000000	0.320471
375.000000	0.321871
376.000000	0.323815
377.000000	0.325952
378.000000	0.328123
379.000000	0.330507
380.000000	0.331857
381.000000	0.333372
382.000000	0.335238
383.000000	0.336783
384.000000	0.338711
385.000000	0.340453
386.000000	0.342334
387.000000	0.344336
388.000000	0.346584
389.000000	0.348885
390.000000	0.350943
391.000000	0.352348
392.000000	0.353784
393.000000	0.355075
394.000000	0.356808
395.000000	0.358272
396.000000	0.359595
397.000000	0.360613
398.000000	0.361967
399.000000	0.363611
400.000000	0.364860
401.000000	0.366132
402.000000	0.367358
403.000000	0.368739
404.000000	0.370114
405.000000	0.370942
406.000000	0.371533
407.000000	0.372941
408.000000	0.373813
409.000000	0.374931
410.000000	0.376234
411.000000	0.377407
412.000000	0.378434
413.000000	0.379278
414.000000	0.380022
415.000000	0.380828
416.000000	0.381774
417.000000	0.382657
418.000000	0.383471
419.000000	0.384156
420.000000	0.384791
421.000000	0.385387
422.000000	0.386034
423.000000	0.386603
424.000000	0.387079
425.000000	0.387516
426.000000	0.387941
427.000000	0.388404
428.000000	0.388795
429.000000	0.389077
430.000000	0.389428
431.000000	0.389787
432.000000	0.390058
433.000000	0.390273
434.000000	0.390567
435.000000	0.390912
436.000000	0.391201
437.000000	0.391458
438.000000	0.391734
439.000000	0.392058
440.000000	0.392362
441.000000	0.392617
442.000000	0.392910
443.000000	0.393216
444.000000	0.393455
445.000000	0.393666
446.000000	0.393843
447.000000	0.393855
448.000000	0.393885
449.000000	0.393913
450.000000	0.393922
451.000000	0.393932
452.000000	0.393899
453.000000	0.393848
454.000000	0.393856
455.000000	0.393868
456.000000	0.393873
457.000000	0.393842
458.000000	0.393822
459.000000	0.393878
460.000000	0.393916
461.000000	0.393937
462.000000	0.393897
463.000000	0.393829
464.000000	0.393799
465.000000	0.393738
466.000000	0.393605
467.000000	0.393442
468.000000	0.393408
469.000000	0.393374
470.000000	0.393294
471.000000	0.393265
472.000000	0.393256
473.000000	0.393278
474.000000	0.393238
475.000000	0.393226
476.000000	0.393284
477.000000	0.393319
478.000000	0.393333
479.000000	0.393335
480.000000	0.393416
481.000000	0.393555
482.000000	0.393864
483.000000	0.394204
484.000000	0.394573
485.000000	0.394914
486.000000	0.395373
487.000000	0.395933
488.000000	0.396614
489.000000	0.397351
490.000000	0.398166
491.000000	0.399085
492.000000	0.400161
493.000000	0.401311
494.000000	0.402572
495.000000	0.403926
496.000000	0.405460
497.000000	0.407098
498.000000	0.408849
499.000000	0.410726
500.000000	0.412844
501.000000	0.415226
502.000000	0.417804
503.000000	0.420622
504.000000	0.423618
505.000000	0.426909
506.000000	0.430526
507.000000	0.434522
508.000000	0.438864
509.000000	0.443639
510.000000	0.448717
511.000000	0.454227
512.000000	0.460285
513.000000	0.466789
514.000000	0.473953
515.000000	0.481637
516.000000	0.489848
517.000000	0.498624
518.000000	0.508070
519.000000	0.518192
520.000000	0.529115
521.000000	0.540822
522.000000	0.553363
523.000000	0.566806
524.000000	0.581179
525.000000	0.596569
526.000000	0.612917
527.000000	0.630218
528.000000	0.648660
529.000000	0.668141
530.000000	0.688778
531.000000	0.710514
532.000000	0.733420
533.000000	0.757573
534.000000	0.782964
535.000000	0.809587
536.000000	0.837362
537.000000	0.866489
538.000000	0.896829
539.000000	0.928626
540.000000	0.961702
541.000000	0.996156
542.000000	1.032047
543.000000	1.069318
544.000000	1.108046
545.000000	1.148301
546.000000	1.190015
547.000000	1.233134
548.000000	1.277662
549.000000	1.323719
550.000000	1.371282
551.000000	1.420411
552.000000	1.471101
553.000000	1.523529
554.000000	1.577599
555.000000	1.633364
556.000000	1.690799
557.000000	1.749990
558.000000	1.810936
559.000000	1.873478
560.000000	1.937844
561.000000	2.004233
562.000000	2.072493
563.000000	2.142586
564.000000	2.214639
565.000000	2.288516
566.000000	2.364197
567.000000	2.441735
568.000000	2.520848
569.000000	2.601794
570.000000	2.684263
571.000000	2.768385
572.000000	2.854156
573.000000	2.941195
574.000000	3.029618
575.000000	3.119389
576.000000	3.210260
577.000000	3.302229
578.000000	3.395361
579.000000	3.489360
580.000000	3.584356
581.000000	3.680384
582.000000	3.777332
583.000000	3.875012
584.000000	3.973585
585.000000	4.072809
586.000000	4.172682
587.000000	4.273173
588.000000	4.373916
589.000000	4.475077
590.000000	4.576527
591.000000	4.678102
592.000000	4.779847
593.000000	4.881460
594.000000	4.983494
595.000000	5.085100
596.000000	5.186295
597.000000	5.287121
598.000000	5.387465
599.000000	5.487205
600.000000	5.586287
601.000000	5.684468
602.000000	5.781661
603.000000	5.877906
604.000000	5.972989
605.000000	6.066863
606.000000	6.159773
607.000000	6.251016
608.000000	6.341019
609.000000	6.429673
610.000000	6.516854
611.000000	6.602651
612.000000	6.686993
613.000000	6.769878
614.000000	6.851110
615.000000	6.930890
616.000000	7.008903
617.000000	7.085338
618.000000	7.160353
619.000000	7.233486
620.000000	7.305125
621.000000	7.374984
622.000000	7.443229
623.000000	7.510042
624.000000	7.575418
625.000000	7.639417
626.000000	7.702339
627.000000	7.763865
628.000000	7.824573
629.000000	7.884088
630.000000	7.943460
631.000000	8.002684
632.000000	8.062045
633.000000	8.121909
634.000000	8.182614
635.000000	8.244612
636.000000	8.308603
637.000000	8.374956
638.000000	8.443971
639.000000	8.516171
640.000000	8.592366
641.000000	8.672498
642.000000	8.757891
643.000000	8.848880
644.000000	8.945602
645.000000	9.048631
646.000000	9.158249
647.000000	9.274803
648.000000	9.398937
649.000000	9.531030
650.000000	9.671296
651.000000	9.820391
652.000000	9.978346
653.000000	10.145100
654.000000	10.321139
655.000000	10.506438
656.000000	10.700777
657.000000	10.904331
658.000000	11.116649
659.000000	11.338212
660.000000	11.568794
661.000000	11.807902
662.000000	12.055804
663.000000	12.312196
664.000000	12.576509
665.000000	12.848064
666.000000	13.126369
667.000000	13.411423
668.000000	13.702690
669.000000	13.999909
670.000000	14.302197
671.000000	14.608760
672.000000	14.919244
673.000000	15.233324
674.000000	15.550087
675.000000	15.868825
676.000000	16.189133
677.000000	16.509766
678.000000	16.830278
679.000000	17.150591
680.000000	17.470101
681.000000	17.788252
682.000000	18.104427
683.000000	18.418323
684.000000	18.729607
685.000000	19.037587
686.000000	19.341935
687.000000	19.642008
688.000000	19.937967
689.000000	20.229678
690.000000	20.516638
691.000000	20.799433
692.000000	21.077449
693.000000	21.350999
694.000000	21.619326
695.000000	21.882653
696.000000	22.141154
697.000000	22.394499
698.000000	22.642491
699.000000	22.885874
700.000000	23.125126
701.000000	23.360352
702.000000	23.590720
703.000000	23.816824
704.000000	24.038528
705.000000	24.256080
706.000000	24.470356
707.000000	24.680999
708.000000	24.887835
709.000000	25.091501
710.000000	25.291748
711.000000	25.488913
712.000000	25.683973
713.000000	25.876794
714.000000	26.066956
715.000000	26.254569
716.000000	26.439834
717.000000	26.622867
718.000000	26.803207
719.000000	26.981535
720.000000	27.158432
721.000000	27.333135
722.000000	27.506243
723.000000	27.677930
724.000000	27.847025
725.000000	28.014651
726.000000	28.180538
727.000000	28.344987
728.000000	28.508041
729.000000	28.669514
730.000000	28.828781
731.000000	28.987192
732.000000	29.144880
733.000000	29.300880
734.000000	29.455884
735.000000	29.608716
736.000000	29.760040
737.000000	29.911146
738.000000	30.061362
739.000000	30.210106
740.000000	30.357926
741.000000	30.503894
742.000000	30.649753
743.000000	30.795027
744.000000	30.938841
745.000000	31.081544
746.000000	31.223061
747.000000	31.363153
748.000000	31.502583
749.000000	31.640309
750.000000	31.776814
751.000000	31.912971
752.000000	32.048313
753.000000	32.182437
754.000000	32.315205
755.000000	32.446803
756.000000	32.578534
757.000000	32.708300
758.000000	32.836666
759.000000	32.965337
760.000000	33.092494
761.000000	33.217493
762.000000	33.342493
763.000000	33.467495
764.000000	33.591912
765.000000	33.715321
766.000000	33.837559
767.000000	33.958209
768.000000	34.078284
769.000000	34.199130
770.000000	34.320102
771.000000	34.439069
772.000000	34.555993
773.000000	34.672122
774.000000	34.788383
775.000000	34.903425
776.000000	35.017880
777.000000	35.129959
778.000000	35.241499
779.000000	35.352862
780.000000	35.463969
781.000000	35.573693
782.000000	35.682439
783.000000	35.790097
784.000000	35.897380
785.000000	36.005051
786.000000	36.111512
787.000000	36.217665
788.000000	36.323320
789.000000	36.428311
790.000000	36.532636
791.000000	36.633933
792.000000	36.734569
793.000000	36.835348
794.000000	36.934407
795.000000	37.033694
796.000000	37.133977
797.000000	37.231006
798.000000	37.326580
799.000000	37.422492
800.000000	37.518824
801.000000	37.613901
802.000000	37.707799
803.000000	37.801495
804.000000	37.893797
805.000000	37.982739
806.000000	38.073304
807.000000	38.163858
808.000000	38.253882
809.000000	38.340666
810.000000	38.428472
811.000000	38.516209
812.000000	38.601261
813.000000	38.684845
814.000000	38.768863
815.000000	38.851576
816.000000	38.934555
817.000000	39.017638
818.000000	39.100245
819.000000	39.183972
820.000000	39.265119
821.000000	39.345270
822.000000	39.423736
823.000000	39.501700
824.000000	39.580516
825.000000	39.658197
826.000000	39.734971
827.000000	39.813990
828.000000	39.889234
829.000000	39.966554
830.000000	40.040315
831.000000	40.115589
832.000000	40.189602
833.000000	40.264704
834.000000	40.336815
835.000000	40.407592
836.000000	40.475804
837.000000	40.548665
838.000000	40.619378
839.000000	40.690627
840.000000	40.761870
841.000000	40.833286
842.000000	40.899247
843.000000	40.964134
844.000000	41.033905
845.000000	41.098504
846.000000	41.162723
847.000000	41.230560
848.000000	41.291753
849.000000	41.360114
850.000000	41.425900
851.000000	41.489348
852.000000	41.552346
853.000000	41.615480
854.000000	41.675284
855.000000	41.736697
856.000000	41.795031
857.000000	41.862253
858.000000	41.930055
859.000000	42.015522
860.000000	42.099867
861.000000	42.180352
862.000000	42.271376
863.000000	42.343682
864.000000	42.422094
865.000000	42.510578
866.000000	42.614551
867.000000	42.710919
868.000000	42.794785
869.000000	42.874729
870.000000	42.932216
871.000000	42.996657
872.000000	43.087131
873.000000	43.160919
874.000000	43.243906
875.000000	43.335846
876.000000	43.411819
877.000000	43.502975
878.000000	43.577740
879.000000	43.662208
880.000000	43.720353
881.000000	43.786062
882.000000	43.846563
883.000000	43.915349
884.000000	43.969554
885.000000	44.060848
886.000000	44.145513
887.000000	44.217028
888.000000	44.296684
889.000000	44.365484
890.000000	44.416624
891.000000	44.505521
892.000000	44.555576
893.000000	44.602146
894.000000	44.648451
895.000000	44.709840
896.000000	44.742901
897.000000	44.784496
898.000000	44.839036
899.000000	44.881166
900.000000	44.925185
901.000000	44.941524
902.000000	44.961028
903.000000	45.004144
904.000000	45.055546
905.000000	45.111945
906.000000	45.169671
907.000000	45.218870
908.000000	45.257194
909.000000	45.286080
910.000000	45.315730
911.000000	45.345721
912.000000	45.364694
913.000000	45.413330
914.000000	45.423129
915.000000	45.480754
916.000000	45.526443
917.000000	45.565579
918.000000	45.600127
919.000000	45.641792
920.000000	45.649009
921.000000	45.668238
922.000000	45.710866
923.000000	45.730911
924.000000	45.769225
925.000000	45.822116
926.000000	45.845194
927.000000	45.886196
928.000000	45.943562
929.000000	45.968048
930.000000	45.967354
931.000000	46.026972
932.000000	46.058152
933.000000	46.086230
934.000000	46.114755
935.000000	46.134997
936.000000	46.171899
937.000000	46.212280
938.000000	46.237182
939.000000	46.258276
940.000000	46.286053
941.000000	46.295939
942.000000	46.296671
943.000000	46.346490
944.000000	46.369831
945.000000	46.383369
946.000000	46.421954
947.000000	46.464450
948.000000	46.488350
949.000000	46.518727
950.000000	46.525081
951.000000	46.541036
952.000000	46.589594
953.000000	46.642569
954.000000	46.686751
955.000000	46.717108
956.000000	46.738124
957.000000	46.739372
958.000000	46.757376
959.000000	46.773445
960.000000	46.780597
961.000000	46.783908
962.000000	46.804603
963.000000	46.829432
964.000000	46.865867
965.000000	46.906536
966.000000	46.926284
967.000000	46.944314
968.000000	46.966046
969.000000	46.993172
970.000000	47.024891
971.000000	47.050561
972.000000	47.071726
973.000000	47.092989
974.000000	47.108237
975.000000	47.125774
976.000000	47.139449
977.000000	47.147067
978.000000	47.150755
979.000000	47.181951
980.000000	47.206118
981.000000	47.217944
982.000000	47.229956
983.000000	47.240403
984.000000	47.266356
985.000000	47.306394
986.000000	47.344611
987.000000	47.357643
988.000000	47.367205
989.000000	47.399777
990.000000	47.428941
991.000000	47.452263
992.000000	47.489943
993.000000	47.517413
994.000000	47.539054
995.000000	47.574242
996.000000	47.600009
997.000000	47.621815
998.000000	47.634252
999.000000	47.646966
1000.000000	47.667173
1001.000000	47.681611
1002.000000	47.706045
1003.000000	47.742183
1004.000000	47.771877
1005.000000	47.792375
1006.000000	47.808115
1007.000000	47.842009
1008.000000	47.873530
1009.000000	47.890551
1010.000000	47.914308
1011.000000	47.951651
1012.000000	47.989053
1013.000000	48.016435
1014.000000	48.024572
1015.000000	48.030909
1016.000000	48.046590
1017.000000	48.061334
1018.000000	48.089269
1019.000000	48.124970
1020.000000	48.138751
1021.000000	48.144054
1022.000000	48.151551
1023.000000	48.163561
1024.000000	48.152720
1025.000000	48.164143
1026.000000	48.188470
1027.000000	48.209736
1028.000000	48.229768
1029.000000	48.246066
1030.000000	48.265394
1031.000000	48.281930
1032.000000	48.303486
1033.000000	48.326375
1034.000000	48.345705
1035.000000	48.375551
1036.000000	48.396147
1037.000000	48.404197
1038.000000	48.410633
1039.000000	48.414451
1040.000000	48.431858
1041.000000	48.453070
1042.000000	48.459270
1043.000000	48.462601
1044.000000	48.470845
1045.000000	48.493517
1046.000000	48.520490
1047.000000	48.530692
1048.000000	48.535592
1049.000000	48.557630
1050.000000	48.584909
1051.000000	48.607587
1052.000000	48.626752
1053.000000	48.639984
1054.000000	48.648077
1055.000000	48.662074
1056.000000	48.686797
1057.000000	48.709424
1058.000000	48.728525
1059.000000	48.749630
1060.000000	48.774871
1061.000000	48.787686
1062.000000	48.799145
1063.000000	48.820816
1064.000000	48.854173
1065.000000	48.864870
1066.000000	48.884164
1067.000000	48.915720
1068.000000	48.929168
1069.000000	48.951549
1070.000000	48.957304
1071.000000	48.964634
1072.000000	48.962749
1073.000000	48.972091
1074.000000	48.999527
1075.000000	49.007866
1076.000000	49.014781
1077.000000	49.029351
1078.000000	49.040885
1079.000000	49.069617
1080.000000	49.085980
1081.000000	49.098449
1082.000000	49.124003
1083.000000	49.155915
1084.000000	49.182089
1085.000000	49.215945
1086.000000	49.215777
1087.000000	49.206907
1088.000000	49.219013
1089.000000	49.236286
1090.000000	49.249901
1091.000000	49.267929
1092.000000	49.293032
1093.000000	49.318994
1094.000000	49.338672
1095.000000	49.346555
1096.000000	49.353419
1097.000000	49.361802
1098.000000	49.379514
1099.000000	49.396857
1100.000000	49.423342
1101.000000	49.448677
1102.000000	49.464293
1103.000000	49.484264
1104.000000	49.485380
1105.000000	49.493535
1106.000000	49.510922
1107.000000	49.545101
1108.000000	49.556526
1109.000000	49.565699
1110.000000	49.579435
1111.000000	49.590521
1112.000000	49.593648
1113.000000	49.626111
1114.000000	49.650717
1115.000000	49.656957
1116.000000	49.679782
1117.000000	49.687078
1118.000000	49.712782
1119.000000	49.702261
1120.000000	49.709179
1121.000000	49.743493
1122.000000	49.779882
1123.000000	49.805519
1124.000000	49.813651
1125.000000	49.843815
1126.000000	49.849485
1127.000000	49.841610
1128.000000	49.855648
1129.000000	49.875033
1130.000000	49.893124
1131.000000	49.913201
1132.000000	49.940819
1133.000000	49.947455
1134.000000	49.969655
1135.000000	49.980009
1136.000000	49.957025
1137.000000	49.958930
1138.000000	49.963013
1139.000000	49.989611
1140.000000	50.003380
1141.000000	50.025738
1142.000000	50.027165
1143.000000	50.050424
1144.000000	50.058321
1145.000000	50.075894
1146.000000	50.094851
1147.000000	50.104403
1148.000000	50.084558
1149.000000	50.084151
1150.000000	50.081948
1151.000000	50.067088
1152.000000	50.072552
1153.000000	50.035968
1154.000000	50.052956
1155.000000	50.036810
1156.000000	50.061898
1157.000000	50.086209
1158.000000	50.070451
1159.000000	50.070448
1160.000000	50.071132
1161.000000	50.063277
1162.000000	50.067914
1163.000000	50.064362
1164.000000	50.051388
1165.000000	50.030439
1166.000000	50.036864
1167.000000	50.054540
1168.000000	50.044543
1169.000000	50.011293
1170.000000	50.011590
1171.000000	50.037595
1172.000000	50.031851
1173.000000	50.013955
1174.000000	49.982780
1175.000000	49.967018
1176.000000	49.944596
1177.000000	49.936711
1178.000000	49.920415
1179.000000	49.901501
1180.000000	49.883852
1181.000000	49.865586
1182.000000	49.848064
1183.000000	49.854002
1184.000000	49.862205
1185.000000	49.885339
1186.000000	49.886046
1187.000000	49.870193
1188.000000	49.879990
1189.000000	49.871183
1190.000000	49.884446
1191.000000	49.853742
1192.000000	49.824513
1193.000000	49.835851
1194.000000	49.853618
1195.000000	49.836389
1196.000000	49.846115
1197.000000	49.860416
1198.000000	49.853205
1199.000000	49.874751
1200.000000	49.895183
1201.000000	49.890660
1202.000000	49.850928
1203.000000	49.872663
1204.000000	49.890643
1205.000000	49.885813
1206.000000	49.889595
1207.000000	49.891585
1208.000000	49.919176
1209.000000	49.943939
