PE UV       SUBTECH     SPECTRUM    ASCII       PEDS        4.00        
   -1
S.BELT.1063-TX3.ASC
23/11/29
16:25:54.00
23/11/29
16:25:54.00
Vinicio Soto Monge
STRIGIDA BELTI INBIO0004211063
250,000000
1
Lambda 1050
1050L1511233
PerkinElmer UV WinLab 6.3.2.0749 / 2.02.05 Lambda 900 UV/VIS/NIR, Aug  7 2015 09:38:08

0
0
3350/servo 860,8/2
0
0
UV/VIS
1
1
1
DoubleDePol,CommonBeamDepol,RBeamAtt,SBeamAtt,60mm sphere, WB InGaAs Detector
0
0
0
0
Program
Program
3350/servo 860,8/2
3350/0,4 860,8/0,4
3350/0,4 860,8/0,4
0
20.00
 
 
 
0
 
860,8
319,2
860,8
Front
100
on
S:100 R:100
0
0
0
0
 
0
 
 
 
0
 
 
0
0
0
0
0
 
 
 
 
0
0


0
0
#HDR
-1
-1
#GR
nm
%T
1.0
0.0
2200,000000
-1,000000
1951
8
69,176726
0,292731
#DATA
284.000000	0.624806
285.000000	0.601841
286.000000	0.580518
287.000000	0.561380
288.000000	0.543949
289.000000	0.527655
290.000000	0.513069
291.000000	0.499899
292.000000	0.486883
293.000000	0.475365
294.000000	0.465511
295.000000	0.456867
296.000000	0.448453
297.000000	0.441113
298.000000	0.434272
299.000000	0.428246
300.000000	0.423272
301.000000	0.419679
302.000000	0.415416
303.000000	0.412274
304.000000	0.409620
305.000000	0.407403
306.000000	0.405530
307.000000	0.403402
308.000000	0.402430
309.000000	0.401538
310.000000	0.400916
311.000000	0.400262
312.000000	0.399722
313.000000	0.399664
314.000000	0.399860
315.000000	0.400330
316.000000	0.400903
317.000000	0.401795
318.000000	0.403765
319.000000	0.402758
320.000000	0.403570
321.000000	0.404920
322.000000	0.404970
323.000000	0.407044
324.000000	0.408354
325.000000	0.410081
326.000000	0.412158
327.000000	0.414714
328.000000	0.418516
329.000000	0.420921
330.000000	0.423978
331.000000	0.426965
332.000000	0.428517
333.000000	0.430837
334.000000	0.433335
335.000000	0.435017
336.000000	0.436925
337.000000	0.439251
338.000000	0.442029
339.000000	0.444744
340.000000	0.447810
341.000000	0.450727
342.000000	0.453821
343.000000	0.456602
344.000000	0.459612
345.000000	0.462403
346.000000	0.465410
347.000000	0.468631
348.000000	0.472175
349.000000	0.474675
350.000000	0.477205
351.000000	0.480157
352.000000	0.482545
353.000000	0.484177
354.000000	0.488988
355.000000	0.492492
356.000000	0.495350
357.000000	0.499466
358.000000	0.501431
359.000000	0.504308
360.000000	0.506959
361.000000	0.509196
362.000000	0.511713
363.000000	0.512986
364.000000	0.515834
365.000000	0.518382
366.000000	0.520814
367.000000	0.525061
368.000000	0.528859
369.000000	0.532294
370.000000	0.536167
371.000000	0.539434
372.000000	0.543076
373.000000	0.545659
374.000000	0.548357
375.000000	0.551162
376.000000	0.554292
377.000000	0.556710
378.000000	0.559246
379.000000	0.561321
380.000000	0.563408
381.000000	0.565808
382.000000	0.568104
383.000000	0.569913
384.000000	0.572275
385.000000	0.574460
386.000000	0.576294
387.000000	0.578291
388.000000	0.580325
389.000000	0.582128
390.000000	0.583891
391.000000	0.585787
392.000000	0.587429
393.000000	0.589443
394.000000	0.591402
395.000000	0.592947
396.000000	0.594675
397.000000	0.596022
398.000000	0.597140
399.000000	0.598086
400.000000	0.598815
401.000000	0.599953
402.000000	0.600568
403.000000	0.601018
404.000000	0.601547
405.000000	0.602148
406.000000	0.603021
407.000000	0.603737
408.000000	0.604479
409.000000	0.605252
410.000000	0.605737
411.000000	0.605894
412.000000	0.606796
413.000000	0.607670
414.000000	0.608505
415.000000	0.609214
416.000000	0.609853
417.000000	0.610457
418.000000	0.611087
419.000000	0.611661
420.000000	0.612107
421.000000	0.612552
422.000000	0.612969
423.000000	0.613375
424.000000	0.613699
425.000000	0.613942
426.000000	0.614198
427.000000	0.614479
428.000000	0.614774
429.000000	0.614989
430.000000	0.615126
431.000000	0.615267
432.000000	0.615374
433.000000	0.615499
434.000000	0.615561
435.000000	0.615457
436.000000	0.615329
437.000000	0.615225
438.000000	0.615154
439.000000	0.615079
440.000000	0.615024
441.000000	0.614919
442.000000	0.614829
443.000000	0.614741
444.000000	0.614521
445.000000	0.614351
446.000000	0.614200
447.000000	0.613978
448.000000	0.613683
449.000000	0.613280
450.000000	0.612996
451.000000	0.612739
452.000000	0.612408
453.000000	0.612008
454.000000	0.611511
455.000000	0.610981
456.000000	0.610499
457.000000	0.610016
458.000000	0.609533
459.000000	0.609032
460.000000	0.608528
461.000000	0.608053
462.000000	0.607570
463.000000	0.607010
464.000000	0.606485
465.000000	0.605949
466.000000	0.605398
467.000000	0.604901
468.000000	0.604411
469.000000	0.603845
470.000000	0.603284
471.000000	0.602706
472.000000	0.602090
473.000000	0.601420
474.000000	0.600716
475.000000	0.599984
476.000000	0.599276
477.000000	0.598513
478.000000	0.597795
479.000000	0.597151
480.000000	0.596494
481.000000	0.595910
482.000000	0.595352
483.000000	0.594818
484.000000	0.594346
485.000000	0.593806
486.000000	0.593157
487.000000	0.592544
488.000000	0.591919
489.000000	0.591334
490.000000	0.590765
491.000000	0.590153
492.000000	0.589543
493.000000	0.588943
494.000000	0.588350
495.000000	0.587771
496.000000	0.587219
497.000000	0.586661
498.000000	0.586143
499.000000	0.585579
500.000000	0.585157
501.000000	0.584729
502.000000	0.584323
503.000000	0.583920
504.000000	0.583544
505.000000	0.583193
506.000000	0.582857
507.000000	0.582559
508.000000	0.582390
509.000000	0.582296
510.000000	0.582274
511.000000	0.582334
512.000000	0.582530
513.000000	0.582811
514.000000	0.583254
515.000000	0.583836
516.000000	0.584586
517.000000	0.585565
518.000000	0.586671
519.000000	0.588070
520.000000	0.589695
521.000000	0.591660
522.000000	0.593983
523.000000	0.596570
524.000000	0.599587
525.000000	0.602978
526.000000	0.606806
527.000000	0.611007
528.000000	0.615722
529.000000	0.620989
530.000000	0.626853
531.000000	0.633385
532.000000	0.640626
533.000000	0.648576
534.000000	0.657285
535.000000	0.666838
536.000000	0.677285
537.000000	0.688649
538.000000	0.700997
539.000000	0.714385
540.000000	0.728911
541.000000	0.744675
542.000000	0.761695
543.000000	0.780094
544.000000	0.799859
545.000000	0.821117
546.000000	0.843872
547.000000	0.868344
548.000000	0.894593
549.000000	0.922787
550.000000	0.953051
551.000000	0.985358
552.000000	1.019942
553.000000	1.056949
554.000000	1.096470
555.000000	1.138620
556.000000	1.183538
557.000000	1.231148
558.000000	1.281941
559.000000	1.335680
560.000000	1.392858
561.000000	1.453511
562.000000	1.517737
563.000000	1.585686
564.000000	1.657448
565.000000	1.733355
566.000000	1.813154
567.000000	1.897036
568.000000	1.985106
569.000000	2.077579
570.000000	2.174349
571.000000	2.275536
572.000000	2.381068
573.000000	2.490969
574.000000	2.605379
575.000000	2.723827
576.000000	2.846339
577.000000	2.972880
578.000000	3.103304
579.000000	3.237577
580.000000	3.375470
581.000000	3.517107
582.000000	3.662409
583.000000	3.811387
584.000000	3.963695
585.000000	4.119133
586.000000	4.278131
587.000000	4.440477
588.000000	4.606130
589.000000	4.774782
590.000000	4.946701
591.000000	5.121763
592.000000	5.299960
593.000000	5.481205
594.000000	5.665534
595.000000	5.852921
596.000000	6.043155
597.000000	6.236178
598.000000	6.432179
599.000000	6.630918
600.000000	6.832213
601.000000	7.036068
602.000000	7.242264
603.000000	7.450843
604.000000	7.661519
605.000000	7.874169
606.000000	8.088383
607.000000	8.304213
608.000000	8.521205
609.000000	8.738981
610.000000	8.958022
611.000000	9.177914
612.000000	9.398804
613.000000	9.620317
614.000000	9.842492
615.000000	10.065348
616.000000	10.288509
617.000000	10.511797
618.000000	10.735357
619.000000	10.959604
620.000000	11.184613
621.000000	11.409943
622.000000	11.636141
623.000000	11.862834
624.000000	12.090507
625.000000	12.319006
626.000000	12.548366
627.000000	12.778581
628.000000	13.009486
629.000000	13.241553
630.000000	13.474355
631.000000	13.707977
632.000000	13.942279
633.000000	14.176654
634.000000	14.411734
635.000000	14.647148
636.000000	14.882857
637.000000	15.118553
638.000000	15.353652
639.000000	15.588215
640.000000	15.822641
641.000000	16.056731
642.000000	16.290281
643.000000	16.524007
644.000000	16.758090
645.000000	16.992244
646.000000	17.226122
647.000000	17.459996
648.000000	17.694435
649.000000	17.929532
650.000000	18.165381
651.000000	18.402612
652.000000	18.641266
653.000000	18.881245
654.000000	19.122501
655.000000	19.365187
656.000000	19.609107
657.000000	19.854198
658.000000	20.100450
659.000000	20.347329
660.000000	20.594747
661.000000	20.842665
662.000000	21.090884
663.000000	21.339452
664.000000	21.587517
665.000000	21.834399
666.000000	22.080441
667.000000	22.325604
668.000000	22.569410
669.000000	22.811348
670.000000	23.051973
671.000000	23.290840
672.000000	23.528471
673.000000	23.765159
674.000000	24.001068
675.000000	24.235583
676.000000	24.469550
677.000000	24.703171
678.000000	24.935940
679.000000	25.168500
680.000000	25.400549
681.000000	25.632532
682.000000	25.864705
683.000000	26.096754
684.000000	26.328838
685.000000	26.560698
686.000000	26.791298
687.000000	27.020829
688.000000	27.249447
689.000000	27.477064
690.000000	27.703368
691.000000	27.928384
692.000000	28.151149
693.000000	28.371384
694.000000	28.589813
695.000000	28.806381
696.000000	29.020376
697.000000	29.232157
698.000000	29.441539
699.000000	29.648829
700.000000	29.854621
701.000000	30.057959
702.000000	30.259378
703.000000	30.459957
704.000000	30.659580
705.000000	30.858154
706.000000	31.055808
707.000000	31.252544
708.000000	31.448924
709.000000	31.644520
710.000000	31.839562
711.000000	32.033703
712.000000	32.227383
713.000000	32.420728
714.000000	32.612560
715.000000	32.803189
716.000000	32.993529
717.000000	33.182443
718.000000	33.369902
719.000000	33.555437
720.000000	33.738759
721.000000	33.920817
722.000000	34.101224
723.000000	34.280137
724.000000	34.456954
725.000000	34.631526
726.000000	34.804080
727.000000	34.975036
728.000000	35.145460
729.000000	35.314314
730.000000	35.481964
731.000000	35.649265
732.000000	35.815376
733.000000	35.981636
734.000000	36.148116
735.000000	36.313462
736.000000	36.478509
737.000000	36.643834
738.000000	36.808543
739.000000	36.972267
740.000000	37.135571
741.000000	37.298505
742.000000	37.461979
743.000000	37.624675
744.000000	37.785391
745.000000	37.944834
746.000000	38.103464
747.000000	38.261074
748.000000	38.417232
749.000000	38.571911
750.000000	38.725952
751.000000	38.878697
752.000000	39.030240
753.000000	39.180209
754.000000	39.329624
755.000000	39.477610
756.000000	39.625885
757.000000	39.773415
758.000000	39.920219
759.000000	40.067401
760.000000	40.213966
761.000000	40.359917
762.000000	40.506299
763.000000	40.652606
764.000000	40.798812
765.000000	40.944102
766.000000	41.087609
767.000000	41.231509
768.000000	41.374577
769.000000	41.516871
770.000000	41.658882
771.000000	41.800405
772.000000	41.940070
773.000000	42.078768
774.000000	42.217261
775.000000	42.353889
776.000000	42.490123
777.000000	42.625156
778.000000	42.756856
779.000000	42.889094
780.000000	43.021360
781.000000	43.152706
782.000000	43.283233
783.000000	43.413771
784.000000	43.543256
785.000000	43.670696
786.000000	43.797931
787.000000	43.925184
788.000000	44.051263
789.000000	44.178438
790.000000	44.306804
791.000000	44.432849
792.000000	44.558137
793.000000	44.683781
794.000000	44.807196
795.000000	44.930208
796.000000	45.051718
797.000000	45.173230
798.000000	45.292472
799.000000	45.411294
800.000000	45.528912
801.000000	45.647374
802.000000	45.765052
803.000000	45.880151
804.000000	45.993804
805.000000	46.105970
806.000000	46.218672
807.000000	46.330363
808.000000	46.442162
809.000000	46.552190
810.000000	46.662562
811.000000	46.769517
812.000000	46.876506
813.000000	46.985357
814.000000	47.091826
815.000000	47.197182
816.000000	47.302881
817.000000	47.408222
818.000000	47.512808
819.000000	47.617902
820.000000	47.721390
821.000000	47.823952
822.000000	47.926181
823.000000	48.029983
824.000000	48.127730
825.000000	48.226701
826.000000	48.324693
827.000000	48.420603
828.000000	48.515269
829.000000	48.610098
830.000000	48.703956
831.000000	48.798695
832.000000	48.891462
833.000000	48.984563
834.000000	49.075413
835.000000	49.167684
836.000000	49.261643
837.000000	49.352677
838.000000	49.443534
839.000000	49.534291
840.000000	49.621727
841.000000	49.712051
842.000000	49.805032
843.000000	49.894854
844.000000	49.983846
845.000000	50.072924
846.000000	50.161917
847.000000	50.251983
848.000000	50.335931
849.000000	50.421810
850.000000	50.503863
851.000000	50.584514
852.000000	50.662972
853.000000	50.746147
854.000000	50.825147
855.000000	50.897435
856.000000	50.973342
857.000000	51.056243
858.000000	51.114761
859.000000	51.226589
860.000000	51.335587
861.000000	51.436587
862.000000	51.551047
863.000000	51.657996
864.000000	51.774448
865.000000	51.879228
866.000000	51.965058
867.000000	52.062835
868.000000	52.180132
869.000000	52.281745
870.000000	52.381110
871.000000	52.482786
872.000000	52.579432
873.000000	52.668278
874.000000	52.746908
875.000000	52.839379
876.000000	52.924442
877.000000	53.017455
878.000000	53.107545
879.000000	53.192623
880.000000	53.274257
881.000000	53.369648
882.000000	53.463950
883.000000	53.559487
884.000000	53.631337
885.000000	53.723075
886.000000	53.826387
887.000000	53.927329
888.000000	54.003079
889.000000	54.100579
890.000000	54.205448
891.000000	54.301548
892.000000	54.392241
893.000000	54.505154
894.000000	54.575031
895.000000	54.628819
896.000000	54.691477
897.000000	54.745675
898.000000	54.791277
899.000000	54.831963
900.000000	54.905711
901.000000	54.989267
902.000000	55.057552
903.000000	55.108172
904.000000	55.166677
905.000000	55.220165
906.000000	55.274953
907.000000	55.346881
908.000000	55.412863
909.000000	55.493509
910.000000	55.567985
911.000000	55.628374
912.000000	55.686925
913.000000	55.749078
914.000000	55.805501
915.000000	55.868084
916.000000	55.913536
917.000000	55.960950
918.000000	56.006440
919.000000	56.096567
920.000000	56.151625
921.000000	56.186821
922.000000	56.224760
923.000000	56.288502
924.000000	56.331824
925.000000	56.383695
926.000000	56.445487
927.000000	56.500153
928.000000	56.532166
929.000000	56.563038
930.000000	56.604305
931.000000	56.649553
932.000000	56.682743
933.000000	56.740989
934.000000	56.798804
935.000000	56.844402
936.000000	56.886819
937.000000	56.931944
938.000000	56.965953
939.000000	57.000799
940.000000	57.052448
941.000000	57.086382
942.000000	57.107545
943.000000	57.151008
944.000000	57.184337
945.000000	57.217036
946.000000	57.278659
947.000000	57.314863
948.000000	57.332624
949.000000	57.368836
950.000000	57.400616
951.000000	57.453389
952.000000	57.496826
953.000000	57.545745
954.000000	57.562604
955.000000	57.587695
956.000000	57.634854
957.000000	57.671480
958.000000	57.715707
959.000000	57.762859
960.000000	57.784468
961.000000	57.816656
962.000000	57.831427
963.000000	57.879493
964.000000	57.917017
965.000000	57.956467
966.000000	57.988943
967.000000	58.022973
968.000000	58.049536
969.000000	58.072494
970.000000	58.082644
971.000000	58.106997
972.000000	58.125625
973.000000	58.157014
974.000000	58.196664
975.000000	58.219721
976.000000	58.252730
977.000000	58.290599
978.000000	58.322523
979.000000	58.357687
980.000000	58.383652
981.000000	58.395087
982.000000	58.427093
983.000000	58.475707
984.000000	58.514898
985.000000	58.544941
986.000000	58.553534
987.000000	58.571063
988.000000	58.594049
989.000000	58.629347
990.000000	58.664137
991.000000	58.683505
992.000000	58.722013
993.000000	58.744752
994.000000	58.756620
995.000000	58.780302
996.000000	58.797682
997.000000	58.837188
998.000000	58.859817
999.000000	58.893313
1000.000000	58.932704
1001.000000	58.974650
1002.000000	59.017224
1003.000000	59.051520
1004.000000	59.077245
1005.000000	59.100397
1006.000000	59.114284
1007.000000	59.141760
1008.000000	59.171777
1009.000000	59.195900
1010.000000	59.233178
1011.000000	59.269796
1012.000000	59.292115
1013.000000	59.305606
1014.000000	59.333484
1015.000000	59.363716
1016.000000	59.384206
1017.000000	59.400510
1018.000000	59.416658
1019.000000	59.435682
1020.000000	59.468581
1021.000000	59.503065
1022.000000	59.520451
1023.000000	59.539854
1024.000000	59.566765
1025.000000	59.590529
1026.000000	59.612469
1027.000000	59.632515
1028.000000	59.652494
1029.000000	59.681866
1030.000000	59.718996
1031.000000	59.746015
1032.000000	59.769006
1033.000000	59.792266
1034.000000	59.809533
1035.000000	59.826135
1036.000000	59.838631
1037.000000	59.851943
1038.000000	59.874388
1039.000000	59.894366
1040.000000	59.928418
1041.000000	59.966409
1042.000000	59.992929
1043.000000	60.012496
1044.000000	60.029814
1045.000000	60.041230
1046.000000	60.061419
1047.000000	60.081592
1048.000000	60.101753
1049.000000	60.109144
1050.000000	60.114962
1051.000000	60.131127
1052.000000	60.149032
1053.000000	60.168774
1054.000000	60.196374
1055.000000	60.207117
1056.000000	60.224645
1057.000000	60.252485
1058.000000	60.275536
1059.000000	60.293131
1060.000000	60.315413
1061.000000	60.342435
1062.000000	60.365378
1063.000000	60.386705
1064.000000	60.393505
1065.000000	60.410884
1066.000000	60.426520
1067.000000	60.441529
1068.000000	60.470058
1069.000000	60.494024
1070.000000	60.503830
1071.000000	60.514269
1072.000000	60.524267
1073.000000	60.516680
1074.000000	60.539387
1075.000000	60.545655
1076.000000	60.566589
1077.000000	60.599277
1078.000000	60.608950
1079.000000	60.628457
1080.000000	60.645130
1081.000000	60.661120
1082.000000	60.693010
1083.000000	60.731690
1084.000000	60.737207
1085.000000	60.754819
1086.000000	60.778465
1087.000000	60.784781
1088.000000	60.807351
1089.000000	60.818524
1090.000000	60.845192
1091.000000	60.849942
1092.000000	60.881576
1093.000000	60.894403
1094.000000	60.909949
1095.000000	60.918627
1096.000000	60.930378
1097.000000	60.947588
1098.000000	60.948356
1099.000000	60.975370
1100.000000	60.983346
1101.000000	60.983927
1102.000000	60.996984
1103.000000	61.001456
1104.000000	61.001275
1105.000000	61.010732
1106.000000	61.028667
1107.000000	61.057102
1108.000000	61.101568
1109.000000	61.111406
1110.000000	61.138937
1111.000000	61.158602
1112.000000	61.151964
1113.000000	61.172608
1114.000000	61.188182
1115.000000	61.200801
1116.000000	61.199421
1117.000000	61.199541
1118.000000	61.195860
1119.000000	61.223006
1120.000000	61.242966
1121.000000	61.267060
1122.000000	61.287209
1123.000000	61.324650
1124.000000	61.336089
1125.000000	61.363006
1126.000000	61.388094
1127.000000	61.393735
1128.000000	61.408032
1129.000000	61.416734
1130.000000	61.433789
1131.000000	61.458424
1132.000000	61.468466
1133.000000	61.497776
1134.000000	61.572036
1135.000000	61.579893
1136.000000	61.600765
1137.000000	61.604276
1138.000000	61.621682
1139.000000	61.644828
1140.000000	61.671880
1141.000000	61.670141
1142.000000	61.677756
1143.000000	61.673841
1144.000000	61.680352
1145.000000	61.681294
1146.000000	61.688670
1147.000000	61.696272
1148.000000	61.708333
1149.000000	61.737114
1150.000000	61.734203
1151.000000	61.752882
1152.000000	61.783503
1153.000000	61.786407
1154.000000	61.793042
1155.000000	61.818664
1156.000000	61.818497
1157.000000	61.844633
1158.000000	61.827459
1159.000000	61.832027
1160.000000	61.831980
1161.000000	61.854039
1162.000000	61.853425
1163.000000	61.859145
1164.000000	61.882637
1165.000000	61.893567
1166.000000	61.882777
1167.000000	61.878460
1168.000000	61.872234
1169.000000	61.810596
1170.000000	61.824849
1171.000000	61.815406
1172.000000	61.812795
1173.000000	61.812300
1174.000000	61.808690
1175.000000	61.807210
1176.000000	61.807656
1177.000000	61.803401
1178.000000	61.808188
1179.000000	61.818099
1180.000000	61.818699
1181.000000	61.808948
1182.000000	61.806962
1183.000000	61.814783
1184.000000	61.793756
1185.000000	61.793329
1186.000000	61.791624
1187.000000	61.775427
1188.000000	61.795931
1189.000000	61.818554
1190.000000	61.803211
1191.000000	61.806478
1192.000000	61.793017
1193.000000	61.786658
1194.000000	61.801689
1195.000000	61.791569
1196.000000	61.791810
1197.000000	61.793104
1198.000000	61.799518
1199.000000	61.778816
1200.000000	61.786329
1201.000000	61.809589
1202.000000	61.826991
1203.000000	61.837695
1204.000000	61.849211
1205.000000	61.866376
1206.000000	61.896788
1207.000000	61.919113
