PE UV       SUBTECH     SPECTRUM    ASCII       PEDS        4.00        
   -1
C.AURI.INBI-TX3.ASC
23/11/29
13:33:10.00
23/11/29
13:33:10.00
Vinicio Soto Monge
C. AURIGANS INBIO DESCABEZADO
250,000000
1
Lambda 1050
1050L1511233
PerkinElmer UV WinLab 6.3.2.0749 / 2.02.05 Lambda 900 UV/VIS/NIR, Aug  7 2015 09:38:08

0
0
3350/servo 860,8/2
0
0
UV/VIS
1
1
1
DoubleDePol,CommonBeamDepol,RBeamAtt,SBeamAtt,60mm sphere, WB InGaAs Detector
0
0
0
0
Program
Program
3350/servo 860,8/2
3350/0,4 860,8/0,4
3350/0,4 860,8/0,4
0
20.00
 
 
 
0
 
860,8
319,2
860,8
Front
100
on
S:100 R:100
0
0
0
0
 
0
 
 
 
0
 
 
0
0
0
0
0
 
 
 
 
0
0


0
0
#HDR
-1
-1
#GR
nm
%T
1.0
0.0
2200,000000
-1,000000
1951
8
73,936923
0,295565
#DATA
284.000000	0.350303
285.000000	0.349654
286.000000	0.349812
287.000000	0.350930
288.000000	0.351663
289.000000	0.352766
290.000000	0.353704
291.000000	0.355216
292.000000	0.356035
293.000000	0.356346
294.000000	0.357048
295.000000	0.357742
296.000000	0.358513
297.000000	0.359072
298.000000	0.359554
299.000000	0.360110
300.000000	0.360514
301.000000	0.361658
302.000000	0.362107
303.000000	0.363000
304.000000	0.362343
305.000000	0.362897
306.000000	0.364188
307.000000	0.364847
308.000000	0.365374
309.000000	0.366032
310.000000	0.366373
311.000000	0.367656
312.000000	0.368414
313.000000	0.369223
314.000000	0.370269
315.000000	0.371799
316.000000	0.372505
317.000000	0.372995
318.000000	0.376685
319.000000	0.377510
320.000000	0.378808
321.000000	0.381128
322.000000	0.382194
323.000000	0.385909
324.000000	0.386499
325.000000	0.387478
326.000000	0.388446
327.000000	0.391528
328.000000	0.395868
329.000000	0.399042
330.000000	0.401768
331.000000	0.403960
332.000000	0.407921
333.000000	0.410602
334.000000	0.412874
335.000000	0.416541
336.000000	0.420050
337.000000	0.423529
338.000000	0.426034
339.000000	0.430022
340.000000	0.434257
341.000000	0.437291
342.000000	0.440662
343.000000	0.444496
344.000000	0.448688
345.000000	0.452545
346.000000	0.455734
347.000000	0.458913
348.000000	0.463092
349.000000	0.466762
350.000000	0.469742
351.000000	0.474099
352.000000	0.479461
353.000000	0.481078
354.000000	0.484849
355.000000	0.489201
356.000000	0.491996
357.000000	0.496061
358.000000	0.497976
359.000000	0.503368
360.000000	0.507391
361.000000	0.511411
362.000000	0.514001
363.000000	0.515638
364.000000	0.517722
365.000000	0.520955
366.000000	0.525491
367.000000	0.528290
368.000000	0.531839
369.000000	0.535904
370.000000	0.539376
371.000000	0.542664
372.000000	0.546085
373.000000	0.550139
374.000000	0.552674
375.000000	0.555511
376.000000	0.559297
377.000000	0.562455
378.000000	0.565196
379.000000	0.567497
380.000000	0.569978
381.000000	0.573200
382.000000	0.576096
383.000000	0.578731
384.000000	0.581258
385.000000	0.583810
386.000000	0.586017
387.000000	0.587522
388.000000	0.589412
389.000000	0.591705
390.000000	0.593852
391.000000	0.596797
392.000000	0.599052
393.000000	0.600819
394.000000	0.602330
395.000000	0.604354
396.000000	0.606261
397.000000	0.608154
398.000000	0.610039
399.000000	0.612431
400.000000	0.614215
401.000000	0.615564
402.000000	0.616824
403.000000	0.618536
404.000000	0.619770
405.000000	0.620801
406.000000	0.621774
407.000000	0.622607
408.000000	0.623958
409.000000	0.625386
410.000000	0.626110
411.000000	0.626807
412.000000	0.628660
413.000000	0.630337
414.000000	0.632058
415.000000	0.633807
416.000000	0.635562
417.000000	0.637332
418.000000	0.639110
419.000000	0.640865
420.000000	0.642554
421.000000	0.644181
422.000000	0.645863
423.000000	0.647536
424.000000	0.649249
425.000000	0.651013
426.000000	0.652783
427.000000	0.654647
428.000000	0.656645
429.000000	0.658716
430.000000	0.660786
431.000000	0.662887
432.000000	0.665132
433.000000	0.667533
434.000000	0.669945
435.000000	0.672596
436.000000	0.675361
437.000000	0.678080
438.000000	0.680984
439.000000	0.684040
440.000000	0.687151
441.000000	0.690284
442.000000	0.693574
443.000000	0.697144
444.000000	0.700974
445.000000	0.704951
446.000000	0.708931
447.000000	0.713031
448.000000	0.717438
449.000000	0.722187
450.000000	0.727140
451.000000	0.732356
452.000000	0.737763
453.000000	0.743343
454.000000	0.749149
455.000000	0.755226
456.000000	0.761494
457.000000	0.767949
458.000000	0.774703
459.000000	0.781687
460.000000	0.788867
461.000000	0.796437
462.000000	0.804319
463.000000	0.812466
464.000000	0.820839
465.000000	0.829536
466.000000	0.838695
467.000000	0.848171
468.000000	0.857916
469.000000	0.868177
470.000000	0.878856
471.000000	0.889872
472.000000	0.901463
473.000000	0.913331
474.000000	0.925595
475.000000	0.938353
476.000000	0.951606
477.000000	0.965173
478.000000	0.979322
479.000000	0.994099
480.000000	1.009457
481.000000	1.025620
482.000000	1.042469
483.000000	1.059838
484.000000	1.077670
485.000000	1.096174
486.000000	1.115416
487.000000	1.135550
488.000000	1.156460
489.000000	1.178151
490.000000	1.200646
491.000000	1.224113
492.000000	1.248535
493.000000	1.273791
494.000000	1.300058
495.000000	1.327316
496.000000	1.355558
497.000000	1.384875
498.000000	1.415130
499.000000	1.446605
500.000000	1.479441
501.000000	1.513477
502.000000	1.548998
503.000000	1.586034
504.000000	1.624463
505.000000	1.664424
506.000000	1.705787
507.000000	1.748617
508.000000	1.793188
509.000000	1.839485
510.000000	1.887271
511.000000	1.936626
512.000000	1.987634
513.000000	2.039955
514.000000	2.093530
515.000000	2.148096
516.000000	2.203509
517.000000	2.259570
518.000000	2.316214
519.000000	2.373062
520.000000	2.429708
521.000000	2.485759
522.000000	2.540898
523.000000	2.594916
524.000000	2.648097
525.000000	2.700429
526.000000	2.751896
527.000000	2.802883
528.000000	2.853439
529.000000	2.903613
530.000000	2.954019
531.000000	3.004809
532.000000	3.056197
533.000000	3.108607
534.000000	3.161817
535.000000	3.215945
536.000000	3.271025
537.000000	3.326827
538.000000	3.383143
539.000000	3.440145
540.000000	3.497820
541.000000	3.556326
542.000000	3.615564
543.000000	3.675398
544.000000	3.735800
545.000000	3.796612
546.000000	3.858109
547.000000	3.920190
548.000000	3.983066
549.000000	4.046650
550.000000	4.111669
551.000000	4.178014
552.000000	4.245993
553.000000	4.315473
554.000000	4.386934
555.000000	4.460731
556.000000	4.536954
557.000000	4.616082
558.000000	4.698261
559.000000	4.783247
560.000000	4.870817
561.000000	4.961152
562.000000	5.053729
563.000000	5.148865
564.000000	5.246057
565.000000	5.344781
566.000000	5.444887
567.000000	5.546057
568.000000	5.648283
569.000000	5.751738
570.000000	5.856239
571.000000	5.962053
572.000000	6.069220
573.000000	6.177589
574.000000	6.287459
575.000000	6.398326
576.000000	6.510291
577.000000	6.623080
578.000000	6.737314
579.000000	6.852362
580.000000	6.968370
581.000000	7.085365
582.000000	7.203187
583.000000	7.321569
584.000000	7.440401
585.000000	7.559697
586.000000	7.679374
587.000000	7.799823
588.000000	7.921348
589.000000	8.044617
590.000000	8.169827
591.000000	8.297601
592.000000	8.427470
593.000000	8.559568
594.000000	8.693353
595.000000	8.828861
596.000000	8.965095
597.000000	9.102372
598.000000	9.239259
599.000000	9.375971
600.000000	9.512942
601.000000	9.650128
602.000000	9.787924
603.000000	9.926588
604.000000	10.066072
605.000000	10.207566
606.000000	10.350672
607.000000	10.495842
608.000000	10.643041
609.000000	10.792110
610.000000	10.943106
611.000000	11.095688
612.000000	11.249459
613.000000	11.402733
614.000000	11.555376
615.000000	11.706870
616.000000	11.856254
617.000000	12.003822
618.000000	12.150162
619.000000	12.296114
620.000000	12.442825
621.000000	12.591362
622.000000	12.742740
623.000000	12.897549
624.000000	13.054859
625.000000	13.214354
626.000000	13.374917
627.000000	13.536095
628.000000	13.696639
629.000000	13.855983
630.000000	14.012833
631.000000	14.166550
632.000000	14.317186
633.000000	14.465630
634.000000	14.612960
635.000000	14.760150
636.000000	14.908441
637.000000	15.059075
638.000000	15.212325
639.000000	15.368822
640.000000	15.527530
641.000000	15.687920
642.000000	15.848470
643.000000	16.009005
644.000000	16.168627
645.000000	16.325414
646.000000	16.478734
647.000000	16.628540
648.000000	16.775038
649.000000	16.919426
650.000000	17.062101
651.000000	17.204398
652.000000	17.347774
653.000000	17.493084
654.000000	17.640407
655.000000	17.788923
656.000000	17.938893
657.000000	18.089226
658.000000	18.238676
659.000000	18.386867
660.000000	18.533329
661.000000	18.677778
662.000000	18.819330
663.000000	18.956975
664.000000	19.091175
665.000000	19.222152
666.000000	19.351213
667.000000	19.477540
668.000000	19.603133
669.000000	19.729388
670.000000	19.855901
671.000000	19.982332
672.000000	20.108416
673.000000	20.234871
674.000000	20.360523
675.000000	20.484048
676.000000	20.606015
677.000000	20.726271
678.000000	20.843931
679.000000	20.957756
680.000000	21.068841
681.000000	21.176580
682.000000	21.280938
683.000000	21.383227
684.000000	21.483733
685.000000	21.583818
686.000000	21.684515
687.000000	21.785516
688.000000	21.886848
689.000000	21.988650
690.000000	22.090037
691.000000	22.189898
692.000000	22.287660
693.000000	22.383557
694.000000	22.476869
695.000000	22.566945
696.000000	22.653285
697.000000	22.736453
698.000000	22.817961
699.000000	22.897652
700.000000	22.977008
701.000000	23.056524
702.000000	23.137548
703.000000	23.219262
704.000000	23.300596
705.000000	23.381485
706.000000	23.461324
707.000000	23.539066
708.000000	23.613565
709.000000	23.685322
710.000000	23.755268
711.000000	23.823331
712.000000	23.889565
713.000000	23.954036
714.000000	24.017924
715.000000	24.081222
716.000000	24.144803
717.000000	24.209707
718.000000	24.275287
719.000000	24.341195
720.000000	24.406827
721.000000	24.471153
722.000000	24.533528
723.000000	24.593251
724.000000	24.650587
725.000000	24.705640
726.000000	24.758999
727.000000	24.811366
728.000000	24.862302
729.000000	24.913277
730.000000	24.964402
731.000000	25.015926
732.000000	25.068579
733.000000	25.123182
734.000000	25.179184
735.000000	25.235592
736.000000	25.292156
737.000000	25.348814
738.000000	25.404899
739.000000	25.459376
740.000000	25.512158
741.000000	25.562767
742.000000	25.612794
743.000000	25.661895
744.000000	25.709217
745.000000	25.754940
746.000000	25.800134
747.000000	25.845313
748.000000	25.890390
749.000000	25.936301
750.000000	25.983930
751.000000	26.033821
752.000000	26.085467
753.000000	26.139187
754.000000	26.193381
755.000000	26.248319
756.000000	26.302805
757.000000	26.356610
758.000000	26.411042
759.000000	26.463203
760.000000	26.513457
761.000000	26.562000
762.000000	26.608684
763.000000	26.653875
764.000000	26.697551
765.000000	26.740387
766.000000	26.784836
767.000000	26.830081
768.000000	26.875766
769.000000	26.924126
770.000000	26.975253
771.000000	27.028929
772.000000	27.083243
773.000000	27.138584
774.000000	27.194748
775.000000	27.249300
776.000000	27.304437
777.000000	27.356710
778.000000	27.405109
779.000000	27.452876
780.000000	27.499767
781.000000	27.544367
782.000000	27.588235
783.000000	27.632377
784.000000	27.678157
785.000000	27.724566
786.000000	27.772226
787.000000	27.821913
788.000000	27.870871
789.000000	27.922553
790.000000	27.975765
791.000000	28.028271
792.000000	28.081621
793.000000	28.133906
794.000000	28.186428
795.000000	28.239186
796.000000	28.290410
797.000000	28.339713
798.000000	28.388440
799.000000	28.437656
800.000000	28.488194
801.000000	28.538952
802.000000	28.589232
803.000000	28.642240
804.000000	28.696390
805.000000	28.750358
806.000000	28.804576
807.000000	28.861756
808.000000	28.919520
809.000000	28.976485
810.000000	29.033883
811.000000	29.090075
812.000000	29.147824
813.000000	29.206752
814.000000	29.265930
815.000000	29.327107
816.000000	29.390648
817.000000	29.454796
818.000000	29.522504
819.000000	29.590396
820.000000	29.659415
821.000000	29.731813
822.000000	29.804309
823.000000	29.879885
824.000000	29.952080
825.000000	30.024777
826.000000	30.102737
827.000000	30.175746
828.000000	30.249624
829.000000	30.326479
830.000000	30.404977
831.000000	30.482370
832.000000	30.561684
833.000000	30.643867
834.000000	30.726790
835.000000	30.813176
836.000000	30.897698
837.000000	30.989157
838.000000	31.081575
839.000000	31.173282
840.000000	31.267513
841.000000	31.367769
842.000000	31.469246
843.000000	31.575254
844.000000	31.680994
845.000000	31.795556
846.000000	31.910059
847.000000	32.019672
848.000000	32.128337
849.000000	32.240300
850.000000	32.353079
851.000000	32.459738
852.000000	32.569506
853.000000	32.682333
854.000000	32.792388
855.000000	32.907047
856.000000	33.024977
857.000000	33.149092
858.000000	33.335088
859.000000	33.476814
860.000000	33.612625
861.000000	33.764677
862.000000	33.917509
863.000000	34.065224
864.000000	34.220689
865.000000	34.378252
866.000000	34.544930
867.000000	34.735435
868.000000	34.912615
869.000000	35.074451
870.000000	35.233894
871.000000	35.365507
872.000000	35.519076
873.000000	35.698044
874.000000	35.862096
875.000000	36.008886
876.000000	36.145566
877.000000	36.282691
878.000000	36.431252
879.000000	36.590971
880.000000	36.733667
881.000000	36.886855
882.000000	37.064500
883.000000	37.226083
884.000000	37.389228
885.000000	37.546855
886.000000	37.741250
887.000000	37.895532
888.000000	38.058426
889.000000	38.233536
890.000000	38.389170
891.000000	38.538082
892.000000	38.706386
893.000000	38.804446
894.000000	38.953135
895.000000	39.098458
896.000000	39.254317
897.000000	39.406956
898.000000	39.541326
899.000000	39.692329
900.000000	39.831995
901.000000	39.988980
902.000000	40.095363
903.000000	40.224017
904.000000	40.387268
905.000000	40.540057
906.000000	40.714358
907.000000	40.897442
908.000000	41.037267
909.000000	41.178748
910.000000	41.349512
911.000000	41.495425
912.000000	41.647209
913.000000	41.804271
914.000000	41.953988
915.000000	42.111236
916.000000	42.249597
917.000000	42.367745
918.000000	42.502325
919.000000	42.648154
920.000000	42.822914
921.000000	42.944746
922.000000	43.110509
923.000000	43.271164
924.000000	43.444734
925.000000	43.624138
926.000000	43.801810
927.000000	43.947871
928.000000	44.090902
929.000000	44.249724
930.000000	44.396785
931.000000	44.512792
932.000000	44.651716
933.000000	44.825183
934.000000	44.955116
935.000000	45.104795
936.000000	45.217821
937.000000	45.361560
938.000000	45.495847
939.000000	45.635830
940.000000	45.782759
941.000000	45.927462
942.000000	46.035498
943.000000	46.165753
944.000000	46.333475
945.000000	46.467266
946.000000	46.628953
947.000000	46.781259
948.000000	46.902850
949.000000	47.033957
950.000000	47.188752
951.000000	47.334903
952.000000	47.477369
953.000000	47.609759
954.000000	47.742727
955.000000	47.852907
956.000000	47.976977
957.000000	48.092053
958.000000	48.219998
959.000000	48.318220
960.000000	48.425959
961.000000	48.536265
962.000000	48.650394
963.000000	48.790927
964.000000	48.904849
965.000000	49.041136
966.000000	49.198176
967.000000	49.327414
968.000000	49.440274
969.000000	49.569573
970.000000	49.695698
971.000000	49.810640
972.000000	49.911813
973.000000	50.011391
974.000000	50.092708
975.000000	50.196578
976.000000	50.304104
977.000000	50.404148
978.000000	50.519641
979.000000	50.620304
980.000000	50.734731
981.000000	50.841833
982.000000	50.934510
983.000000	51.044171
984.000000	51.156130
985.000000	51.242920
986.000000	51.350681
987.000000	51.466522
988.000000	51.573786
989.000000	51.668869
990.000000	51.786553
991.000000	51.900295
992.000000	52.008558
993.000000	52.112287
994.000000	52.215437
995.000000	52.303959
996.000000	52.387916
997.000000	52.478553
998.000000	52.553007
999.000000	52.627431
1000.000000	52.693013
1001.000000	52.737917
1002.000000	52.808012
1003.000000	52.883669
1004.000000	52.959195
1005.000000	53.030197
1006.000000	53.122927
1007.000000	53.228196
1008.000000	53.327913
1009.000000	53.415981
1010.000000	53.501896
1011.000000	53.591535
1012.000000	53.683701
1013.000000	53.757873
1014.000000	53.811982
1015.000000	53.870028
1016.000000	53.946159
1017.000000	54.025318
1018.000000	54.085337
1019.000000	54.142685
1020.000000	54.215141
1021.000000	54.278149
1022.000000	54.342571
1023.000000	54.429780
1024.000000	54.511183
1025.000000	54.542632
1026.000000	54.582711
1027.000000	54.624686
1028.000000	54.661641
1029.000000	54.711317
1030.000000	54.772936
1031.000000	54.849298
1032.000000	54.927635
1033.000000	54.978752
1034.000000	55.034048
1035.000000	55.098903
1036.000000	55.184613
1037.000000	55.249875
1038.000000	55.297429
1039.000000	55.336426
1040.000000	55.382904
1041.000000	55.441907
1042.000000	55.487681
1043.000000	55.546301
1044.000000	55.618002
1045.000000	55.664339
1046.000000	55.713039
1047.000000	55.752533
1048.000000	55.789427
1049.000000	55.843481
1050.000000	55.884149
1051.000000	55.913370
1052.000000	55.968029
1053.000000	56.046467
1054.000000	56.093055
1055.000000	56.133060
1056.000000	56.167739
1057.000000	56.188063
1058.000000	56.216710
1059.000000	56.240754
1060.000000	56.297855
1061.000000	56.363257
1062.000000	56.426331
1063.000000	56.476400
1064.000000	56.503987
1065.000000	56.546475
1066.000000	56.582495
1067.000000	56.607190
1068.000000	56.653590
1069.000000	56.707073
1070.000000	56.771236
1071.000000	56.797406
1072.000000	56.827510
1073.000000	56.881939
1074.000000	56.952996
1075.000000	56.983051
1076.000000	57.026429
1077.000000	57.057752
1078.000000	57.055619
1079.000000	57.066144
1080.000000	57.097195
1081.000000	57.126965
1082.000000	57.181093
1083.000000	57.216625
1084.000000	57.219162
1085.000000	57.221639
1086.000000	57.243246
1087.000000	57.260991
1088.000000	57.274179
1089.000000	57.314460
1090.000000	57.343750
1091.000000	57.375362
1092.000000	57.411144
1093.000000	57.446492
1094.000000	57.490284
1095.000000	57.501539
1096.000000	57.490483
1097.000000	57.514360
1098.000000	57.528361
1099.000000	57.566409
1100.000000	57.595557
1101.000000	57.626074
1102.000000	57.640539
1103.000000	57.658433
1104.000000	57.648510
1105.000000	57.642576
1106.000000	57.646446
1107.000000	57.687930
1108.000000	57.700862
1109.000000	57.725591
1110.000000	57.761684
1111.000000	57.762212
1112.000000	57.797656
1113.000000	57.854300
1114.000000	57.886385
1115.000000	57.897685
1116.000000	57.891679
1117.000000	57.879850
1118.000000	57.889467
1119.000000	57.913385
1120.000000	57.967935
1121.000000	58.008042
1122.000000	58.039618
1123.000000	58.084228
1124.000000	58.078337
1125.000000	58.102129
1126.000000	58.114347
1127.000000	58.132891
1128.000000	58.155930
1129.000000	58.172243
1130.000000	58.189784
1131.000000	58.238580
1132.000000	58.243210
1133.000000	58.263393
1134.000000	58.346218
1135.000000	58.343084
1136.000000	58.339961
1137.000000	58.383764
1138.000000	58.380073
1139.000000	58.418938
1140.000000	58.448334
1141.000000	58.462694
1142.000000	58.460359
1143.000000	58.456000
1144.000000	58.444248
1145.000000	58.464795
1146.000000	58.518835
1147.000000	58.537461
1148.000000	58.556266
1149.000000	58.585828
1150.000000	58.605182
1151.000000	58.626197
1152.000000	58.692555
1153.000000	58.714831
1154.000000	58.723711
1155.000000	58.739249
1156.000000	58.736255
1157.000000	58.729123
1158.000000	58.701450
1159.000000	58.732244
1160.000000	58.764119
1161.000000	58.775839
1162.000000	58.787137
1163.000000	58.786462
1164.000000	58.788330
1165.000000	58.801068
1166.000000	58.803478
1167.000000	58.817731
1168.000000	58.831610
1169.000000	58.767944
1170.000000	58.777595
1171.000000	58.759316
1172.000000	58.723246
1173.000000	58.719768
1174.000000	58.709411
1175.000000	58.707722
1176.000000	58.721704
1177.000000	58.714353
1178.000000	58.740613
1179.000000	58.755425
1180.000000	58.726292
1181.000000	58.659444
1182.000000	58.631186
1183.000000	58.609880
1184.000000	58.567840
1185.000000	58.543484
1186.000000	58.560016
1187.000000	58.521322
1188.000000	58.516634
1189.000000	58.529603
1190.000000	58.517405
1191.000000	58.536975
1192.000000	58.571716
1193.000000	58.586146
1194.000000	58.595921
1195.000000	58.553806
1196.000000	58.553296
1197.000000	58.543941
1198.000000	58.542679
1199.000000	58.539672
1200.000000	58.548813
1201.000000	58.562541
1202.000000	58.588469
1203.000000	58.609362
1204.000000	58.628227
1205.000000	58.658678
1206.000000	58.668691
