PE UV       SUBTECH     SPECTRUM    ASCII       PEDS        4.00        
   -1
C.BOUC.INB5423-TX3.ASC
23/11/30
16:47:56.00
23/11/30
16:47:56.00
Vinicio Soto Monge
C.BOUCARDI_INB0040G5423_COBRE
250,000000
1
Lambda 1050
1050L1511233
PerkinElmer UV WinLab 6.3.2.0749 / 2.02.05 Lambda 900 UV/VIS/NIR, Aug  7 2015 09:38:08

0
0
3350/servo 860,8/2
0
0
UV/VIS
1
1
1
DoubleDePol,CommonBeamDepol,RBeamAtt,SBeamAtt,60mm sphere, WB InGaAs Detector
0
0
0
0
Program
Program
3350/servo 860,8/2
3350/0,4 860,8/0,4
3350/0,4 860,8/0,4
0
20.00
 
 
 
0
 
860,8
319,2
860,8
Front
100
on
S:100 R:100
0
0
0
0
 
0
 
 
 
0
 
 
0
0
0
0
0
 
 
 
 
0
0


0
0
#HDR
-1
-1
#GR
nm
%T
1.0
0.0
2200,000000
-1,000000
1951
8
49,250288
0,338038
#DATA
284.000000	0.276907
285.000000	0.277698
286.000000	0.278693
287.000000	0.279771
288.000000	0.280845
289.000000	0.282273
290.000000	0.283609
291.000000	0.285081
292.000000	0.286549
293.000000	0.287744
294.000000	0.289313
295.000000	0.290315
296.000000	0.290941
297.000000	0.291924
298.000000	0.292868
299.000000	0.293738
300.000000	0.295260
301.000000	0.296840
302.000000	0.297400
303.000000	0.298972
304.000000	0.300713
305.000000	0.301898
306.000000	0.303261
307.000000	0.304574
308.000000	0.306255
309.000000	0.308874
310.000000	0.310402
311.000000	0.312447
312.000000	0.313989
313.000000	0.316094
314.000000	0.318237
315.000000	0.320703
316.000000	0.323280
317.000000	0.329849
318.000000	0.338294
319.000000	0.345502
320.000000	0.353750
321.000000	0.362540
322.000000	0.370940
323.000000	0.379833
324.000000	0.388706
325.000000	0.397810
326.000000	0.407557
327.000000	0.416722
328.000000	0.427053
329.000000	0.436204
330.000000	0.447308
331.000000	0.458675
332.000000	0.469343
333.000000	0.479681
334.000000	0.490550
335.000000	0.501288
336.000000	0.512538
337.000000	0.524190
338.000000	0.535882
339.000000	0.548111
340.000000	0.560848
341.000000	0.573213
342.000000	0.585846
343.000000	0.598370
344.000000	0.611222
345.000000	0.624540
346.000000	0.637563
347.000000	0.651740
348.000000	0.665937
349.000000	0.679564
350.000000	0.693204
351.000000	0.706710
352.000000	0.716998
353.000000	0.724920
354.000000	0.734503
355.000000	0.743848
356.000000	0.752923
357.000000	0.762864
358.000000	0.772388
359.000000	0.781962
360.000000	0.791180
361.000000	0.799418
362.000000	0.808948
363.000000	0.817682
364.000000	0.828305
365.000000	0.837902
366.000000	0.846554
367.000000	0.856426
368.000000	0.867262
369.000000	0.877700
370.000000	0.888068
371.000000	0.897724
372.000000	0.907782
373.000000	0.917200
374.000000	0.925433
375.000000	0.933661
376.000000	0.939674
377.000000	0.941946
378.000000	0.944005
379.000000	0.945620
380.000000	0.947736
381.000000	0.949783
382.000000	0.951050
383.000000	0.952689
384.000000	0.954255
385.000000	0.955798
386.000000	0.957255
387.000000	0.958713
388.000000	0.960599
389.000000	0.962216
390.000000	0.963186
391.000000	0.964144
392.000000	0.964814
393.000000	0.965552
394.000000	0.966000
395.000000	0.966895
396.000000	0.968218
397.000000	0.968867
398.000000	0.969606
399.000000	0.970068
400.000000	0.969817
401.000000	0.970413
402.000000	0.970229
403.000000	0.969325
404.000000	0.968617
405.000000	0.967691
406.000000	0.967089
407.000000	0.966743
408.000000	0.966625
409.000000	0.967101
410.000000	0.967276
411.000000	0.969811
412.000000	0.976138
413.000000	0.982257
414.000000	0.988360
415.000000	0.994589
416.000000	1.000855
417.000000	1.006951
418.000000	1.012983
419.000000	1.018851
420.000000	1.024459
421.000000	1.029939
422.000000	1.035285
423.000000	1.040475
424.000000	1.045979
425.000000	1.051705
426.000000	1.057214
427.000000	1.062466
428.000000	1.067868
429.000000	1.073416
430.000000	1.078828
431.000000	1.084151
432.000000	1.089339
433.000000	1.094365
434.000000	1.099359
435.000000	1.104509
436.000000	1.109517
437.000000	1.114442
438.000000	1.119626
439.000000	1.124738
440.000000	1.129602
441.000000	1.134498
442.000000	1.139285
443.000000	1.143771
444.000000	1.148247
445.000000	1.152960
446.000000	1.157678
447.000000	1.162354
448.000000	1.167071
449.000000	1.171820
450.000000	1.176507
451.000000	1.181059
452.000000	1.185485
453.000000	1.189659
454.000000	1.193957
455.000000	1.198506
456.000000	1.203000
457.000000	1.207337
458.000000	1.211602
459.000000	1.215606
460.000000	1.219418
461.000000	1.223392
462.000000	1.227489
463.000000	1.231467
464.000000	1.235192
465.000000	1.238937
466.000000	1.242875
467.000000	1.246839
468.000000	1.250650
469.000000	1.254225
470.000000	1.257753
471.000000	1.261347
472.000000	1.265011
473.000000	1.268650
474.000000	1.272396
475.000000	1.276333
476.000000	1.280143
477.000000	1.283965
478.000000	1.288275
479.000000	1.292700
480.000000	1.297094
481.000000	1.301478
482.000000	1.305760
483.000000	1.310024
484.000000	1.313901
485.000000	1.317697
486.000000	1.321449
487.000000	1.325332
488.000000	1.329418
489.000000	1.333558
490.000000	1.337787
491.000000	1.341935
492.000000	1.345989
493.000000	1.349991
494.000000	1.354143
495.000000	1.358392
496.000000	1.362399
497.000000	1.366396
498.000000	1.370378
499.000000	1.374414
500.000000	1.378449
501.000000	1.382434
502.000000	1.386224
503.000000	1.390066
504.000000	1.393805
505.000000	1.397141
506.000000	1.400397
507.000000	1.403545
508.000000	1.406523
509.000000	1.409509
510.000000	1.412692
511.000000	1.415862
512.000000	1.418678
513.000000	1.421008
514.000000	1.423079
515.000000	1.425371
516.000000	1.427572
517.000000	1.430021
518.000000	1.432639
519.000000	1.435559
520.000000	1.438662
521.000000	1.441849
522.000000	1.445267
523.000000	1.448677
524.000000	1.451962
525.000000	1.455037
526.000000	1.458405
527.000000	1.462044
528.000000	1.466020
529.000000	1.469944
530.000000	1.473687
531.000000	1.477804
532.000000	1.482475
533.000000	1.487619
534.000000	1.492447
535.000000	1.497502
536.000000	1.502392
537.000000	1.507393
538.000000	1.512791
539.000000	1.518497
540.000000	1.524317
541.000000	1.530180
542.000000	1.536241
543.000000	1.542678
544.000000	1.549215
545.000000	1.555503
546.000000	1.561739
547.000000	1.568308
548.000000	1.575114
549.000000	1.581921
550.000000	1.588516
551.000000	1.595556
552.000000	1.602527
553.000000	1.609285
554.000000	1.615833
555.000000	1.622181
556.000000	1.628669
557.000000	1.635146
558.000000	1.641259
559.000000	1.647249
560.000000	1.652377
561.000000	1.657401
562.000000	1.662392
563.000000	1.667371
564.000000	1.672032
565.000000	1.676901
566.000000	1.681600
567.000000	1.685502
568.000000	1.688798
569.000000	1.692852
570.000000	1.696638
571.000000	1.700554
572.000000	1.704560
573.000000	1.708533
574.000000	1.712690
575.000000	1.717287
576.000000	1.721898
577.000000	1.726628
578.000000	1.731309
579.000000	1.735644
580.000000	1.739738
581.000000	1.744022
582.000000	1.748598
583.000000	1.753455
584.000000	1.758554
585.000000	1.763815
586.000000	1.769065
587.000000	1.774599
588.000000	1.780595
589.000000	1.787080
590.000000	1.793698
591.000000	1.800493
592.000000	1.807302
593.000000	1.814989
594.000000	1.822833
595.000000	1.832000
596.000000	1.841767
597.000000	1.851549
598.000000	1.861485
599.000000	1.872046
600.000000	1.882862
601.000000	1.894250
602.000000	1.906189
603.000000	1.918808
604.000000	1.931587
605.000000	1.944973
606.000000	1.959239
607.000000	1.974234
608.000000	1.989278
609.000000	2.004668
610.000000	2.020094
611.000000	2.036266
612.000000	2.053116
613.000000	2.070349
614.000000	2.088446
615.000000	2.107348
616.000000	2.126787
617.000000	2.146503
618.000000	2.166637
619.000000	2.187323
620.000000	2.208650
621.000000	2.230717
622.000000	2.253253
623.000000	2.276169
624.000000	2.299768
625.000000	2.324041
626.000000	2.348992
627.000000	2.374850
628.000000	2.401051
629.000000	2.428082
630.000000	2.455895
631.000000	2.483983
632.000000	2.513126
633.000000	2.543150
634.000000	2.573701
635.000000	2.604848
636.000000	2.637013
637.000000	2.670201
638.000000	2.703912
639.000000	2.738404
640.000000	2.773327
641.000000	2.808290
642.000000	2.844146
643.000000	2.881044
644.000000	2.918650
645.000000	2.957448
646.000000	2.997131
647.000000	3.037197
648.000000	3.077820
649.000000	3.119041
650.000000	3.161194
651.000000	3.204243
652.000000	3.248144
653.000000	3.292864
654.000000	3.338368
655.000000	3.384393
656.000000	3.431097
657.000000	3.478876
658.000000	3.526831
659.000000	3.574961
660.000000	3.623893
661.000000	3.673109
662.000000	3.722649
663.000000	3.773038
664.000000	3.824263
665.000000	3.876143
666.000000	3.928488
667.000000	3.980822
668.000000	4.033424
669.000000	4.086417
670.000000	4.140070
671.000000	4.193700
672.000000	4.247504
673.000000	4.301572
674.000000	4.355643
675.000000	4.409837
676.000000	4.464374
677.000000	4.518763
678.000000	4.572961
679.000000	4.627170
680.000000	4.681187
681.000000	4.734947
682.000000	4.788721
683.000000	4.842559
684.000000	4.896143
685.000000	4.949418
686.000000	5.002295
687.000000	5.054657
688.000000	5.106495
689.000000	5.158177
690.000000	5.209686
691.000000	5.260475
692.000000	5.310411
693.000000	5.360348
694.000000	5.410082
695.000000	5.459477
696.000000	5.508275
697.000000	5.556441
698.000000	5.603857
699.000000	5.650250
700.000000	5.695748
701.000000	5.740904
702.000000	5.785980
703.000000	5.830250
704.000000	5.873986
705.000000	5.917085
706.000000	5.959676
707.000000	6.001940
708.000000	6.044048
709.000000	6.086012
710.000000	6.127802
711.000000	6.168801
712.000000	6.209335
713.000000	6.249825
714.000000	6.289658
715.000000	6.329050
716.000000	6.367637
717.000000	6.405421
718.000000	6.442962
719.000000	6.480457
720.000000	6.517983
721.000000	6.555934
722.000000	6.594610
723.000000	6.633745
724.000000	6.673068
725.000000	6.712333
726.000000	6.751888
727.000000	6.792051
728.000000	6.832329
729.000000	6.872431
730.000000	6.912386
731.000000	6.953138
732.000000	6.994247
733.000000	7.035457
734.000000	7.077745
735.000000	7.120497
736.000000	7.163102
737.000000	7.206324
738.000000	7.250987
739.000000	7.296651
740.000000	7.343343
741.000000	7.391323
742.000000	7.440059
743.000000	7.489660
744.000000	7.539587
745.000000	7.590111
746.000000	7.641755
747.000000	7.693857
748.000000	7.746756
749.000000	7.799903
750.000000	7.853460
751.000000	7.908259
752.000000	7.964285
753.000000	8.021145
754.000000	8.079209
755.000000	8.137744
756.000000	8.197199
757.000000	8.257926
758.000000	8.318985
759.000000	8.380079
760.000000	8.442202
761.000000	8.505082
762.000000	8.568576
763.000000	8.633121
764.000000	8.698615
765.000000	8.764306
766.000000	8.829401
767.000000	8.894735
768.000000	8.960750
769.000000	9.027420
770.000000	9.094490
771.000000	9.162839
772.000000	9.232131
773.000000	9.302356
774.000000	9.372899
775.000000	9.443619
776.000000	9.515026
777.000000	9.586546
778.000000	9.658358
779.000000	9.730876
780.000000	9.803709
781.000000	9.876359
782.000000	9.950254
783.000000	10.024030
784.000000	10.098685
785.000000	10.173516
786.000000	10.248304
787.000000	10.322892
788.000000	10.397635
789.000000	10.472198
790.000000	10.548163
791.000000	10.623842
792.000000	10.698398
793.000000	10.774278
794.000000	10.851285
795.000000	10.928861
796.000000	11.006785
797.000000	11.085226
798.000000	11.163132
799.000000	11.240879
800.000000	11.319869
801.000000	11.399734
802.000000	11.479750
803.000000	11.559613
804.000000	11.640388
805.000000	11.721118
806.000000	11.801271
807.000000	11.880529
808.000000	11.959047
809.000000	12.036818
810.000000	12.115006
811.000000	12.192870
812.000000	12.271207
813.000000	12.348514
814.000000	12.426966
815.000000	12.507712
816.000000	12.588716
817.000000	12.669599
818.000000	12.751220
819.000000	12.833573
820.000000	12.915272
821.000000	12.998121
822.000000	13.082187
823.000000	13.166074
824.000000	13.250577
825.000000	13.334130
826.000000	13.417470
827.000000	13.500161
828.000000	13.581719
829.000000	13.663193
830.000000	13.745170
831.000000	13.826491
832.000000	13.908085
833.000000	13.991200
834.000000	14.074744
835.000000	14.159765
836.000000	14.244968
837.000000	14.332379
838.000000	14.421333
839.000000	14.510000
840.000000	14.597811
841.000000	14.693214
842.000000	14.785406
843.000000	14.876444
844.000000	14.972059
845.000000	15.065725
846.000000	15.158710
847.000000	15.253418
848.000000	15.350196
849.000000	15.444415
850.000000	15.538054
851.000000	15.632828
852.000000	15.730829
853.000000	15.831708
854.000000	15.931662
855.000000	16.032048
856.000000	16.131650
857.000000	16.237157
858.000000	16.355737
859.000000	16.456548
860.000000	16.574950
861.000000	16.689751
862.000000	16.810374
863.000000	16.948971
864.000000	17.064916
865.000000	17.181505
866.000000	17.302248
867.000000	17.410714
868.000000	17.554658
869.000000	17.679492
870.000000	17.801363
871.000000	17.930970
872.000000	18.071024
873.000000	18.202221
874.000000	18.349997
875.000000	18.492343
876.000000	18.612974
877.000000	18.749639
878.000000	18.887328
879.000000	18.992554
880.000000	19.128042
881.000000	19.263267
882.000000	19.404981
883.000000	19.543798
884.000000	19.681446
885.000000	19.833339
886.000000	19.986995
887.000000	20.106536
888.000000	20.252801
889.000000	20.399451
890.000000	20.534383
891.000000	20.691984
892.000000	20.851675
893.000000	20.972399
894.000000	21.145687
895.000000	21.294467
896.000000	21.441043
897.000000	21.589465
898.000000	21.720345
899.000000	21.885153
900.000000	22.032651
901.000000	22.180983
902.000000	22.351273
903.000000	22.478529
904.000000	22.635336
905.000000	22.799131
906.000000	22.961540
907.000000	23.135673
908.000000	23.291280
909.000000	23.437618
910.000000	23.612578
911.000000	23.779489
912.000000	23.951887
913.000000	24.116497
914.000000	24.298953
915.000000	24.458177
916.000000	24.620845
917.000000	24.773838
918.000000	24.935314
919.000000	25.110776
920.000000	25.274332
921.000000	25.441601
922.000000	25.643926
923.000000	25.799454
924.000000	25.957827
925.000000	26.126386
926.000000	26.288834
927.000000	26.444333
928.000000	26.635817
929.000000	26.784606
930.000000	26.939850
931.000000	27.123191
932.000000	27.293808
933.000000	27.445623
934.000000	27.592457
935.000000	27.780731
936.000000	27.938458
937.000000	28.093739
938.000000	28.270450
939.000000	28.430917
940.000000	28.600716
941.000000	28.748005
942.000000	28.869610
943.000000	29.037964
944.000000	29.191932
945.000000	29.313601
946.000000	29.465178
947.000000	29.621264
948.000000	29.787788
949.000000	29.947196
950.000000	30.107593
951.000000	30.264031
952.000000	30.429799
953.000000	30.603888
954.000000	30.769709
955.000000	30.906352
956.000000	31.040707
957.000000	31.176613
958.000000	31.325413
959.000000	31.455290
960.000000	31.600360
961.000000	31.754686
962.000000	31.885443
963.000000	32.016929
964.000000	32.166042
965.000000	32.305056
966.000000	32.424360
967.000000	32.560935
968.000000	32.713522
969.000000	32.850454
970.000000	32.955979
971.000000	33.092235
972.000000	33.217817
973.000000	33.336360
974.000000	33.456980
975.000000	33.570205
976.000000	33.696264
977.000000	33.818609
978.000000	33.935632
979.000000	34.052703
980.000000	34.174638
981.000000	34.286721
982.000000	34.369262
983.000000	34.457049
984.000000	34.578305
985.000000	34.685794
986.000000	34.788516
987.000000	34.877366
988.000000	34.959882
989.000000	35.052746
990.000000	35.157165
991.000000	35.244057
992.000000	35.326111
993.000000	35.419835
994.000000	35.530075
995.000000	35.636017
996.000000	35.711310
997.000000	35.802772
998.000000	35.885646
999.000000	35.959589
1000.000000	36.041115
1001.000000	36.123671
1002.000000	36.194084
1003.000000	36.267131
1004.000000	36.350802
1005.000000	36.445202
1006.000000	36.532819
1007.000000	36.622092
1008.000000	36.706826
1009.000000	36.785058
1010.000000	36.860663
1011.000000	36.940212
1012.000000	37.010425
1013.000000	37.076683
1014.000000	37.148359
1015.000000	37.209485
1016.000000	37.271872
1017.000000	37.352100
1018.000000	37.422384
1019.000000	37.480197
1020.000000	37.556269
1021.000000	37.639801
1022.000000	37.726965
1023.000000	37.793904
1024.000000	37.838106
1025.000000	37.907549
1026.000000	37.983715
1027.000000	38.054553
1028.000000	38.112622
1029.000000	38.170441
1030.000000	38.230199
1031.000000	38.282629
1032.000000	38.344333
1033.000000	38.411407
1034.000000	38.491917
1035.000000	38.559419
1036.000000	38.619082
1037.000000	38.686360
1038.000000	38.757052
1039.000000	38.819898
1040.000000	38.876238
1041.000000	38.935678
1042.000000	39.008300
1043.000000	39.072082
1044.000000	39.133832
1045.000000	39.175399
1046.000000	39.237431
1047.000000	39.308908
1048.000000	39.364087
1049.000000	39.412938
1050.000000	39.470123
1051.000000	39.527654
1052.000000	39.583026
1053.000000	39.646007
1054.000000	39.705689
1055.000000	39.739072
1056.000000	39.768774
1057.000000	39.798894
1058.000000	39.846812
1059.000000	39.905026
1060.000000	39.960081
1061.000000	40.027767
1062.000000	40.087381
1063.000000	40.148123
1064.000000	40.213545
1065.000000	40.265518
1066.000000	40.321771
1067.000000	40.370565
1068.000000	40.406527
1069.000000	40.431207
1070.000000	40.495909
1071.000000	40.554197
1072.000000	40.602146
1073.000000	40.637345
1074.000000	40.676525
1075.000000	40.719681
1076.000000	40.776961
1077.000000	40.804866
1078.000000	40.844194
1079.000000	40.899272
1080.000000	40.969046
1081.000000	41.018933
1082.000000	41.067360
1083.000000	41.138829
1084.000000	41.179577
1085.000000	41.228586
1086.000000	41.282264
1087.000000	41.319113
1088.000000	41.351591
1089.000000	41.384990
1090.000000	41.431015
1091.000000	41.489297
1092.000000	41.550877
1093.000000	41.594525
1094.000000	41.633340
1095.000000	41.650829
1096.000000	41.693177
1097.000000	41.726339
1098.000000	41.770830
1099.000000	41.804254
1100.000000	41.841240
1101.000000	41.896606
1102.000000	41.939401
1103.000000	41.995197
1104.000000	42.015631
1105.000000	42.035849
1106.000000	42.065049
1107.000000	42.100328
1108.000000	42.149129
1109.000000	42.176625
1110.000000	42.204355
1111.000000	42.222765
1112.000000	42.249199
1113.000000	42.274225
1114.000000	42.278898
1115.000000	42.289376
1116.000000	42.295155
1117.000000	42.320832
1118.000000	42.322714
1119.000000	42.353102
1120.000000	42.394720
1121.000000	42.414697
1122.000000	42.463646
1123.000000	42.522658
1124.000000	42.540479
1125.000000	42.588405
1126.000000	42.610302
1127.000000	42.626522
1128.000000	42.656668
1129.000000	42.697123
1130.000000	42.758700
1131.000000	42.783078
1132.000000	42.820737
1133.000000	42.848998
1134.000000	42.904229
1135.000000	42.917874
1136.000000	42.906647
1137.000000	42.940171
1138.000000	42.975218
1139.000000	43.030253
1140.000000	43.068655
1141.000000	43.082053
1142.000000	43.085261
1143.000000	43.118916
1144.000000	43.151097
1145.000000	43.182109
1146.000000	43.210847
1147.000000	43.238942
1148.000000	43.265658
1149.000000	43.322588
1150.000000	43.319005
1151.000000	43.346673
1152.000000	43.381680
1153.000000	43.399749
1154.000000	43.414219
1155.000000	43.448363
1156.000000	43.473253
1157.000000	43.492647
1158.000000	43.495712
1159.000000	43.532861
1160.000000	43.533855
1161.000000	43.548664
1162.000000	43.574870
1163.000000	43.599964
1164.000000	43.594151
1165.000000	43.580438
1166.000000	43.594144
1167.000000	43.586672
1168.000000	43.574034
1169.000000	43.551514
1170.000000	43.579669
1171.000000	43.623742
1172.000000	43.609680
1173.000000	43.579810
1174.000000	43.552790
1175.000000	43.526529
1176.000000	43.519160
1177.000000	43.522548
1178.000000	43.489745
1179.000000	43.500386
1180.000000	43.504860
1181.000000	43.492062
1182.000000	43.496712
1183.000000	43.494128
1184.000000	43.476756
1185.000000	43.509039
1186.000000	43.536991
1187.000000	43.514864
1188.000000	43.533635
1189.000000	43.561491
1190.000000	43.566305
1191.000000	43.564821
1192.000000	43.554222
1193.000000	43.547830
1194.000000	43.547392
1195.000000	43.538528
1196.000000	43.526404
1197.000000	43.504495
1198.000000	43.494787
1199.000000	43.519998
1200.000000	43.543388
1201.000000	43.555826
1202.000000	43.574118
1203.000000	43.620470
1204.000000	43.649164
1205.000000	43.659157
1206.000000	43.669391
1207.000000	43.711557
1208.000000	43.756413
1209.000000	43.814225
1210.000000	43.847804
1211.000000	43.888340
1212.000000	43.933940
1213.000000	43.970776
1214.000000	43.988678
