PE UV       SUBTECH     SPECTRUM    ASCII       PEDS        4.00        
   -1
CICIMAUCR0242-3.Sample.ASC
24/06/21
15:10:58.00
24/06/21
15:10:58.00
Vinicio Soto Monge
C. cupreomarginata. Ventral. Sex M
250,000000
1
Lambda 1050
1050L1511233
PerkinElmer UV WinLab 6.3.2.0749 / 2.02.05 Lambda 900 UV/VIS/NIR, Aug  7 2015 09:38:08

0
0
3350/servo 860,8/2
0
0
UV/VIS
1
1
1
DoubleDePol,CommonBeamDepol,RBeamAtt,SBeamAtt,60mm sphere, WB InGaAs Detector
0
0
0
0
Program
Program
3350/servo 860,8/2
3350/0,2 860,8/0,2
3350/0,2 860,8/0,2
0
15.00
 
 
 
0
 
860,8
319,2
860,8
Front
100
on
S:100 R:100
0
0
0
0
 
0
 
 
 
0
 
 
0
0
0
0
0
 
 
 
 
0
0


0
0
#HDR
-1
-1
#GR
nm
%R
1.0
0.0
2500,000000
-1,000000
2251
8
53,092500
4,011400
#DATA
2482.000000	5.457738
2481.000000	5.574065
2480.000000	5.530655
2479.000000	5.523437
2478.000000	5.537023
2477.000000	5.539252
2476.000000	5.564194
2475.000000	5.550078
2474.000000	5.473764
2473.000000	5.506667
2472.000000	5.615353
2471.000000	5.483423
2470.000000	5.485864
2469.000000	5.511656
2468.000000	5.541905
2467.000000	5.507304
2466.000000	5.518449
2465.000000	5.444046
2464.000000	5.470050
2463.000000	5.540525
2462.000000	5.487032
2461.000000	5.500830
2460.000000	5.495735
2459.000000	5.518130
2458.000000	5.504332
2457.000000	5.543391
2456.000000	5.515689
2455.000000	5.513036
2454.000000	5.555915
2453.000000	5.542967
2452.000000	5.588712
2451.000000	5.572579
2450.000000	5.586165
2449.000000	5.604527
2448.000000	5.627240
2447.000000	5.667255
2446.000000	5.647831
2445.000000	5.651228
2444.000000	5.690817
2443.000000	5.720748
2442.000000	5.730725
2441.000000	5.733060
2440.000000	5.765220
2439.000000	5.802262
2438.000000	5.821049
2437.000000	5.817016
2436.000000	5.834741
2435.000000	5.835165
2434.000000	5.872314
2433.000000	5.877833
2432.000000	5.902032
2431.000000	5.920076
2430.000000	5.927400
2429.000000	5.944169
2428.000000	5.952448
2427.000000	5.957437
2426.000000	5.981424
2425.000000	5.983016
2424.000000	5.995859
2423.000000	6.007746
2422.000000	6.004880
2421.000000	6.014751
2420.000000	6.044152
2419.000000	6.054235
2418.000000	6.058693
2417.000000	6.068139
2416.000000	6.090534
2415.000000	6.095310
2414.000000	6.076630
2413.000000	6.087881
2412.000000	6.107941
2411.000000	6.131397
2410.000000	6.135006
2409.000000	6.123331
2408.000000	6.139358
2407.000000	6.156234
2406.000000	6.149441
2405.000000	6.142648
2404.000000	6.156340
2403.000000	6.164406
2402.000000	6.182238
2401.000000	6.189986
2400.000000	6.190198
2399.000000	6.192108
2398.000000	6.216308
2397.000000	6.243692
2396.000000	6.251334
2395.000000	6.266511
2394.000000	6.276276
2393.000000	6.300370
2392.000000	6.304615
2391.000000	6.290711
2390.000000	6.317564
2389.000000	6.327647
2388.000000	6.321173
2387.000000	6.328602
2386.000000	6.331362
2385.000000	6.342188
2384.000000	6.344311
2383.000000	6.345903
2382.000000	6.343992
2381.000000	6.334121
2380.000000	6.356517
2379.000000	6.362673
2378.000000	6.351210
2377.000000	6.346327
2376.000000	6.340596
2375.000000	6.336138
2374.000000	6.333591
2373.000000	6.333379
2372.000000	6.338792
2371.000000	6.320430
2370.000000	6.301643
2369.000000	6.299414
2368.000000	6.298353
2367.000000	6.297504
2366.000000	6.288057
2365.000000	6.278611
2364.000000	6.265981
2363.000000	6.241887
2362.000000	6.230212
2361.000000	6.228832
2360.000000	6.207074
2359.000000	6.195186
2358.000000	6.179372
2357.000000	6.161753
2356.000000	6.155172
2355.000000	6.160373
2354.000000	6.147636
2353.000000	6.141905
2352.000000	6.133096
2351.000000	6.117069
2350.000000	6.111549
2349.000000	6.113991
2348.000000	6.124286
2347.000000	6.136704
2346.000000	6.144452
2345.000000	6.142223
2344.000000	6.154642
2343.000000	6.170244
2342.000000	6.180009
2341.000000	6.172685
2340.000000	6.169926
2339.000000	6.176718
2338.000000	6.183405
2337.000000	6.186589
2336.000000	6.184254
2335.000000	6.162071
2334.000000	6.166848
2333.000000	6.165043
2332.000000	6.160585
2331.000000	6.140631
2330.000000	6.113248
2329.000000	6.114734
2328.000000	6.103058
2327.000000	6.079814
2326.000000	6.048397
2325.000000	6.040225
2324.000000	6.027382
2323.000000	6.012204
2322.000000	5.975586
2321.000000	5.950219
2320.000000	5.922623
2319.000000	5.907021
2318.000000	5.876559
2317.000000	5.829222
2316.000000	5.816485
2315.000000	5.793347
2314.000000	5.771058
2313.000000	5.726480
2312.000000	5.684874
2311.000000	5.672031
2310.000000	5.651015
2309.000000	5.638916
2308.000000	5.634882
2307.000000	5.616627
2306.000000	5.617688
2305.000000	5.594550
2304.000000	5.586377
2303.000000	5.570775
2302.000000	5.579584
2301.000000	5.597734
2300.000000	5.618431
2299.000000	5.620341
2298.000000	5.627559
2297.000000	5.643267
2296.000000	5.667785
2295.000000	5.697079
2294.000000	5.694214
2293.000000	5.692091
2292.000000	5.720748
2291.000000	5.734652
2290.000000	5.733379
2289.000000	5.741764
2288.000000	5.749724
2287.000000	5.748981
2286.000000	5.734546
2285.000000	5.736032
2284.000000	5.726586
2283.000000	5.704297
2282.000000	5.700688
2281.000000	5.692409
2280.000000	5.706101
2279.000000	5.651652
2278.000000	5.657065
2277.000000	5.651122
2276.000000	5.631486
2275.000000	5.603678
2274.000000	5.590623
2273.000000	5.591790
2272.000000	5.591366
2271.000000	5.610364
2270.000000	5.590517
2269.000000	5.605164
2268.000000	5.615353
2267.000000	5.604208
2266.000000	5.625648
2265.000000	5.654943
2264.000000	5.655792
2263.000000	5.704403
2262.000000	5.759807
2261.000000	5.792179
2260.000000	5.836121
2259.000000	5.869766
2258.000000	5.923366
2257.000000	5.986519
2256.000000	6.053067
2255.000000	6.123649
2254.000000	6.190941
2253.000000	6.260143
2252.000000	6.328708
2251.000000	6.393241
2250.000000	6.467431
2249.000000	6.517847
2248.000000	6.568793
2247.000000	6.661558
2246.000000	6.695098
2245.000000	6.762177
2244.000000	6.819174
2243.000000	6.859824
2242.000000	6.911832
2241.000000	6.965114
2240.000000	6.980716
2239.000000	7.019138
2238.000000	7.046946
2237.000000	7.091949
2236.000000	7.105853
2235.000000	7.145337
2234.000000	7.174418
2233.000000	7.181848
2232.000000	7.218147
2231.000000	7.224516
2230.000000	7.234493
2229.000000	7.266334
2228.000000	7.243302
2227.000000	7.263787
2226.000000	7.270474
2225.000000	7.277160
2224.000000	7.279389
2223.000000	7.284059
2222.000000	7.289260
2221.000000	7.264211
2220.000000	7.258374
2219.000000	7.260284
2218.000000	7.248503
2217.000000	7.257843
2216.000000	7.252324
2215.000000	7.234705
2214.000000	7.234280
2213.000000	7.226532
2212.000000	7.231521
2211.000000	7.214114
2210.000000	7.205092
2209.000000	7.194372
2208.000000	7.189808
2207.000000	7.180681
2206.000000	7.164017
2205.000000	7.177496
2204.000000	7.168262
2203.000000	7.155526
2202.000000	7.115936
2201.000000	7.130159
2200.000000	7.110311
2199.000000	7.128779
2198.000000	7.104898
2197.000000	7.120925
2196.000000	7.085156
2195.000000	7.087491
2194.000000	7.100015
2193.000000	7.081123
2192.000000	7.086642
2191.000000	7.079425
2190.000000	7.084307
2189.000000	7.086960
2188.000000	7.078363
2187.000000	7.068068
2186.000000	7.055331
2185.000000	7.035271
2184.000000	7.036332
2183.000000	7.055331
2182.000000	7.053527
2181.000000	7.050024
2180.000000	7.024233
2179.000000	7.037394
2178.000000	7.029858
2177.000000	7.028584
2176.000000	7.030389
2175.000000	7.033891
2174.000000	7.045991
2173.000000	7.032193
2172.000000	7.023171
2171.000000	7.058834
2170.000000	7.039729
2169.000000	7.060320
2168.000000	7.066051
2167.000000	7.067325
2166.000000	7.068705
2165.000000	7.097680
2164.000000	7.101077
2163.000000	7.105429
2162.000000	7.100015
2161.000000	7.104579
2160.000000	7.135572
2159.000000	7.164548
2158.000000	7.169005
2157.000000	7.185138
2156.000000	7.197557
2155.000000	7.201802
2154.000000	7.213796
2153.000000	7.218678
2152.000000	7.251687
2151.000000	7.265591
2150.000000	7.271641
2149.000000	7.288623
2148.000000	7.305499
2147.000000	7.321526
2146.000000	7.344558
2145.000000	7.342754
2144.000000	7.353580
2143.000000	7.373322
2142.000000	7.389030
2141.000000	7.394655
2140.000000	7.380645
2139.000000	7.393912
2138.000000	7.418006
2137.000000	7.431273
2136.000000	7.448786
2135.000000	7.452501
2134.000000	7.444859
2133.000000	7.453244
2132.000000	7.463645
2131.000000	7.461735
2130.000000	7.466723
2129.000000	7.468952
2128.000000	7.462159
2127.000000	7.449210
2126.000000	7.438597
2125.000000	7.432334
2124.000000	7.437641
2123.000000	7.420129
2122.000000	7.415883
2121.000000	7.413336
2120.000000	7.393276
2119.000000	7.384785
2118.000000	7.370350
2117.000000	7.365786
2116.000000	7.345832
2115.000000	7.332777
2114.000000	7.322800
2113.000000	7.306667
2112.000000	7.288623
2111.000000	7.285015
2110.000000	7.256994
2109.000000	7.243302
2108.000000	7.228124
2107.000000	7.217192
2106.000000	7.200635
2105.000000	7.185245
2104.000000	7.185032
2103.000000	7.165184
2102.000000	7.141197
2101.000000	7.110948
2100.000000	7.104261
2099.000000	7.090888
2098.000000	7.084838
2097.000000	7.090675
2096.000000	7.073481
2095.000000	7.056074
2094.000000	7.046309
2093.000000	7.026249
2092.000000	7.022322
2091.000000	7.021579
2090.000000	7.001413
2089.000000	6.985174
2088.000000	6.984962
2087.000000	6.974242
2086.000000	6.957578
2085.000000	6.946752
2084.000000	6.946752
2083.000000	6.943568
2082.000000	6.922234
2081.000000	6.911514
2080.000000	6.887739
2079.000000	6.871394
2078.000000	6.859294
2077.000000	6.843585
2076.000000	6.844965
2075.000000	6.836792
2074.000000	6.815246
2073.000000	6.809939
2072.000000	6.793170
2071.000000	6.768864
2070.000000	6.754323
2069.000000	6.731503
2068.000000	6.707516
2067.000000	6.699131
2066.000000	6.691808
2065.000000	6.666653
2064.000000	6.643090
2063.000000	6.638632
2062.000000	6.629186
2061.000000	6.612947
2060.000000	6.602333
2059.000000	6.586200
2058.000000	6.590445
2057.000000	6.579407
2056.000000	6.561576
2055.000000	6.563062
2054.000000	6.563486
2053.000000	6.571447
2052.000000	6.567307
2051.000000	6.569749
2050.000000	6.591507
2049.000000	6.615176
2048.000000	6.635130
2047.000000	6.639588
2046.000000	6.647760
2045.000000	6.695735
2044.000000	6.721845
2043.000000	6.735749
2042.000000	6.765361
2041.000000	6.802722
2040.000000	6.835307
2039.000000	6.848255
2038.000000	6.876064
2037.000000	6.907905
2036.000000	6.910028
2035.000000	6.914592
2034.000000	6.942506
2033.000000	6.977107
2032.000000	6.993240
2031.000000	6.996318
2030.000000	7.008949
2029.000000	7.016909
2028.000000	7.037925
2027.000000	7.043444
2026.000000	7.036120
2025.000000	7.049600
2024.000000	7.070827
2023.000000	7.066900
2022.000000	7.081335
2021.000000	7.075391
2020.000000	7.089720
2019.000000	7.088446
2018.000000	7.089083
2017.000000	7.096513
2016.000000	7.090675
2015.000000	7.096619
2014.000000	7.084201
2013.000000	7.076347
2012.000000	7.061912
2011.000000	7.058515
2010.000000	7.033254
2009.000000	7.035590
2008.000000	7.017546
2007.000000	7.001201
2006.000000	7.000988
2005.000000	6.992603
2004.000000	6.965432
2003.000000	6.951846
2002.000000	6.936456
2001.000000	6.922977
2000.000000	6.881795
1999.000000	6.879778
1998.000000	6.868846
1997.000000	6.834564
1996.000000	6.828938
1995.000000	6.794549
1994.000000	6.771942
1993.000000	6.734900
1992.000000	6.727045
1991.000000	6.699556
1990.000000	6.671217
1989.000000	6.658799
1988.000000	6.628231
1987.000000	6.608701
1986.000000	6.568156
1985.000000	6.563699
1984.000000	6.524746
1983.000000	6.476771
1982.000000	6.474542
1981.000000	6.444718
1980.000000	6.420518
1979.000000	6.377426
1978.000000	6.366494
1977.000000	6.344948
1976.000000	6.312894
1975.000000	6.308224
1974.000000	6.271500
1973.000000	6.247513
1972.000000	6.202722
1971.000000	6.191047
1970.000000	6.172897
1969.000000	6.169076
1968.000000	6.126621
1967.000000	6.116644
1966.000000	6.103908
1965.000000	6.064424
1964.000000	6.068457
1963.000000	6.039694
1962.000000	6.033962
1961.000000	5.984396
1960.000000	5.978027
1959.000000	5.954359
1958.000000	5.959241
1957.000000	5.943851
1956.000000	5.937801
1955.000000	5.883671
1954.000000	5.890463
1953.000000	5.876135
1952.000000	5.848751
1951.000000	5.852784
1950.000000	5.811921
1949.000000	5.807145
1948.000000	5.794090
1947.000000	5.777002
1946.000000	5.772119
1945.000000	5.769678
1944.000000	5.728496
1943.000000	5.731150
1942.000000	5.718625
1941.000000	5.732211
1940.000000	5.736563
1939.000000	5.743993
1938.000000	5.722022
1937.000000	5.731574
1936.000000	5.737412
1935.000000	5.725631
1934.000000	5.734865
1933.000000	5.752165
1932.000000	5.757154
1931.000000	5.754500
1930.000000	5.764477
1929.000000	5.795470
1928.000000	5.791436
1927.000000	5.816591
1926.000000	5.848114
1925.000000	5.848008
1924.000000	5.873269
1923.000000	5.897893
1922.000000	5.916892
1921.000000	5.953297
1920.000000	5.997239
1919.000000	6.023985
1918.000000	6.037571
1917.000000	6.076205
1916.000000	6.110806
1915.000000	6.177780
1914.000000	6.187332
1913.000000	6.236050
1912.000000	6.305040
1911.000000	6.357790
1910.000000	6.411072
1909.000000	6.466051
1908.000000	6.506172
1907.000000	6.538968
1906.000000	6.633750
1905.000000	6.715795
1904.000000	6.829363
1903.000000	6.909603
1902.000000	6.976258
1901.000000	7.042064
1900.000000	7.134935
1899.000000	7.245107
1898.000000	7.342011
1897.000000	7.468315
1896.000000	7.558427
1895.000000	7.663185
1894.000000	7.740348
1893.000000	7.868563
1892.000000	7.989348
1891.000000	8.164264
1890.000000	8.332175
1889.000000	8.500192
1888.000000	8.683705
1887.000000	8.874542
1886.000000	9.054552
1885.000000	9.275638
1884.000000	9.524427
1883.000000	9.806861
1882.000000	10.117209
1881.000000	10.410575
1880.000000	10.736950
1879.000000	11.035730
1878.000000	11.332599
1877.000000	11.672984
1876.000000	12.011141
1875.000000	12.353224
1874.000000	12.686605
1873.000000	13.006612
1872.000000	13.342752
1871.000000	13.667004
1870.000000	13.992318
1869.000000	14.278573
1868.000000	14.551136
1867.000000	14.753224
1866.000000	14.952021
1865.000000	15.092123
1864.000000	15.234985
1863.000000	15.348872
1862.000000	15.460636
1861.000000	15.590549
1860.000000	15.717384
1859.000000	15.842521
1858.000000	15.960971
1857.000000	16.067959
1856.000000	16.125380
1855.000000	16.180359
1854.000000	16.217189
1853.000000	16.245422
1852.000000	16.265270
1851.000000	16.280766
1850.000000	16.285542
1849.000000	16.254975
1848.000000	16.274504
1847.000000	16.300402
1846.000000	16.310909
1845.000000	16.270365
1844.000000	16.228440
1843.000000	16.178661
1842.000000	16.154462
1841.000000	16.164757
1840.000000	16.185454
1839.000000	16.183013
1838.000000	16.167092
1837.000000	16.134826
1836.000000	16.115827
1835.000000	16.084835
1834.000000	16.055753
1833.000000	15.992707
1832.000000	15.927750
1831.000000	15.867357
1830.000000	15.821824
1829.000000	15.776185
1828.000000	15.727361
1827.000000	15.669516
1826.000000	15.612944
1825.000000	15.565394
1824.000000	15.519118
1823.000000	15.453206
1822.000000	15.400349
1821.000000	15.380183
1820.000000	15.386233
1819.000000	15.377954
1818.000000	15.343883
1817.000000	15.301004
1816.000000	15.275212
1815.000000	15.265553
1814.000000	15.253772
1813.000000	15.242840
1812.000000	15.231377
1811.000000	15.221506
1810.000000	15.206010
1809.000000	15.175548
1808.000000	15.129378
1807.000000	15.083951
1806.000000	15.061980
1805.000000	15.038630
1804.000000	15.003604
1803.000000	14.948094
1802.000000	14.888232
1801.000000	14.861909
1800.000000	14.834844
1799.000000	14.794936
1798.000000	14.735286
1797.000000	14.675531
1796.000000	14.635835
1795.000000	14.592849
1794.000000	14.561856
1793.000000	14.541796
1792.000000	14.501358
1791.000000	14.441496
1790.000000	14.382377
1789.000000	14.342469
1788.000000	14.308823
1787.000000	14.261803
1786.000000	14.209159
1785.000000	14.150358
1784.000000	14.095379
1783.000000	14.046873
1782.000000	13.982978
1781.000000	13.919083
1780.000000	13.865695
1779.000000	13.815173
1778.000000	13.743318
1777.000000	13.692478
1776.000000	13.634951
1775.000000	13.558425
1774.000000	13.494848
1773.000000	13.411529
1772.000000	13.320251
1771.000000	13.244468
1770.000000	13.167518
1769.000000	13.075602
1768.000000	12.985490
1767.000000	12.913210
1766.000000	12.852181
1765.000000	12.788498
1764.000000	12.751880
1763.000000	12.716324
1762.000000	12.700403
1761.000000	12.703587
1760.000000	12.728636
1759.000000	12.762494
1758.000000	12.795609
1757.000000	12.851968
1756.000000	12.921171
1755.000000	12.965749
1754.000000	13.016907
1753.000000	13.031767
1752.000000	13.045246
1751.000000	13.062334
1750.000000	13.065094
1749.000000	13.049916
1748.000000	13.019879
1747.000000	13.000456
1746.000000	12.961291
1745.000000	12.904931
1744.000000	12.846555
1743.000000	12.752729
1742.000000	12.641708
1741.000000	12.524319
1740.000000	12.393345
1739.000000	12.251756
1738.000000	12.100191
1737.000000	11.968579
1736.000000	11.833890
1735.000000	11.736030
1734.000000	11.662264
1733.000000	11.603994
1732.000000	11.590515
1731.000000	11.598157
1730.000000	11.625328
1729.000000	11.695485
1728.000000	11.767235
1727.000000	11.822851
1726.000000	11.891523
1725.000000	11.970171
1724.000000	12.053702
1723.000000	12.094035
1722.000000	12.142858
1721.000000	12.183509
1720.000000	12.212804
1719.000000	12.219809
1718.000000	12.235411
1717.000000	12.281581
1716.000000	12.319791
1715.000000	12.370419
1714.000000	12.399395
1713.000000	12.463396
1712.000000	12.507550
1711.000000	12.546715
1710.000000	12.569428
1709.000000	12.592672
1708.000000	12.590444
1707.000000	12.592672
1706.000000	12.572294
1705.000000	12.544910
1704.000000	12.513918
1703.000000	12.458726
1702.000000	12.410221
1701.000000	12.313210
1700.000000	12.231908
1699.000000	12.138931
1698.000000	12.027592
1697.000000	11.929945
1696.000000	11.850129
1695.000000	11.778273
1694.000000	11.754604
1693.000000	11.788569
1692.000000	11.838029
1691.000000	11.936632
1690.000000	12.032368
1689.000000	12.145193
1688.000000	12.239869
1687.000000	12.315333
1686.000000	12.341443
1685.000000	12.401942
1684.000000	12.424868
1683.000000	12.490780
1682.000000	12.616129
1681.000000	12.803888
1680.000000	13.064245
1679.000000	13.392106
1678.000000	13.789806
1677.000000	14.177105
1676.000000	14.573107
1675.000000	14.985773
1674.000000	15.309176
1673.000000	15.604453
1672.000000	15.863961
1671.000000	16.082500
1670.000000	16.281509
1669.000000	16.467994
1668.000000	16.599181
1667.000000	16.754992
1666.000000	16.851047
1665.000000	16.933304
1664.000000	17.018215
1663.000000	17.084976
1662.000000	17.176361
1661.000000	17.208839
1660.000000	17.254267
1659.000000	17.281863
1658.000000	17.338116
1657.000000	17.355735
1656.000000	17.347668
1655.000000	17.377493
1654.000000	17.376963
1653.000000	17.383225
1652.000000	17.343954
1651.000000	17.325167
1650.000000	17.331535
1649.000000	17.310308
1648.000000	17.261059
1647.000000	17.231871
1646.000000	17.183366
1645.000000	17.152692
1644.000000	17.102277
1643.000000	17.051542
1642.000000	16.981703
1641.000000	16.933941
1640.000000	16.895095
1639.000000	16.850517
1638.000000	16.771444
1637.000000	16.723894
1636.000000	16.681863
1635.000000	16.607354
1634.000000	16.559591
1633.000000	16.478290
1632.000000	16.428511
1631.000000	16.346466
1630.000000	16.289576
1629.000000	16.214324
1628.000000	16.152763
1627.000000	16.088444
1626.000000	16.022744
1625.000000	15.961184
1624.000000	15.881898
1623.000000	15.800278
1622.000000	15.726937
1621.000000	15.646378
1620.000000	15.600844
1619.000000	15.556903
1618.000000	15.477299
1617.000000	15.399606
1616.000000	15.349403
1615.000000	15.291982
1614.000000	15.225964
1613.000000	15.182235
1612.000000	15.116747
1611.000000	15.046165
1610.000000	14.985773
1609.000000	14.927291
1608.000000	14.860211
1607.000000	14.817013
1606.000000	14.778697
1605.000000	14.699093
1604.000000	14.636896
1603.000000	14.588179
1602.000000	14.531501
1601.000000	14.464740
1600.000000	14.416871
1599.000000	14.383119
1598.000000	14.305745
1597.000000	14.255329
1596.000000	14.195361
1595.000000	14.139851
1594.000000	14.095697
1593.000000	14.045600
1592.000000	13.993274
1591.000000	13.956762
1590.000000	13.926194
1589.000000	13.872700
1588.000000	13.814643
1587.000000	13.775478
1586.000000	13.750005
1585.000000	13.721878
1584.000000	13.682076
1583.000000	13.640151
1582.000000	13.605656
1581.000000	13.562458
1580.000000	13.527751
