PE UV       SUBTECH     SPECTRUM    ASCII       PEDS        4.00        
   -1
CICIMAUCR0258-2.ASC
24/07/01
15:00:51.00
24/07/01
15:00:51.00
Vinicio Soto Monge
C. resplendens. Sex M. Ventral
250,000000
1
Lambda 1050
1050L1511233
PerkinElmer UV WinLab 6.3.2.0749 / 2.02.05 Lambda 900 UV/VIS/NIR, Aug  7 2015 09:38:08

0
0
3350/servo 860,8/2
0
0
UV/VIS
1
1
1
DoubleDePol,CommonBeamDepol,RBeamAtt,SBeamAtt,60mm sphere, WB InGaAs Detector
0
0
0
0
Program
Program
3350/servo 860,8/2
3350/0,2 860,8/0,2
3350/0,2 860,8/0,2
0
15.00
 
 
 
0
 
860,8
319,2
860,8
Front
100
on
S:100 R:100
0
0
0
0
 
0
 
 
 
0
 
 
0
0
0
0
0
 
 
 
 
0
0


0
0
#HDR
-1
-1
#GR
nm
%R
1.0
0.0
2500,000000
-1,000000
2251
8
58,590700
3,894800
#DATA
2482.000000	6.339782
2481.000000	6.328207
2480.000000	6.309457
2479.000000	6.387353
2478.000000	6.360616
2477.000000	6.321957
2476.000000	6.322304
2475.000000	6.250311
2474.000000	6.293831
2473.000000	6.289433
2472.000000	6.302512
2471.000000	6.390825
2470.000000	6.358417
2469.000000	6.306216
2468.000000	6.287234
2467.000000	6.295452
2466.000000	6.339666
2465.000000	6.327976
2464.000000	6.361773
2463.000000	6.376357
2462.000000	6.390825
2461.000000	6.394645
2460.000000	6.413742
2459.000000	6.440248
2458.000000	6.473698
2457.000000	6.489324
2456.000000	6.498467
2455.000000	6.497889
2454.000000	6.538862
2453.000000	6.580877
2452.000000	6.619420
2451.000000	6.618378
2450.000000	6.659931
2449.000000	6.698126
2448.000000	6.732965
2447.000000	6.755420
2446.000000	6.782041
2445.000000	6.832043
2444.000000	6.877762
2443.000000	6.894082
2442.000000	6.939569
2441.000000	6.973829
2440.000000	7.000682
2439.000000	7.042582
2438.000000	7.094667
2437.000000	7.134483
2436.000000	7.166660
2435.000000	7.194322
2434.000000	7.232865
2433.000000	7.249764
2432.000000	7.285760
2431.000000	7.313655
2430.000000	7.341318
2429.000000	7.391782
2428.000000	7.421992
2427.000000	7.453821
2426.000000	7.460997
2425.000000	7.502318
2424.000000	7.518407
2423.000000	7.555792
2422.000000	7.561464
2421.000000	7.588895
2420.000000	7.627206
2419.000000	7.645957
2418.000000	7.665171
2417.000000	7.681838
2416.000000	7.714593
2415.000000	7.749664
2414.000000	7.773276
2413.000000	7.782767
2412.000000	7.809504
2411.000000	7.842491
2410.000000	7.854297
2409.000000	7.888789
2408.000000	7.914252
2407.000000	7.911590
2406.000000	7.917493
2405.000000	7.943651
2404.000000	7.968652
2403.000000	7.987866
2402.000000	8.011246
2401.000000	8.058933
2400.000000	8.092730
2399.000000	8.112175
2398.000000	8.124907
2397.000000	8.131968
2396.000000	8.162987
2395.000000	8.168543
2394.000000	8.184052
2393.000000	8.215535
2392.000000	8.239147
2391.000000	8.239147
2390.000000	8.251531
2389.000000	8.283245
2388.000000	8.301302
2387.000000	8.313339
2386.000000	8.318432
2385.000000	8.325955
2384.000000	8.337645
2383.000000	8.357669
2382.000000	8.369938
2381.000000	8.363341
2380.000000	8.366350
2379.000000	8.371095
2378.000000	8.372137
2377.000000	8.375146
2376.000000	8.392508
2375.000000	8.401999
2374.000000	8.392508
2373.000000	8.392740
2372.000000	8.397485
2371.000000	8.407208
2370.000000	8.384637
2369.000000	8.356280
2368.000000	8.362993
2367.000000	8.375146
2366.000000	8.362530
2365.000000	8.359289
2364.000000	8.364498
2363.000000	8.350146
2362.000000	8.343780
2361.000000	8.320978
2360.000000	8.313686
2359.000000	8.307899
2358.000000	8.283361
2357.000000	8.269588
2356.000000	8.255235
2355.000000	8.257203
2354.000000	8.262759
2353.000000	8.255698
2352.000000	8.256508
2351.000000	8.254309
2350.000000	8.250721
2349.000000	8.270166
2348.000000	8.288570
2347.000000	8.296209
2346.000000	8.290653
2345.000000	8.310214
2344.000000	8.350146
2343.000000	8.374105
2342.000000	8.394591
2341.000000	8.399800
2340.000000	8.416120
2339.000000	8.444477
2338.000000	8.470520
2337.000000	8.491585
2336.000000	8.497141
2335.000000	8.518669
2334.000000	8.529549
2333.000000	8.517628
2332.000000	8.522373
2331.000000	8.539503
2330.000000	8.533253
2329.000000	8.535568
2328.000000	8.524572
2327.000000	8.504433
2326.000000	8.511146
2325.000000	8.498414
2324.000000	8.490659
2323.000000	8.501539
2322.000000	8.475844
2321.000000	8.442162
2320.000000	8.398527
2319.000000	8.373758
2318.000000	8.351766
2317.000000	8.310445
2316.000000	8.269819
2315.000000	8.235212
2314.000000	8.189377
2313.000000	8.158126
2312.000000	8.132431
2311.000000	8.085207
2310.000000	8.025714
2309.000000	7.998051
2308.000000	7.974902
2307.000000	7.971777
2306.000000	7.969115
2305.000000	7.943188
2304.000000	7.964022
2303.000000	7.965990
2302.000000	7.979648
2301.000000	7.981731
2300.000000	8.002334
2299.000000	8.029650
2298.000000	8.072012
2297.000000	8.106272
2296.000000	8.141806
2295.000000	8.167964
2294.000000	8.233938
2293.000000	8.250490
2292.000000	8.280699
2291.000000	8.330353
2290.000000	8.386837
2289.000000	8.392045
2288.000000	8.383017
2287.000000	8.426305
2286.000000	8.423875
2285.000000	8.432787
2284.000000	8.439848
2283.000000	8.441584
2282.000000	8.434755
2281.000000	8.438806
2280.000000	8.412763
2279.000000	8.402231
2278.000000	8.412995
2277.000000	8.380586
2276.000000	8.379429
2275.000000	8.370980
2274.000000	8.346905
2273.000000	8.334289
2272.000000	8.355701
2271.000000	8.349451
2270.000000	8.347021
2269.000000	8.346442
2268.000000	8.390540
2267.000000	8.409523
2266.000000	8.447950
2265.000000	8.473066
2264.000000	8.535105
2263.000000	8.625039
2262.000000	8.705018
2261.000000	8.768446
2260.000000	8.878056
2259.000000	8.999587
2258.000000	9.100748
2257.000000	9.230960
2256.000000	9.342191
2255.000000	9.508862
2254.000000	9.648682
2253.000000	9.761185
2252.000000	9.907139
2251.000000	10.033069
2250.000000	10.168953
2249.000000	10.282729
2248.000000	10.415488
2247.000000	10.513987
2246.000000	10.619198
2245.000000	10.730313
2244.000000	10.826844
2243.000000	10.917124
2242.000000	10.987381
2241.000000	11.043517
2240.000000	11.149539
2239.000000	11.208800
2238.000000	11.263431
2237.000000	11.330679
2236.000000	11.373041
2235.000000	11.417834
2234.000000	11.459965
2233.000000	11.484850
2232.000000	11.504643
2231.000000	11.522467
2230.000000	11.580802
2229.000000	11.588789
2228.000000	11.581034
2227.000000	11.575131
2226.000000	11.579182
2225.000000	11.573510
2224.000000	11.553139
2223.000000	11.539945
2222.000000	11.552098
2221.000000	11.518416
2220.000000	11.472929
2219.000000	11.482767
2218.000000	11.427441
2217.000000	11.417719
2216.000000	11.395033
2215.000000	11.339938
2214.000000	11.308803
2213.000000	11.272922
2212.000000	11.260306
2211.000000	11.217828
2210.000000	11.191670
2209.000000	11.171878
2208.000000	11.167016
2207.000000	11.130788
2206.000000	11.144446
2205.000000	11.106250
2204.000000	11.101273
2203.000000	11.101158
2202.000000	11.060763
2201.000000	11.049304
2200.000000	11.046642
2199.000000	11.028470
2198.000000	11.002659
2197.000000	10.999534
2196.000000	11.000229
2195.000000	11.011456
2194.000000	10.965042
2193.000000	10.977774
2192.000000	10.964001
2191.000000	10.972103
2190.000000	10.949301
2189.000000	10.932402
2188.000000	10.914578
2187.000000	10.904624
2186.000000	10.878234
2185.000000	10.894901
2184.000000	10.867238
2183.000000	10.878581
2182.000000	10.873836
2181.000000	10.843279
2180.000000	10.820478
2179.000000	10.818626
2178.000000	10.807630
2177.000000	10.786565
2176.000000	10.782513
2175.000000	10.760985
2174.000000	10.765499
2173.000000	10.765615
2172.000000	10.730891
2171.000000	10.754388
2170.000000	10.770013
2169.000000	10.772791
2168.000000	10.748832
2167.000000	10.771171
2166.000000	10.745475
2165.000000	10.752304
2164.000000	10.799875
2163.000000	10.798255
2162.000000	10.803232
2161.000000	10.826149
2160.000000	10.853233
2159.000000	10.870248
2158.000000	10.886915
2157.000000	10.900688
2156.000000	10.935065
2155.000000	10.969093
2154.000000	10.984372
2153.000000	11.028354
2152.000000	11.058680
2151.000000	11.104051
2150.000000	11.121760
2149.000000	11.155326
2148.000000	11.195605
2147.000000	11.242250
2146.000000	11.277321
2145.000000	11.300122
2144.000000	11.338665
2143.000000	11.372347
2142.000000	11.398621
2141.000000	11.452673
2140.000000	11.493878
2139.000000	11.522004
2138.000000	11.539829
2137.000000	11.578256
2136.000000	11.614715
2135.000000	11.640989
2134.000000	11.669694
2133.000000	11.697473
2132.000000	11.712172
2131.000000	11.746896
2130.000000	11.757081
2129.000000	11.762174
2128.000000	11.773632
2127.000000	11.809513
2126.000000	11.828380
2125.000000	11.838681
2124.000000	11.855348
2123.000000	11.866459
2122.000000	11.868427
2121.000000	11.881159
2120.000000	11.878150
2119.000000	11.886599
2118.000000	11.898636
2117.000000	11.881390
2116.000000	11.878150
2115.000000	11.890187
2114.000000	11.898636
2113.000000	11.886483
2112.000000	11.858473
2111.000000	11.861251
2110.000000	11.871668
2109.000000	11.865071
2108.000000	11.851297
2107.000000	11.827454
2106.000000	11.811134
2105.000000	11.817384
2104.000000	11.817615
2103.000000	11.800948
2102.000000	11.774558
2101.000000	11.768308
2100.000000	11.754998
2099.000000	11.730228
2098.000000	11.738909
2097.000000	11.716802
2096.000000	11.703954
2095.000000	11.699209
2094.000000	11.683815
2093.000000	11.682426
2092.000000	11.684394
2091.000000	11.668305
2090.000000	11.660434
2089.000000	11.657425
2088.000000	11.643420
2087.000000	11.633698
2086.000000	11.624554
2085.000000	11.607192
2084.000000	11.592724
2083.000000	11.591567
2082.000000	11.572469
2081.000000	11.537630
2080.000000	11.512976
2079.000000	11.497814
2078.000000	11.483114
2077.000000	11.440520
2076.000000	11.389824
2075.000000	11.355332
2074.000000	11.317715
2073.000000	11.298618
2072.000000	11.261464
2071.000000	11.192827
2070.000000	11.144793
2069.000000	11.114353
2068.000000	11.069212
2067.000000	11.017359
2066.000000	10.972797
2065.000000	10.931939
2064.000000	10.884253
2063.000000	10.831936
2062.000000	10.782629
2061.000000	10.752073
2060.000000	10.707395
2059.000000	10.655195
2058.000000	10.629615
2057.000000	10.602762
2056.000000	10.595586
2055.000000	10.571974
2054.000000	10.570701
2053.000000	10.581003
2052.000000	10.605309
2051.000000	10.628805
2050.000000	10.648713
2049.000000	10.673598
2048.000000	10.695126
2047.000000	10.749295
2046.000000	10.787490
2045.000000	10.828695
2044.000000	10.889924
2043.000000	10.964695
2042.000000	11.029628
2041.000000	11.091204
2040.000000	11.132409
2039.000000	11.167479
2038.000000	11.244102
2037.000000	11.304521
2036.000000	11.350240
2035.000000	11.385542
2034.000000	11.420959
2033.000000	11.475359
2032.000000	11.518416
2031.000000	11.535083
2030.000000	11.559042
2029.000000	11.588789
2028.000000	11.613558
2027.000000	11.658467
2026.000000	11.681037
2025.000000	11.699325
2024.000000	11.718075
2023.000000	11.739256
2022.000000	11.759280
2021.000000	11.761248
2020.000000	11.750252
2019.000000	11.761711
2018.000000	11.783123
2017.000000	11.794929
2016.000000	11.791920
2015.000000	11.774558
2014.000000	11.771781
2013.000000	11.759743
2012.000000	11.771202
2011.000000	11.742613
2010.000000	11.725599
2009.000000	11.716108
2008.000000	11.696315
2007.000000	11.671546
2006.000000	11.665180
2005.000000	11.628373
2004.000000	11.592840
2003.000000	11.558927
2002.000000	11.532305
2001.000000	11.511240
2000.000000	11.477558
1999.000000	11.437974
1998.000000	11.391097
1997.000000	11.352323
1996.000000	11.317021
1995.000000	11.275353
1994.000000	11.232643
1993.000000	11.171878
1992.000000	11.147571
1991.000000	11.063657
1990.000000	11.021410
1989.000000	10.982288
1988.000000	10.942588
1987.000000	10.878697
1986.000000	10.827654
1985.000000	10.774759
1984.000000	10.692812
1983.000000	10.658436
1982.000000	10.603688
1981.000000	10.548363
1980.000000	10.486555
1979.000000	10.440026
1978.000000	10.389677
1977.000000	10.321851
1976.000000	10.292105
1975.000000	10.229371
1974.000000	10.163513
1973.000000	10.150896
1972.000000	10.091867
1971.000000	10.040013
1970.000000	9.982257
1969.000000	9.938737
1968.000000	9.888620
1967.000000	9.861073
1966.000000	9.801117
1965.000000	9.761069
1964.000000	9.732018
1963.000000	9.695905
1962.000000	9.631667
1961.000000	9.595555
1960.000000	9.555507
1959.000000	9.501339
1958.000000	9.472634
1957.000000	9.420550
1956.000000	9.389762
1955.000000	9.342769
1954.000000	9.301449
1953.000000	9.266378
1952.000000	9.219502
1951.000000	9.194732
1950.000000	9.164060
1949.000000	9.113595
1948.000000	9.075053
1947.000000	9.041718
1946.000000	9.016370
1945.000000	8.991948
1944.000000	8.994032
1943.000000	8.968799
1942.000000	8.932456
1941.000000	8.921460
1940.000000	8.900163
1939.000000	8.897154
1938.000000	8.863819
1937.000000	8.880371
1936.000000	8.845416
1935.000000	8.861736
1934.000000	8.893565
1933.000000	8.870301
1932.000000	8.910464
1931.000000	8.941831
1930.000000	8.957688
1929.000000	8.980489
1928.000000	8.980489
1927.000000	9.057459
1926.000000	9.097391
1925.000000	9.130031
1924.000000	9.186862
1923.000000	9.263369
1922.000000	9.255382
1921.000000	9.364066
1920.000000	9.448097
1919.000000	9.512103
1918.000000	9.585254
1917.000000	9.676460
1916.000000	9.771949
1915.000000	9.883064
1914.000000	9.961654
1913.000000	10.096265
1912.000000	10.226593
1911.000000	10.361204
1910.000000	10.499403
1909.000000	10.615494
1908.000000	10.753346
1907.000000	10.911684
1906.000000	11.077199
1905.000000	11.242366
1904.000000	11.450474
1903.000000	11.655920
1902.000000	11.853265
1901.000000	12.038340
1900.000000	12.266240
1899.000000	12.533147
1898.000000	12.824591
1897.000000	13.083974
1896.000000	13.367201
1895.000000	13.624385
1894.000000	13.906801
1893.000000	14.227644
1892.000000	14.554738
1891.000000	14.878591
1890.000000	15.219226
1889.000000	15.632318
1888.000000	15.979088
1887.000000	16.393106
1886.000000	16.769506
1885.000000	17.195446
1884.000000	17.615598
1883.000000	18.086330
1882.000000	18.537733
1881.000000	18.950593
1880.000000	19.400839
1879.000000	19.848538
1878.000000	20.258736
1877.000000	20.674027
1876.000000	21.118138
1875.000000	21.497085
1874.000000	21.901033
1873.000000	22.302434
1872.000000	22.709739
1871.000000	23.089149
1870.000000	23.444715
1869.000000	23.791023
1868.000000	24.161752
1867.000000	24.454353
1866.000000	24.729246
1865.000000	24.934693
1864.000000	25.170695
1863.000000	25.373942
1862.000000	25.533207
1861.000000	25.728352
1860.000000	25.911807
1859.000000	26.109266
1858.000000	26.255452
1857.000000	26.403952
1856.000000	26.542266
1855.000000	26.637524
1854.000000	26.732781
1853.000000	26.838456
1852.000000	26.904546
1851.000000	26.946677
1850.000000	27.002466
1849.000000	27.025152
1848.000000	27.063116
1847.000000	27.144368
1846.000000	27.186615
1845.000000	27.192055
1844.000000	27.171568
1843.000000	27.144021
1842.000000	27.154785
1841.000000	27.183721
1840.000000	27.189393
1839.000000	27.191129
1838.000000	27.175851
1837.000000	27.141475
1836.000000	27.116821
1835.000000	27.119715
1834.000000	27.100270
1833.000000	27.065662
1832.000000	26.985567
1831.000000	26.955705
1830.000000	26.941353
1829.000000	26.912532
1828.000000	26.872600
1827.000000	26.813455
1826.000000	26.771671
1825.000000	26.746439
1824.000000	26.698058
1823.000000	26.657547
1822.000000	26.631158
1821.000000	26.619583
1820.000000	26.623866
1819.000000	26.603958
1818.000000	26.565183
1817.000000	26.517265
1816.000000	26.498978
1815.000000	26.503492
1814.000000	26.497589
1813.000000	26.479185
1812.000000	26.454300
1811.000000	26.422934
1810.000000	26.402563
1809.000000	26.360200
1808.000000	26.316796
1807.000000	26.287860
1806.000000	26.254526
1805.000000	26.220844
1804.000000	26.164476
1803.000000	26.122808
1802.000000	26.079520
1801.000000	26.032181
1800.000000	25.987503
1799.000000	25.945488
1798.000000	25.905093
1797.000000	25.862962
1796.000000	25.815854
1795.000000	25.771756
1794.000000	25.736917
1793.000000	25.687494
1792.000000	25.654970
1791.000000	25.618395
1790.000000	25.570361
1789.000000	25.527535
1788.000000	25.488992
1787.000000	25.465728
1786.000000	25.428805
1785.000000	25.384244
1784.000000	25.334474
1783.000000	25.284819
1782.000000	25.240836
1781.000000	25.190835
1780.000000	25.135972
1779.000000	25.088285
1778.000000	25.035969
1777.000000	24.996732
1776.000000	24.950550
1775.000000	24.873232
1774.000000	24.794873
1773.000000	24.740242
1772.000000	24.664082
1771.000000	24.584334
1770.000000	24.511068
1769.000000	24.424028
1768.000000	24.350415
1767.000000	24.292659
1766.000000	24.213026
1765.000000	24.149020
1764.000000	24.100754
1763.000000	24.080268
1762.000000	24.063138
1761.000000	24.073902
1760.000000	24.087212
1759.000000	24.096819
1758.000000	24.133857
1757.000000	24.196591
1756.000000	24.237449
1755.000000	24.286061
1754.000000	24.328192
1753.000000	24.385717
1752.000000	24.408171
1751.000000	24.427964
1750.000000	24.443821
1749.000000	24.447293
1748.000000	24.443936
1747.000000	24.405394
1746.000000	24.370092
1745.000000	24.305275
1744.000000	24.247287
1743.000000	24.184090
1742.000000	24.090685
1741.000000	23.978991
1740.000000	23.851441
1739.000000	23.713821
1738.000000	23.579210
1737.000000	23.449808
1736.000000	23.312883
1735.000000	23.199337
1734.000000	23.119474
1733.000000	23.055814
1732.000000	22.997248
1731.000000	22.983706
1730.000000	22.974562
1729.000000	23.007549
1728.000000	23.049448
1727.000000	23.090653
1726.000000	23.138224
1725.000000	23.194245
1724.000000	23.262650
1723.000000	23.323647
1722.000000	23.364389
1721.000000	23.420409
1720.000000	23.504324
1719.000000	23.583956
1718.000000	23.669838
1717.000000	23.779332
1716.000000	23.876789
1715.000000	23.995311
1714.000000	24.128880
1713.000000	24.229462
1712.000000	24.337683
1711.000000	24.433404
1710.000000	24.514309
1709.000000	24.584450
1708.000000	24.632716
1707.000000	24.670332
1706.000000	24.674036
1705.000000	24.670795
1704.000000	24.656212
1703.000000	24.624498
1702.000000	24.567899
1701.000000	24.518592
1700.000000	24.441274
1699.000000	24.348563
1698.000000	24.257125
1697.000000	24.161983
1696.000000	24.059202
1695.000000	23.978760
1694.000000	23.931073
1693.000000	23.933620
1692.000000	23.962903
1691.000000	24.004455
1690.000000	24.070082
1689.000000	24.148557
1688.000000	24.257009
1687.000000	24.355161
1686.000000	24.417778
1685.000000	24.504239
1684.000000	24.622993
1683.000000	24.747534
1682.000000	24.922655
1681.000000	25.144769
1680.000000	25.396165
1679.000000	25.712726
1678.000000	26.059612
1677.000000	26.421776
1676.000000	26.810214
1675.000000	27.166475
1674.000000	27.507343
1673.000000	27.784203
1672.000000	28.056665
1671.000000	28.292900
1670.000000	28.506795
1669.000000	28.699857
1668.000000	28.897317
1667.000000	29.067461
1666.000000	29.178460
1665.000000	29.300802
1664.000000	29.441315
1663.000000	29.547106
1662.000000	29.626043
1661.000000	29.676508
1660.000000	29.779289
1659.000000	29.847925
1658.000000	29.899431
1657.000000	29.954757
1656.000000	29.979874
1655.000000	30.016217
1654.000000	30.037283
1653.000000	30.058464
1652.000000	30.042723
1651.000000	30.034852
1650.000000	30.033232
1649.000000	29.986355
1648.000000	29.970614
1647.000000	29.952905
1646.000000	29.901515
1645.000000	29.873505
1644.000000	29.820725
1643.000000	29.792368
1642.000000	29.740399
1641.000000	29.707759
1640.000000	29.659956
1639.000000	29.615510
1638.000000	29.572106
1637.000000	29.520137
1636.000000	29.472450
1635.000000	29.384369
1634.000000	29.333210
1633.000000	29.261217
1632.000000	29.193275
1631.000000	29.158899
1630.000000	29.092230
1629.000000	29.008778
1628.000000	28.949749
1627.000000	28.862478
1626.000000	28.773354
1625.000000	28.701130
1624.000000	28.612123
1623.000000	28.554482
1622.000000	28.482836
1621.000000	28.408760
1620.000000	28.344637
1619.000000	28.266278
1618.000000	28.187109
1617.000000	28.129932
1616.000000	28.057128
1615.000000	28.006664
1614.000000	27.897748
1613.000000	27.840571
1612.000000	27.767652
1611.000000	27.717766
1610.000000	27.620772
1609.000000	27.559775
1608.000000	27.496115
1607.000000	27.399006
1606.000000	27.349352
1605.000000	27.249696
1604.000000	27.163003
1603.000000	27.087654
1602.000000	27.000498
1601.000000	26.924222
1600.000000	26.829659
1599.000000	26.767505
1598.000000	26.678034
1597.000000	26.590879
1596.000000	26.519349
1595.000000	26.445620
1594.000000	26.369923
