PE UV       SUBTECH     SPECTRUM    ASCII       PEDS        4.00        
   -1
CICIMAUCR0013-3.Sample.ASC
24/04/11
16:39:26.00
24/04/11
16:39:26.00
Vinicio Soto Monge
C. resplendens
250,000000
1
Lambda 1050
1050L1511233
PerkinElmer UV WinLab 6.3.2.0749 / 2.02.05 Lambda 900 UV/VIS/NIR, Aug  7 2015 09:38:08

0
0
3350/2 860,8/2
0
0
UV/VIS
1
1
1
DoubleDePol,CommonBeamDepol,RBeamAtt,SBeamAtt,60mm sphere, WB InGaAs Detector
0
0
0
0
Program
Program
3350/2 860,8/2
3350/0,2 860,8/0,2
3350/0,2 860,8/0,2
0
15.00
 
 
 
0
 
860,8
319,2
860,8
Front
100
on
S:100 R:100
0
0
0
0
 
0
 
 
 
0
 
 
0
0
0
0
0
 
 
 
 
0
0


0
0
#HDR
-1
-1
#GR
nm
%R
1.0
0.0
2400,000000
-1,000000
2151
8
29,332500
0,982200
#DATA
2382.000000	12.274377
2381.000000	12.838683
2380.000000	11.916796
2379.000000	13.278117
2378.000000	13.878434
2377.000000	12.306982
2376.000000	11.635324
2375.000000	13.348875
2374.000000	12.679066
2373.000000	11.979767
2372.000000	12.393409
2371.000000	12.348152
2370.000000	12.127899
2369.000000	12.356327
2368.000000	13.183904
2367.000000	12.028041
2366.000000	12.403337
2365.000000	12.962776
2364.000000	12.786223
2363.000000	12.561397
2362.000000	11.892172
2361.000000	12.940098
2360.000000	12.199824
2359.000000	12.443825
2358.000000	12.761405
2357.000000	12.035438
2356.000000	11.933731
2355.000000	12.563051
2354.000000	12.076024
2353.000000	11.744136
2352.000000	12.118945
2351.000000	11.873972
2350.000000	12.253355
2349.000000	12.020644
2348.000000	12.115149
2347.000000	12.116804
2346.000000	12.077873
2345.000000	11.629582
2344.000000	11.446995
2343.000000	11.819565
2342.000000	12.205567
2341.000000	11.367284
2340.000000	11.250588
2339.000000	11.382467
2338.000000	12.371218
2337.000000	12.108434
2336.000000	11.680290
2335.000000	11.438820
2334.000000	11.720194
2333.000000	11.150535
2332.000000	11.469381
2331.000000	11.592792
2330.000000	11.376919
2329.000000	11.689244
2328.000000	11.382759
2327.000000	11.206791
2326.000000	11.766716
2325.000000	11.559798
2324.000000	11.379450
2323.000000	11.683599
2322.000000	11.827352
2321.000000	11.556391
2320.000000	11.572061
2319.000000	11.553764
2318.000000	11.683793
2317.000000	11.679998
2316.000000	11.386068
2315.000000	11.819955
2314.000000	11.749489
2313.000000	11.401738
2312.000000	11.296235
2311.000000	10.979920
2310.000000	11.458577
2309.000000	11.760293
2308.000000	11.650313
2307.000000	11.520672
2306.000000	11.502959
2305.000000	11.516682
2304.000000	11.499747
2303.000000	11.661603
2302.000000	12.040499
2301.000000	11.987748
2300.000000	11.602719
2299.000000	11.636881
2298.000000	11.780634
2297.000000	11.827741
2296.000000	11.854019
2295.000000	12.168777
2294.000000	12.157098
2293.000000	11.749976
2292.000000	11.628901
2291.000000	11.875334
2290.000000	11.666372
2289.000000	11.657515
2288.000000	11.875918
2287.000000	11.585979
2286.000000	11.555029
2285.000000	11.477945
2284.000000	11.305578
2283.000000	11.490695
2282.000000	11.648658
2281.000000	11.673379
2280.000000	11.674353
2279.000000	11.498482
2278.000000	11.320956
2277.000000	11.367965
2276.000000	11.509480
2275.000000	11.636589
2274.000000	11.554737
2273.000000	11.249420
2272.000000	11.226645
2271.000000	11.276477
2270.000000	11.479892
2269.000000	11.606515
2268.000000	11.425875
2267.000000	11.391810
2266.000000	11.576344
2265.000000	11.760585
2264.000000	11.659364
2263.000000	11.695473
2262.000000	11.924193
2261.000000	12.012761
2260.000000	12.191260
2259.000000	12.395940
2258.000000	12.278660
2257.000000	12.357398
2256.000000	12.496187
2255.000000	12.624173
2254.000000	12.644514
2253.000000	12.446745
2252.000000	12.898540
2251.000000	12.948469
2250.000000	13.124924
2249.000000	13.318898
2248.000000	13.264394
2247.000000	13.309846
2246.000000	13.385372
2245.000000	13.339531
2244.000000	13.198601
2243.000000	13.262253
2242.000000	13.627524
2241.000000	13.779939
2240.000000	13.860429
2239.000000	13.953182
2238.000000	13.837459
2237.000000	13.786849
2236.000000	13.847776
2235.000000	14.251199
2234.000000	14.025204
2233.000000	13.706554
2232.000000	13.879310
2231.000000	13.967392
2230.000000	13.973815
2229.000000	13.900236
2228.000000	13.926806
2227.000000	14.104040
2226.000000	13.975956
2225.000000	13.912985
2224.000000	14.112507
2223.000000	14.039414
2222.000000	14.077177
2221.000000	14.025496
2220.000000	14.134503
2219.000000	14.062773
2218.000000	14.003987
2217.000000	14.343174
2216.000000	14.499968
2215.000000	14.255287
2214.000000	13.877072
2213.000000	13.999218
2212.000000	14.115427
2211.000000	14.159906
2210.000000	14.007101
2209.000000	13.999802
2208.000000	13.777505
2207.000000	13.906757
2206.000000	13.952987
2205.000000	14.037662
2204.000000	13.995130
2203.000000	13.803784
2202.000000	13.689813
2201.000000	13.712393
2200.000000	13.907438
2199.000000	13.764755
2198.000000	13.870259
2197.000000	13.758137
2196.000000	13.582169
2195.000000	13.646892
2194.000000	13.429851
2193.000000	13.518030
2192.000000	13.959995
2191.000000	13.928169
2190.000000	13.637646
2189.000000	13.330674
2188.000000	13.610394
2187.000000	14.076204
2186.000000	13.902182
2185.000000	13.746555
2184.000000	13.795414
2183.000000	13.152273
2182.000000	13.445229
2181.000000	13.233541
2180.000000	13.660615
2179.000000	13.188868
2178.000000	13.200450
2177.000000	13.587230
2176.000000	13.694193
2175.000000	13.266827
2174.000000	13.637354
2173.000000	13.241619
2172.000000	13.606890
2171.000000	13.260501
2170.000000	13.047062
2169.000000	13.217482
2168.000000	13.468588
2167.000000	13.112368
2166.000000	13.172030
2165.000000	13.434231
2164.000000	13.244831
2163.000000	13.275684
2162.000000	13.626745
2161.000000	13.070517
2160.000000	13.462748
2159.000000	13.297972
2158.000000	13.481824
2157.000000	12.915475
2156.000000	13.176799
2155.000000	12.657167
2154.000000	13.211740
2153.000000	13.414084
2152.000000	13.203370
2151.000000	12.970270
2150.000000	12.579792
2149.000000	12.805884
2148.000000	13.449511
2147.000000	13.267119
2146.000000	12.892797
2145.000000	13.035285
2144.000000	13.283860
2143.000000	13.118403
2142.000000	13.013678
2141.000000	13.287266
2140.000000	13.325516
2139.000000	12.728703
2138.000000	12.790798
2137.000000	12.519643
2136.000000	12.870217
2135.000000	12.534632
2134.000000	13.019907
2133.000000	12.737560
2132.000000	12.538038
2131.000000	12.662520
2130.000000	12.993045
2129.000000	12.537649
2128.000000	12.498426
2127.000000	12.545435
2126.000000	12.404894
2125.000000	12.566068
2124.000000	12.557406
2123.000000	12.600036
2122.000000	12.554778
2121.000000	12.244109
2120.000000	11.987358
2119.000000	12.317786
2118.000000	12.003125
2117.000000	12.329757
2116.000000	12.167609
2115.000000	11.965070
2114.000000	12.364600
2113.000000	12.001081
2112.000000	11.978209
2111.000000	12.225519
2110.000000	12.106001
2109.000000	12.192525
2108.000000	11.978891
2107.000000	11.913097
2106.000000	11.732749
2105.000000	11.660337
2104.000000	11.861611
2103.000000	11.973830
2102.000000	11.598145
2101.000000	11.655276
2100.000000	11.950568
2099.000000	11.856647
2098.000000	12.026679
2097.000000	11.865601
2096.000000	11.779174
2095.000000	11.574494
2094.000000	11.508896
2093.000000	11.579166
2092.000000	11.879130
2091.000000	11.621017
2090.000000	11.919910
2089.000000	11.874264
2088.000000	11.765062
2087.000000	11.705011
2086.000000	11.653232
2085.000000	11.889349
2084.000000	11.799321
2083.000000	11.919910
2082.000000	11.782678
2081.000000	11.705108
2080.000000	11.826962
2079.000000	12.014318
2078.000000	11.931687
2077.000000	11.862973
2076.000000	11.888181
2075.000000	12.013150
2074.000000	12.294135
2073.000000	12.177634
2072.000000	12.121086
2071.000000	12.133934
2070.000000	12.305912
2069.000000	12.449178
2068.000000	12.272431
2067.000000	12.221529
2066.000000	12.239339
2065.000000	12.382703
2064.000000	12.418520
2063.000000	12.357301
2062.000000	12.338224
2061.000000	12.362848
2060.000000	12.502124
2059.000000	12.647240
2058.000000	12.628845
2057.000000	12.556530
2056.000000	12.637507
2055.000000	12.792647
2054.000000	12.576482
2053.000000	12.530544
2052.000000	12.743302
2051.000000	12.832065
2050.000000	12.834498
2049.000000	12.916545
2048.000000	13.067403
2047.000000	13.077817
2046.000000	13.195097
2045.000000	13.390628
2044.000000	13.449901
2043.000000	13.453404
2042.000000	13.533018
2041.000000	13.553847
2040.000000	13.537885
2039.000000	13.590539
2038.000000	13.832788
2037.000000	13.861888
2036.000000	13.761057
2035.000000	13.871427
2034.000000	13.886318
2033.000000	14.014206
2032.000000	14.146572
2031.000000	14.123311
2030.000000	14.146864
2029.000000	14.145891
2028.000000	14.185211
2027.000000	14.259375
2026.000000	14.286237
2025.000000	14.282733
2024.000000	14.318355
2023.000000	14.314267
2022.000000	14.413055
2021.000000	14.520991
2020.000000	14.395049
2019.000000	14.280495
2018.000000	14.397580
2017.000000	14.498995
2016.000000	14.570920
2015.000000	14.560117
2014.000000	14.445952
2013.000000	14.420744
2012.000000	14.466682
2011.000000	14.510188
2010.000000	14.508533
2009.000000	14.501428
2008.000000	14.436414
2007.000000	14.402933
2006.000000	14.420160
2005.000000	14.393395
2004.000000	14.413639
2003.000000	14.390183
2002.000000	14.266479
2001.000000	14.202535
2000.000000	14.239033
1999.000000	14.252562
1998.000000	14.238254
1997.000000	14.144625
1996.000000	14.111729
1995.000000	14.062967
1994.000000	14.004473
1993.000000	14.088467
1992.000000	13.966710
1991.000000	13.851766
1990.000000	13.818286
1989.000000	13.849528
1988.000000	13.795706
1987.000000	13.668985
1986.000000	13.641539
1985.000000	13.593654
1984.000000	13.524356
1983.000000	13.475692
1982.000000	13.373401
1981.000000	13.362111
1980.000000	13.318411
1979.000000	13.232081
1978.000000	13.122198
1977.000000	13.068960
1976.000000	13.060006
1975.000000	12.977278
1974.000000	12.918686
1973.000000	12.877906
1972.000000	12.859122
1971.000000	12.827393
1970.000000	12.806954
1969.000000	12.765006
1968.000000	12.596337
1967.000000	12.570837
1966.000000	12.507380
1965.000000	12.527624
1964.000000	12.528013
1963.000000	12.436525
1962.000000	12.378518
1961.000000	12.309999
1960.000000	12.287711
1959.000000	12.281969
1958.000000	12.174714
1957.000000	12.100356
1956.000000	12.048675
1955.000000	12.018211
1954.000000	12.013150
1953.000000	11.908815
1952.000000	11.833581
1951.000000	11.696057
1950.000000	11.741801
1949.000000	11.756010
1948.000000	11.616540
1947.000000	11.578679
1946.000000	11.566514
1945.000000	11.518336
1944.000000	11.422761
1943.000000	11.407480
1942.000000	11.480963
1941.000000	11.407772
1940.000000	11.328061
1939.000000	11.297013
1938.000000	11.384414
1937.000000	11.383343
1936.000000	11.355215
1935.000000	11.276964
1934.000000	11.370009
1933.000000	11.379060
1932.000000	11.388112
1931.000000	11.374486
1930.000000	11.334582
1929.000000	11.386652
1928.000000	11.429866
1927.000000	11.519894
1926.000000	11.497119
1925.000000	11.589969
1924.000000	11.645349
1923.000000	11.614496
1922.000000	11.668902
1921.000000	11.951542
1920.000000	11.997870
1919.000000	11.787545
1918.000000	11.868813
1917.000000	12.063760
1916.000000	12.229412
1915.000000	12.375890
1914.000000	12.552053
1913.000000	12.581835
1912.000000	12.625146
1911.000000	12.764227
1910.000000	12.914988
1909.000000	13.140496
1908.000000	13.319871
1907.000000	13.510925
1906.000000	13.927877
1905.000000	13.913667
1904.000000	14.018878
1903.000000	14.281663
1902.000000	14.316895
1901.000000	14.708152
1900.000000	14.978626
1899.000000	15.192163
1898.000000	15.191287
1897.000000	15.399568
1896.000000	15.669457
1895.000000	15.878517
1894.000000	16.188116
1893.000000	16.403697
1892.000000	16.517862
1891.000000	16.720304
1890.000000	17.060172
1889.000000	16.987663
1888.000000	17.117985
1887.000000	17.402863
1886.000000	17.570169
1885.000000	17.758206
1884.000000	18.032962
1883.000000	17.970575
1882.000000	18.175741
1881.000000	18.518627
1880.000000	18.529819
1879.000000	18.623254
1878.000000	19.060255
1877.000000	19.303671
1876.000000	19.202159
1875.000000	19.399150
1874.000000	19.739212
1873.000000	19.714102
1872.000000	19.628746
1871.000000	19.870897
1870.000000	19.803643
1869.000000	19.820578
1868.000000	20.076453
1867.000000	19.785443
1866.000000	19.690841
1865.000000	19.910217
1864.000000	19.965304
1863.000000	19.869047
1862.000000	19.893185
1861.000000	20.041415
1860.000000	20.222152
1859.000000	19.904377
1858.000000	19.850847
1857.000000	20.151590
1856.000000	19.958492
1855.000000	19.908854
1854.000000	20.073046
1853.000000	19.911580
1852.000000	19.778825
1851.000000	19.826613
1850.000000	19.984965
1849.000000	20.039468
1848.000000	20.229452
1847.000000	19.955961
1846.000000	19.424163
1845.000000	19.552246
1844.000000	19.702325
1843.000000	19.832939
1842.000000	19.997033
1841.000000	19.743981
1840.000000	19.620278
1839.000000	19.512828
1838.000000	19.618623
1837.000000	19.686169
1836.000000	19.536771
1835.000000	19.427959
1834.000000	19.274473
1833.000000	19.351167
1832.000000	19.345717
1831.000000	19.330047
1830.000000	19.226393
1829.000000	19.219969
1828.000000	19.197000
1827.000000	19.243133
1826.000000	19.183764
1825.000000	18.974704
1824.000000	19.012078
1823.000000	19.144346
1822.000000	19.253061
1821.000000	19.275544
1820.000000	19.126535
1819.000000	18.982490
1818.000000	18.973731
1817.000000	18.957088
1816.000000	19.073102
1815.000000	18.974509
1814.000000	18.886817
1813.000000	18.984534
1812.000000	19.032224
1811.000000	19.008185
1810.000000	18.914750
1809.000000	18.913193
1808.000000	18.938693
1807.000000	18.923996
1806.000000	18.941126
1805.000000	18.877182
1804.000000	18.811193
1803.000000	18.916989
1802.000000	18.910662
1801.000000	18.868519
1800.000000	18.780243
1799.000000	18.729827
1798.000000	18.738587
1797.000000	18.760388
1796.000000	18.780243
1795.000000	18.735083
1794.000000	18.703744
1793.000000	18.679314
1792.000000	18.645736
1791.000000	18.628509
1790.000000	18.593763
1789.000000	18.563884
1788.000000	18.561353
1787.000000	18.568750
1786.000000	18.572546
1785.000000	18.541109
1784.000000	18.491861
1783.000000	18.461203
1782.000000	18.438429
1781.000000	18.423829
1780.000000	18.430350
1779.000000	18.427528
1778.000000	18.369813
1777.000000	18.358620
1776.000000	18.363389
1775.000000	18.345578
1774.000000	18.312292
1773.000000	18.256913
1772.000000	18.223334
1771.000000	18.181386
1770.000000	18.151799
1769.000000	18.106833
1768.000000	18.075494
1767.000000	18.039775
1766.000000	18.029750
1765.000000	18.010576
1764.000000	17.989748
1763.000000	18.010187
1762.000000	18.051746
1761.000000	18.057294
1760.000000	18.076662
1759.000000	18.086978
1758.000000	18.128927
1757.000000	18.181386
1756.000000	18.145570
1755.000000	18.202409
1754.000000	18.248932
1753.000000	18.208735
1752.000000	18.157736
1751.000000	18.169902
1750.000000	18.168734
1749.000000	18.160266
1748.000000	18.142455
1747.000000	18.104497
1746.000000	18.100702
1745.000000	18.077635
1744.000000	18.041916
1743.000000	17.993933
1742.000000	17.951985
1741.000000	17.909939
1740.000000	17.840058
1739.000000	17.771637
1738.000000	17.707985
1737.000000	17.682874
1736.000000	17.681804
1735.000000	17.672460
1734.000000	17.616983
1733.000000	17.593430
1732.000000	17.619027
1731.000000	17.656888
1730.000000	17.705649
1729.000000	17.733290
1728.000000	17.788864
1727.000000	17.822053
1726.000000	17.824097
1725.000000	17.836165
1724.000000	17.847455
1723.000000	17.890863
1722.000000	17.916460
1721.000000	17.921424
1720.000000	17.934563
1719.000000	17.907798
1718.000000	17.921229
1717.000000	17.984200
1716.000000	18.011063
1715.000000	18.020114
1714.000000	18.031015
1713.000000	18.029847
1712.000000	18.049215
1711.000000	18.070335
1710.000000	18.071601
1709.000000	18.033740
1708.000000	18.012717
1707.000000	17.997826
1706.000000	17.985855
1705.000000	18.001914
1704.000000	18.009895
1703.000000	17.993252
1702.000000	17.971937
1701.000000	17.975246
1700.000000	17.957922
1699.000000	17.918796
1698.000000	17.899525
1697.000000	17.885121
1696.000000	17.886094
1695.000000	17.897287
1694.000000	17.913833
1693.000000	17.955294
1692.000000	18.019530
1691.000000	18.070822
1690.000000	18.116177
1689.000000	18.153453
1688.000000	18.213018
1687.000000	18.189172
1686.000000	18.203188
1685.000000	18.213115
1684.000000	18.220901
1683.000000	18.281828
1682.000000	18.389181
1681.000000	18.525147
1680.000000	18.629483
1679.000000	18.736154
1678.000000	18.885844
1677.000000	19.040400
1676.000000	19.168872
1675.000000	19.280702
1674.000000	19.365961
1673.000000	19.452388
1672.000000	19.504945
1671.000000	19.560908
1670.000000	19.604511
1669.000000	19.616872
1668.000000	19.663783
1667.000000	19.687239
1666.000000	19.736974
1665.000000	19.761792
1664.000000	19.745441
1663.000000	19.757510
1662.000000	19.788752
1661.000000	19.791088
1660.000000	19.844716
1659.000000	19.849095
1658.000000	19.850847
1657.000000	19.876736
1656.000000	19.832939
1655.000000	19.841698
1654.000000	19.832258
1653.000000	19.827975
1652.000000	19.816296
1651.000000	19.803838
1650.000000	19.773374
1649.000000	19.757218
1648.000000	19.739018
1647.000000	19.741938
1646.000000	19.711766
1645.000000	19.677020
1644.000000	19.634293
1643.000000	19.601786
1642.000000	19.594876
1641.000000	19.537063
1640.000000	19.519155
1639.000000	19.527233
1638.000000	19.473216
1637.000000	19.446159
1636.000000	19.394381
1635.000000	19.375110
1634.000000	19.327225
1633.000000	19.312917
1632.000000	19.256565
1631.000000	19.206246
1630.000000	19.194080
1629.000000	19.166342
1628.000000	19.126243
1627.000000	19.071642
1626.000000	19.029013
1625.000000	18.985410
1624.000000	18.972173
1623.000000	18.900151
1622.000000	18.830270
1621.000000	18.811193
1620.000000	18.771386
1619.000000	18.719121
1618.000000	18.676297
1617.000000	18.637074
1616.000000	18.614592
1615.000000	18.554930
1614.000000	18.498772
1613.000000	18.475413
1612.000000	18.419450
1611.000000	18.384412
1610.000000	18.320273
1609.000000	18.313460
1608.000000	18.250586
1607.000000	18.182652
1606.000000	18.148295
1605.000000	18.080944
1604.000000	18.092137
1603.000000	17.984979
1602.000000	17.966292
1601.000000	17.918018
1600.000000	17.833829
1599.000000	17.833051
1598.000000	17.788669
1597.000000	17.733193
1596.000000	17.704481
1595.000000	17.654357
1594.000000	17.619514
1593.000000	17.580777
1592.000000	17.553331
1591.000000	17.521602
1590.000000	17.534352
1589.000000	17.492112
1588.000000	17.448801
1587.000000	17.421160
1586.000000	17.429044
1585.000000	17.415612
1584.000000	17.393227
1583.000000	17.338724
1582.000000	17.375027
1581.000000	17.344661
1580.000000	17.347483
1579.000000	17.351376
1578.000000	17.349040
1577.000000	17.332203
1576.000000	17.305535
1575.000000	17.288600
1574.000000	17.283539
1573.000000	17.299403
1572.000000	17.288211
1571.000000	17.272346
1570.000000	17.295218
1569.000000	17.299014
1568.000000	17.306703
1567.000000	17.265923
1566.000000	17.281008
1565.000000	17.290741
1564.000000	17.300863
1563.000000	17.305730
1562.000000	17.243343
1561.000000	17.260180
1560.000000	17.284220
1559.000000	17.311277
1558.000000	17.270205
1557.000000	17.271568
1556.000000	17.279451
1555.000000	17.243537
1554.000000	17.221638
1553.000000	17.215215
1552.000000	17.219497
1551.000000	17.214144
1550.000000	17.205579
1549.000000	17.194776
1548.000000	17.186017
1547.000000	17.157889
1546.000000	17.169860
1545.000000	17.163047
1544.000000	17.146502
1543.000000	17.135212
1542.000000	17.125576
1541.000000	17.128691
1540.000000	17.119055
1539.000000	17.092874
1538.000000	17.104359
1537.000000	17.123143
1536.000000	17.125771
1535.000000	17.122656
1534.000000	17.099200
1533.000000	17.066109
1532.000000	17.075647
1531.000000	17.080513
1530.000000	17.089857
1529.000000	17.079248
1528.000000	17.049661
1527.000000	17.031071
1526.000000	17.010145
1525.000000	16.997006
1524.000000	16.996520
1523.000000	17.012481
1522.000000	17.003138
1521.000000	16.993892
1520.000000	16.972285
1519.000000	16.946201
1518.000000	16.933841
1517.000000	16.918755
1516.000000	16.901625
1515.000000	16.895007
1514.000000	16.865030
1513.000000	16.839919
1512.000000	16.817826
1511.000000	16.801183
1510.000000	16.787460
1509.000000	16.774418
1508.000000	16.733930
1507.000000	16.707262
1506.000000	16.705510
