PE UV       SUBTECH     SPECTRUM    ASCII       PEDS        4.00        
   -1
CICIMAUCR0001-1.Sample.ASC
24/04/11
15:31:38.00
24/04/11
15:31:38.00
Vinicio Soto Monge
C. kalinini
250,000000
1
Lambda 1050
1050L1511233
PerkinElmer UV WinLab 6.3.2.0749 / 2.02.05 Lambda 900 UV/VIS/NIR, Aug  7 2015 09:38:08

0
0
3350/2 860,8/2
0
0
UV/VIS
1
1
1
DoubleDePol,CommonBeamDepol,RBeamAtt,SBeamAtt,60mm sphere, WB InGaAs Detector
0
0
0
0
Program
Program
3350/2 860,8/2
3350/0,2 860,8/0,2
3350/0,2 860,8/0,2
0
15.00
 
 
 
0
 
860,8
319,2
860,8
Front
100
on
S:100 R:100
0
0
0
0
 
0
 
 
 
0
 
 
0
0
0
0
0
 
 
 
 
0
0


0
0
#HDR
-1
-1
#GR
nm
%R
1.0
0.0
2400,000000
-1,000000
2151
8
18,022800
1,427300
#DATA
2382.000000	8.505593
2381.000000	6.199105
2380.000000	6.446822
2379.000000	6.236026
2378.000000	7.018881
2377.000000	7.650857
2376.000000	6.841911
2375.000000	7.114894
2374.000000	7.697987
2373.000000	7.715829
2372.000000	7.315893
2371.000000	7.417269
2370.000000	7.597849
2369.000000	7.185847
2368.000000	7.532980
2367.000000	7.221324
2366.000000	7.571551
2365.000000	7.111078
2364.000000	7.559382
2363.000000	7.661067
2362.000000	7.206885
2361.000000	6.798184
2360.000000	7.653848
2359.000000	6.606157
2358.000000	7.471928
2357.000000	7.586092
2356.000000	7.273507
2355.000000	6.872437
2354.000000	7.393962
2353.000000	7.394684
2352.000000	6.810972
2351.000000	6.784571
2350.000000	6.797462
2349.000000	6.571918
2348.000000	6.889763
2347.000000	7.470072
2346.000000	6.627917
2345.000000	6.955456
2344.000000	7.346626
2343.000000	6.515816
2342.000000	6.790862
2341.000000	7.502454
2340.000000	7.099115
2339.000000	7.126238
2338.000000	6.260570
2337.000000	6.426609
2336.000000	6.609045
2335.000000	6.653081
2334.000000	6.823038
2333.000000	6.343074
2332.000000	6.334411
2331.000000	6.528191
2330.000000	6.540051
2329.000000	6.497459
2328.000000	6.794987
2327.000000	6.414336
2326.000000	6.232107
2325.000000	6.565833
2324.000000	6.696395
2323.000000	6.982476
2322.000000	6.633074
2321.000000	6.094429
2320.000000	6.386388
2319.000000	6.643593
2318.000000	6.540567
2317.000000	6.462085
2316.000000	6.470851
2315.000000	6.436097
2314.000000	5.886933
2313.000000	5.725742
2312.000000	6.330802
2311.000000	6.342146
2310.000000	6.419905
2309.000000	6.253661
2308.000000	6.489414
2307.000000	6.818810
2306.000000	6.631836
2305.000000	6.442903
2304.000000	6.375869
2303.000000	5.959639
2302.000000	5.720998
2301.000000	6.010379
2300.000000	6.399383
2299.000000	6.157338
2298.000000	5.879198
2297.000000	6.037399
2296.000000	6.298831
2295.000000	6.214781
2294.000000	6.198590
2293.000000	6.557583
2292.000000	6.601207
2291.000000	6.175386
2290.000000	6.060706
2289.000000	5.867648
2288.000000	5.821343
2287.000000	6.037192
2286.000000	6.269130
2285.000000	6.261086
2284.000000	6.145066
2283.000000	5.994290
2282.000000	5.891058
2281.000000	6.012751
2280.000000	5.904671
2279.000000	5.546503
2278.000000	5.644888
2277.000000	5.897658
2276.000000	5.787207
2275.000000	5.950460
2274.000000	6.049465
2273.000000	5.756371
2272.000000	6.083394
2271.000000	6.196733
2270.000000	5.768437
2269.000000	5.368811
2268.000000	5.436361
2267.000000	5.590230
2266.000000	5.773491
2265.000000	6.038224
2264.000000	5.902608
2263.000000	6.236541
2262.000000	6.003469
2261.000000	5.881570
2260.000000	5.949945
2259.000000	5.908796
2258.000000	6.097007
2257.000000	6.332348
2256.000000	6.387832
2255.000000	6.208181
2254.000000	6.122893
2253.000000	5.983771
2252.000000	5.978821
2251.000000	6.101854
2250.000000	6.302132
2249.000000	6.093810
2248.000000	6.306257
2247.000000	6.487249
2246.000000	6.370197
2245.000000	6.610591
2244.000000	6.528604
2243.000000	6.350087
2242.000000	6.382057
2241.000000	6.400930
2240.000000	6.652565
2239.000000	6.643077
2238.000000	6.716196
2237.000000	7.017540
2236.000000	6.808290
2235.000000	6.458063
2234.000000	6.484155
2233.000000	6.429084
2232.000000	6.489002
2231.000000	6.408355
2230.000000	6.258714
2229.000000	6.541392
2228.000000	6.847273
2227.000000	6.630908
2226.000000	6.540051
2225.000000	6.525819
2224.000000	6.348643
2223.000000	6.327914
2222.000000	6.239223
2221.000000	6.491683
2220.000000	6.483330
2219.000000	5.817424
2218.000000	6.232932
2217.000000	6.434343
2216.000000	6.273462
2215.000000	6.063800
2214.000000	6.209831
2213.000000	6.413614
2212.000000	6.118458
2211.000000	6.223960
2210.000000	5.911993
2209.000000	6.331730
2208.000000	6.265108
2207.000000	6.114333
2206.000000	6.091748
2205.000000	5.980574
2204.000000	6.113199
2203.000000	6.169817
2202.000000	6.148366
2201.000000	5.932619
2200.000000	5.888480
2199.000000	5.751318
2198.000000	5.873320
2197.000000	5.871979
2196.000000	5.741417
2195.000000	5.831965
2194.000000	5.976965
2193.000000	5.849600
2192.000000	5.971499
2191.000000	6.177345
2190.000000	6.250361
2189.000000	6.004500
2188.000000	6.064315
2187.000000	6.085972
2186.000000	6.078032
2185.000000	5.867544
2184.000000	5.946851
2183.000000	5.754721
2182.000000	5.724298
2181.000000	5.799789
2180.000000	5.698000
2179.000000	6.084322
2178.000000	5.975521
2177.000000	5.436361
2176.000000	5.913540
2175.000000	5.886727
2174.000000	5.753690
2173.000000	5.606318
2172.000000	6.068028
2171.000000	5.609721
2170.000000	5.581773
2169.000000	6.065243
2168.000000	6.080403
2167.000000	6.149810
2166.000000	5.828458
2165.000000	5.695628
2164.000000	6.272121
2163.000000	6.638746
2162.000000	5.820414
2161.000000	6.298935
2160.000000	6.268511
2159.000000	6.084941
2158.000000	5.826293
2157.000000	6.088757
2156.000000	6.607188
2155.000000	6.201477
2154.000000	6.503234
2153.000000	6.270471
2152.000000	6.358337
2151.000000	6.447235
2150.000000	6.822832
2149.000000	6.628536
2148.000000	6.175386
2147.000000	7.058276
2146.000000	6.593781
2145.000000	6.594091
2144.000000	6.505915
2143.000000	6.353387
2142.000000	6.369578
2141.000000	6.909151
2140.000000	6.819841
2139.000000	6.659990
2138.000000	6.486011
2137.000000	7.586917
2136.000000	6.791171
2135.000000	6.280578
2134.000000	6.738678
2133.000000	7.017127
2132.000000	6.364112
2131.000000	6.797256
2130.000000	6.483742
2129.000000	6.434550
2128.000000	6.371744
2127.000000	6.696395
2126.000000	6.412686
2125.000000	6.976288
2124.000000	6.427021
2123.000000	6.640808
2122.000000	6.216844
2121.000000	6.395257
2120.000000	6.514784
2119.000000	6.796740
2118.000000	6.910079
2117.000000	6.233654
2116.000000	6.533348
2115.000000	6.909254
2114.000000	6.717330
2113.000000	6.308629
2112.000000	6.468479
2111.000000	6.465798
2110.000000	6.622348
2109.000000	6.849233
2108.000000	6.489930
2107.000000	6.808703
2106.000000	6.718980
2105.000000	6.823244
2104.000000	6.483949
2103.000000	6.813447
2102.000000	6.808497
2101.000000	6.742494
2100.000000	6.833867
2099.000000	6.614098
2098.000000	6.620079
2097.000000	6.283981
2096.000000	6.371847
2095.000000	6.702480
2094.000000	6.765801
2093.000000	6.535410
2092.000000	6.329151
2091.000000	6.543145
2090.000000	6.526232
2089.000000	6.613376
2088.000000	6.522932
2087.000000	6.390101
2086.000000	6.493333
2085.000000	6.553664
2084.000000	6.808394
2083.000000	6.588522
2082.000000	6.371641
2081.000000	6.614923
2080.000000	6.513444
2079.000000	6.550880
2078.000000	6.458682
2077.000000	6.335958
2076.000000	6.159194
2075.000000	6.197662
2074.000000	6.297078
2073.000000	6.213956
2072.000000	6.232829
2071.000000	6.175695
2070.000000	6.051115
2069.000000	6.144241
2068.000000	6.324098
2067.000000	6.223960
2066.000000	5.975418
2065.000000	5.864863
2064.000000	5.705631
2063.000000	5.809070
2062.000000	6.032758
2061.000000	5.910653
2060.000000	5.765550
2059.000000	5.797417
2058.000000	5.983359
2057.000000	5.975108
2056.000000	5.864863
2055.000000	5.801026
2054.000000	5.735951
2053.000000	5.704394
2052.000000	5.779266
2051.000000	5.963661
2050.000000	5.853622
2049.000000	5.764621
2048.000000	5.744924
2047.000000	5.764003
2046.000000	5.905599
2045.000000	5.919625
2044.000000	5.778750
2043.000000	5.913437
2042.000000	6.038533
2041.000000	5.972530
2040.000000	6.016257
2039.000000	6.043174
2038.000000	6.067512
2037.000000	6.050393
2036.000000	6.132587
2035.000000	6.200962
2034.000000	6.125574
2033.000000	6.287075
2032.000000	6.251908
2031.000000	6.158885
2030.000000	6.346993
2029.000000	6.285115
2028.000000	6.212100
2027.000000	6.256858
2026.000000	6.378757
2025.000000	6.268408
2024.000000	6.142797
2023.000000	6.196424
2022.000000	6.280474
2021.000000	6.252733
2020.000000	6.375353
2019.000000	6.373703
2018.000000	6.344208
2017.000000	6.411655
2016.000000	6.401033
2015.000000	6.355862
2014.000000	6.346271
2013.000000	6.461673
2012.000000	6.404023
2011.000000	6.337402
2010.000000	6.390410
2009.000000	6.365453
2008.000000	6.371331
2007.000000	6.331523
2006.000000	6.274493
2005.000000	6.282124
2004.000000	6.264902
2003.000000	6.161566
2002.000000	6.224269
2001.000000	6.238604
2000.000000	6.061428
1999.000000	6.029458
1998.000000	6.054931
1997.000000	6.023579
1996.000000	5.994497
1995.000000	6.069575
1994.000000	6.050290
1993.000000	5.971911
1992.000000	6.016876
1991.000000	5.949120
1990.000000	5.871670
1989.000000	5.873217
1988.000000	5.892296
1987.000000	5.815774
1986.000000	5.697794
1985.000000	5.655820
1984.000000	5.710994
1983.000000	5.762043
1982.000000	5.665617
1981.000000	5.570326
1980.000000	5.566613
1979.000000	5.568263
1978.000000	5.519070
1977.000000	5.473797
1976.000000	5.397893
1975.000000	5.447911
1974.000000	5.494526
1973.000000	5.460699
1972.000000	5.441620
1971.000000	5.412641
1970.000000	5.332406
1969.000000	5.228039
1968.000000	5.279810
1967.000000	5.252481
1966.000000	5.200504
1965.000000	5.193594
1964.000000	5.131820
1963.000000	5.062001
1962.000000	5.077161
1961.000000	5.102737
1960.000000	5.075099
1959.000000	5.098303
1958.000000	5.083761
1957.000000	5.001877
1956.000000	4.968153
1955.000000	4.928345
1954.000000	4.955675
1953.000000	4.878431
1952.000000	4.899882
1951.000000	4.844914
1950.000000	4.853267
1949.000000	4.798403
1948.000000	4.780974
1947.000000	4.787161
1946.000000	4.820163
1945.000000	4.769939
1944.000000	4.757460
1943.000000	4.730853
1942.000000	4.783139
1941.000000	4.680835
1940.000000	4.780252
1939.000000	4.869871
1938.000000	4.822844
1937.000000	4.777570
1936.000000	4.755707
1935.000000	4.772208
1934.000000	4.715899
1933.000000	4.787471
1932.000000	4.731472
1931.000000	4.725078
1930.000000	4.836148
1929.000000	4.779839
1928.000000	4.827691
1927.000000	4.910401
1926.000000	4.986407
1925.000000	4.898438
1924.000000	4.976816
1923.000000	5.033847
1922.000000	4.926695
1921.000000	4.980426
1920.000000	5.232268
1919.000000	5.369636
1918.000000	5.213704
1917.000000	5.170493
1916.000000	5.255162
1915.000000	5.448324
1914.000000	5.480706
1913.000000	5.612093
1912.000000	5.707900
1911.000000	5.819899
1910.000000	5.834543
1909.000000	5.858469
1908.000000	5.806595
1907.000000	5.992744
1906.000000	6.289344
1905.000000	6.468376
1904.000000	6.596050
1903.000000	6.578931
1902.000000	6.752291
1901.000000	6.596050
1900.000000	6.757654
1899.000000	7.181928
1898.000000	7.304755
1897.000000	7.435833
1896.000000	7.542262
1895.000000	7.525246
1894.000000	7.767187
1893.000000	7.985615
1892.000000	8.168051
1891.000000	8.151344
1890.000000	8.311195
1889.000000	8.713811
1888.000000	8.778783
1887.000000	8.778061
1886.000000	9.040525
1885.000000	9.051354
1884.000000	9.208420
1883.000000	9.556585
1882.000000	9.455827
1881.000000	9.661880
1880.000000	9.755005
1879.000000	9.874532
1878.000000	9.654867
1877.000000	10.009632
1876.000000	10.281893
1875.000000	10.297466
1874.000000	10.075738
1873.000000	10.485986
1872.000000	10.618714
1871.000000	10.561889
1870.000000	11.025765
1869.000000	10.850445
1868.000000	10.614073
1867.000000	10.939859
1866.000000	11.055054
1865.000000	10.572718
1864.000000	10.693998
1863.000000	10.913354
1862.000000	10.745872
1861.000000	10.641402
1860.000000	10.658522
1859.000000	11.193969
1858.000000	10.991423
1857.000000	10.648106
1856.000000	11.089912
1855.000000	10.871896
1854.000000	10.638618
1853.000000	11.136939
1852.000000	11.257703
1851.000000	10.867874
1850.000000	10.847764
1849.000000	10.705652
1848.000000	10.754741
1847.000000	11.319065
1846.000000	11.410335
1845.000000	11.112085
1844.000000	10.883344
1843.000000	10.603760
1842.000000	10.794549
1841.000000	11.126626
1840.000000	11.084240
1839.000000	10.958937
1838.000000	10.802697
1837.000000	10.871793
1836.000000	11.052785
1835.000000	11.042782
1834.000000	10.999261
1833.000000	10.808575
1832.000000	10.767839
1831.000000	10.853436
1830.000000	10.913457
1829.000000	10.821363
1828.000000	10.898194
1827.000000	10.764539
1826.000000	10.811669
1825.000000	10.956669
1824.000000	10.805378
1823.000000	10.643980
1822.000000	10.665947
1821.000000	10.695958
1820.000000	10.999983
1819.000000	10.998230
1818.000000	10.841370
1817.000000	10.765261
1816.000000	10.705136
1815.000000	10.887159
1814.000000	10.860346
1813.000000	10.688017
1812.000000	10.786815
1811.000000	10.756495
1810.000000	10.808472
1809.000000	10.770623
1808.000000	10.710086
1807.000000	10.685954
1806.000000	10.749276
1805.000000	10.750513
1804.000000	10.686057
1803.000000	10.599532
1802.000000	10.614692
1801.000000	10.678838
1800.000000	10.711118
1799.000000	10.717512
1798.000000	10.663678
1797.000000	10.635214
1796.000000	10.627377
1795.000000	10.651921
1794.000000	10.661822
1793.000000	10.626552
1792.000000	10.601182
1791.000000	10.583444
1790.000000	10.595922
1789.000000	10.587878
1788.000000	10.593550
1787.000000	10.641505
1786.000000	10.620467
1785.000000	10.628511
1784.000000	10.661925
1783.000000	10.637483
1782.000000	10.603038
1781.000000	10.603347
1780.000000	10.588806
1779.000000	10.535282
1778.000000	10.545698
1777.000000	10.564983
1776.000000	10.579215
1775.000000	10.606441
1774.000000	10.549514
1773.000000	10.519710
1772.000000	10.507334
1771.000000	10.497743
1770.000000	10.488049
1769.000000	10.487430
1768.000000	10.476189
1767.000000	10.499187
1766.000000	10.483821
1765.000000	10.533116
1764.000000	10.512387
1763.000000	10.439269
1762.000000	10.438753
1761.000000	10.508881
1760.000000	10.493308
1759.000000	10.446178
1758.000000	10.419055
1757.000000	10.398429
1756.000000	10.402864
1755.000000	10.401008
1754.000000	10.449272
1753.000000	10.447107
1752.000000	10.433493
1751.000000	10.444838
1750.000000	10.438134
1749.000000	10.428337
1748.000000	10.415240
1747.000000	10.376669
1746.000000	10.362231
1745.000000	10.367800
1744.000000	10.334283
1743.000000	10.299322
1742.000000	10.268899
1741.000000	10.277252
1740.000000	10.262917
1739.000000	10.234454
1738.000000	10.234763
1737.000000	10.220119
1736.000000	10.199080
1735.000000	10.188767
1734.000000	10.181136
1733.000000	10.172886
1732.000000	10.151022
1731.000000	10.151641
1730.000000	10.160613
1729.000000	10.121733
1728.000000	10.082441
1727.000000	10.066765
1726.000000	10.077388
1725.000000	10.099354
1724.000000	10.101314
1723.000000	10.092445
1722.000000	10.077697
1721.000000	10.119052
1720.000000	10.209806
1719.000000	10.232391
1718.000000	10.313657
1717.000000	10.395542
1716.000000	10.462679
1715.000000	10.511150
1714.000000	10.521772
1713.000000	10.573956
1712.000000	10.617992
1711.000000	10.670691
1710.000000	10.705961
1709.000000	10.750101
1708.000000	10.828273
1707.000000	10.841783
1706.000000	10.834667
1705.000000	10.859005
1704.000000	10.886644
1703.000000	10.877981
1702.000000	10.856014
1701.000000	10.869731
1700.000000	10.869834
1699.000000	10.898091
1698.000000	10.929442
1697.000000	10.908713
1696.000000	10.907785
1695.000000	10.899329
1694.000000	10.891182
1693.000000	10.843123
1692.000000	10.812906
1691.000000	10.767323
1690.000000	10.816516
1689.000000	10.805894
1688.000000	10.795477
1687.000000	10.780008
1686.000000	10.766911
1685.000000	10.850445
1684.000000	10.875300
1683.000000	10.975129
1682.000000	11.019268
1681.000000	11.057839
1680.000000	11.091046
1679.000000	11.139311
1678.000000	11.209851
1677.000000	11.286270
1676.000000	11.311124
1675.000000	11.344744
1674.000000	11.361864
1673.000000	11.436323
1672.000000	11.486857
1671.000000	11.512020
1670.000000	11.575548
1669.000000	11.647532
1668.000000	11.696622
1667.000000	11.725085
1666.000000	11.802432
1665.000000	11.814292
1664.000000	11.843684
1663.000000	11.824296
1662.000000	11.864826
1661.000000	11.941554
1660.000000	11.969605
1659.000000	11.998172
1658.000000	12.008382
1657.000000	12.068919
1656.000000	12.059534
1655.000000	12.064278
1654.000000	12.067784
1653.000000	12.097795
1652.000000	12.098001
1651.000000	12.093567
1650.000000	12.100476
1649.000000	12.158022
1648.000000	12.134509
1647.000000	12.056853
1646.000000	12.042930
1645.000000	12.057987
1644.000000	12.097486
1643.000000	12.038908
1642.000000	12.067681
1641.000000	12.041383
1640.000000	12.046437
1639.000000	12.046540
1638.000000	12.021067
1637.000000	12.033648
1636.000000	12.012919
1635.000000	12.006113
1634.000000	12.011063
1633.000000	12.008382
1632.000000	12.034680
1631.000000	12.033545
1630.000000	12.013538
1629.000000	12.001060
1628.000000	11.977752
1627.000000	11.942998
1626.000000	11.976205
1625.000000	11.929385
1624.000000	11.905356
1623.000000	11.895868
1622.000000	11.910409
1621.000000	11.857091
1620.000000	11.868435
1619.000000	11.896486
1618.000000	11.879676
1617.000000	11.903912
1616.000000	11.865651
1615.000000	11.857710
1614.000000	11.870910
1613.000000	11.829762
1612.000000	11.811714
1611.000000	11.825843
1610.000000	11.787891
1609.000000	11.790057
1608.000000	11.758293
1607.000000	11.756437
1606.000000	11.721785
1605.000000	11.717970
1604.000000	11.716216
1603.000000	11.741896
1602.000000	11.651142
1601.000000	11.653823
1600.000000	11.665992
1599.000000	11.606384
1598.000000	11.582251
1597.000000	11.580395
1596.000000	11.564719
1595.000000	11.484897
1594.000000	11.483144
1593.000000	11.455712
1592.000000	11.465612
1591.000000	11.457774
1590.000000	11.447564
1589.000000	11.429001
1588.000000	11.425907
1587.000000	11.422091
1586.000000	11.409716
1585.000000	11.407447
1584.000000	11.384449
1583.000000	11.364133
1582.000000	11.319478
1581.000000	11.306690
1580.000000	11.301636
1579.000000	11.307412
1578.000000	11.330203
1577.000000	11.358357
1576.000000	11.328450
1575.000000	11.354645
1574.000000	11.335772
1573.000000	11.335050
1572.000000	11.338969
1571.000000	11.296480
1570.000000	11.310093
1569.000000	11.309990
1568.000000	11.310402
1567.000000	11.260385
1566.000000	11.281320
1565.000000	11.322778
1564.000000	11.360317
1563.000000	11.344022
1562.000000	11.347838
1561.000000	11.345466
1560.000000	11.349901
1559.000000	11.365680
1558.000000	11.302461
1557.000000	11.290808
1556.000000	11.292870
1555.000000	11.312156
1554.000000	11.275441
1553.000000	11.239862
1552.000000	11.219442
1551.000000	11.214801
1550.000000	11.210367
1549.000000	11.204076
1548.000000	11.159524
1547.000000	11.151480
1546.000000	11.116107
1545.000000	11.153130
1544.000000	11.094243
1543.000000	11.094449
1542.000000	11.084962
1541.000000	11.068358
1540.000000	11.045463
1539.000000	11.028859
1538.000000	11.049485
1537.000000	11.053816
1536.000000	11.006790
1535.000000	11.025043
1534.000000	11.025559
1533.000000	10.983482
1532.000000	10.965744
1531.000000	10.914282
1530.000000	10.878084
1529.000000	10.898297
1528.000000	10.906032
1527.000000	10.913045
1526.000000	10.883550
1525.000000	10.867256
1524.000000	10.848073
1523.000000	10.814556
1522.000000	10.787846
1521.000000	10.805069
1520.000000	10.791971
1519.000000	10.778874
1518.000000	10.731434
1517.000000	10.716996
1516.000000	10.698948
1515.000000	10.666566
1514.000000	10.624386
1513.000000	10.588909
1512.000000	10.581072
1511.000000	10.566530
1510.000000	10.538376
1509.000000	10.526207
1508.000000	10.519194
1507.000000	10.475880
1506.000000	10.437206
1505.000000	10.437722
1504.000000	10.441434
1503.000000	10.441950
1502.000000	10.417405
1501.000000	10.398636
1500.000000	10.377700
1499.000000	10.364912
1498.000000	10.371925
1497.000000	10.371616
1496.000000	10.348515
1495.000000	10.354496
1494.000000	10.338305
1493.000000	10.333561
1492.000000	10.350887
1491.000000	10.377804
1490.000000	10.374916
1489.000000	10.369553
1488.000000	10.357796
1487.000000	10.349649
1486.000000	10.381516
1485.000000	10.391623
1484.000000	10.400595
1483.000000	10.380279
