PE UV       SUBTECH     SPECTRUM    ASCII       PEDS        4.00        
   -1
CICIMAUCR0020-6.Sample.ASC
24/04/25
16:11:31.00
24/04/25
16:11:31.00
Vinicio Soto Monge
C. resplendens
250,000000
1
Lambda 1050
1050L1511233
PerkinElmer UV WinLab 6.3.2.0749 / 2.02.05 Lambda 900 UV/VIS/NIR, Aug  7 2015 09:38:08

0
0
3350/servo 860,8/2
0
0
UV/VIS
1
1
1
DoubleDePol,CommonBeamDepol,RBeamAtt,SBeamAtt,60mm sphere, WB InGaAs Detector
0
0
0
0
Program
Program
3350/servo 860,8/2
3350/0,2 860,8/0,2
3350/0,2 860,8/0,2
0
15.00
 
 
 
0
 
860,8
319,2
860,8
Front
100
on
S:100 R:100
0
0
0
0
 
0
 
 
 
0
 
 
0
0
0
0
0
 
 
 
 
0
0


0
0
#HDR
-1
-1
#GR
nm
%R
1.0
0.0
2500,000000
-1,000000
2251
8
83,086600
5,660700
#DATA
2482.000000	8.986007
2481.000000	9.004106
2480.000000	8.953210
2479.000000	8.915312
2478.000000	8.978111
2477.000000	8.921628
2476.000000	8.914097
2475.000000	8.933532
2474.000000	8.898914
2473.000000	8.881422
2472.000000	8.895391
2471.000000	8.831134
2470.000000	8.897821
2469.000000	8.899885
2468.000000	8.908024
2467.000000	8.878264
2466.000000	8.890289
2465.000000	8.901100
2464.000000	8.939727
2463.000000	8.911668
2462.000000	8.976168
2461.000000	8.991351
2460.000000	9.040182
2459.000000	9.105167
2458.000000	9.142215
2457.000000	9.199063
2456.000000	9.222871
2455.000000	9.265992
2454.000000	9.336079
2453.000000	9.399850
2452.000000	9.445523
2451.000000	9.508686
2450.000000	9.599059
2449.000000	9.644610
2448.000000	9.723200
2447.000000	9.788671
2446.000000	9.854750
2445.000000	9.905281
2444.000000	9.953140
2443.000000	10.019219
2442.000000	10.092343
2441.000000	10.131456
2440.000000	10.206402
2439.000000	10.248916
2438.000000	10.290458
2437.000000	10.359938
2436.000000	10.402210
2435.000000	10.449218
2434.000000	10.498899
2433.000000	10.535582
2432.000000	10.557325
2431.000000	10.601783
2430.000000	10.626076
2429.000000	10.664703
2428.000000	10.714505
2427.000000	10.734426
2426.000000	10.759449
2425.000000	10.790909
2424.000000	10.799291
2423.000000	10.812166
2422.000000	10.845206
2421.000000	10.861968
2420.000000	10.875330
2419.000000	10.914321
2418.000000	10.926225
2417.000000	10.912499
2416.000000	10.959265
2415.000000	10.990118
2414.000000	11.007245
2413.000000	11.042592
2412.000000	11.061177
2411.000000	11.095795
2410.000000	11.166247
2409.000000	11.266095
2408.000000	11.340433
2407.000000	11.383555
2406.000000	11.417930
2405.000000	11.452427
2404.000000	11.467854
2403.000000	11.497128
2402.000000	11.568794
2401.000000	11.625399
2400.000000	11.651272
2399.000000	11.680181
2398.000000	11.724274
2397.000000	11.789746
2396.000000	11.832260
2395.000000	11.856068
2394.000000	11.890929
2393.000000	11.934172
2392.000000	11.981180
2391.000000	11.993084
2390.000000	12.014098
2389.000000	12.038757
2388.000000	12.066208
2387.000000	12.095968
2386.000000	12.110302
2385.000000	12.107022
2384.000000	12.119412
2383.000000	12.141155
2382.000000	12.144434
2381.000000	12.153423
2380.000000	12.151844
2379.000000	12.131316
2378.000000	12.126092
2377.000000	12.130587
2376.000000	12.115282
2375.000000	12.097304
2374.000000	12.104471
2373.000000	12.086494
2372.000000	12.041307
2371.000000	11.992841
2370.000000	11.961138
2369.000000	11.946076
2368.000000	11.897488
2367.000000	11.847808
2366.000000	11.812460
2365.000000	11.744924
2364.000000	11.654308
2363.000000	11.599404
2362.000000	11.553246
2361.000000	11.479879
2360.000000	11.433478
2359.000000	11.390357
2358.000000	11.321970
2357.000000	11.279335
2356.000000	11.263058
2355.000000	11.246781
2354.000000	11.249939
2353.000000	11.250547
2352.000000	11.288445
2351.000000	11.322456
2350.000000	11.351608
2349.000000	11.442588
2348.000000	11.501258
2347.000000	11.553854
2346.000000	11.641068
2345.000000	11.717108
2344.000000	11.770311
2343.000000	11.848294
2342.000000	11.914494
2341.000000	11.971949
2340.000000	12.007296
2339.000000	12.027824
2338.000000	12.066330
2337.000000	12.083578
2336.000000	12.062443
2335.000000	12.053333
2334.000000	12.057098
2333.000000	12.050053
2332.000000	11.989805
2331.000000	11.920689
2330.000000	11.884734
2329.000000	11.857039
2328.000000	11.799585
2327.000000	11.727432
2326.000000	11.632201
2325.000000	11.535512
2324.000000	11.478179
2323.000000	11.397645
2322.000000	11.274597
2321.000000	11.159445
2320.000000	11.050245
2319.000000	10.927440
2318.000000	10.827836
2317.000000	10.703330
2316.000000	10.584048
2315.000000	10.465009
2314.000000	10.372450
2313.000000	10.281470
2312.000000	10.195834
2311.000000	10.132185
2310.000000	10.078253
2309.000000	10.028936
2308.000000	10.020312
2307.000000	10.024442
2306.000000	10.049586
2305.000000	10.088213
2304.000000	10.161094
2303.000000	10.215755
2302.000000	10.319732
2301.000000	10.433063
2300.000000	10.545786
2299.000000	10.642717
2298.000000	10.796011
2297.000000	10.898287
2296.000000	10.991454
2295.000000	11.046236
2294.000000	11.172564
2293.000000	11.249089
2292.000000	11.328165
2291.000000	11.365942
2290.000000	11.359382
2289.000000	11.376874
2288.000000	11.367521
2287.000000	11.361204
2286.000000	11.324642
2285.000000	11.287837
2284.000000	11.275933
2283.000000	11.231840
2282.000000	11.174264
2281.000000	11.104541
2280.000000	11.087414
2279.000000	11.028380
2278.000000	10.969590
2277.000000	10.943474
2276.000000	10.914807
2275.000000	10.892214
2274.000000	10.881039
2273.000000	10.869985
2272.000000	10.917965
2271.000000	10.943595
2270.000000	10.975542
2269.000000	11.047937
2268.000000	11.140496
2267.000000	11.237671
2266.000000	11.364241
2265.000000	11.528831
2264.000000	11.708848
2263.000000	11.953728
2262.000000	12.176016
2261.000000	12.429035
2260.000000	12.681569
2259.000000	12.977466
2258.000000	13.247248
2257.000000	13.560394
2256.000000	13.863337
2255.000000	14.186322
2254.000000	14.456954
2253.000000	14.697583
2252.000000	14.991781
2251.000000	15.223786
2250.000000	15.521141
2249.000000	15.743550
2248.000000	15.979685
2247.000000	16.171362
2246.000000	16.373243
2245.000000	16.570630
2244.000000	16.733276
2243.000000	16.867499
2242.000000	17.043386
2241.000000	17.179188
2240.000000	17.290453
2239.000000	17.435608
2238.000000	17.544565
2237.000000	17.678667
2236.000000	17.772198
2235.000000	17.860991
2234.000000	17.958773
2233.000000	18.005174
2232.000000	18.067852
2231.000000	18.155674
2230.000000	18.176202
2229.000000	18.218109
2228.000000	18.242524
2227.000000	18.256736
2226.000000	18.275928
2225.000000	18.327552
2224.000000	18.317713
2223.000000	18.343950
2222.000000	18.302044
2221.000000	18.314312
2220.000000	18.291962
2219.000000	18.252728
2218.000000	18.244346
2217.000000	18.227341
2216.000000	18.208999
2215.000000	18.202318
2214.000000	18.181061
2213.000000	18.137818
2212.000000	18.113039
2211.000000	18.073197
2210.000000	18.068460
2209.000000	18.033720
2208.000000	18.029711
2207.000000	18.034570
2206.000000	18.015621
2205.000000	17.994971
2204.000000	17.987926
2203.000000	17.973350
2202.000000	17.962782
2201.000000	17.941160
2200.000000	17.935573
2199.000000	17.914073
2198.000000	17.947841
2197.000000	17.935937
2196.000000	17.926220
2195.000000	17.886500
2194.000000	17.860141
2193.000000	17.852853
2192.000000	17.863785
2191.000000	17.835604
2190.000000	17.812039
2189.000000	17.811310
2188.000000	17.783130
2187.000000	17.773534
2186.000000	17.758593
2185.000000	17.696401
2184.000000	17.692757
2183.000000	17.676966
2182.000000	17.635181
2181.000000	17.596190
2180.000000	17.577119
2179.000000	17.570681
2178.000000	17.563879
2177.000000	17.563272
2176.000000	17.526345
2175.000000	17.532054
2174.000000	17.530475
2173.000000	17.500472
2172.000000	17.500108
2171.000000	17.493427
2170.000000	17.512012
2169.000000	17.519907
2168.000000	17.518693
2167.000000	17.523308
2166.000000	17.528896
2165.000000	17.548574
2164.000000	17.568373
2163.000000	17.591209
2162.000000	17.593031
2161.000000	17.619026
2160.000000	17.639554
2159.000000	17.668342
2158.000000	17.674172
2157.000000	17.716443
2156.000000	17.743288
2155.000000	17.792847
2154.000000	17.838884
2153.000000	17.878483
2152.000000	17.925734
2151.000000	17.954158
2150.000000	17.957680
2149.000000	17.994364
2148.000000	18.022059
2147.000000	18.074290
2146.000000	18.100406
2145.000000	18.140126
2144.000000	18.179360
2143.000000	18.202925
2142.000000	18.243010
2141.000000	18.288196
2140.000000	18.307024
2139.000000	18.337148
2138.000000	18.387558
2137.000000	18.398125
2136.000000	18.426671
2135.000000	18.430193
2134.000000	18.441247
2133.000000	18.462139
2132.000000	18.499430
2131.000000	18.520444
2130.000000	18.529555
2129.000000	18.523724
2128.000000	18.539151
2127.000000	18.550326
2126.000000	18.555670
2125.000000	18.557614
2124.000000	18.539758
2123.000000	18.540851
2122.000000	18.554213
2121.000000	18.519351
2120.000000	18.505504
2119.000000	18.530648
2118.000000	18.504411
2117.000000	18.457038
2116.000000	18.434445
2115.000000	18.413188
2114.000000	18.411487
2113.000000	18.393388
2112.000000	18.347837
2111.000000	18.323301
2110.000000	18.314919
2109.000000	18.301072
2108.000000	18.273985
2107.000000	18.230863
2106.000000	18.188714
2105.000000	18.178389
2104.000000	18.176567
2103.000000	18.155553
2102.000000	18.134053
2101.000000	18.112674
2100.000000	18.087652
2099.000000	18.066759
2098.000000	18.040886
2097.000000	18.023759
2096.000000	18.011005
2095.000000	17.991084
2094.000000	17.978087
2093.000000	17.968855
2092.000000	17.952093
2091.000000	17.929864
2090.000000	17.941889
2089.000000	17.955008
2088.000000	17.942375
2087.000000	17.918932
2086.000000	17.892452
2085.000000	17.875203
2084.000000	17.882005
2083.000000	17.877632
2082.000000	17.847508
2081.000000	17.829166
2080.000000	17.824915
2079.000000	17.804387
2078.000000	17.786774
2077.000000	17.765760
2076.000000	17.743288
2075.000000	17.733692
2074.000000	17.691907
2073.000000	17.688506
2072.000000	17.690328
2071.000000	17.668949
2070.000000	17.639675
2069.000000	17.634938
2068.000000	17.614896
2067.000000	17.619876
2066.000000	17.614167
2065.000000	17.590845
2064.000000	17.581370
2063.000000	17.580763
2062.000000	17.581370
2061.000000	17.595339
2060.000000	17.607000
2059.000000	17.608215
2058.000000	17.628743
2057.000000	17.689842
2056.000000	17.713285
2055.000000	17.763573
2054.000000	17.835240
2053.000000	17.916259
2052.000000	18.025703
2051.000000	18.114982
2050.000000	18.204019
2049.000000	18.327431
2048.000000	18.463111
2047.000000	18.591746
2046.000000	18.735201
2045.000000	18.887523
2044.000000	19.026847
2043.000000	19.185971
2042.000000	19.328454
2041.000000	19.461948
2040.000000	19.645851
2039.000000	19.800602
2038.000000	19.937619
2037.000000	20.061760
2036.000000	20.165859
2035.000000	20.317330
2034.000000	20.427138
2033.000000	20.559903
2032.000000	20.673233
2031.000000	20.797010
2030.000000	20.876572
2029.000000	20.964758
2028.000000	21.046992
2027.000000	21.149390
2026.000000	21.239034
2025.000000	21.322847
2024.000000	21.393056
2023.000000	21.467031
2022.000000	21.533231
2021.000000	21.607327
2020.000000	21.676078
2019.000000	21.714341
2018.000000	21.760620
2017.000000	21.819775
2016.000000	21.873708
2015.000000	21.907354
2014.000000	21.941244
2013.000000	21.974891
2012.000000	22.012425
2011.000000	22.044128
2010.000000	22.034411
2009.000000	22.035504
2008.000000	22.029430
2007.000000	22.023843
2006.000000	22.018377
2005.000000	22.008659
2004.000000	21.975012
2003.000000	21.985945
2002.000000	21.915250
2001.000000	21.857917
2000.000000	21.842004
1999.000000	21.813581
1998.000000	21.753697
1997.000000	21.727824
1996.000000	21.662838
1995.000000	21.590686
1994.000000	21.531045
1993.000000	21.465937
1992.000000	21.404474
1991.000000	21.299525
1990.000000	21.275839
1989.000000	21.164695
1988.000000	21.092786
1987.000000	21.016625
1986.000000	20.904631
1985.000000	20.842439
1984.000000	20.721335
1983.000000	20.621852
1982.000000	20.524555
1981.000000	20.437462
1980.000000	20.318423
1979.000000	20.231209
1978.000000	20.146181
1977.000000	20.074150
1976.000000	19.966286
1975.000000	19.897291
1974.000000	19.787362
1973.000000	19.703427
1972.000000	19.609532
1971.000000	19.504705
1970.000000	19.427329
1969.000000	19.334284
1968.000000	19.235530
1967.000000	19.154025
1966.000000	19.058550
1965.000000	19.000003
1964.000000	18.904042
1963.000000	18.824359
1962.000000	18.726334
1961.000000	18.679204
1960.000000	18.572554
1959.000000	18.478295
1958.000000	18.402984
1957.000000	18.316013
1956.000000	18.239973
1955.000000	18.166606
1954.000000	18.092875
1953.000000	18.000437
1952.000000	17.929621
1951.000000	17.860870
1950.000000	17.780700
1949.000000	17.722638
1948.000000	17.669314
1947.000000	17.602384
1946.000000	17.569952
1945.000000	17.530111
1944.000000	17.497314
1943.000000	17.442896
1942.000000	17.396738
1941.000000	17.376939
1940.000000	17.372444
1939.000000	17.383134
1938.000000	17.416294
1937.000000	17.420789
1936.000000	17.468283
1935.000000	17.479701
1934.000000	17.519178
1933.000000	17.578091
1932.000000	17.640769
1931.000000	17.710856
1930.000000	17.808152
1929.000000	17.904598
1928.000000	18.013313
1927.000000	18.149601
1926.000000	18.268761
1925.000000	18.420233
1924.000000	18.553727
1923.000000	18.684913
1922.000000	18.878777
1921.000000	19.106409
1920.000000	19.353841
1919.000000	19.539323
1918.000000	19.739382
1917.000000	19.923893
1916.000000	20.116299
1915.000000	20.332028
1914.000000	20.623552
1913.000000	20.935119
1912.000000	21.236726
1911.000000	21.488652
1910.000000	21.714584
1909.000000	21.916465
1908.000000	22.179566
1907.000000	22.488217
1906.000000	22.853352
1905.000000	23.209255
1904.000000	23.537099
1903.000000	23.856562
1902.000000	24.155374
1901.000000	24.465970
1900.000000	24.836692
1899.000000	25.273007
1898.000000	25.669724
1897.000000	26.017853
1896.000000	26.279011
1895.000000	26.544420
1894.000000	26.847848
1893.000000	27.209582
1892.000000	27.643711
1891.000000	28.041399
1890.000000	28.415158
1889.000000	28.771426
1888.000000	29.182475
1887.000000	29.563765
1886.000000	30.025468
1885.000000	30.554707
1884.000000	31.156827
1883.000000	31.746921
1882.000000	32.306284
1881.000000	32.889334
1880.000000	33.389785
1879.000000	33.892665
1878.000000	34.402590
1877.000000	34.856761
1876.000000	35.290526
1875.000000	35.699875
1874.000000	36.104123
1873.000000	36.480068
1872.000000	36.823703
1871.000000	37.203414
1870.000000	37.540611
1869.000000	37.845861
1868.000000	38.038875
1867.000000	38.176621
1866.000000	38.249988
1865.000000	38.333679
1864.000000	38.365990
1863.000000	38.396357
1862.000000	38.475312
1861.000000	38.549894
1860.000000	38.609049
1859.000000	38.685453
1858.000000	38.728453
1857.000000	38.704888
1856.000000	38.676585
1855.000000	38.692133
1854.000000	38.683995
1853.000000	38.613908
1852.000000	38.538597
1851.000000	38.444216
1850.000000	38.349956
1849.000000	38.332343
1848.000000	38.358095
1847.000000	38.370242
1846.000000	38.312665
1845.000000	38.163988
1844.000000	38.014460
1843.000000	37.968666
1842.000000	38.002799
1841.000000	38.019926
1840.000000	37.972553
1839.000000	37.898214
1838.000000	37.843796
1837.000000	37.817195
1836.000000	37.794359
1835.000000	37.720384
1834.000000	37.597944
1833.000000	37.466150
1832.000000	37.375049
1831.000000	37.312736
1830.000000	37.239126
1829.000000	37.142922
1828.000000	37.020604
1827.000000	36.951245
1826.000000	36.914926
1825.000000	36.823217
1824.000000	36.700169
1823.000000	36.646480
1822.000000	36.647573
1821.000000	36.668709
1820.000000	36.658263
1819.000000	36.609189
1818.000000	36.558901
1817.000000	36.537037
1816.000000	36.542989
1815.000000	36.523918
1814.000000	36.509464
1813.000000	36.498774
1812.000000	36.491243
1811.000000	36.459783
1810.000000	36.402936
1809.000000	36.340744
1808.000000	36.271749
1807.000000	36.234580
1806.000000	36.173846
1805.000000	36.104244
1804.000000	36.026747
1803.000000	35.955081
1802.000000	35.915360
1801.000000	35.864829
1800.000000	35.765590
1799.000000	35.691129
1798.000000	35.641449
1797.000000	35.569782
1796.000000	35.511720
1795.000000	35.464833
1794.000000	35.391952
1793.000000	35.312512
1792.000000	35.225054
1791.000000	35.157153
1790.000000	35.084636
1789.000000	35.002645
1788.000000	34.916524
1787.000000	34.822264
1786.000000	34.734442
1785.000000	34.631558
1784.000000	34.528796
1783.000000	34.439881
1782.000000	34.330195
1781.000000	34.196458
1780.000000	34.098797
1779.000000	33.990568
1778.000000	33.862905
1777.000000	33.721151
1776.000000	33.593002
1775.000000	33.434606
1774.000000	33.259570
1773.000000	33.091700
1772.000000	32.916178
1771.000000	32.727416
1770.000000	32.558575
1769.000000	32.401394
1768.000000	32.263406
1767.000000	32.105618
1766.000000	31.976133
1765.000000	31.898028
1764.000000	31.834257
1763.000000	31.821017
1762.000000	31.845068
1761.000000	31.877743
1760.000000	31.948802
1759.000000	32.015974
1758.000000	32.083025
1757.000000	32.163559
1756.000000	32.226358
1755.000000	32.254174
1754.000000	32.255510
1753.000000	32.247493
1752.000000	32.222592
1751.000000	32.170482
1750.000000	32.088248
1749.000000	32.010387
1748.000000	31.910418
1747.000000	31.792715
1746.000000	31.628246
1745.000000	31.424665
1744.000000	31.233959
1743.000000	30.997095
1742.000000	30.707636
1741.000000	30.409430
1740.000000	30.132239
1739.000000	29.841564
1738.000000	29.565102
1737.000000	29.348402
1736.000000	29.167535
1735.000000	29.081535
1734.000000	29.040721
1733.000000	29.067202
1732.000000	29.143484
1731.000000	29.259729
1730.000000	29.447641
1729.000000	29.583686
1728.000000	29.736615
1727.000000	29.882499
1726.000000	30.014171
1725.000000	30.120092
1724.000000	30.205606
1723.000000	30.263546
1722.000000	30.283467
1721.000000	30.311405
1720.000000	30.330718
1719.000000	30.387930
1718.000000	30.415746
1717.000000	30.502111
1716.000000	30.576449
1715.000000	30.669859
1714.000000	30.745534
1713.000000	30.841494
1712.000000	30.902957
1711.000000	30.943649
1710.000000	30.969886
1709.000000	30.984098
1708.000000	30.954946
1707.000000	30.932717
1706.000000	30.883765
1705.000000	30.816350
1704.000000	30.728042
1703.000000	30.646172
1702.000000	30.497130
1701.000000	30.324645
1700.000000	30.124951
1699.000000	29.944448
1698.000000	29.773056
1697.000000	29.622799
1696.000000	29.562065
1695.000000	29.611867
1694.000000	29.668228
1693.000000	29.835491
1692.000000	30.083773
1691.000000	30.315170
1690.000000	30.510006
1689.000000	30.660020
1688.000000	30.737517
1687.000000	30.783189
1686.000000	30.813799
1685.000000	30.883036
1684.000000	31.013372
1683.000000	31.333321
1682.000000	31.805712
1681.000000	32.404188
1680.000000	33.044206
1679.000000	33.753948
1678.000000	34.463203
1677.000000	35.076498
1676.000000	35.636711
1675.000000	36.120035
1674.000000	36.535579
1673.000000	36.928409
1672.000000	37.210823
1671.000000	37.474167
1670.000000	37.719656
1669.000000	37.923358
1668.000000	38.118680
1667.000000	38.282784
1666.000000	38.400244
1665.000000	38.518798
1664.000000	38.640631
1663.000000	38.736227
1662.000000	38.831822
1661.000000	38.885633
1660.000000	38.920009
1659.000000	38.953412
1658.000000	38.984630
1657.000000	39.001150
1656.000000	39.011110
1655.000000	39.028480
1654.000000	39.003458
1653.000000	38.994104
1652.000000	38.962523
1651.000000	38.947461
1650.000000	38.890613
1649.000000	38.829393
1648.000000	38.792588
1647.000000	38.746308
1646.000000	38.668811
1645.000000	38.625204
1644.000000	38.548800
1643.000000	38.467538
1642.000000	38.391620
1641.000000	38.314366
1640.000000	38.242699
1639.000000	38.161680
1638.000000	38.065477
1637.000000	37.968788
1636.000000	37.902223
1635.000000	37.802983
1634.000000	37.695483
1633.000000	37.610577
1632.000000	37.515953
1631.000000	37.399829
1630.000000	37.302532
1629.000000	37.181549
1628.000000	37.091906
1627.000000	36.987443
1626.000000	36.852005
1625.000000	36.729443
1624.000000	36.654133
1623.000000	36.570684
1622.000000	36.465492
1621.000000	36.350947
1620.000000	36.232758
1619.000000	36.151981
1618.000000	36.034643
1617.000000	35.944513
1616.000000	35.848917
1615.000000	35.748827
1614.000000	35.664042
1613.000000	35.580107
1612.000000	35.471393
1611.000000	35.382478
1610.000000	35.304616
1609.000000	35.223839
1608.000000	35.133102
1607.000000	35.035320
1606.000000	34.952721
1605.000000	34.864414
