PE UV       SUBTECH     SPECTRUM    ASCII       PEDS        4.00        
   -1
CICIMAUCR0253-2.Sample.ASC
24/06/26
17:02:27.00
24/06/26
17:02:27.00
Vinicio Soto Monge
C. resplendens. Sex M. Ventral
250,000000
1
Lambda 1050
1050L1511233
PerkinElmer UV WinLab 6.3.2.0749 / 2.02.05 Lambda 900 UV/VIS/NIR, Aug  7 2015 09:38:08

0
0
3350/servo 860,8/2
0
0
UV/VIS
1
1
1
DoubleDePol,CommonBeamDepol,RBeamAtt,SBeamAtt,60mm sphere, WB InGaAs Detector
0
0
0
0
Program
Program
3350/servo 860,8/2
3350/0,2 860,8/0,2
3350/0,2 860,8/0,2
0
15.00
 
 
 
0
 
860,8
319,2
860,8
Front
100
on
S:100 R:100
0
0
0
0
 
0
 
 
 
0
 
 
0
0
0
0
0
 
 
 
 
0
0


0
0
#HDR
-1
-1
#GR
nm
%R
1.0
0.0
2500,000000
-1,000000
2251
8
60,305500
4,564700
#DATA
2482.000000	6.091926
2481.000000	6.078527
2480.000000	6.105775
2479.000000	6.081793
2478.000000	6.027860
2477.000000	6.077176
2476.000000	6.055896
2475.000000	6.030337
2474.000000	6.068957
2473.000000	6.012434
2472.000000	6.003202
2471.000000	5.999599
2470.000000	6.076501
2469.000000	6.030787
2468.000000	6.058035
2467.000000	6.065354
2466.000000	6.028198
2465.000000	6.035404
2464.000000	6.031688
2463.000000	6.061188
2462.000000	6.044862
2461.000000	6.075487
2460.000000	6.043285
2459.000000	6.096430
2458.000000	6.095529
2457.000000	6.117823
2456.000000	6.135838
2455.000000	6.178736
2454.000000	6.148674
2453.000000	6.188420
2452.000000	6.193149
2451.000000	6.188757
2450.000000	6.227828
2449.000000	6.241339
2448.000000	6.282211
2447.000000	6.315539
2446.000000	6.342787
2445.000000	6.390527
2444.000000	6.388162
2443.000000	6.418788
2442.000000	6.452679
2441.000000	6.489723
2440.000000	6.481165
2439.000000	6.512129
2438.000000	6.551424
2437.000000	6.566399
2436.000000	6.574168
2435.000000	6.584752
2434.000000	6.621008
2433.000000	6.673139
2432.000000	6.688902
2431.000000	6.715587
2430.000000	6.719078
2429.000000	6.751054
2428.000000	6.763665
2427.000000	6.789224
2426.000000	6.807464
2425.000000	6.819512
2424.000000	6.841580
2423.000000	6.872544
2422.000000	6.877836
2421.000000	6.892023
2420.000000	6.917356
2419.000000	6.931318
2418.000000	6.939650
2417.000000	6.959016
2416.000000	6.983900
2415.000000	7.002591
2414.000000	7.001802
2413.000000	7.032315
2412.000000	7.049430
2411.000000	7.069809
2410.000000	7.070710
2409.000000	7.058550
2408.000000	7.074201
2407.000000	7.101449
2406.000000	7.136691
2405.000000	7.133651
2404.000000	7.146036
2403.000000	7.165290
2402.000000	7.167654
2401.000000	7.181728
2400.000000	7.203684
2399.000000	7.211679
2398.000000	7.232734
2397.000000	7.236224
2396.000000	7.257617
2395.000000	7.282838
2394.000000	7.306708
2393.000000	7.343302
2392.000000	7.374715
2391.000000	7.366271
2390.000000	7.377755
2389.000000	7.414799
2388.000000	7.420541
2387.000000	7.411309
2386.000000	7.418402
2385.000000	7.440471
2384.000000	7.466367
2383.000000	7.471096
2382.000000	7.477402
2381.000000	7.472673
2380.000000	7.478640
2379.000000	7.505212
2378.000000	7.504086
2377.000000	7.487760
2376.000000	7.496092
2375.000000	7.512531
2374.000000	7.505100
2373.000000	7.508815
2372.000000	7.509716
2371.000000	7.501159
2370.000000	7.507690
2369.000000	7.507239
2368.000000	7.495980
2367.000000	7.483482
2366.000000	7.488436
2365.000000	7.492602
2364.000000	7.491476
2363.000000	7.481793
2362.000000	7.453644
2361.000000	7.444186
2360.000000	7.438331
2359.000000	7.427973
2358.000000	7.424482
2357.000000	7.417727
2356.000000	7.401963
2355.000000	7.393856
2354.000000	7.397910
2353.000000	7.402076
2352.000000	7.395658
2351.000000	7.380458
2350.000000	7.383723
2349.000000	7.404553
2348.000000	7.417276
2347.000000	7.423807
2346.000000	7.442835
2345.000000	7.452969
2344.000000	7.455783
2343.000000	7.487873
2342.000000	7.506451
2341.000000	7.520976
2340.000000	7.537640
2339.000000	7.541243
2338.000000	7.539892
2337.000000	7.559483
2336.000000	7.584479
2335.000000	7.590559
2334.000000	7.585830
2333.000000	7.590221
2332.000000	7.599454
2331.000000	7.610713
2330.000000	7.592698
2329.000000	7.564099
2328.000000	7.572544
2327.000000	7.569617
2326.000000	7.555655
2325.000000	7.542031
2324.000000	7.532348
2323.000000	7.518499
2322.000000	7.506676
2321.000000	7.469407
2320.000000	7.442610
2319.000000	7.414912
2318.000000	7.377305
2317.000000	7.338798
2316.000000	7.302317
2315.000000	7.278447
2314.000000	7.257054
2313.000000	7.231833
2312.000000	7.190736
2311.000000	7.159660
2310.000000	7.130048
2309.000000	7.085798
2308.000000	7.061252
2307.000000	7.048642
2306.000000	7.046277
2305.000000	7.026686
2304.000000	7.016777
2303.000000	7.027699
2302.000000	7.045151
2301.000000	7.035468
2300.000000	7.064855
2299.000000	7.084672
2298.000000	7.108880
2297.000000	7.135114
2296.000000	7.159547
2295.000000	7.204135
2294.000000	7.217196
2293.000000	7.253001
2292.000000	7.282050
2291.000000	7.305132
2290.000000	7.298827
2289.000000	7.315941
2288.000000	7.352534
2287.000000	7.352084
2286.000000	7.359628
2285.000000	7.374378
2284.000000	7.383273
2283.000000	7.360078
2282.000000	7.360416
2281.000000	7.348031
2280.000000	7.332943
2279.000000	7.318869
2278.000000	7.299164
2277.000000	7.266962
2276.000000	7.265949
2275.000000	7.256266
2274.000000	7.241966
2273.000000	7.231383
2272.000000	7.202558
2271.000000	7.209652
2270.000000	7.221136
2269.000000	7.192650
2268.000000	7.228568
2267.000000	7.239827
2266.000000	7.257167
2265.000000	7.300516
2264.000000	7.355349
2263.000000	7.398360
2262.000000	7.454995
2261.000000	7.505888
2260.000000	7.589433
2259.000000	7.664083
2258.000000	7.757987
2257.000000	7.856170
2256.000000	7.909202
2255.000000	8.048594
2254.000000	8.156797
2253.000000	8.235275
2252.000000	8.329292
2251.000000	8.422858
2250.000000	8.522053
2249.000000	8.632734
2248.000000	8.726525
2247.000000	8.814799
2246.000000	8.886860
2245.000000	8.987857
2244.000000	9.022086
2243.000000	9.138734
2242.000000	9.164856
2241.000000	9.232637
2240.000000	9.270357
2239.000000	9.345682
2238.000000	9.400854
2237.000000	9.439361
2236.000000	9.480233
2235.000000	9.535292
2234.000000	9.530000
2233.000000	9.584270
2232.000000	9.576501
2231.000000	9.604199
2230.000000	9.616247
2229.000000	9.649575
2228.000000	9.639104
2227.000000	9.657457
2226.000000	9.653516
2225.000000	9.646647
2224.000000	9.640567
2223.000000	9.634262
2222.000000	9.616134
2221.000000	9.605550
2220.000000	9.593278
2219.000000	9.588999
2218.000000	9.565467
2217.000000	9.542723
2216.000000	9.523244
2215.000000	9.525946
2214.000000	9.504553
2213.000000	9.492055
2212.000000	9.433619
2211.000000	9.451972
2210.000000	9.433281
2209.000000	9.415041
2208.000000	9.410649
2207.000000	9.398489
2206.000000	9.386554
2205.000000	9.386554
2204.000000	9.381150
2203.000000	9.352438
2202.000000	9.372367
2201.000000	9.333973
2200.000000	9.318097
2199.000000	9.324402
2198.000000	9.316070
2197.000000	9.304923
2196.000000	9.303009
2195.000000	9.289723
2194.000000	9.291412
2193.000000	9.289385
2192.000000	9.276324
2191.000000	9.296028
2190.000000	9.269681
2189.000000	9.278013
2188.000000	9.257183
2187.000000	9.243221
2186.000000	9.244572
2185.000000	9.231512
2184.000000	9.227571
2183.000000	9.203363
2182.000000	9.234552
2181.000000	9.200998
2180.000000	9.179943
2179.000000	9.203025
2178.000000	9.192216
2177.000000	9.183434
2176.000000	9.194243
2175.000000	9.194468
2174.000000	9.166770
2173.000000	9.177354
2172.000000	9.168571
2171.000000	9.184109
2170.000000	9.180281
2169.000000	9.173638
2168.000000	9.161590
2167.000000	9.181294
2166.000000	9.193567
2165.000000	9.216649
2164.000000	9.239393
2163.000000	9.230949
2162.000000	9.238155
2161.000000	9.265065
2160.000000	9.247387
2159.000000	9.264051
2158.000000	9.293326
2157.000000	9.322037
2156.000000	9.355703
2155.000000	9.359757
2154.000000	9.384527
2153.000000	9.406033
2152.000000	9.424161
2151.000000	9.444991
2150.000000	9.461880
2149.000000	9.489803
2148.000000	9.487889
2147.000000	9.539570
2146.000000	9.568957
2145.000000	9.580442
2144.000000	9.597444
2143.000000	9.622665
2142.000000	9.628069
2141.000000	9.645409
2140.000000	9.689771
2139.000000	9.722086
2138.000000	9.727603
2137.000000	9.757440
2136.000000	9.771290
2135.000000	9.769938
2134.000000	9.800789
2133.000000	9.801240
2132.000000	9.799100
2131.000000	9.815652
2130.000000	9.835018
2129.000000	9.854497
2128.000000	9.846615
2127.000000	9.855961
2126.000000	9.847066
2125.000000	9.868684
2124.000000	9.866995
2123.000000	9.855623
2122.000000	9.860577
2121.000000	9.850669
2120.000000	9.848642
2119.000000	9.828825
2118.000000	9.833329
2117.000000	9.835468
2116.000000	9.821394
2115.000000	9.817341
2114.000000	9.815314
2113.000000	9.800677
2112.000000	9.776694
2111.000000	9.765322
2110.000000	9.754963
2109.000000	9.734133
2108.000000	9.732895
2107.000000	9.722311
2106.000000	9.696302
2105.000000	9.689996
2104.000000	9.687407
2103.000000	9.674008
2102.000000	9.646985
2101.000000	9.633249
2100.000000	9.625930
2099.000000	9.617035
2098.000000	9.600146
2097.000000	9.596656
2096.000000	9.580442
2095.000000	9.577289
2094.000000	9.566255
2093.000000	9.550154
2092.000000	9.547001
2091.000000	9.533377
2090.000000	9.516601
2089.000000	9.515362
2088.000000	9.515362
2087.000000	9.501288
2086.000000	9.490929
2085.000000	9.478769
2084.000000	9.450733
2083.000000	9.444991
2082.000000	9.434069
2081.000000	9.409073
2080.000000	9.410875
2079.000000	9.393985
2078.000000	9.361333
2077.000000	9.352438
2076.000000	9.335324
2075.000000	9.321700
2074.000000	9.293438
2073.000000	9.249639
2072.000000	9.213609
2071.000000	9.193229
2070.000000	9.166882
2069.000000	9.128150
2068.000000	9.102703
2067.000000	9.073767
2066.000000	9.044605
2065.000000	9.021523
2064.000000	8.994162
2063.000000	8.967477
2062.000000	8.941806
2061.000000	8.908365
2060.000000	8.876388
2059.000000	8.866255
2058.000000	8.853982
2057.000000	8.838894
2056.000000	8.833490
2055.000000	8.825045
2054.000000	8.825608
2053.000000	8.825158
2052.000000	8.820429
2051.000000	8.834503
2050.000000	8.855784
2049.000000	8.871434
2048.000000	8.920751
2047.000000	8.946647
2046.000000	8.961510
2045.000000	8.993599
2044.000000	9.019946
2043.000000	9.061381
2042.000000	9.112724
2041.000000	9.150106
2040.000000	9.183434
2039.000000	9.207641
2038.000000	9.262700
2037.000000	9.299744
2036.000000	9.332509
2035.000000	9.348497
2034.000000	9.365161
2033.000000	9.388693
2032.000000	9.407722
2031.000000	9.448369
2030.000000	9.467735
2029.000000	9.478093
2028.000000	9.497235
2027.000000	9.506242
2026.000000	9.515250
2025.000000	9.532364
2024.000000	9.529099
2023.000000	9.537656
2022.000000	9.536868
2021.000000	9.550379
2020.000000	9.546101
2019.000000	9.548690
2018.000000	9.563553
2017.000000	9.559612
2016.000000	9.531463
2015.000000	9.534503
2014.000000	9.547564
2013.000000	9.540809
2012.000000	9.509733
2011.000000	9.502752
2010.000000	9.490141
2009.000000	9.493069
2008.000000	9.476968
2007.000000	9.440262
2006.000000	9.426863
2005.000000	9.387793
2004.000000	9.383964
2003.000000	9.359757
2002.000000	9.350299
2001.000000	9.310553
2000.000000	9.288147
1999.000000	9.273622
1998.000000	9.226895
1997.000000	9.202350
1996.000000	9.165982
1995.000000	9.119480
1994.000000	9.076919
1993.000000	9.063183
1992.000000	9.017469
1991.000000	9.001594
1990.000000	8.965000
1989.000000	8.938766
1988.000000	8.881906
1987.000000	8.844975
1986.000000	8.814011
1985.000000	8.765370
1984.000000	8.728777
1983.000000	8.714928
1982.000000	8.655253
1981.000000	8.614606
1980.000000	8.578238
1979.000000	8.561799
1978.000000	8.520139
1977.000000	8.463955
1976.000000	8.437720
1975.000000	8.418241
1974.000000	8.360818
1973.000000	8.326252
1972.000000	8.293937
1971.000000	8.250813
1970.000000	8.220525
1969.000000	8.185846
1968.000000	8.168056
1967.000000	8.128198
1966.000000	8.108832
1965.000000	8.062555
1964.000000	8.043977
1963.000000	8.014477
1962.000000	7.984415
1961.000000	7.953451
1960.000000	7.948384
1959.000000	7.899406
1958.000000	7.855381
1957.000000	7.844572
1956.000000	7.819351
1955.000000	7.775327
1954.000000	7.771724
1953.000000	7.750331
1952.000000	7.723871
1951.000000	7.704955
1950.000000	7.679847
1949.000000	7.633683
1948.000000	7.608011
1947.000000	7.602607
1946.000000	7.589546
1945.000000	7.556218
1944.000000	7.561735
1943.000000	7.547886
1942.000000	7.551939
1941.000000	7.544170
1940.000000	7.515459
1939.000000	7.498232
1938.000000	7.480329
1937.000000	7.488323
1936.000000	7.498682
1935.000000	7.501722
1934.000000	7.490688
1933.000000	7.511518
1932.000000	7.521088
1931.000000	7.550138
1930.000000	7.542481
1929.000000	7.558470
1928.000000	7.575471
1927.000000	7.626026
1926.000000	7.653162
1925.000000	7.678495
1924.000000	7.717791
1923.000000	7.740310
1922.000000	7.794355
1921.000000	7.816536
1920.000000	7.896141
1919.000000	7.953789
1918.000000	8.010987
1917.000000	8.071450
1916.000000	8.131801
1915.000000	8.176726
1914.000000	8.241581
1913.000000	8.321860
1912.000000	8.412837
1911.000000	8.505952
1910.000000	8.567654
1909.000000	8.677096
1908.000000	8.735870
1907.000000	8.808719
1906.000000	8.924804
1905.000000	9.048208
1904.000000	9.196269
1903.000000	9.327104
1902.000000	9.430241
1901.000000	9.560625
1900.000000	9.713416
1899.000000	9.879606
1898.000000	10.049848
1897.000000	10.228986
1896.000000	10.393487
1895.000000	10.563054
1894.000000	10.746696
1893.000000	10.905004
1892.000000	11.129067
1891.000000	11.358760
1890.000000	11.621780
1889.000000	11.880860
1888.000000	12.129807
1887.000000	12.394629
1886.000000	12.676341
1885.000000	12.983273
1884.000000	13.293471
1883.000000	13.662556
1882.000000	14.030740
1881.000000	14.371901
1880.000000	14.757988
1879.000000	15.097348
1878.000000	15.432654
1877.000000	15.803541
1876.000000	16.161591
1875.000000	16.509170
1874.000000	16.863843
1873.000000	17.217840
1872.000000	17.600774
1871.000000	17.934167
1870.000000	18.273752
1869.000000	18.583499
1868.000000	18.906645
1867.000000	19.140955
1866.000000	19.373575
1865.000000	19.545844
1864.000000	19.741646
1863.000000	19.898378
1862.000000	20.045426
1861.000000	20.213530
1860.000000	20.369361
1859.000000	20.545459
1858.000000	20.700501
1857.000000	20.815348
1856.000000	20.909702
1855.000000	20.989081
1854.000000	21.074428
1853.000000	21.148740
1852.000000	21.194678
1851.000000	21.242531
1850.000000	21.271468
1849.000000	21.305697
1848.000000	21.339588
1847.000000	21.378545
1846.000000	21.422457
1845.000000	21.405230
1844.000000	21.381585
1843.000000	21.355126
1842.000000	21.328891
1841.000000	21.350960
1840.000000	21.368637
1839.000000	21.380685
1838.000000	21.380347
1837.000000	21.342402
1836.000000	21.330918
1835.000000	21.318758
1834.000000	21.281376
1833.000000	21.226993
1832.000000	21.173060
1831.000000	21.130950
1830.000000	21.096271
1829.000000	21.064857
1828.000000	21.026687
1827.000000	20.974669
1826.000000	20.927154
1825.000000	20.892587
1824.000000	20.847324
1823.000000	20.781569
1822.000000	20.736982
1821.000000	20.731915
1820.000000	20.726736
1819.000000	20.728537
1818.000000	20.689580
1817.000000	20.646906
1816.000000	20.628778
1815.000000	20.617969
1814.000000	20.597702
1813.000000	20.584754
1812.000000	20.570680
1811.000000	20.540279
1810.000000	20.505713
1809.000000	20.475425
1808.000000	20.448289
1807.000000	20.410683
1806.000000	20.378819
1805.000000	20.354160
1804.000000	20.308222
1803.000000	20.262846
1802.000000	20.227154
1801.000000	20.192813
1800.000000	20.149464
1799.000000	20.094180
1798.000000	20.045989
1797.000000	20.006806
1796.000000	19.974379
1795.000000	19.931368
1794.000000	19.880926
1793.000000	19.839153
1792.000000	19.809879
1791.000000	19.775762
1790.000000	19.730612
1789.000000	19.703589
1788.000000	19.665082
1787.000000	19.618130
1786.000000	19.575795
1785.000000	19.538864
1784.000000	19.505761
1783.000000	19.453630
1782.000000	19.392153
1781.000000	19.348128
1780.000000	19.312774
1779.000000	19.255351
1778.000000	19.199954
1777.000000	19.151088
1776.000000	19.099520
1775.000000	19.043786
1774.000000	18.975215
1773.000000	18.900903
1772.000000	18.831432
1771.000000	18.770068
1770.000000	18.689225
1769.000000	18.605005
1768.000000	18.537786
1767.000000	18.482164
1766.000000	18.413144
1765.000000	18.341421
1764.000000	18.280057
1763.000000	18.257876
1762.000000	18.240311
1761.000000	18.238397
1760.000000	18.259452
1759.000000	18.284786
1758.000000	18.321379
1757.000000	18.376438
1756.000000	18.432172
1755.000000	18.479237
1754.000000	18.519545
1753.000000	18.555238
1752.000000	18.583161
1751.000000	18.599825
1750.000000	18.593745
1749.000000	18.587215
1748.000000	18.588453
1747.000000	18.558165
1746.000000	18.513353
1745.000000	18.475859
1744.000000	18.421138
1743.000000	18.337368
1742.000000	18.249319
1741.000000	18.156428
1740.000000	18.052391
1739.000000	17.916827
1738.000000	17.772143
1737.000000	17.634440
1736.000000	17.510248
1735.000000	17.415781
1734.000000	17.327733
1733.000000	17.264004
1732.000000	17.252294
1731.000000	17.240134
1730.000000	17.259613
1729.000000	17.285960
1728.000000	17.317149
1727.000000	17.386282
1726.000000	17.445619
1725.000000	17.500678
1724.000000	17.551345
1723.000000	17.616425
1722.000000	17.657071
1721.000000	17.712693
1720.000000	17.765613
1719.000000	17.804233
1718.000000	17.847919
1717.000000	17.929325
1716.000000	18.010280
1715.000000	18.070856
1714.000000	18.157779
1713.000000	18.224323
1712.000000	18.324419
1711.000000	18.373736
1710.000000	18.445346
1709.000000	18.508399
1708.000000	18.519208
1707.000000	18.533507
1706.000000	18.536885
1705.000000	18.518982
1704.000000	18.503557
1703.000000	18.456493
1702.000000	18.413031
1701.000000	18.341083
1700.000000	18.251120
1699.000000	18.174331
1698.000000	18.057345
1697.000000	17.947903
1696.000000	17.877757
1695.000000	17.800742
1694.000000	17.772819
1693.000000	17.771468
1692.000000	17.806259
1691.000000	17.848707
1690.000000	17.931127
1689.000000	18.017937
1688.000000	18.117696
1687.000000	18.216554
1686.000000	18.266320
1685.000000	18.351442
1684.000000	18.438365
1683.000000	18.548595
1682.000000	18.646439
1681.000000	18.831207
1680.000000	19.095354
1679.000000	19.410506
1678.000000	19.740633
1677.000000	20.112533
1676.000000	20.477451
1675.000000	20.841244
1674.000000	21.136692
1673.000000	21.444188
1672.000000	21.709573
1671.000000	21.917986
1670.000000	22.105568
1669.000000	22.303397
1668.000000	22.443239
1667.000000	22.625755
1666.000000	22.757828
1665.000000	22.874814
1664.000000	22.946537
1663.000000	23.038864
1662.000000	23.137609
1661.000000	23.195708
1660.000000	23.242885
1659.000000	23.316409
1658.000000	23.360209
1657.000000	23.409976
1656.000000	23.432044
1655.000000	23.408287
1654.000000	23.444542
1653.000000	23.451748
1652.000000	23.418758
1651.000000	23.421010
1650.000000	23.394437
1649.000000	23.394775
1648.000000	23.388920
1647.000000	23.314721
1646.000000	23.271484
1645.000000	23.238269
1644.000000	23.197960
1643.000000	23.151796
1642.000000	23.108673
1641.000000	23.063072
1640.000000	23.001820
1639.000000	22.971645
1638.000000	22.930548
1637.000000	22.870648
1636.000000	22.813225
1635.000000	22.742853
1634.000000	22.689708
1633.000000	22.616635
1632.000000	22.560900
1631.000000	22.512372
1630.000000	22.438735
1629.000000	22.376245
1628.000000	22.305086
1627.000000	22.220077
1626.000000	22.161190
1625.000000	22.100276
1624.000000	22.043866
1623.000000	21.955930
1622.000000	21.876100
1621.000000	21.810120
1620.000000	21.747518
1619.000000	21.668251
1618.000000	21.586733
1617.000000	21.527846
1616.000000	21.472674
1615.000000	21.426736
1614.000000	21.347131
1613.000000	21.280363
1612.000000	21.210442
1611.000000	21.169345
1610.000000	21.088051
1609.000000	20.999777
1608.000000	20.955640
1607.000000	20.891461
1606.000000	20.794743
1605.000000	20.752069
1604.000000	20.688341
1603.000000	20.614366
1602.000000	20.540054
1601.000000	20.490963
1600.000000	20.403702
1599.000000	20.353260
1598.000000	20.259356
1597.000000	20.183129
1596.000000	20.110619
1595.000000	20.058938
1594.000000	19.998700
1593.000000	19.944767
1592.000000	19.892298
1591.000000	19.816409
1590.000000	19.753356
1589.000000	19.704715
1588.000000	19.670261
1587.000000	19.604731
1586.000000	19.559806
1585.000000	19.502496
1584.000000	19.460948
1583.000000	19.410281
1582.000000	19.347678
1581.000000	19.301627
