PE UV       SUBTECH     SPECTRUM    ASCII       PEDS        4.00        
   -1
CICIMAUCR0261-1.ASC
24/07/01
14:47:49.00
24/07/01
14:47:49.00
Vinicio Soto Monge
C. resplendens. Sex M. Ventral
250,000000
1
Lambda 1050
1050L1511233
PerkinElmer UV WinLab 6.3.2.0749 / 2.02.05 Lambda 900 UV/VIS/NIR, Aug  7 2015 09:38:08

0
0
3350/servo 860,8/2
0
0
UV/VIS
1
1
1
DoubleDePol,CommonBeamDepol,RBeamAtt,SBeamAtt,60mm sphere, WB InGaAs Detector
0
0
0
0
Program
Program
3350/servo 860,8/2
3350/0,2 860,8/0,2
3350/0,2 860,8/0,2
0
15.00
 
 
 
0
 
860,8
319,2
860,8
Front
100
on
S:100 R:100
0
0
0
0
 
0
 
 
 
0
 
 
0
0
0
0
0
 
 
 
 
0
0


0
0
#HDR
-1
-1
#GR
nm
%R
1.0
0.0
2500,000000
-1,000000
2251
8
48,515500
4,644500
#DATA
2482.000000	6.560410
2481.000000	6.663548
2480.000000	6.603259
2479.000000	6.603143
2478.000000	6.587089
2477.000000	6.552325
2476.000000	6.605107
2475.000000	6.582701
2474.000000	6.568956
2473.000000	6.544356
2472.000000	6.564452
2471.000000	6.546550
2470.000000	6.575886
2469.000000	6.591478
2468.000000	6.561911
2467.000000	6.552903
2466.000000	6.543201
2465.000000	6.585588
2464.000000	6.580853
2463.000000	6.530727
2462.000000	6.586974
2461.000000	6.584317
2460.000000	6.611113
2459.000000	6.630978
2458.000000	6.592980
2457.000000	6.598523
2456.000000	6.629130
2455.000000	6.623009
2454.000000	6.625203
2453.000000	6.597138
2452.000000	6.669207
2451.000000	6.716099
2450.000000	6.742432
2449.000000	6.727186
2448.000000	6.717253
2447.000000	6.724645
2446.000000	6.757562
2445.000000	6.798216
2444.000000	6.792557
2443.000000	6.814732
2442.000000	6.850536
2441.000000	6.854232
2440.000000	6.890729
2439.000000	6.885531
2438.000000	6.932538
2437.000000	6.944088
2436.000000	6.965108
2435.000000	6.967880
2434.000000	6.983010
2433.000000	7.010152
2432.000000	7.026899
2431.000000	7.036138
2430.000000	7.050344
2429.000000	7.075407
2428.000000	7.078987
2427.000000	7.090421
2426.000000	7.112135
2425.000000	7.134541
2424.000000	7.150017
2423.000000	7.150248
2422.000000	7.166649
2421.000000	7.183396
2420.000000	7.194945
2419.000000	7.210306
2418.000000	7.233752
2417.000000	7.244378
2416.000000	7.226938
2415.000000	7.252231
2414.000000	7.276370
2413.000000	7.303165
2412.000000	7.292886
2411.000000	7.296351
2410.000000	7.313098
2409.000000	7.329729
2408.000000	7.324994
2407.000000	7.331115
2406.000000	7.350172
2405.000000	7.362761
2404.000000	7.397064
2403.000000	7.419239
2402.000000	7.437256
2401.000000	7.465899
2400.000000	7.475023
2399.000000	7.490731
2398.000000	7.493618
2397.000000	7.498700
2396.000000	7.528152
2395.000000	7.564417
2394.000000	7.565803
2393.000000	7.557372
2392.000000	7.572040
2391.000000	7.580009
2390.000000	7.599528
2389.000000	7.604610
2388.000000	7.623089
2387.000000	7.637411
2386.000000	7.633484
2385.000000	7.644341
2384.000000	7.655659
2383.000000	7.677026
2382.000000	7.687998
2381.000000	7.678759
2380.000000	7.672406
2379.000000	7.683263
2378.000000	7.687536
2377.000000	7.682801
2376.000000	7.691001
2375.000000	7.703013
2374.000000	7.684995
2373.000000	7.691694
2372.000000	7.698046
2371.000000	7.688691
2370.000000	7.681415
2369.000000	7.670327
2368.000000	7.673792
2367.000000	7.694120
2366.000000	7.668826
2365.000000	7.640529
2364.000000	7.635563
2363.000000	7.618008
2362.000000	7.625399
2361.000000	7.628402
2360.000000	7.608652
2359.000000	7.578739
2358.000000	7.592829
2357.000000	7.600799
2356.000000	7.564533
2355.000000	7.567998
2354.000000	7.565457
2353.000000	7.548710
2352.000000	7.558643
2351.000000	7.569268
2350.000000	7.564764
2349.000000	7.583359
2348.000000	7.610962
2347.000000	7.604379
2346.000000	7.598951
2345.000000	7.625399
2344.000000	7.656814
2343.000000	7.666747
2342.000000	7.672060
2341.000000	7.679798
2340.000000	7.686150
2339.000000	7.683147
2338.000000	7.710866
2337.000000	7.717334
2336.000000	7.716410
2335.000000	7.724726
2334.000000	7.737084
2333.000000	7.724264
2332.000000	7.713638
2331.000000	7.715024
2330.000000	7.722301
2329.000000	7.715024
2328.000000	7.691232
2327.000000	7.690308
2326.000000	7.681992
2325.000000	7.673561
2324.000000	7.651501
2323.000000	7.625168
2322.000000	7.583590
2321.000000	7.558527
2320.000000	7.547901
2319.000000	7.533811
2318.000000	7.504937
2317.000000	7.473175
2316.000000	7.444994
2315.000000	7.410692
2314.000000	7.388979
2313.000000	7.359758
2312.000000	7.333310
2311.000000	7.302588
2310.000000	7.288382
2309.000000	7.283415
2308.000000	7.269671
2307.000000	7.241837
2306.000000	7.232020
2305.000000	7.242530
2304.000000	7.243685
2303.000000	7.229017
2302.000000	7.224974
2301.000000	7.253155
2300.000000	7.269440
2299.000000	7.294388
2298.000000	7.317140
2297.000000	7.339200
2296.000000	7.358257
2295.000000	7.372001
2294.000000	7.414388
2293.000000	7.437487
2292.000000	7.456198
2291.000000	7.464398
2290.000000	7.464282
2289.000000	7.495928
2288.000000	7.517410
2287.000000	7.498816
2286.000000	7.510943
2285.000000	7.504359
2284.000000	7.505861
2283.000000	7.502627
2282.000000	7.486342
2281.000000	7.481376
2280.000000	7.464975
2279.000000	7.447535
2278.000000	7.458276
2277.000000	7.440259
2276.000000	7.419123
2275.000000	7.411963
2274.000000	7.385514
2273.000000	7.398681
2272.000000	7.402492
2271.000000	7.370037
2270.000000	7.377083
2269.000000	7.380086
2268.000000	7.401221
2267.000000	7.416813
2266.000000	7.420394
2265.000000	7.442454
2264.000000	7.504013
2263.000000	7.534042
2262.000000	7.568344
2261.000000	7.616622
2260.000000	7.698046
2259.000000	7.765265
2258.000000	7.809731
2257.000000	7.875564
2256.000000	7.962071
2255.000000	8.066017
2254.000000	8.116142
2253.000000	8.188558
2252.000000	8.286037
2251.000000	8.348867
2250.000000	8.421860
2249.000000	8.510562
2248.000000	8.555720
2247.000000	8.639917
2246.000000	8.715336
2245.000000	8.756568
2244.000000	8.813623
2243.000000	8.864095
2242.000000	8.898744
2241.000000	8.970352
2240.000000	8.991603
2239.000000	9.043461
2238.000000	9.080304
2237.000000	9.099823
2236.000000	9.146945
2235.000000	9.156300
2234.000000	9.189910
2233.000000	9.200882
2232.000000	9.205964
2231.000000	9.226060
2230.000000	9.249968
2229.000000	9.255165
2228.000000	9.266945
2227.000000	9.281729
2226.000000	9.246618
2225.000000	9.267754
2224.000000	9.250661
2223.000000	9.259438
2222.000000	9.270641
2221.000000	9.264751
2220.000000	9.237956
2219.000000	9.249390
2218.000000	9.221902
2217.000000	9.207927
2216.000000	9.203423
2215.000000	9.200766
2214.000000	9.161729
2213.000000	9.165424
2212.000000	9.165771
2211.000000	9.121998
2210.000000	9.132046
2209.000000	9.138283
2208.000000	9.093817
2207.000000	9.090583
2206.000000	9.103519
2205.000000	9.096820
2204.000000	9.074413
2203.000000	9.066444
2202.000000	9.062633
2201.000000	9.058129
2200.000000	9.036415
2199.000000	9.056396
2198.000000	9.024519
2197.000000	9.019668
2196.000000	9.029486
2195.000000	9.019091
2194.000000	9.002921
2193.000000	9.006848
2192.000000	9.011122
2191.000000	8.984211
2190.000000	8.983980
2189.000000	9.002575
2188.000000	8.985250
2187.000000	8.974394
2186.000000	8.982248
2185.000000	8.959957
2184.000000	8.941246
2183.000000	8.969774
2182.000000	8.964692
2181.000000	8.972199
2180.000000	8.942170
2179.000000	8.915260
2178.000000	8.910756
2177.000000	8.908099
2176.000000	8.903826
2175.000000	8.924038
2174.000000	8.931776
2173.000000	8.915606
2172.000000	8.910756
2171.000000	8.901516
2170.000000	8.913874
2169.000000	8.907868
2168.000000	8.917916
2167.000000	8.920919
2166.000000	8.940438
2165.000000	8.948407
2164.000000	8.943903
2163.000000	8.964115
2162.000000	8.970467
2161.000000	8.993104
2160.000000	9.007657
2159.000000	9.013778
2158.000000	9.008927
2157.000000	9.029716
2156.000000	9.043923
2155.000000	9.054317
2154.000000	9.070833
2153.000000	9.086425
2152.000000	9.125001
2151.000000	9.150179
2150.000000	9.150872
2149.000000	9.144058
2148.000000	9.169351
2147.000000	9.195453
2146.000000	9.221440
2145.000000	9.236686
2144.000000	9.243384
2143.000000	9.267754
2142.000000	9.260940
2141.000000	9.282075
2140.000000	9.301941
2139.000000	9.301017
2138.000000	9.324001
2137.000000	9.337167
2136.000000	9.343173
2135.000000	9.364309
2134.000000	9.376551
2133.000000	9.375512
2132.000000	9.377822
2131.000000	9.375858
2130.000000	9.385214
2129.000000	9.389833
2128.000000	9.391566
2127.000000	9.399189
2126.000000	9.398034
2125.000000	9.403462
2124.000000	9.400459
2123.000000	9.393645
2122.000000	9.393529
2121.000000	9.403231
2120.000000	9.404732
2119.000000	9.388447
2118.000000	9.364309
2117.000000	9.371354
2116.000000	9.367658
2115.000000	9.353799
2114.000000	9.337976
2113.000000	9.351373
2112.000000	9.345714
2111.000000	9.327234
2110.000000	9.310257
2109.000000	9.299515
2108.000000	9.299977
2107.000000	9.291315
2106.000000	9.289005
2105.000000	9.265444
2104.000000	9.245232
2103.000000	9.242460
2102.000000	9.234838
2101.000000	9.216358
2100.000000	9.200535
2099.000000	9.179399
2098.000000	9.183442
2097.000000	9.184366
2096.000000	9.161613
2095.000000	9.155030
2094.000000	9.154106
2093.000000	9.138629
2092.000000	9.133201
2091.000000	9.137243
2090.000000	9.129736
2089.000000	9.120612
2088.000000	9.108831
2087.000000	9.095318
2086.000000	9.089659
2085.000000	9.084000
2084.000000	9.075915
2083.000000	9.079264
2082.000000	9.072797
2081.000000	9.040111
2080.000000	9.024635
2079.000000	9.014818
2078.000000	9.010660
2077.000000	8.995183
2076.000000	8.964230
2075.000000	8.959033
2074.000000	8.956607
2073.000000	8.921612
2072.000000	8.903248
2071.000000	8.895048
2070.000000	8.867675
2069.000000	8.850236
2068.000000	8.846655
2067.000000	8.823440
2066.000000	8.794104
2065.000000	8.770774
2064.000000	8.757261
2063.000000	8.744903
2062.000000	8.746405
2061.000000	8.722266
2060.000000	8.677915
2059.000000	8.677338
2058.000000	8.690620
2057.000000	8.684383
2056.000000	8.671910
2055.000000	8.657935
2054.000000	8.658397
2053.000000	8.657357
2052.000000	8.663825
2051.000000	8.666019
2050.000000	8.676414
2049.000000	8.684961
2048.000000	8.708637
2047.000000	8.721342
2046.000000	8.743864
2045.000000	8.783363
2044.000000	8.800110
2043.000000	8.821593
2042.000000	8.840649
2041.000000	8.847810
2040.000000	8.870101
2039.000000	8.917454
2038.000000	8.924731
2037.000000	8.933393
2036.000000	8.959726
2035.000000	8.966309
2034.000000	8.987445
2033.000000	9.010082
2032.000000	9.001997
2031.000000	9.008927
2030.000000	9.029601
2029.000000	9.057436
2028.000000	9.040804
2027.000000	9.033066
2026.000000	9.041497
2025.000000	9.031564
2024.000000	9.050621
2023.000000	9.052354
2022.000000	9.045424
2021.000000	9.042537
2020.000000	9.033990
2019.000000	9.053278
2018.000000	9.058475
2017.000000	9.025443
2016.000000	9.043692
2015.000000	9.036993
2014.000000	9.002806
2013.000000	9.025443
2012.000000	9.006733
2011.000000	8.982825
2010.000000	8.971391
2009.000000	8.962151
2008.000000	8.950140
2007.000000	8.930390
2006.000000	8.923460
2005.000000	8.921728
2004.000000	8.889851
2003.000000	8.858667
2002.000000	8.852661
2001.000000	8.837993
2000.000000	8.801727
1999.000000	8.787406
1998.000000	8.782093
1997.000000	8.749061
1996.000000	8.721688
1995.000000	8.695355
1994.000000	8.667983
1993.000000	8.649734
1992.000000	8.609080
1991.000000	8.570273
1990.000000	8.559070
1989.000000	8.534700
1988.000000	8.523382
1987.000000	8.482611
1986.000000	8.466211
1985.000000	8.440224
1984.000000	8.397260
1983.000000	8.373468
1982.000000	8.335700
1981.000000	8.330850
1980.000000	8.297933
1979.000000	8.266634
1978.000000	8.215238
1977.000000	8.210272
1976.000000	8.189482
1975.000000	8.152870
1974.000000	8.128731
1973.000000	8.100666
1972.000000	8.063938
1971.000000	8.024323
1970.000000	8.015892
1969.000000	8.002148
1968.000000	7.964496
1967.000000	7.955025
1966.000000	7.946479
1965.000000	7.897508
1964.000000	7.878682
1963.000000	7.848884
1962.000000	7.848191
1961.000000	7.810078
1960.000000	7.818740
1959.000000	7.779471
1958.000000	7.766305
1957.000000	7.744476
1956.000000	7.734197
1955.000000	7.704399
1954.000000	7.684071
1953.000000	7.649423
1952.000000	7.662705
1951.000000	7.648961
1950.000000	7.599413
1949.000000	7.605650
1948.000000	7.551828
1947.000000	7.548710
1946.000000	7.545938
1945.000000	7.556333
1944.000000	7.530231
1943.000000	7.517410
1942.000000	7.505630
1941.000000	7.492579
1940.000000	7.490615
1939.000000	7.501703
1938.000000	7.495120
1937.000000	7.502050
1936.000000	7.525842
1935.000000	7.517872
1934.000000	7.512791
1933.000000	7.515909
1932.000000	7.517180
1931.000000	7.509095
1930.000000	7.540279
1929.000000	7.536121
1928.000000	7.569037
1927.000000	7.569268
1926.000000	7.617430
1925.000000	7.653118
1924.000000	7.660164
1923.000000	7.685457
1922.000000	7.690193
1921.000000	7.730501
1920.000000	7.809616
1919.000000	7.850732
1918.000000	7.881916
1917.000000	7.945670
1916.000000	7.961031
1915.000000	8.015776
1914.000000	8.029405
1913.000000	8.101590
1912.000000	8.199761
1911.000000	8.245267
1910.000000	8.335123
1909.000000	8.355681
1908.000000	8.408116
1907.000000	8.456394
1906.000000	8.520494
1905.000000	8.623517
1904.000000	8.759109
1903.000000	8.847926
1902.000000	8.934317
1901.000000	9.033066
1900.000000	9.137821
1899.000000	9.257244
1898.000000	9.396879
1897.000000	9.551066
1896.000000	9.667717
1895.000000	9.785292
1894.000000	9.896746
1893.000000	10.046775
1892.000000	10.184562
1891.000000	10.391531
1890.000000	10.617095
1889.000000	10.819675
1888.000000	11.040735
1887.000000	11.256481
1886.000000	11.466569
1885.000000	11.701372
1884.000000	11.994964
1883.000000	12.313733
1882.000000	12.665303
1881.000000	12.948153
1880.000000	13.292447
1879.000000	13.608444
1878.000000	13.891294
1877.000000	14.226695
1876.000000	14.566022
1875.000000	14.895995
1874.000000	15.237286
1873.000000	15.530530
1872.000000	15.834285
1871.000000	16.170494
1870.000000	16.481179
1869.000000	16.762181
1868.000000	17.024703
1867.000000	17.249459
1866.000000	17.431943
1865.000000	17.585321
1864.000000	17.738123
1863.000000	17.871174
1862.000000	18.000876
1861.000000	18.165920
1860.000000	18.298510
1859.000000	18.417009
1858.000000	18.553641
1857.000000	18.683574
1856.000000	18.761418
1855.000000	18.825057
1854.000000	18.884768
1853.000000	18.946559
1852.000000	18.965731
1851.000000	19.019783
1850.000000	19.070024
1849.000000	19.069677
1848.000000	19.101901
1847.000000	19.138860
1846.000000	19.161266
1845.000000	19.159649
1844.000000	19.129966
1843.000000	19.114028
1842.000000	19.102594
1841.000000	19.123961
1840.000000	19.148099
1839.000000	19.161843
1838.000000	19.154567
1837.000000	19.138398
1836.000000	19.118879
1835.000000	19.111141
1834.000000	19.077647
1833.000000	19.034451
1832.000000	18.992757
1831.000000	18.936279
1830.000000	18.903479
1829.000000	18.892968
1828.000000	18.873912
1827.000000	18.815240
1826.000000	18.768926
1825.000000	18.743978
1824.000000	18.693276
1823.000000	18.658627
1822.000000	18.626634
1821.000000	18.603766
1820.000000	18.608848
1819.000000	18.596259
1818.000000	18.555373
1817.000000	18.530311
1816.000000	18.532621
1815.000000	18.504439
1814.000000	18.482495
1813.000000	18.473025
1812.000000	18.448193
1811.000000	18.430291
1810.000000	18.417702
1809.000000	18.388366
1808.000000	18.365729
1807.000000	18.352447
1806.000000	18.324035
1805.000000	18.287884
1804.000000	18.252658
1803.000000	18.220897
1802.000000	18.185439
1801.000000	18.148827
1800.000000	18.119260
1799.000000	18.093273
1798.000000	18.050655
1797.000000	18.003995
1796.000000	17.963109
1795.000000	17.935852
1794.000000	17.901088
1793.000000	17.868980
1792.000000	17.833754
1791.000000	17.795524
1790.000000	17.764225
1789.000000	17.741357
1788.000000	17.710750
1787.000000	17.671135
1786.000000	17.620548
1785.000000	17.573079
1784.000000	17.548363
1783.000000	17.503204
1782.000000	17.461510
1781.000000	17.432982
1780.000000	17.378121
1779.000000	17.340123
1778.000000	17.290691
1777.000000	17.244839
1776.000000	17.205917
1775.000000	17.156715
1774.000000	17.105666
1773.000000	17.051729
1772.000000	16.975733
1771.000000	16.914520
1770.000000	16.865550
1769.000000	16.786550
1768.000000	16.702931
1767.000000	16.651189
1766.000000	16.593787
1765.000000	16.545857
1764.000000	16.523912
1763.000000	16.506819
1762.000000	16.480601
1761.000000	16.478291
1760.000000	16.504740
1759.000000	16.554172
1758.000000	16.602565
1757.000000	16.643104
1756.000000	16.688610
1755.000000	16.732960
1754.000000	16.784818
1753.000000	16.823625
1752.000000	16.845338
1751.000000	16.873057
1750.000000	16.865088
1749.000000	16.870401
1748.000000	16.866820
1747.000000	16.845107
1746.000000	16.818427
1745.000000	16.779390
1744.000000	16.739082
1743.000000	16.668167
1742.000000	16.586742
1741.000000	16.487416
1740.000000	16.369147
1739.000000	16.246144
1738.000000	16.144623
1737.000000	16.024161
1736.000000	15.906124
1735.000000	15.816499
1734.000000	15.734496
1733.000000	15.702966
1732.000000	15.678250
1731.000000	15.672475
1730.000000	15.701696
1729.000000	15.758751
1728.000000	15.821927
1727.000000	15.900349
1726.000000	15.963756
1725.000000	16.021273
1724.000000	16.076942
1723.000000	16.122910
1722.000000	16.163680
1721.000000	16.213574
1720.000000	16.259311
1719.000000	16.282525
1718.000000	16.328608
1717.000000	16.369725
1716.000000	16.421814
1715.000000	16.470322
1714.000000	16.522411
1713.000000	16.586627
1712.000000	16.638138
1711.000000	16.700968
1710.000000	16.748090
1709.000000	16.788860
1708.000000	16.791863
1707.000000	16.788976
1706.000000	16.775925
1705.000000	16.753865
1704.000000	16.729726
1703.000000	16.695886
1702.000000	16.634327
1701.000000	16.567685
1700.000000	16.493075
1699.000000	16.402757
1698.000000	16.300312
1697.000000	16.207337
1696.000000	16.108588
1695.000000	16.062159
1694.000000	16.032476
1693.000000	16.024045
1692.000000	16.082140
1691.000000	16.174306
1690.000000	16.258387
1689.000000	16.352285
1688.000000	16.430245
1687.000000	16.522526
1686.000000	16.589168
1685.000000	16.656271
1684.000000	16.714827
1683.000000	16.770958
1682.000000	16.862085
1681.000000	17.039602
1680.000000	17.300739
1679.000000	17.601491
1678.000000	17.869326
1677.000000	18.236835
1676.000000	18.565537
1675.000000	18.878993
1674.000000	19.165308
1673.000000	19.439380
1672.000000	19.644733
1671.000000	19.863136
1670.000000	20.012703
1669.000000	20.191029
1668.000000	20.299249
1667.000000	20.453436
1666.000000	20.531512
1665.000000	20.607508
1664.000000	20.689048
1663.000000	20.762735
1662.000000	20.833187
1661.000000	20.865988
1660.000000	20.928125
1659.000000	20.958732
1658.000000	20.990378
1657.000000	21.029069
1656.000000	21.038309
1655.000000	21.045238
1654.000000	21.032187
1653.000000	21.051706
1652.000000	21.054132
1651.000000	21.056788
1650.000000	21.019252
1649.000000	20.999964
1648.000000	20.967971
1647.000000	20.963236
1646.000000	20.931359
1645.000000	20.889434
1644.000000	20.849703
1643.000000	20.795420
1642.000000	20.768048
1641.000000	20.722773
1640.000000	20.673110
1639.000000	20.630838
1638.000000	20.590184
1637.000000	20.545833
1636.000000	20.515573
1635.000000	20.450664
1634.000000	20.388412
1633.000000	20.346140
1632.000000	20.293012
1631.000000	20.224869
1630.000000	20.213782
1629.000000	20.136977
1628.000000	20.077150
1627.000000	20.005773
1626.000000	19.939825
1625.000000	19.886119
1624.000000	19.818554
1623.000000	19.772818
1622.000000	19.709757
1621.000000	19.636879
1620.000000	19.586753
1619.000000	19.539054
1618.000000	19.488813
1617.000000	19.426214
1616.000000	19.377590
1615.000000	19.321343
1614.000000	19.273066
1613.000000	19.212662
1612.000000	19.169813
1611.000000	19.120842
1610.000000	19.079379
1609.000000	19.024980
1608.000000	18.945750
1607.000000	18.893546
1606.000000	18.860514
1605.000000	18.808656
1604.000000	18.743516
1603.000000	18.694431
1602.000000	18.641533
1601.000000	18.568540
1600.000000	18.526730
1599.000000	18.470368
1598.000000	18.417586
1597.000000	18.361802
1596.000000	18.298048
1595.000000	18.255430
1594.000000	18.206229
1593.000000	18.160261
1592.000000	18.124342
1591.000000	18.080338
1590.000000	18.023052
1589.000000	17.960222
1588.000000	17.921415
1587.000000	17.868402
1586.000000	17.849577
1585.000000	17.805688
1584.000000	17.763185
1583.000000	17.718142
1582.000000	17.681414
1581.000000	17.637295
1580.000000	17.622858
