Time1=100ms:Average1=5:Objective=10X:Aperture=1: (11/28/2018 10:07:13 AM)
11/28/2018 10:07:13 AM
Reflectance
10X
Ap#: 1
Avg1: 5.000000
Avg2: 0.000000
Int.Time1:100.000000

420.190645	11.129654
420.624620	10.993977
421.058582	10.887850
421.492531	10.772198
421.926468	10.675633
422.360391	10.578835
422.794301	10.506926
423.228199	10.440452
423.662083	10.398359
424.095955	10.360402
424.529813	10.314752
424.963658	10.317437
425.397491	10.285051
425.831310	10.274958
426.265116	10.258252
426.698909	10.245286
427.132689	10.233373
427.566455	10.243303
428.000209	10.240695
428.433949	10.236385
428.867676	10.249273
429.301389	10.260546
429.735090	10.296645
430.168777	10.319168
430.602451	10.335890
431.036111	10.339315
431.469759	10.368754
431.903392	10.383459
432.337013	10.412608
432.770620	10.442516
433.204213	10.477862
433.637794	10.523435
434.071360	10.578399
434.504914	10.627014
434.938453	10.690679
435.371979	10.750688
435.805492	10.830518
436.238991	10.893254
436.672477	10.970940
437.105949	11.046738
437.539407	11.120461
437.972852	11.195122
438.406283	11.251621
438.839700	11.333430
439.273104	11.410202
439.706494	11.494427
440.139871	11.587435
440.573233	11.675079
441.006582	11.763444
441.439917	11.856954
441.873238	11.944938
442.306546	12.026318
442.739839	12.126638
443.173119	12.210500
443.606385	12.295495
444.039636	12.376407
444.472874	12.471684
444.906099	12.559515
445.339309	12.674087
445.772505	12.785908
446.205687	12.907528
446.638855	13.024733
447.072009	13.145694
447.505149	13.278373
447.938275	13.409549
448.371387	13.542918
448.804485	13.673868
449.237569	13.794718
449.670638	13.922757
450.103694	14.036885
450.536735	14.145495
450.969762	14.260429
451.402774	14.385815
451.835773	14.508976
452.268757	14.630235
452.701727	14.753528
453.134683	14.883479
453.567624	15.015706
454.000551	15.152168
454.433464	15.283006
454.866362	15.407767
455.299246	15.533146
455.732116	15.657157
456.164971	15.782024
456.597811	15.897538
457.030638	16.030854
457.463449	16.156703
457.896246	16.292122
458.329029	16.423614
458.761797	16.542952
459.194551	16.664005
459.627290	16.778532
460.060014	16.895126
460.492724	17.017133
460.925419	17.138097
461.358099	17.266855
461.790765	17.386964
462.223416	17.513360
462.656052	17.636037
463.088674	17.757979
463.521281	17.886706
463.953873	18.008576
464.386450	18.137810
464.819012	18.263375
465.251560	18.394348
465.684093	18.531012
466.116611	18.664855
466.549114	18.795733
466.981602	18.927354
467.414075	19.063689
467.846533	19.199902
468.278977	19.335585
468.711405	19.471638
469.143818	19.602016
469.576216	19.731990
470.008600	19.869011
470.440968	19.990528
470.873321	20.118620
471.305659	20.239493
471.737982	20.362503
472.170289	20.479594
472.602582	20.604898
473.034859	20.728762
473.467122	20.860556
473.899369	20.988777
474.331600	21.113973
474.763817	21.242194
475.196018	21.382345
475.628204	21.525205
476.060375	21.674913
476.492530	21.834358
476.924670	21.987976
477.356795	22.142353
477.788904	22.286483
478.220998	22.431002
478.653076	22.568069
479.085139	22.696242
479.517186	22.826442
479.949219	22.958687
480.381235	23.089388
480.813236	23.211363
481.245221	23.343684
481.677191	23.488413
482.109146	23.633799
482.541084	23.787266
482.973008	23.934318
483.404915	24.084587
483.836807	24.233592
484.268683	24.382914
484.700544	24.528232
485.132388	24.665992
485.564217	24.799701
485.996031	24.930508
486.427828	25.049133
486.859610	25.164001
487.291376	25.274469
487.723126	25.385601
488.154860	25.487231
488.586579	25.592984
489.018281	25.695151
489.449968	25.801847
489.881639	25.915451
490.313293	26.039322
490.744932	26.172370
491.176555	26.312120
491.608162	26.450336
492.039753	26.583621
492.471328	26.719356
492.902886	26.839405
493.334429	26.950437
493.765956	27.036789
494.197466	27.126228
494.628960	27.207503
495.060439	27.276924
495.491901	27.346272
495.923347	27.428072
496.354776	27.515892
496.786190	27.614223
497.217587	27.728236
497.648968	27.843462
498.080332	27.962339
498.511681	28.084864
498.943013	28.215113
499.374328	28.338982
499.805628	28.466124
500.236911	28.585731
500.668177	28.706244
501.099427	28.812933
501.530661	28.919269
501.961878	29.012910
502.393079	29.098776
502.824264	29.186962
503.255431	29.259124
503.686583	29.335003
504.117717	29.411014
504.548835	29.486228
504.979937	29.571869
505.411022	29.672934
505.842090	29.790060
506.273142	29.921344
506.704177	30.067965
507.135195	30.239745
507.566197	30.421739
507.997182	30.612797
508.428150	30.815996
508.859102	31.039039
509.290036	31.260836
509.720954	31.488915
510.151855	31.721365
510.582739	31.963636
511.013607	32.223756
511.444457	32.500363
511.875291	32.799443
512.306107	33.118083
512.736907	33.468622
513.167690	33.842553
513.598456	34.244816
514.029205	34.676825
514.459936	35.129391
514.890651	35.603409
515.321349	36.099387
515.752030	36.628856
516.182693	37.168887
516.613340	37.728472
517.043969	38.301293
517.474582	38.890460
517.905177	39.491967
518.335755	40.105184
518.766315	40.740953
519.196859	41.368951
519.627385	42.013668
520.057894	42.664578
520.488386	43.330538
520.918860	44.008872
521.349318	44.701152
521.779757	45.415698
522.210180	46.149752
522.640585	46.907939
523.070973	47.695940
523.501343	48.506713
523.931696	49.336311
524.362031	50.173590
524.792349	51.036905
525.222650	51.898733
525.652933	52.759394
526.083198	53.618336
526.513446	54.469900
526.943677	55.311790
527.373890	56.134479
527.804085	56.955717
528.234262	57.780056
528.664422	58.594563
529.094565	59.398101
529.524689	60.204641
529.954796	61.017260
530.384885	61.819383
530.814957	62.624734
531.245011	63.428466
531.675047	64.227884
532.105065	65.007550
532.535065	65.798877
532.965048	66.577554
533.395013	67.348274
533.824959	68.084446
534.254888	68.815801
534.684799	69.544060
535.114693	70.254619
535.544568	70.927967
535.974425	71.574155
536.404264	72.196205
536.834086	72.792754
537.263889	73.355388
537.693674	73.893865
538.123441	74.402354
538.553190	74.898237
538.982921	75.378302
539.412634	75.830028
539.842329	76.280299
540.272006	76.726312
540.701664	77.155688
541.131304	77.589012
541.560926	78.000627
541.990530	78.406367
542.420116	78.808240
542.849683	79.183134
543.279232	79.541401
543.708763	79.890852
544.138275	80.219822
544.567769	80.532622
544.997245	80.814481
545.426702	81.084728
545.856141	81.338223
546.285562	81.577800
546.714964	81.783402
547.144347	81.994883
547.573713	82.190558
548.003059	82.382374
548.432387	82.576497
548.861697	82.757206
549.290988	82.936293
549.720260	83.110908
550.149514	83.285965
550.578750	83.463489
551.007966	83.652242
551.437164	83.829904
551.866344	84.006220
552.295504	84.176294
552.724646	84.343641
553.153769	84.495324
553.582874	84.634348
554.011960	84.767894
554.441027	84.875720
554.870075	84.977122
555.299104	85.070923
555.728115	85.142596
556.157106	85.210568
556.586079	85.269963
557.015033	85.323760
557.443968	85.367078
557.872884	85.420149
558.301781	85.488380
558.730659	85.546694
559.159518	85.609036
559.588358	85.670597
560.017180	85.750156
560.445982	85.846418
560.874765	85.947685
561.303528	86.045252
561.732273	86.136832
562.160999	86.245367
562.589705	86.356589
563.018393	86.465627
563.447061	86.582713
563.875710	86.686636
564.304340	86.787937
564.732950	86.901093
565.161542	86.997881
565.590114	87.105775
566.018666	87.210536
566.447200	87.315076
566.875714	87.420278
567.304208	87.523060
567.732684	87.619322
568.161140	87.706483
568.589576	87.794531
569.017993	87.886160
569.446391	87.965288
569.874769	88.053200
570.303128	88.133679
570.731467	88.214199
571.159787	88.275764
571.588087	88.338087
572.016368	88.404942
572.444629	88.462721
572.872870	88.524109
573.301092	88.574740
573.729294	88.610993
574.157476	88.646292
574.585639	88.660339
575.013782	88.671468
575.441906	88.668612
575.870009	88.643278
576.298093	88.610769
576.726157	88.549966
577.154202	88.491587
577.582226	88.418360
578.010231	88.334867
578.438216	88.256452
578.866181	88.162503
579.294126	88.072083
579.722051	87.983799
580.149957	87.891675
580.577842	87.800720
581.005707	87.714160
581.433553	87.634718
581.861378	87.547336
582.289184	87.453726
582.716969	87.368461
583.144734	87.279517
583.572479	87.192768
584.000205	87.095787
584.427910	87.000067
584.855594	86.881849
585.283259	86.764148
585.710904	86.631840
586.138528	86.480164
586.566132	86.327559
586.993716	86.160221
587.421280	85.970179
587.848823	85.780507
588.276346	85.565175
588.703849	85.323736
589.131332	85.072642
589.558794	84.795824
589.986236	84.507775
590.413657	84.186062
590.841058	83.836580
591.268438	83.463622
591.695799	83.073332
592.123138	82.667286
592.550458	82.226071
592.977756	81.766709
593.405034	81.293800
593.832292	80.810492
594.259529	80.320013
594.686746	79.814007
595.113942	79.307801
595.541117	78.799721
595.968272	78.280950
596.395406	77.743859
596.822519	77.206558
597.249612	76.666977
597.676684	76.129415
598.103735	75.585325
598.530766	75.035965
598.957775	74.487797
599.384764	73.943423
599.811733	73.398810
600.238680	72.865171
600.665606	72.333330
601.092512	71.809322
601.519397	71.296259
601.946261	70.808772
602.373104	70.338843
602.799926	69.880146
603.226727	69.432770
603.653507	69.015314
604.080266	68.625699
604.507004	68.249725
604.933721	67.884445
605.360417	67.539684
605.787092	67.219160
606.213746	66.915583
606.640379	66.625622
607.066991	66.349423
607.493581	66.094156
607.920150	65.850712
608.346699	65.607573
608.773226	65.375355
609.199731	65.156252
609.626216	64.951410
610.052679	64.740144
610.479121	64.546362
610.905542	64.336459
611.331941	64.138123
611.758319	63.931239
612.184676	63.722880
612.611011	63.507329
613.037325	63.280799
613.463617	63.044175
613.889888	62.788052
614.316138	62.518155
614.742366	62.235112
615.168573	61.932727
615.594758	61.608386
616.020921	61.279244
616.447063	60.942611
616.873184	60.598430
617.299283	60.238170
617.725360	59.883865
618.151416	59.530880
618.577450	59.179389
619.003462	58.836851
619.429453	58.505177
619.855422	58.184413
620.281369	57.881134
620.707295	57.587166
621.133199	57.318320
621.559081	57.074866
621.984941	56.844047
622.410779	56.639820
622.836596	56.446876
623.262391	56.283947
623.688163	56.128980
624.113914	56.006576
624.539644	55.910271
624.965351	55.835481
625.391036	55.780134
625.816699	55.752150
626.242340	55.749192
626.667960	55.767985
627.093557	55.819660
627.519132	55.891500
627.944685	55.987989
628.370216	56.111075
628.795725	56.259361
629.221212	56.413383
629.646677	56.585584
630.072119	56.758511
630.497540	56.946789
630.922938	57.137051
631.348314	57.333698
631.773668	57.525673
632.198999	57.704619
632.624308	57.883564
633.049595	58.051814
633.474860	58.206855
633.900102	58.351731
634.325322	58.475302
634.750520	58.586653
635.175695	58.691921
635.600848	58.780043
636.025978	58.866219
636.451086	58.936915
636.876171	59.004676
637.301234	59.067021
637.726275	59.112457
638.151293	59.157312
638.576288	59.202208
639.001261	59.249745
639.426211	59.295720
639.851139	59.337456
640.276044	59.383476
640.700927	59.434937
641.125787	59.485967
641.550624	59.529133
641.975438	59.574605
642.400230	59.630226
642.824999	59.674500
643.249745	59.735269
643.674469	59.801460
644.099169	59.870555
644.523847	59.948248
644.948502	60.038085
645.373135	60.155028
645.797744	60.280158
646.222330	60.422385
646.646894	60.584182
647.071435	60.766219
647.495953	60.964411
647.920447	61.181826
648.344919	61.408669
648.769368	61.655679
649.193794	61.909133
649.618197	62.185409
650.042576	62.463494
650.466933	62.763727
650.891267	63.069100
651.315577	63.378463
651.739864	63.695279
652.164129	64.009280
652.588370	64.326874
653.012587	64.636193
653.436782	64.936437
653.860953	65.240369
654.285102	65.541451
654.709226	65.835591
655.133328	66.119699
655.557406	66.403713
655.981461	66.689540
656.405493	66.966926
656.829501	67.226318
657.253486	67.468827
657.677448	67.696684
658.101386	67.918259
658.525301	68.113713
658.949192	68.285854
659.373060	68.444903
659.796904	68.577885
660.220725	68.683194
660.644522	68.772079
661.068296	68.835428
661.492046	68.882575
661.915772	68.908185
662.339475	68.924032
662.763154	68.918773
663.186810	68.914511
663.610442	68.892987
664.034050	68.867136
664.457635	68.841092
664.881196	68.811105
665.304733	68.772822
665.728247	68.742472
666.151736	68.714639
666.575202	68.696030
666.998644	68.669714
667.422062	68.646193
667.845457	68.632142
668.268827	68.621245
668.692174	68.603794
669.115496	68.585709
669.538795	68.558919
669.962070	68.542292
670.385321	68.529217
670.808547	68.504417
671.231750	68.468075
671.654929	68.429702
672.078084	68.388947
672.501214	68.332038
672.924321	68.268140
673.347404	68.200951
673.770462	68.132689
674.193496	68.061474
674.616506	67.986179
675.039492	67.904602
675.462454	67.815385
675.885391	67.719123
676.308305	67.621001
676.731194	67.520585
677.154058	67.421167
677.576899	67.316923
677.999715	67.212882
678.422507	67.111287
678.845274	67.008032
679.268017	66.918253
679.690736	66.815999
680.113430	66.718986
680.536100	66.621639
680.958746	66.527988
681.381367	66.432102
681.803963	66.345228
682.226535	66.258161
682.649083	66.180160
683.071605	66.104968
683.494104	66.026287
683.916578	65.964547
684.339027	65.908233
684.761451	65.859022
685.183851	65.823009
685.606227	65.786789
686.028577	65.761660
686.450903	65.751573
686.873204	65.737035
687.295481	65.723200
687.717733	65.720426
688.139959	65.727900
688.562162	65.737342
688.984339	65.756628
689.406492	65.774969
689.828619	65.797210
690.250722	65.816745
690.672800	65.838879
691.094853	65.861686
691.516881	65.898230
691.938884	65.925153
692.360863	65.946858
692.782816	65.984184
693.204744	66.016862
693.626647	66.054808
694.048526	66.090027
694.470379	66.133691
694.892207	66.177436
695.314010	66.233322
695.735788	66.290030
696.157540	66.349255
696.579268	66.418464
697.000970	66.490461
697.422648	66.572348
697.844300	66.651741
698.265926	66.733047
698.687528	66.831434
699.109104	66.930254
699.530655	67.019525
699.952181	67.123953
