PE UV       SUBTECH     SPECTRUM    ASCII       PEDS        4.00        
   -1
C.CHRY.MV73-TX3.ASC
23/11/29
15:04:51.00
23/11/29
15:04:51.00
Vinicio Soto Monge
C. CHRYSARGYREA #73 MV23
250,000000
1
Lambda 1050
1050L1511233
PerkinElmer UV WinLab 6.3.2.0749 / 2.02.05 Lambda 900 UV/VIS/NIR, Aug  7 2015 09:38:08

0
0
3350/servo 860,8/2
0
0
UV/VIS
1
1
1
DoubleDePol,CommonBeamDepol,RBeamAtt,SBeamAtt,60mm sphere, WB InGaAs Detector
0
0
0
0
Program
Program
3350/servo 860,8/2
3350/0,4 860,8/0,4
3350/0,4 860,8/0,4
0
20.00
 
 
 
0
 
860,8
319,2
860,8
Front
100
on
S:100 R:100
0
0
0
0
 
0
 
 
 
0
 
 
0
0
0
0
0
 
 
 
 
0
0


0
0
#HDR
-1
-1
#GR
nm
%A
1.0
0.0
2200,000000
-1,000000
1951
8
71,423533
0,110484
#DATA
284.000000	93.820825
285.000000	93.835443
286.000000	93.847599
287.000000	93.857663
288.000000	93.869596
289.000000	93.881633
290.000000	93.889789
291.000000	93.898904
292.000000	93.905406
293.000000	93.909773
294.000000	93.913029
295.000000	93.916075
296.000000	93.919609
297.000000	93.922961
298.000000	93.926297
299.000000	93.930111
300.000000	93.932299
301.000000	93.933688
302.000000	93.935366
303.000000	93.937690
304.000000	93.940568
305.000000	93.942939
306.000000	93.945358
307.000000	93.946381
308.000000	93.948223
309.000000	93.950066
310.000000	93.949919
311.000000	93.950599
312.000000	93.949861
313.000000	93.950387
314.000000	93.950803
315.000000	93.952589
316.000000	93.956496
317.000000	93.970102
318.000000	93.977087
319.000000	93.982638
320.000000	93.987928
321.000000	93.995193
322.000000	94.000915
323.000000	94.005465
324.000000	94.005116
325.000000	94.003940
326.000000	94.006947
327.000000	94.007522
328.000000	94.007565
329.000000	94.007230
330.000000	94.006863
331.000000	94.005939
332.000000	94.005088
333.000000	94.001909
334.000000	93.993683
335.000000	93.985279
336.000000	93.973952
337.000000	93.960661
338.000000	93.946643
339.000000	93.930358
340.000000	93.911654
341.000000	93.889958
342.000000	93.866858
343.000000	93.841230
344.000000	93.809806
345.000000	93.777327
346.000000	93.737875
347.000000	93.697853
348.000000	93.654730
349.000000	93.605216
350.000000	93.549516
351.000000	93.487387
352.000000	93.409540
353.000000	93.330054
354.000000	93.244276
355.000000	93.148625
356.000000	93.042574
357.000000	92.929138
358.000000	92.805262
359.000000	92.676004
360.000000	92.536938
361.000000	92.379907
362.000000	92.211657
363.000000	92.030460
364.000000	91.833817
365.000000	91.621469
366.000000	91.392562
367.000000	91.144805
368.000000	90.880156
369.000000	90.599755
370.000000	90.302543
371.000000	89.985245
372.000000	89.649816
373.000000	89.293755
374.000000	88.919578
375.000000	88.526283
376.000000	88.104911
377.000000	87.643962
378.000000	87.163440
379.000000	86.666000
380.000000	86.150454
381.000000	85.619206
382.000000	85.068802
383.000000	84.501476
384.000000	83.920969
385.000000	83.327766
386.000000	82.720955
387.000000	82.104298
388.000000	81.479073
389.000000	80.845919
390.000000	80.209118
391.000000	79.567402
392.000000	78.920388
393.000000	78.271587
394.000000	77.621255
395.000000	76.972855
396.000000	76.329025
397.000000	75.690201
398.000000	75.056918
399.000000	74.431003
400.000000	73.813105
401.000000	73.205140
402.000000	72.610729
403.000000	72.030072
404.000000	71.463515
405.000000	70.911540
406.000000	70.378500
407.000000	69.862301
408.000000	69.363615
409.000000	68.883845
410.000000	68.423920
411.000000	67.993147
412.000000	67.604356
413.000000	67.237588
414.000000	66.893103
415.000000	66.571469
416.000000	66.273849
417.000000	66.000003
418.000000	65.748907
419.000000	65.519620
420.000000	65.312810
421.000000	65.128358
422.000000	64.964716
423.000000	64.822402
424.000000	64.700631
425.000000	64.597213
426.000000	64.512914
427.000000	64.447083
428.000000	64.398039
429.000000	64.364062
430.000000	64.342731
431.000000	64.332603
432.000000	64.333011
433.000000	64.341888
434.000000	64.358218
435.000000	64.379692
436.000000	64.403278
437.000000	64.428483
438.000000	64.454746
439.000000	64.482030
440.000000	64.507320
441.000000	64.530383
442.000000	64.551446
443.000000	64.570478
444.000000	64.587571
445.000000	64.602142
446.000000	64.614471
447.000000	64.625475
448.000000	64.635060
449.000000	64.643244
450.000000	64.650899
451.000000	64.657535
452.000000	64.663386
453.000000	64.669407
454.000000	64.676508
455.000000	64.684502
456.000000	64.694704
457.000000	64.706748
458.000000	64.720929
459.000000	64.736717
460.000000	64.755357
461.000000	64.777857
462.000000	64.803451
463.000000	64.832470
464.000000	64.865594
465.000000	64.903263
466.000000	64.945312
467.000000	64.991837
468.000000	65.043041
469.000000	65.098172
470.000000	65.157586
471.000000	65.222243
472.000000	65.291148
473.000000	65.362388
474.000000	65.435406
475.000000	65.510853
476.000000	65.587894
477.000000	65.666188
478.000000	65.744858
479.000000	65.823348
480.000000	65.903424
481.000000	65.984362
482.000000	66.065711
483.000000	66.147820
484.000000	66.230831
485.000000	66.314524
486.000000	66.399372
487.000000	66.485920
488.000000	66.574419
489.000000	66.663747
490.000000	66.755149
491.000000	66.847357
492.000000	66.939957
493.000000	67.032859
494.000000	67.125793
495.000000	67.217735
496.000000	67.307286
497.000000	67.394799
498.000000	67.477886
499.000000	67.555492
500.000000	67.626915
501.000000	67.691342
502.000000	67.747209
503.000000	67.793843
504.000000	67.831045
505.000000	67.858495
506.000000	67.876069
507.000000	67.883816
508.000000	67.881904
509.000000	67.871043
510.000000	67.852153
511.000000	67.826544
512.000000	67.794179
513.000000	67.755926
514.000000	67.712110
515.000000	67.662036
516.000000	67.607674
517.000000	67.546768
518.000000	67.479797
519.000000	67.405741
520.000000	67.323542
521.000000	67.231129
522.000000	67.127704
523.000000	67.011975
524.000000	66.882964
525.000000	66.737132
526.000000	66.573614
527.000000	66.390019
528.000000	66.183096
529.000000	65.951231
530.000000	65.692327
531.000000	65.405100
532.000000	65.088389
533.000000	64.743518
534.000000	64.370438
535.000000	63.970945
536.000000	63.548154
537.000000	63.106520
538.000000	62.649769
539.000000	62.182716
540.000000	61.709587
541.000000	61.233761
542.000000	60.758249
543.000000	60.286339
544.000000	59.819393
545.000000	59.358215
546.000000	58.903011
547.000000	58.453486
548.000000	58.010960
549.000000	57.574275
550.000000	57.143419
551.000000	56.715522
552.000000	56.291534
553.000000	55.869166
554.000000	55.449314
555.000000	55.031123
556.000000	54.615382
557.000000	54.201392
558.000000	53.789524
559.000000	53.380376
560.000000	52.973891
561.000000	52.572013
562.000000	52.179388
563.000000	51.796346
564.000000	51.425367
565.000000	51.068754
566.000000	50.729278
567.000000	50.408714
568.000000	50.107840
569.000000	49.828115
570.000000	49.568885
571.000000	49.329295
572.000000	49.106186
573.000000	48.897678
574.000000	48.700405
575.000000	48.511784
576.000000	48.329682
577.000000	48.151208
578.000000	47.975130
579.000000	47.799983
580.000000	47.624394
581.000000	47.449384
582.000000	47.273531
583.000000	47.094927
584.000000	46.913152
585.000000	46.727665
586.000000	46.540038
587.000000	46.350410
588.000000	46.161047
589.000000	45.970440
590.000000	45.781185
591.000000	45.592759
592.000000	45.404893
593.000000	45.219452
594.000000	45.037045
595.000000	44.859633
596.000000	44.686266
597.000000	44.516101
598.000000	44.349556
599.000000	44.188402
600.000000	44.033766
601.000000	43.883437
602.000000	43.738488
603.000000	43.598648
604.000000	43.464847
605.000000	43.337181
606.000000	43.215461
607.000000	43.100873
608.000000	42.994039
609.000000	42.897341
610.000000	42.809468
611.000000	42.730769
612.000000	42.660057
613.000000	42.596957
614.000000	42.540040
615.000000	42.487095
616.000000	42.435065
617.000000	42.384538
618.000000	42.333646
619.000000	42.283927
620.000000	42.232578
621.000000	42.180791
622.000000	42.129171
623.000000	42.077666
624.000000	42.028048
625.000000	41.978123
626.000000	41.928818
627.000000	41.881601
628.000000	41.835426
629.000000	41.787975
630.000000	41.739399
631.000000	41.689632
632.000000	41.639762
633.000000	41.588274
634.000000	41.536088
635.000000	41.480561
636.000000	41.422260
637.000000	41.359072
638.000000	41.293411
639.000000	41.221935
640.000000	41.143989
641.000000	41.058777
642.000000	40.965794
643.000000	40.861518
644.000000	40.746160
645.000000	40.620035
646.000000	40.481930
647.000000	40.334028
648.000000	40.176845
649.000000	40.013298
650.000000	39.845198
651.000000	39.676338
652.000000	39.508489
653.000000	39.342319
654.000000	39.176451
655.000000	39.014075
656.000000	38.854015
657.000000	38.695231
658.000000	38.535297
659.000000	38.373191
660.000000	38.208353
661.000000	38.039970
662.000000	37.868222
663.000000	37.690341
664.000000	37.510183
665.000000	37.326411
666.000000	37.140225
667.000000	36.948852
668.000000	36.755933
669.000000	36.557439
670.000000	36.353876
671.000000	36.148222
672.000000	35.940271
673.000000	35.727802
674.000000	35.513668
675.000000	35.298116
676.000000	35.080774
677.000000	34.861945
678.000000	34.644005
679.000000	34.425872
680.000000	34.207340
681.000000	33.990303
682.000000	33.774648
683.000000	33.559138
684.000000	33.342825
685.000000	33.126987
686.000000	32.909845
687.000000	32.690325
688.000000	32.470965
689.000000	32.249688
690.000000	32.026697
691.000000	31.800176
692.000000	31.571206
693.000000	31.340753
694.000000	31.109398
695.000000	30.878360
696.000000	30.647163
697.000000	30.416337
698.000000	30.185681
699.000000	29.953005
700.000000	29.720448
701.000000	29.487971
702.000000	29.257148
703.000000	29.027155
704.000000	28.797766
705.000000	28.569399
706.000000	28.341384
707.000000	28.115145
708.000000	27.889365
709.000000	27.663827
710.000000	27.438631
711.000000	27.213255
712.000000	26.990213
713.000000	26.770398
714.000000	26.549101
715.000000	26.329867
716.000000	26.112590
717.000000	25.896338
718.000000	25.681034
719.000000	25.469220
720.000000	25.257945
721.000000	25.046519
722.000000	24.836027
723.000000	24.624534
724.000000	24.415539
725.000000	24.207924
726.000000	24.001400
727.000000	23.796787
728.000000	23.594285
729.000000	23.394479
730.000000	23.195389
731.000000	22.997433
732.000000	22.799690
733.000000	22.604652
734.000000	22.413532
735.000000	22.226429
736.000000	22.039181
737.000000	21.852001
738.000000	21.666514
739.000000	21.483894
740.000000	21.303623
741.000000	21.124992
742.000000	20.948149
743.000000	20.772791
744.000000	20.599321
745.000000	20.428494
746.000000	20.260362
747.000000	20.094219
748.000000	19.928937
749.000000	19.769090
750.000000	19.611795
751.000000	19.453710
752.000000	19.295588
753.000000	19.137218
754.000000	18.979181
755.000000	18.823602
756.000000	18.670394
757.000000	18.520347
758.000000	18.373397
759.000000	18.230032
760.000000	18.089411
761.000000	17.950321
762.000000	17.811815
763.000000	17.675553
764.000000	17.540106
765.000000	17.406750
766.000000	17.275637
767.000000	17.148521
768.000000	17.023537
769.000000	16.899474
770.000000	16.775379
771.000000	16.653521
772.000000	16.532174
773.000000	16.410630
774.000000	16.290819
775.000000	16.172554
776.000000	16.058369
777.000000	15.944106
778.000000	15.832809
779.000000	15.721663
780.000000	15.610618
781.000000	15.502403
782.000000	15.394438
783.000000	15.286812
784.000000	15.179970
785.000000	15.074715
786.000000	14.971063
787.000000	14.868649
788.000000	14.771169
789.000000	14.675985
790.000000	14.577681
791.000000	14.478371
792.000000	14.380291
793.000000	14.282213
794.000000	14.185151
795.000000	14.088600
796.000000	13.992812
797.000000	13.897431
798.000000	13.802621
799.000000	13.708382
800.000000	13.611627
801.000000	13.518809
802.000000	13.423447
803.000000	13.329426
804.000000	13.236709
805.000000	13.143499
806.000000	13.051984
807.000000	12.961126
808.000000	12.870614
809.000000	12.777922
810.000000	12.690324
811.000000	12.595535
812.000000	12.506004
813.000000	12.413440
814.000000	12.325599
815.000000	12.240280
816.000000	12.155253
817.000000	12.067722
818.000000	11.982311
819.000000	11.899186
820.000000	11.814864
821.000000	11.727633
822.000000	11.643848
823.000000	11.561176
824.000000	11.479132
825.000000	11.400715
826.000000	11.323420
827.000000	11.244289
828.000000	11.163056
829.000000	11.080302
830.000000	11.001944
831.000000	10.930155
832.000000	10.855365
833.000000	10.780167
834.000000	10.703366
835.000000	10.632192
836.000000	10.562734
837.000000	10.498473
838.000000	10.429584
839.000000	10.366747
840.000000	10.299245
841.000000	10.232896
842.000000	10.169774
843.000000	10.110119
844.000000	10.045474
845.000000	9.976318
846.000000	9.919059
847.000000	9.852622
848.000000	9.795875
849.000000	9.737749
850.000000	9.679687
851.000000	9.618364
852.000000	9.564120
853.000000	9.510337
854.000000	9.452981
855.000000	9.395714
856.000000	9.329227
857.000000	9.293274
858.000000	9.237906
859.000000	9.160648
860.000000	9.068726
861.000000	8.980652
862.000000	8.917093
863.000000	8.834989
864.000000	8.760482
865.000000	8.669496
866.000000	8.603654
867.000000	8.519436
868.000000	8.438718
869.000000	8.359258
870.000000	8.276391
871.000000	8.176169
872.000000	8.110068
873.000000	8.037781
874.000000	7.953592
875.000000	7.869252
876.000000	7.792699
877.000000	7.723287
878.000000	7.633301
879.000000	7.526979
880.000000	7.453645
881.000000	7.383246
882.000000	7.298996
883.000000	7.222725
884.000000	7.137578
885.000000	7.064408
886.000000	6.968680
887.000000	6.900635
888.000000	6.817471
889.000000	6.722765
890.000000	6.630689
891.000000	6.569817
892.000000	6.503690
893.000000	6.449509
894.000000	6.389414
895.000000	6.354383
896.000000	6.323678
897.000000	6.300292
898.000000	6.288286
899.000000	6.272173
900.000000	6.257924
901.000000	6.196122
902.000000	6.181738
903.000000	6.165963
904.000000	6.138078
905.000000	6.115438
906.000000	6.112492
907.000000	6.053412
908.000000	6.001522
909.000000	5.966873
910.000000	5.959560
911.000000	5.949243
912.000000	5.941933
913.000000	5.946214
914.000000	5.961713
915.000000	5.944232
916.000000	5.923150
917.000000	5.921389
918.000000	5.918545
919.000000	5.921673
920.000000	5.906505
921.000000	5.919680
922.000000	5.899623
923.000000	5.885469
924.000000	5.883787
925.000000	5.897380
926.000000	5.876063
927.000000	5.851630
928.000000	5.835085
929.000000	5.846419
930.000000	5.845640
931.000000	5.820279
932.000000	5.770253
933.000000	5.737467
934.000000	5.678059
935.000000	5.655716
936.000000	5.653951
937.000000	5.630545
938.000000	5.629418
939.000000	5.642585
940.000000	5.613773
941.000000	5.596178
942.000000	5.589207
943.000000	5.571346
944.000000	5.558262
945.000000	5.544231
946.000000	5.492500
947.000000	5.430267
948.000000	5.403873
949.000000	5.411257
950.000000	5.397290
951.000000	5.382626
952.000000	5.370029
953.000000	5.327142
954.000000	5.281742
955.000000	5.246980
956.000000	5.196350
957.000000	5.159269
958.000000	5.135873
959.000000	5.117514
960.000000	5.099121
961.000000	5.131275
962.000000	5.100686
963.000000	5.078949
964.000000	5.040809
965.000000	5.012804
966.000000	5.016281
967.000000	5.010112
968.000000	4.993255
969.000000	4.999199
970.000000	4.971616
971.000000	4.950919
972.000000	4.930342
973.000000	4.873546
974.000000	4.811952
975.000000	4.811509
976.000000	4.806980
977.000000	4.809525
978.000000	4.822557
979.000000	4.812536
980.000000	4.774500
981.000000	4.772046
982.000000	4.776343
983.000000	4.750485
984.000000	4.691755
985.000000	4.651776
986.000000	4.617195
987.000000	4.588125
988.000000	4.586349
989.000000	4.566218
990.000000	4.547949
991.000000	4.557587
992.000000	4.534289
993.000000	4.506882
994.000000	4.485430
995.000000	4.454865
996.000000	4.399497
997.000000	4.370955
998.000000	4.308070
999.000000	4.262608
1000.000000	4.226699
1001.000000	4.175984
1002.000000	4.132731
1003.000000	4.101010
1004.000000	4.069410
1005.000000	4.045793
1006.000000	4.026484
1007.000000	4.017101
1008.000000	3.992933
1009.000000	3.979287
1010.000000	3.956403
1011.000000	3.915071
1012.000000	3.880410
1013.000000	3.858831
1014.000000	3.841533
1015.000000	3.814904
1016.000000	3.787109
1017.000000	3.752412
1018.000000	3.711966
1019.000000	3.698575
1020.000000	3.693833
1021.000000	3.647550
1022.000000	3.614115
1023.000000	3.592106
1024.000000	3.586032
1025.000000	3.592059
1026.000000	3.575989
1027.000000	3.548400
1028.000000	3.529534
1029.000000	3.524305
1030.000000	3.506884
1031.000000	3.475485
1032.000000	3.462162
1033.000000	3.474187
1034.000000	3.480932
1035.000000	3.468361
1036.000000	3.444883
1037.000000	3.439473
1038.000000	3.425149
1039.000000	3.408511
1040.000000	3.395317
1041.000000	3.354526
1042.000000	3.301981
1043.000000	3.275709
1044.000000	3.244169
1045.000000	3.216464
1046.000000	3.195006
1047.000000	3.159659
1048.000000	3.120773
1049.000000	3.119669
1050.000000	3.134501
1051.000000	3.114578
1052.000000	3.098363
1053.000000	3.105340
1054.000000	3.088665
1055.000000	3.078451
1056.000000	3.103114
1057.000000	3.100687
1058.000000	3.070759
1059.000000	3.048741
1060.000000	3.006352
1061.000000	2.981909
1062.000000	2.991080
1063.000000	2.988951
1064.000000	2.965458
1065.000000	2.945812
1066.000000	2.923198
1067.000000	2.876592
1068.000000	2.862903
1069.000000	2.840613
1070.000000	2.812081
1071.000000	2.803811
1072.000000	2.768260
1073.000000	2.760849
1074.000000	2.746746
1075.000000	2.730992
1076.000000	2.732476
1077.000000	2.746348
1078.000000	2.746507
1079.000000	2.753318
1080.000000	2.742393
1081.000000	2.704742
1082.000000	2.729380
1083.000000	2.687289
1084.000000	2.630058
1085.000000	2.602147
1086.000000	2.599210
1087.000000	2.577374
1088.000000	2.558494
1089.000000	2.540193
1090.000000	2.502132
1091.000000	2.472622
1092.000000	2.480868
1093.000000	2.485996
1094.000000	2.462335
1095.000000	2.433602
1096.000000	2.429168
1097.000000	2.413486
1098.000000	2.402280
1099.000000	2.380985
1100.000000	2.381071
1101.000000	2.367889
1102.000000	2.376848
1103.000000	2.366083
1104.000000	2.375715
1105.000000	2.399477
1106.000000	2.403525
1107.000000	2.402818
1108.000000	2.386795
1109.000000	2.395134
1110.000000	2.386630
1111.000000	2.384075
1112.000000	2.352052
1113.000000	2.313718
1114.000000	2.294280
1115.000000	2.286452
1116.000000	2.322189
1117.000000	2.279281
1118.000000	2.313144
1119.000000	2.330604
1120.000000	2.304129
1121.000000	2.275652
1122.000000	2.249749
1123.000000	2.215619
1124.000000	2.212964
1125.000000	2.215654
1126.000000	2.244355
1127.000000	2.178603
1128.000000	2.128305
1129.000000	2.117944
1130.000000	2.151614
1131.000000	2.152777
1132.000000	2.159546
1133.000000	2.135796
1134.000000	2.059872
1135.000000	2.072021
1136.000000	2.086136
1137.000000	2.087052
1138.000000	2.068817
1139.000000	2.057148
1140.000000	2.024832
1141.000000	2.033807
1142.000000	2.055574
1143.000000	2.053867
1144.000000	2.047308
1145.000000	2.073319
1146.000000	2.034918
1147.000000	2.035717
1148.000000	2.090885
1149.000000	2.073294
1150.000000	2.095030
1151.000000	2.079967
1152.000000	2.074681
1153.000000	2.079383
1154.000000	2.091697
1155.000000	2.088055
1156.000000	2.116276
1157.000000	2.155051
1158.000000	2.188689
1159.000000	2.238587
1160.000000	2.286186
1161.000000	2.275676
1162.000000	2.345520
1163.000000	2.402228
1164.000000	2.455662
1165.000000	2.462282
1166.000000	2.486063
1167.000000	2.504531
1168.000000	2.532301
1169.000000	2.648632
1170.000000	2.681330
1171.000000	2.706777
1172.000000	2.744571
1173.000000	2.785781
1174.000000	2.808552
1175.000000	2.862687
1176.000000	2.898230
1177.000000	2.929551
1178.000000	2.968486
1179.000000	2.973364
1180.000000	2.985377
1181.000000	3.040450
1182.000000	3.058537
1183.000000	3.041663
1184.000000	3.097025
1185.000000	3.136051
1186.000000	3.176917
1187.000000	3.238251
1188.000000	3.252025
1189.000000	3.276591
1190.000000	3.335190
1191.000000	3.379525
1192.000000	3.403290
1193.000000	3.404446
1194.000000	3.402753
1195.000000	3.400899
1196.000000	3.439037
1197.000000	3.429612
1198.000000	3.417390
1199.000000	3.402395
1200.000000	3.398324
1201.000000	3.369362
1202.000000	3.353361
1203.000000	3.352140
1204.000000	3.343099
1205.000000	3.305853
1206.000000	3.291974
1207.000000	3.288803
1208.000000	3.290788
1209.000000	3.299151
