PE UV       SUBTECH     SPECTRUM    ASCII       PEDS        4.00        
   -1
C.RESP.MV23-TX3.ASC
23/11/29
12:37:13.00
23/11/29
12:37:13.00
Vinicio Soto Monge
C. RESPLENDENS
250,000000
1
Lambda 1050
1050L1511233
PerkinElmer UV WinLab 6.3.2.0749 / 2.02.05 Lambda 900 UV/VIS/NIR, Aug  7 2015 09:38:08

0
0
3350/servo 860,8/2
0
0
UV/VIS
1
1
1
DoubleDePol,CommonBeamDepol,RBeamAtt,SBeamAtt,60mm sphere, WB InGaAs Detector
0
0
0
0
Program
Program
3350/servo 860,8/2
3350/0,4 860,8/0,4
3350/0,4 860,8/0,4
0
20.00
 
 
 
0
 
860,8
319,2
860,8
Front
100
on
S:100 R:100
0
0
0
0
 
0
 
 
 
0
 
 
0
0
0
0
0
 
 
 
 
0
0


0
0
#HDR
-1
-1
#GR
nm
%A
1.0
0.0
2200,000000
-1,000000
1951
8
73,589983
0,239045
#DATA
284.000000	93.003163
285.000000	93.015787
286.000000	93.027753
287.000000	93.037732
288.000000	93.047869
289.000000	93.058130
290.000000	93.065032
291.000000	93.073777
292.000000	93.081244
293.000000	93.087568
294.000000	93.095449
295.000000	93.100226
296.000000	93.104861
297.000000	93.112901
298.000000	93.118518
299.000000	93.123912
300.000000	93.128889
301.000000	93.133299
302.000000	93.136539
303.000000	93.143443
304.000000	93.149096
305.000000	93.155388
306.000000	93.159037
307.000000	93.163288
308.000000	93.171363
309.000000	93.176880
310.000000	93.183383
311.000000	93.193255
312.000000	93.202591
313.000000	93.211186
314.000000	93.219986
315.000000	93.228409
316.000000	93.239708
317.000000	93.263658
318.000000	93.286213
319.000000	93.310196
320.000000	93.332261
321.000000	93.351052
322.000000	93.367564
323.000000	93.387182
324.000000	93.407788
325.000000	93.425086
326.000000	93.442354
327.000000	93.458676
328.000000	93.474515
329.000000	93.493859
330.000000	93.514094
331.000000	93.531549
332.000000	93.549170
333.000000	93.567704
334.000000	93.585569
335.000000	93.599849
336.000000	93.612929
337.000000	93.627397
338.000000	93.639025
339.000000	93.652585
340.000000	93.665040
341.000000	93.675827
342.000000	93.687078
343.000000	93.694984
344.000000	93.703940
345.000000	93.711199
346.000000	93.715983
347.000000	93.722079
348.000000	93.727145
349.000000	93.729207
350.000000	93.731248
351.000000	93.728712
352.000000	93.712128
353.000000	93.695167
354.000000	93.676558
355.000000	93.657018
356.000000	93.638881
357.000000	93.621456
358.000000	93.595736
359.000000	93.569669
360.000000	93.543688
361.000000	93.513774
362.000000	93.482262
363.000000	93.448619
364.000000	93.408349
365.000000	93.363684
366.000000	93.318135
367.000000	93.266526
368.000000	93.209535
369.000000	93.149865
370.000000	93.088894
371.000000	93.022917
372.000000	92.949333
373.000000	92.871119
374.000000	92.786691
375.000000	92.694506
376.000000	92.594567
377.000000	92.478525
378.000000	92.356439
379.000000	92.226523
380.000000	92.088319
381.000000	91.941038
382.000000	91.784853
383.000000	91.620142
384.000000	91.448831
385.000000	91.268832
386.000000	91.079823
387.000000	90.883087
388.000000	90.678459
389.000000	90.465983
390.000000	90.246081
391.000000	90.018439
392.000000	89.782739
393.000000	89.540669
394.000000	89.289434
395.000000	89.031761
396.000000	88.768355
397.000000	88.498677
398.000000	88.223271
399.000000	87.940986
400.000000	87.653852
401.000000	87.361659
402.000000	87.064742
403.000000	86.764158
404.000000	86.459922
405.000000	86.151130
406.000000	85.840532
407.000000	85.529831
408.000000	85.216474
409.000000	84.900679
410.000000	84.586351
411.000000	84.276116
412.000000	83.974880
413.000000	83.675254
414.000000	83.377700
415.000000	83.083093
416.000000	82.793005
417.000000	82.507863
418.000000	82.227418
419.000000	81.952647
420.000000	81.685147
421.000000	81.425032
422.000000	81.172589
423.000000	80.929274
424.000000	80.695711
425.000000	80.471845
426.000000	80.258525
427.000000	80.055948
428.000000	79.864570
429.000000	79.684453
430.000000	79.514667
431.000000	79.355136
432.000000	79.206015
433.000000	79.066999
434.000000	78.937035
435.000000	78.814660
436.000000	78.699137
437.000000	78.590599
438.000000	78.487674
439.000000	78.388596
440.000000	78.292603
441.000000	78.198672
442.000000	78.106426
443.000000	78.015128
444.000000	77.924045
445.000000	77.831457
446.000000	77.736793
447.000000	77.639659
448.000000	77.539843
449.000000	77.437570
450.000000	77.332377
451.000000	77.223604
452.000000	77.111978
453.000000	76.997669
454.000000	76.880252
455.000000	76.759726
456.000000	76.637315
457.000000	76.512402
458.000000	76.383813
459.000000	76.250946
460.000000	76.114551
461.000000	75.974328
462.000000	75.829647
463.000000	75.679228
464.000000	75.523382
465.000000	75.362214
466.000000	75.195725
467.000000	75.023310
468.000000	74.844031
469.000000	74.659009
470.000000	74.468390
471.000000	74.272044
472.000000	74.069869
473.000000	73.861191
474.000000	73.646917
475.000000	73.426483
476.000000	73.199237
477.000000	72.965434
478.000000	72.723937
479.000000	72.474108
480.000000	72.217824
481.000000	71.953347
482.000000	71.679478
483.000000	71.394500
484.000000	71.096814
485.000000	70.786222
486.000000	70.461429
487.000000	70.122346
488.000000	69.768423
489.000000	69.399500
490.000000	69.014427
491.000000	68.613074
492.000000	68.194872
493.000000	67.760315
494.000000	67.310890
495.000000	66.845646
496.000000	66.367125
497.000000	65.876244
498.000000	65.371755
499.000000	64.854266
500.000000	64.326495
501.000000	63.788453
502.000000	63.238876
503.000000	62.679591
504.000000	62.111343
505.000000	61.535059
506.000000	60.951373
507.000000	60.360247
508.000000	59.762382
509.000000	59.158744
510.000000	58.549738
511.000000	57.935160
512.000000	57.314178
513.000000	56.689062
514.000000	56.059915
515.000000	55.424535
516.000000	54.785491
517.000000	54.143007
518.000000	53.498536
519.000000	52.853194
520.000000	52.205140
521.000000	51.555256
522.000000	50.903239
523.000000	50.248482
524.000000	49.591192
525.000000	48.931497
526.000000	48.270602
527.000000	47.609740
528.000000	46.947620
529.000000	46.285114
530.000000	45.624243
531.000000	44.962294
532.000000	44.299540
533.000000	43.640329
534.000000	42.984612
535.000000	42.329749
536.000000	41.676630
537.000000	41.027753
538.000000	40.380856
539.000000	39.736524
540.000000	39.096508
541.000000	38.459848
542.000000	37.827077
543.000000	37.200472
544.000000	36.579560
545.000000	35.964762
546.000000	35.357480
547.000000	34.758857
548.000000	34.170434
549.000000	33.592096
550.000000	33.025556
551.000000	32.470573
552.000000	31.930499
553.000000	31.405021
554.000000	30.892027
555.000000	30.397040
556.000000	29.918923
557.000000	29.459649
558.000000	29.019380
559.000000	28.597235
560.000000	28.194519
561.000000	27.809613
562.000000	27.442588
563.000000	27.095254
564.000000	26.766323
565.000000	26.453542
566.000000	26.156858
567.000000	25.875611
568.000000	25.605409
569.000000	25.348175
570.000000	25.104183
571.000000	24.873715
572.000000	24.654401
573.000000	24.446422
574.000000	24.250569
575.000000	24.067168
576.000000	23.895979
577.000000	23.736956
578.000000	23.589149
579.000000	23.455144
580.000000	23.336313
581.000000	23.230025
582.000000	23.140517
583.000000	23.067704
584.000000	23.012897
585.000000	22.973879
586.000000	22.951725
587.000000	22.947284
588.000000	22.961485
589.000000	22.995970
590.000000	23.048756
591.000000	23.120116
592.000000	23.208185
593.000000	23.314211
594.000000	23.438344
595.000000	23.577806
596.000000	23.733296
597.000000	23.904183
598.000000	24.087512
599.000000	24.282265
600.000000	24.489978
601.000000	24.707317
602.000000	24.933542
603.000000	25.168276
604.000000	25.407887
605.000000	25.653342
606.000000	25.901200
607.000000	26.151031
608.000000	26.403225
609.000000	26.654317
610.000000	26.903256
611.000000	27.148044
612.000000	27.387959
613.000000	27.621329
614.000000	27.845513
615.000000	28.057869
616.000000	28.261116
617.000000	28.450084
618.000000	28.622903
619.000000	28.780871
620.000000	28.923959
621.000000	29.052281
622.000000	29.164690
623.000000	29.262197
624.000000	29.345920
625.000000	29.415671
626.000000	29.473709
627.000000	29.520463
628.000000	29.555857
629.000000	29.582487
630.000000	29.602671
631.000000	29.614430
632.000000	29.619155
633.000000	29.619365
634.000000	29.614953
635.000000	29.603839
636.000000	29.587164
637.000000	29.561756
638.000000	29.531721
639.000000	29.496809
640.000000	29.456235
641.000000	29.410754
642.000000	29.359441
643.000000	29.301612
644.000000	29.239363
645.000000	29.170218
646.000000	29.095832
647.000000	29.017494
648.000000	28.936204
649.000000	28.850258
650.000000	28.760500
651.000000	28.667666
652.000000	28.572966
653.000000	28.475035
654.000000	28.372278
655.000000	28.267314
656.000000	28.160527
657.000000	28.048660
658.000000	27.928984
659.000000	27.801129
660.000000	27.663784
661.000000	27.515379
662.000000	27.355608
663.000000	27.184540
664.000000	27.002131
665.000000	26.805479
666.000000	26.595761
667.000000	26.371589
668.000000	26.134826
669.000000	25.884055
670.000000	25.619139
671.000000	25.344740
672.000000	25.063568
673.000000	24.774679
674.000000	24.480121
675.000000	24.181327
676.000000	23.877629
677.000000	23.569447
678.000000	23.260859
679.000000	22.952124
680.000000	22.644361
681.000000	22.337905
682.000000	22.032316
683.000000	21.727948
684.000000	21.426273
685.000000	21.127353
686.000000	20.831519
687.000000	20.538721
688.000000	20.250022
689.000000	19.965992
690.000000	19.686656
691.000000	19.409241
692.000000	19.136342
693.000000	18.871066
694.000000	18.612856
695.000000	18.358950
696.000000	18.111104
697.000000	17.870312
698.000000	17.633160
699.000000	17.396755
700.000000	17.166314
701.000000	16.941729
702.000000	16.722372
703.000000	16.506224
704.000000	16.293939
705.000000	16.085020
706.000000	15.878196
707.000000	15.677428
708.000000	15.480328
709.000000	15.284275
710.000000	15.089072
711.000000	14.895183
712.000000	14.706676
713.000000	14.522582
714.000000	14.341087
715.000000	14.164208
716.000000	13.992727
717.000000	13.823932
718.000000	13.658728
719.000000	13.499480
720.000000	13.346894
721.000000	13.200476
722.000000	13.057932
723.000000	12.918648
724.000000	12.784444
725.000000	12.654193
726.000000	12.529546
727.000000	12.407325
728.000000	12.286021
729.000000	12.168362
730.000000	12.056435
731.000000	11.949513
732.000000	11.844429
733.000000	11.744159
734.000000	11.649848
735.000000	11.559631
736.000000	11.474527
737.000000	11.393261
738.000000	11.315115
739.000000	11.242193
740.000000	11.174743
741.000000	11.111972
742.000000	11.049300
743.000000	10.989287
744.000000	10.936446
745.000000	10.886690
746.000000	10.841169
747.000000	10.798811
748.000000	10.759277
749.000000	10.724306
750.000000	10.692115
751.000000	10.659871
752.000000	10.629299
753.000000	10.600875
754.000000	10.572910
755.000000	10.548741
756.000000	10.525430
757.000000	10.505877
758.000000	10.490253
759.000000	10.474764
760.000000	10.463059
761.000000	10.451709
762.000000	10.443235
763.000000	10.440303
764.000000	10.441457
765.000000	10.444250
766.000000	10.445562
767.000000	10.450453
768.000000	10.461024
769.000000	10.474238
770.000000	10.487626
771.000000	10.502421
772.000000	10.518544
773.000000	10.537814
774.000000	10.559552
775.000000	10.582062
776.000000	10.609657
777.000000	10.640461
778.000000	10.671770
779.000000	10.701633
780.000000	10.737331
781.000000	10.776477
782.000000	10.819141
783.000000	10.864069
784.000000	10.909909
785.000000	10.956152
786.000000	11.004215
787.000000	11.056526
788.000000	11.112539
789.000000	11.173013
790.000000	11.229249
791.000000	11.282936
792.000000	11.337552
793.000000	11.392389
794.000000	11.447651
795.000000	11.502874
796.000000	11.560776
797.000000	11.617896
798.000000	11.672842
799.000000	11.724420
800.000000	11.767992
801.000000	11.814589
802.000000	11.859731
803.000000	11.903081
804.000000	11.946915
805.000000	11.984927
806.000000	12.019393
807.000000	12.050573
808.000000	12.079137
809.000000	12.108307
810.000000	12.133221
811.000000	12.156354
812.000000	12.180975
813.000000	12.204085
814.000000	12.228367
815.000000	12.244464
816.000000	12.256862
817.000000	12.264203
818.000000	12.275958
819.000000	12.285410
820.000000	12.291434
821.000000	12.298640
822.000000	12.300948
823.000000	12.307165
824.000000	12.313323
825.000000	12.318118
826.000000	12.334927
827.000000	12.344207
828.000000	12.356406
829.000000	12.369443
830.000000	12.388357
831.000000	12.399825
832.000000	12.411048
833.000000	12.423622
834.000000	12.433247
835.000000	12.455954
836.000000	12.477442
837.000000	12.501048
838.000000	12.519012
839.000000	12.541169
840.000000	12.560586
841.000000	12.587638
842.000000	12.608143
843.000000	12.632909
844.000000	12.646708
845.000000	12.663178
846.000000	12.680146
847.000000	12.696136
848.000000	12.705125
849.000000	12.715778
850.000000	12.724460
851.000000	12.726379
852.000000	12.744239
853.000000	12.748921
854.000000	12.773264
855.000000	12.776352
856.000000	12.758747
857.000000	12.778602
858.000000	12.795398
859.000000	12.751095
860.000000	12.715007
861.000000	12.658857
862.000000	12.618513
863.000000	12.530123
864.000000	12.421654
865.000000	12.362649
866.000000	12.295601
867.000000	12.208817
868.000000	12.124340
869.000000	12.055288
870.000000	11.939716
871.000000	11.851512
872.000000	11.808098
873.000000	11.739796
874.000000	11.654296
875.000000	11.554703
876.000000	11.439603
877.000000	11.353248
878.000000	11.296232
879.000000	11.252432
880.000000	11.179094
881.000000	11.077961
882.000000	10.963833
883.000000	10.915108
884.000000	10.844418
885.000000	10.785951
886.000000	10.695666
887.000000	10.644167
888.000000	10.572756
889.000000	10.504981
890.000000	10.405046
891.000000	10.330911
892.000000	10.254570
893.000000	10.135344
894.000000	10.077968
895.000000	10.064671
896.000000	10.042789
897.000000	10.025137
898.000000	10.032522
899.000000	10.067222
900.000000	10.058957
901.000000	10.066282
902.000000	10.095953
903.000000	10.091667
904.000000	10.046388
905.000000	10.045086
906.000000	10.049973
907.000000	10.006321
908.000000	9.979318
909.000000	9.965937
910.000000	9.985014
911.000000	10.020610
912.000000	10.033238
913.000000	9.994152
914.000000	9.927453
915.000000	9.919740
916.000000	9.947414
917.000000	9.940963
918.000000	9.872435
919.000000	9.811893
920.000000	9.768916
921.000000	9.761687
922.000000	9.754381
923.000000	9.726918
924.000000	9.672453
925.000000	9.672758
926.000000	9.641951
927.000000	9.613056
928.000000	9.639204
929.000000	9.626492
930.000000	9.588024
931.000000	9.569199
932.000000	9.534511
933.000000	9.487252
934.000000	9.390208
935.000000	9.322721
936.000000	9.264303
937.000000	9.219036
938.000000	9.181915
939.000000	9.180169
940.000000	9.170687
941.000000	9.093599
942.000000	9.028691
943.000000	9.010152
944.000000	8.984844
945.000000	8.961141
946.000000	8.890276
947.000000	8.793474
948.000000	8.753757
949.000000	8.726986
950.000000	8.670438
951.000000	8.617725
952.000000	8.594939
953.000000	8.606291
954.000000	8.617497
955.000000	8.591587
956.000000	8.536406
957.000000	8.434912
958.000000	8.375838
959.000000	8.344731
960.000000	8.336286
961.000000	8.335810
962.000000	8.296280
963.000000	8.238063
964.000000	8.215371
965.000000	8.183116
966.000000	8.158838
967.000000	8.142937
968.000000	8.122675
969.000000	8.146514
970.000000	8.140336
971.000000	8.111610
972.000000	8.046831
973.000000	8.002180
974.000000	7.938920
975.000000	7.902361
976.000000	7.896162
977.000000	7.878394
978.000000	7.845115
979.000000	7.827734
980.000000	7.811362
981.000000	7.816373
982.000000	7.827477
983.000000	7.795670
984.000000	7.768853
985.000000	7.745530
986.000000	7.713816
987.000000	7.688313
988.000000	7.640179
989.000000	7.605012
990.000000	7.580837
991.000000	7.590672
992.000000	7.577015
993.000000	7.559949
994.000000	7.541470
995.000000	7.493802
996.000000	7.447259
997.000000	7.417288
998.000000	7.351709
999.000000	7.282008
1000.000000	7.212605
1001.000000	7.112294
1002.000000	7.044525
1003.000000	7.019714
1004.000000	6.979087
1005.000000	6.920396
1006.000000	6.861039
1007.000000	6.825680
1008.000000	6.790501
1009.000000	6.767751
1010.000000	6.706278
1011.000000	6.656415
1012.000000	6.634475
1013.000000	6.587628
1014.000000	6.516886
1015.000000	6.408036
1016.000000	6.328508
1017.000000	6.297596
1018.000000	6.248749
1019.000000	6.171089
1020.000000	6.135398
1021.000000	6.081018
1022.000000	6.040416
1023.000000	5.988902
1024.000000	5.916229
1025.000000	5.883224
1026.000000	5.845910
1027.000000	5.793821
1028.000000	5.761426
1029.000000	5.715088
1030.000000	5.661613
1031.000000	5.614017
1032.000000	5.568365
1033.000000	5.558097
1034.000000	5.549633
1035.000000	5.512513
1036.000000	5.499932
1037.000000	5.473687
1038.000000	5.441431
1039.000000	5.410038
1040.000000	5.409965
1041.000000	5.389209
1042.000000	5.334833
1043.000000	5.309894
1044.000000	5.296364
1045.000000	5.307936
1046.000000	5.322315
1047.000000	5.280146
1048.000000	5.232137
1049.000000	5.211763
1050.000000	5.201225
1051.000000	5.180288
1052.000000	5.158792
1053.000000	5.148995
1054.000000	5.131509
1055.000000	5.071729
1056.000000	5.051957
1057.000000	5.014040
1058.000000	4.974420
1059.000000	4.991987
1060.000000	4.942488
1061.000000	4.879421
1062.000000	4.853201
1063.000000	4.821949
1064.000000	4.786188
1065.000000	4.762517
1066.000000	4.741579
1067.000000	4.691409
1068.000000	4.663820
1069.000000	4.601619
1070.000000	4.560571
1071.000000	4.524695
1072.000000	4.453105
1073.000000	4.433982
1074.000000	4.431649
1075.000000	4.390724
1076.000000	4.383168
1077.000000	4.366317
1078.000000	4.342382
1079.000000	4.292363
1080.000000	4.250636
1081.000000	4.191175
1082.000000	4.159481
1083.000000	4.089957
1084.000000	4.071572
1085.000000	4.062118
1086.000000	4.043754
1087.000000	3.991406
1088.000000	3.952997
1089.000000	3.984838
1090.000000	3.981278
1091.000000	3.991416
1092.000000	3.993628
1093.000000	3.993533
1094.000000	3.952866
1095.000000	3.922931
1096.000000	3.927972
1097.000000	3.928121
1098.000000	3.886028
1099.000000	3.837464
1100.000000	3.838156
1101.000000	3.792394
1102.000000	3.761591
1103.000000	3.750267
1104.000000	3.778235
1105.000000	3.777358
1106.000000	3.771964
1107.000000	3.763087
1108.000000	3.716997
1109.000000	3.674320
1110.000000	3.627335
1111.000000	3.569805
1112.000000	3.564262
1113.000000	3.514378
1114.000000	3.528807
1115.000000	3.537287
1116.000000	3.556952
1117.000000	3.533357
1118.000000	3.551314
1119.000000	3.523861
1120.000000	3.491694
1121.000000	3.469109
1122.000000	3.434870
1123.000000	3.413712
1124.000000	3.361395
1125.000000	3.333311
1126.000000	3.267609
1127.000000	3.178442
1128.000000	3.153114
1129.000000	3.124306
1130.000000	3.139478
1131.000000	3.118805
1132.000000	3.078326
1133.000000	3.057575
1134.000000	3.074546
1135.000000	3.063262
1136.000000	3.109156
1137.000000	3.105071
1138.000000	3.085910
1139.000000	3.052838
1140.000000	3.083970
1141.000000	3.098059
1142.000000	3.141573
1143.000000	3.185889
1144.000000	3.126947
1145.000000	3.138796
1146.000000	3.158564
1147.000000	3.162211
1148.000000	3.160887
1149.000000	3.117480
1150.000000	3.126712
1151.000000	3.060613
1152.000000	3.045514
1153.000000	3.062684
1154.000000	3.053636
1155.000000	3.027067
1156.000000	3.030257
1157.000000	3.026642
1158.000000	3.036257
1159.000000	3.046119
1160.000000	3.067521
1161.000000	3.102510
1162.000000	3.132864
1163.000000	3.154072
1164.000000	3.157281
1165.000000	3.142123
1166.000000	3.150952
1167.000000	3.140380
1168.000000	3.171243
1169.000000	3.158087
1170.000000	3.144691
1171.000000	3.160822
1172.000000	3.165318
1173.000000	3.169887
1174.000000	3.181439
1175.000000	3.175553
1176.000000	3.183948
1177.000000	3.174254
1178.000000	3.154235
1179.000000	3.183881
1180.000000	3.183896
1181.000000	3.180971
1182.000000	3.189553
1183.000000	3.219830
1184.000000	3.282880
1185.000000	3.286471
1186.000000	3.334557
1187.000000	3.376732
1188.000000	3.358901
1189.000000	3.362725
1190.000000	3.389236
1191.000000	3.406212
1192.000000	3.421112
1193.000000	3.398113
1194.000000	3.397738
1195.000000	3.405544
1196.000000	3.386589
1197.000000	3.379997
1198.000000	3.357569
1199.000000	3.332840
1200.000000	3.330420
1201.000000	3.288550
1202.000000	3.279914
1203.000000	3.290474
1204.000000	3.339066
1205.000000	3.298283
1206.000000	3.255308
