PE UV       SUBTECH     SPECTRUM    ASCII       PEDS        4.00        
   -1
PLATY.001-TX3.ASC
23/11/30
15:38:45.00
23/11/30
15:38:45.00
Vinicio Soto Monge
PLATY 1
250,000000
1
Lambda 1050
1050L1511233
PerkinElmer UV WinLab 6.3.2.0749 / 2.02.05 Lambda 900 UV/VIS/NIR, Aug  7 2015 09:38:08

0
0
3350/servo 860,8/2
0
0
UV/VIS
1
1
1
DoubleDePol,CommonBeamDepol,RBeamAtt,SBeamAtt,60mm sphere, WB InGaAs Detector
0
0
0
0
Program
Program
3350/servo 860,8/2
3350/0,4 860,8/0,4
3350/0,4 860,8/0,4
0
20.00
 
 
 
0
 
860,8
319,2
860,8
Front
100
on
S:100 R:100
0
0
0
0
 
0
 
 
 
0
 
 
0
0
0
0
0
 
 
 
 
0
0


0
0
#HDR
-1
-1
#GR
nm
%A
1.0
0.0
2200,000000
-1,000000
1951
8
35,125412
0,217810
#DATA
284.000000	93.549436
285.000000	93.567172
286.000000	93.583065
287.000000	93.596017
288.000000	93.608501
289.000000	93.620149
290.000000	93.628024
291.000000	93.636969
292.000000	93.642791
293.000000	93.647719
294.000000	93.651054
295.000000	93.652657
296.000000	93.652109
297.000000	93.649186
298.000000	93.645857
299.000000	93.642074
300.000000	93.635325
301.000000	93.630478
302.000000	93.622880
303.000000	93.615420
304.000000	93.608211
305.000000	93.601411
306.000000	93.591650
307.000000	93.582089
308.000000	93.574249
309.000000	93.565002
310.000000	93.555213
311.000000	93.544371
312.000000	93.534323
313.000000	93.527484
314.000000	93.520360
315.000000	93.513093
316.000000	93.506423
317.000000	93.501491
318.000000	93.492135
319.000000	93.486372
320.000000	93.482134
321.000000	93.477400
322.000000	93.474251
323.000000	93.474455
324.000000	93.473599
325.000000	93.472745
326.000000	93.472598
327.000000	93.474033
328.000000	93.478566
329.000000	93.484336
330.000000	93.490264
331.000000	93.494906
332.000000	93.503304
333.000000	93.512371
334.000000	93.520073
335.000000	93.528283
336.000000	93.536038
337.000000	93.545039
338.000000	93.553975
339.000000	93.561433
340.000000	93.571022
341.000000	93.579760
342.000000	93.589521
343.000000	93.596883
344.000000	93.604665
345.000000	93.613472
346.000000	93.621030
347.000000	93.628588
348.000000	93.637408
349.000000	93.644684
350.000000	93.651092
351.000000	93.656854
352.000000	93.660754
353.000000	93.668063
354.000000	93.674924
355.000000	93.679096
356.000000	93.683656
357.000000	93.688587
358.000000	93.690248
359.000000	93.693485
360.000000	93.698542
361.000000	93.702839
362.000000	93.706995
363.000000	93.708512
364.000000	93.710343
365.000000	93.713085
366.000000	93.717261
367.000000	93.717658
368.000000	93.718444
369.000000	93.719486
370.000000	93.722572
371.000000	93.724521
372.000000	93.727103
373.000000	93.727525
374.000000	93.732433
375.000000	93.732898
376.000000	93.734321
377.000000	93.735577
378.000000	93.738236
379.000000	93.739836
380.000000	93.741843
381.000000	93.743932
382.000000	93.744844
383.000000	93.743843
384.000000	93.744029
385.000000	93.744740
386.000000	93.744253
387.000000	93.744969
388.000000	93.746275
389.000000	93.745006
390.000000	93.744899
391.000000	93.745385
392.000000	93.744501
393.000000	93.742891
394.000000	93.741081
395.000000	93.738984
396.000000	93.736575
397.000000	93.734799
398.000000	93.732477
399.000000	93.728938
400.000000	93.725024
401.000000	93.721334
402.000000	93.718865
403.000000	93.715691
404.000000	93.712194
405.000000	93.707517
406.000000	93.703046
407.000000	93.698214
408.000000	93.693984
409.000000	93.686463
410.000000	93.681039
411.000000	93.675324
412.000000	93.668335
413.000000	93.661536
414.000000	93.654226
415.000000	93.646194
416.000000	93.638130
417.000000	93.629621
418.000000	93.620537
419.000000	93.611102
420.000000	93.601059
421.000000	93.590572
422.000000	93.579342
423.000000	93.567603
424.000000	93.555201
425.000000	93.542125
426.000000	93.528750
427.000000	93.514896
428.000000	93.500717
429.000000	93.485993
430.000000	93.470727
431.000000	93.455239
432.000000	93.439031
433.000000	93.422196
434.000000	93.404984
435.000000	93.387258
436.000000	93.368965
437.000000	93.349865
438.000000	93.330221
439.000000	93.310327
440.000000	93.289558
441.000000	93.268165
442.000000	93.246371
443.000000	93.224078
444.000000	93.201489
445.000000	93.178245
446.000000	93.154613
447.000000	93.130685
448.000000	93.106264
449.000000	93.081626
450.000000	93.056717
451.000000	93.031198
452.000000	93.005256
453.000000	92.978844
454.000000	92.951877
455.000000	92.924481
456.000000	92.896928
457.000000	92.868972
458.000000	92.840619
459.000000	92.812083
460.000000	92.783047
461.000000	92.753425
462.000000	92.723223
463.000000	92.692542
464.000000	92.661078
465.000000	92.629372
466.000000	92.597129
467.000000	92.564143
468.000000	92.530552
469.000000	92.496309
470.000000	92.461582
471.000000	92.426002
472.000000	92.389629
473.000000	92.352426
474.000000	92.314247
475.000000	92.275206
476.000000	92.235310
477.000000	92.194242
478.000000	92.151805
479.000000	92.108479
480.000000	92.064312
481.000000	92.019004
482.000000	91.972740
483.000000	91.925184
484.000000	91.876129
485.000000	91.825643
486.000000	91.773660
487.000000	91.719942
488.000000	91.664769
489.000000	91.608177
490.000000	91.549616
491.000000	91.488827
492.000000	91.425925
493.000000	91.360970
494.000000	91.293483
495.000000	91.223292
496.000000	91.150676
497.000000	91.075460
498.000000	90.997072
499.000000	90.915808
500.000000	90.830997
501.000000	90.742457
502.000000	90.650294
503.000000	90.554476
504.000000	90.454543
505.000000	90.350317
506.000000	90.241889
507.000000	90.128939
508.000000	90.011114
509.000000	89.888355
510.000000	89.760719
511.000000	89.628243
512.000000	89.490684
513.000000	89.348063
514.000000	89.199937
515.000000	89.046520
516.000000	88.888288
517.000000	88.724611
518.000000	88.556180
519.000000	88.383428
520.000000	88.206128
521.000000	88.024064
522.000000	87.837994
523.000000	87.647319
524.000000	87.452495
525.000000	87.253599
526.000000	87.051095
527.000000	86.845174
528.000000	86.635906
529.000000	86.423991
530.000000	86.209416
531.000000	85.991850
532.000000	85.772011
533.000000	85.550498
534.000000	85.327362
535.000000	85.102691
536.000000	84.877138
537.000000	84.651156
538.000000	84.424671
539.000000	84.197722
540.000000	83.971165
541.000000	83.744569
542.000000	83.518701
543.000000	83.293972
544.000000	83.069851
545.000000	82.847156
546.000000	82.625152
547.000000	82.404680
548.000000	82.185964
549.000000	81.969235
550.000000	81.754132
551.000000	81.540397
552.000000	81.329299
553.000000	81.119709
554.000000	80.911233
555.000000	80.704864
556.000000	80.501051
557.000000	80.299308
558.000000	80.099593
559.000000	79.902037
560.000000	79.706720
561.000000	79.513761
562.000000	79.323020
563.000000	79.134363
564.000000	78.948247
565.000000	78.764814
566.000000	78.584166
567.000000	78.405952
568.000000	78.230571
569.000000	78.058842
570.000000	77.890498
571.000000	77.726066
572.000000	77.564824
573.000000	77.406960
574.000000	77.253730
575.000000	77.105121
576.000000	76.961906
577.000000	76.823220
578.000000	76.689304
579.000000	76.561429
580.000000	76.438769
581.000000	76.322387
582.000000	76.211998
583.000000	76.108419
584.000000	76.010532
585.000000	75.920007
586.000000	75.835773
587.000000	75.758177
588.000000	75.687901
589.000000	75.625140
590.000000	75.569682
591.000000	75.520915
592.000000	75.479203
593.000000	75.444925
594.000000	75.417305
595.000000	75.396924
596.000000	75.383814
597.000000	75.377504
598.000000	75.377589
599.000000	75.383930
600.000000	75.397063
601.000000	75.415795
602.000000	75.440539
603.000000	75.470594
604.000000	75.504647
605.000000	75.544075
606.000000	75.587427
607.000000	75.634732
608.000000	75.686060
609.000000	75.741137
610.000000	75.798567
611.000000	75.857902
612.000000	75.920050
613.000000	75.984287
614.000000	76.050283
615.000000	76.117327
616.000000	76.185489
617.000000	76.254765
618.000000	76.323751
619.000000	76.394118
620.000000	76.463541
621.000000	76.533991
622.000000	76.604072
623.000000	76.674090
624.000000	76.744421
625.000000	76.814562
626.000000	76.884554
627.000000	76.955036
628.000000	77.026099
629.000000	77.097630
630.000000	77.169821
631.000000	77.242026
632.000000	77.315256
633.000000	77.389264
634.000000	77.464052
635.000000	77.539419
636.000000	77.615712
637.000000	77.692639
638.000000	77.770633
639.000000	77.850397
640.000000	77.930933
641.000000	78.012848
642.000000	78.096428
643.000000	78.181423
644.000000	78.267075
645.000000	78.354404
646.000000	78.443104
647.000000	78.532030
648.000000	78.622048
649.000000	78.712496
650.000000	78.803229
651.000000	78.893635
652.000000	78.983124
653.000000	79.071931
654.000000	79.158449
655.000000	79.243817
656.000000	79.326652
657.000000	79.405727
658.000000	79.480722
659.000000	79.551036
660.000000	79.616181
661.000000	79.676025
662.000000	79.729209
663.000000	79.774644
664.000000	79.811927
665.000000	79.839857
666.000000	79.858421
667.000000	79.865964
668.000000	79.862759
669.000000	79.846459
670.000000	79.815881
671.000000	79.771741
672.000000	79.711754
673.000000	79.634637
674.000000	79.538766
675.000000	79.423638
676.000000	79.287377
677.000000	79.128929
678.000000	78.947074
679.000000	78.740764
680.000000	78.506730
681.000000	78.244121
682.000000	77.951995
683.000000	77.628285
684.000000	77.271788
685.000000	76.881918
686.000000	76.457258
687.000000	75.996316
688.000000	75.499159
689.000000	74.964497
690.000000	74.391696
691.000000	73.778795
692.000000	73.127777
693.000000	72.438504
694.000000	71.710235
695.000000	70.944653
696.000000	70.143147
697.000000	69.307204
698.000000	68.436813
699.000000	67.533252
700.000000	66.597960
701.000000	65.632432
702.000000	64.639296
703.000000	63.620368
704.000000	62.579572
705.000000	61.517924
706.000000	60.435310
707.000000	59.337903
708.000000	58.227243
709.000000	57.105314
710.000000	55.974321
711.000000	54.835795
712.000000	53.693726
713.000000	52.551217
714.000000	51.408132
715.000000	50.271096
716.000000	49.142342
717.000000	48.023793
718.000000	46.917323
719.000000	45.826917
720.000000	44.754176
721.000000	43.699959
722.000000	42.667662
723.000000	41.658388
724.000000	40.675973
725.000000	39.720922
726.000000	38.794506
727.000000	37.896500
728.000000	37.027794
729.000000	36.191910
730.000000	35.386491
731.000000	34.612060
732.000000	33.866775
733.000000	33.152428
734.000000	32.467677
735.000000	31.812487
736.000000	31.186091
737.000000	30.587624
738.000000	30.016879
739.000000	29.471489
740.000000	28.949101
741.000000	28.450133
742.000000	27.973673
743.000000	27.519002
744.000000	27.083173
745.000000	26.664919
746.000000	26.266133
747.000000	25.885221
748.000000	25.519152
749.000000	25.169710
750.000000	24.832953
751.000000	24.504935
752.000000	24.186920
753.000000	23.878343
754.000000	23.579902
755.000000	23.293399
756.000000	23.015501
757.000000	22.746694
758.000000	22.487413
759.000000	22.234269
760.000000	21.986580
761.000000	21.743648
762.000000	21.505506
763.000000	21.274056
764.000000	21.049389
765.000000	20.829805
766.000000	20.610698
767.000000	20.396016
768.000000	20.187763
769.000000	19.984405
770.000000	19.784212
771.000000	19.585969
772.000000	19.387648
773.000000	19.191750
774.000000	18.998891
775.000000	18.807762
776.000000	18.622755
777.000000	18.438402
778.000000	18.254297
779.000000	18.071844
780.000000	17.893975
781.000000	17.717876
782.000000	17.542933
783.000000	17.369495
784.000000	17.197317
785.000000	17.027424
786.000000	16.860437
787.000000	16.695549
788.000000	16.536167
789.000000	16.376694
790.000000	16.215918
791.000000	16.053948
792.000000	15.896165
793.000000	15.735455
794.000000	15.577840
795.000000	15.419542
796.000000	15.265357
797.000000	15.114181
798.000000	14.963685
799.000000	14.811304
800.000000	14.656944
801.000000	14.506843
802.000000	14.356712
803.000000	14.209252
804.000000	14.062128
805.000000	13.918012
806.000000	13.776643
807.000000	13.634788
808.000000	13.490840
809.000000	13.346134
810.000000	13.208283
811.000000	13.068281
812.000000	12.932798
813.000000	12.801544
814.000000	12.669150
815.000000	12.539944
816.000000	12.412899
817.000000	12.280907
818.000000	12.152632
819.000000	12.026798
820.000000	11.898093
821.000000	11.773409
822.000000	11.648499
823.000000	11.525453
824.000000	11.407765
825.000000	11.286037
826.000000	11.169077
827.000000	11.045121
828.000000	10.926749
829.000000	10.805927
830.000000	10.693489
831.000000	10.584127
832.000000	10.465663
833.000000	10.355199
834.000000	10.248855
835.000000	10.142093
836.000000	10.039407
837.000000	9.940936
838.000000	9.830214
839.000000	9.728590
840.000000	9.628074
841.000000	9.525047
842.000000	9.428691
843.000000	9.337960
844.000000	9.242618
845.000000	9.139775
846.000000	9.051547
847.000000	8.954317
848.000000	8.856605
849.000000	8.761107
850.000000	8.672790
851.000000	8.573303
852.000000	8.482898
853.000000	8.383936
854.000000	8.295742
855.000000	8.190923
856.000000	8.095356
857.000000	8.036198
858.000000	8.044201
859.000000	7.933842
860.000000	7.824781
861.000000	7.725729
862.000000	7.675507
863.000000	7.601306
864.000000	7.515706
865.000000	7.414743
866.000000	7.341712
867.000000	7.273523
868.000000	7.189429
869.000000	7.112199
870.000000	7.034345
871.000000	6.934827
872.000000	6.863771
873.000000	6.791275
874.000000	6.691910
875.000000	6.603847
876.000000	6.539183
877.000000	6.468843
878.000000	6.359664
879.000000	6.264289
880.000000	6.182524
881.000000	6.101413
882.000000	5.989718
883.000000	5.886479
884.000000	5.790589
885.000000	5.720630
886.000000	5.631004
887.000000	5.574783
888.000000	5.503670
889.000000	5.404460
890.000000	5.333384
891.000000	5.265221
892.000000	5.171809
893.000000	5.005569
894.000000	4.944581
895.000000	4.876936
896.000000	4.824278
897.000000	4.709456
898.000000	4.603220
899.000000	4.545587
900.000000	4.513795
901.000000	4.447151
902.000000	4.391606
903.000000	4.324488
904.000000	4.235912
905.000000	4.163574
906.000000	4.119334
907.000000	4.029070
908.000000	3.952065
909.000000	3.904583
910.000000	3.856883
911.000000	3.807016
912.000000	3.779871
913.000000	3.789715
914.000000	3.765489
915.000000	3.740927
916.000000	3.691067
917.000000	3.660217
918.000000	3.651360
919.000000	3.613847
920.000000	3.560637
921.000000	3.548296
922.000000	3.494552
923.000000	3.436064
924.000000	3.402117
925.000000	3.359616
926.000000	3.315302
927.000000	3.282465
928.000000	3.237748
929.000000	3.221681
930.000000	3.225465
931.000000	3.177922
932.000000	3.157890
933.000000	3.150253
934.000000	3.088073
935.000000	3.039332
936.000000	2.998163
937.000000	2.962395
938.000000	2.943364
939.000000	2.934389
940.000000	2.878402
941.000000	2.840152
942.000000	2.788449
943.000000	2.761200
944.000000	2.748406
945.000000	2.726091
946.000000	2.690175
947.000000	2.578458
948.000000	2.504701
949.000000	2.502016
950.000000	2.479131
951.000000	2.458518
952.000000	2.455956
953.000000	2.401916
954.000000	2.379510
955.000000	2.348910
956.000000	2.294160
957.000000	2.250085
958.000000	2.212720
959.000000	2.202320
960.000000	2.222190
961.000000	2.242206
962.000000	2.218750
963.000000	2.209528
964.000000	2.174774
965.000000	2.135682
966.000000	2.152700
967.000000	2.135578
968.000000	2.109057
969.000000	2.136334
970.000000	2.136251
971.000000	2.099987
972.000000	2.042119
973.000000	2.001501
974.000000	1.960538
975.000000	1.974940
976.000000	1.971861
977.000000	2.022242
978.000000	2.035649
979.000000	2.020799
980.000000	1.999263
981.000000	1.972513
982.000000	2.021180
983.000000	2.031012
984.000000	1.970253
985.000000	1.919981
986.000000	1.891362
987.000000	1.883534
988.000000	1.896340
989.000000	1.889300
990.000000	1.874155
991.000000	1.870824
992.000000	1.848692
993.000000	1.845903
994.000000	1.817881
995.000000	1.779468
996.000000	1.752634
997.000000	1.739069
998.000000	1.688517
999.000000	1.647757
1000.000000	1.624640
1001.000000	1.576805
1002.000000	1.574577
1003.000000	1.573044
1004.000000	1.550285
1005.000000	1.522858
1006.000000	1.517614
1007.000000	1.522681
1008.000000	1.496421
1009.000000	1.499208
1010.000000	1.487743
1011.000000	1.475163
1012.000000	1.440249
1013.000000	1.407823
1014.000000	1.397366
1015.000000	1.384641
1016.000000	1.373662
1017.000000	1.332659
1018.000000	1.281565
1019.000000	1.291264
1020.000000	1.293990
1021.000000	1.240470
1022.000000	1.200395
1023.000000	1.184239
1024.000000	1.172318
1025.000000	1.165002
1026.000000	1.176906
1027.000000	1.162830
1028.000000	1.155383
1029.000000	1.156762
1030.000000	1.131224
1031.000000	1.087035
1032.000000	1.077265
1033.000000	1.105659
1034.000000	1.122145
1035.000000	1.086364
1036.000000	1.058478
1037.000000	1.042329
1038.000000	1.027991
1039.000000	1.007355
1040.000000	0.978261
1041.000000	0.962174
1042.000000	0.937080
1043.000000	0.896348
1044.000000	0.860928
1045.000000	0.858596
1046.000000	0.854488
1047.000000	0.825484
1048.000000	0.796951
1049.000000	0.780958
1050.000000	0.769536
1051.000000	0.751882
1052.000000	0.760938
1053.000000	0.782817
1054.000000	0.783766
1055.000000	0.771912
1056.000000	0.810811
1057.000000	0.819836
1058.000000	0.803397
1059.000000	0.787324
1060.000000	0.772841
1061.000000	0.735280
1062.000000	0.755394
1063.000000	0.771679
1064.000000	0.773116
1065.000000	0.766546
1066.000000	0.756166
1067.000000	0.725539
1068.000000	0.716522
1069.000000	0.706063
1070.000000	0.691935
1071.000000	0.685258
1072.000000	0.647426
1073.000000	0.672657
1074.000000	0.673439
1075.000000	0.692675
1076.000000	0.697863
1077.000000	0.740463
1078.000000	0.828018
1079.000000	0.858073
1080.000000	0.828933
1081.000000	0.789111
1082.000000	0.788546
1083.000000	0.755047
1084.000000	0.726732
1085.000000	0.739744
1086.000000	0.713517
1087.000000	0.685875
1088.000000	0.657331
1089.000000	0.644396
1090.000000	0.614027
1091.000000	0.572549
1092.000000	0.572629
1093.000000	0.572129
1094.000000	0.560036
1095.000000	0.523077
1096.000000	0.546865
1097.000000	0.549840
1098.000000	0.536278
1099.000000	0.496451
1100.000000	0.495200
1101.000000	0.506041
1102.000000	0.487455
1103.000000	0.461018
1104.000000	0.456432
1105.000000	0.482648
1106.000000	0.475219
1107.000000	0.484903
1108.000000	0.443545
1109.000000	0.423131
1110.000000	0.381724
1111.000000	0.372233
1112.000000	0.339809
1113.000000	0.273420
1114.000000	0.258915
1115.000000	0.288981
1116.000000	0.345827
1117.000000	0.334391
1118.000000	0.403090
1119.000000	0.427554
1120.000000	0.387889
1121.000000	0.408771
1122.000000	0.388368
1123.000000	0.363808
1124.000000	0.336090
1125.000000	0.374196
1126.000000	0.409302
1127.000000	0.363792
1128.000000	0.320240
1129.000000	0.313098
1130.000000	0.371525
1131.000000	0.329625
1132.000000	0.345419
1133.000000	0.339656
1134.000000	0.344711
1135.000000	0.371073
1136.000000	0.393150
1137.000000	0.419734
1138.000000	0.423916
1139.000000	0.421594
1140.000000	0.435711
1141.000000	0.461290
1142.000000	0.471921
1143.000000	0.501641
1144.000000	0.513891
1145.000000	0.557047
1146.000000	0.565802
1147.000000	0.593823
1148.000000	0.629646
1149.000000	0.611105
1150.000000	0.644556
1151.000000	0.601045
1152.000000	0.615639
1153.000000	0.592279
1154.000000	0.624748
1155.000000	0.646566
1156.000000	0.683526
1157.000000	0.750689
1158.000000	0.831214
1159.000000	0.887712
1160.000000	0.947808
1161.000000	0.989252
1162.000000	1.056640
1163.000000	1.110233
1164.000000	1.164728
1165.000000	1.180044
1166.000000	1.233443
1167.000000	1.258864
1168.000000	1.310340
1169.000000	1.381708
1170.000000	1.424851
1171.000000	1.454297
1172.000000	1.504415
1173.000000	1.559744
1174.000000	1.632396
1175.000000	1.715851
1176.000000	1.769049
1177.000000	1.836281
1178.000000	1.856047
1179.000000	1.855384
1180.000000	1.878504
1181.000000	1.909052
1182.000000	1.936652
1183.000000	1.983150
1184.000000	2.060499
1185.000000	2.081489
1186.000000	2.137707
1187.000000	2.210723
1188.000000	2.268217
1189.000000	2.270798
1190.000000	2.319954
1191.000000	2.335150
1192.000000	2.349711
1193.000000	2.320444
1194.000000	2.339238
1195.000000	2.333485
1196.000000	2.331134
1197.000000	2.338235
1198.000000	2.375341
1199.000000	2.377944
1200.000000	2.400834
1201.000000	2.416961
1202.000000	2.396723
1203.000000	2.402358
1204.000000	2.405390
1205.000000	2.389217
1206.000000	2.379309
1207.000000	2.354348
1208.000000	2.345750
1209.000000	2.324347
1210.000000	2.289873
