PE UV       SUBTECH     SPECTRUM    ASCII       PEDS        4.00        
   -1
C.OPTI.8.17-TX3.ASC
23/11/29
14:44:53.00
23/11/29
14:44:53.00
Vinicio Soto Monge
C. OPTIMA #81 7
250,000000
1
Lambda 1050
1050L1511233
PerkinElmer UV WinLab 6.3.2.0749 / 2.02.05 Lambda 900 UV/VIS/NIR, Aug  7 2015 09:38:08

0
0
3350/servo 860,8/2
0
0
UV/VIS
1
1
1
DoubleDePol,CommonBeamDepol,RBeamAtt,SBeamAtt,60mm sphere, WB InGaAs Detector
0
0
0
0
Program
Program
3350/servo 860,8/2
3350/0,4 860,8/0,4
3350/0,4 860,8/0,4
0
20.00
 
 
 
0
 
860,8
319,2
860,8
Front
100
on
S:100 R:100
0
0
0
0
 
0
 
 
 
0
 
 
0
0
0
0
0
 
 
 
 
0
0


0
0
#HDR
-1
-1
#GR
nm
%A
1.0
0.0
2200,000000
-1,000000
1951
8
42,632739
0,179440
#DATA
284.000000	94.067449
285.000000	94.080722
286.000000	94.092998
287.000000	94.102275
288.000000	94.111800
289.000000	94.121085
290.000000	94.127973
291.000000	94.134464
292.000000	94.141322
293.000000	94.148523
294.000000	94.153282
295.000000	94.157036
296.000000	94.161457
297.000000	94.167499
298.000000	94.171867
299.000000	94.176223
300.000000	94.179264
301.000000	94.181360
302.000000	94.184252
303.000000	94.187806
304.000000	94.189846
305.000000	94.193013
306.000000	94.196278
307.000000	94.199005
308.000000	94.203037
309.000000	94.206236
310.000000	94.210242
311.000000	94.213180
312.000000	94.215858
313.000000	94.220597
314.000000	94.225319
315.000000	94.229935
316.000000	94.234002
317.000000	94.245124
318.000000	94.254032
319.000000	94.263118
320.000000	94.268959
321.000000	94.277300
322.000000	94.283944
323.000000	94.291956
324.000000	94.300130
325.000000	94.306904
326.000000	94.314776
327.000000	94.319530
328.000000	94.323375
329.000000	94.329933
330.000000	94.336017
331.000000	94.340607
332.000000	94.342208
333.000000	94.346450
334.000000	94.348011
335.000000	94.348949
336.000000	94.349506
337.000000	94.347535
338.000000	94.344735
339.000000	94.340752
340.000000	94.335941
341.000000	94.327980
342.000000	94.318039
343.000000	94.305187
344.000000	94.292618
345.000000	94.277060
346.000000	94.256685
347.000000	94.235059
348.000000	94.209237
349.000000	94.180503
350.000000	94.147421
351.000000	94.108287
352.000000	94.059759
353.000000	94.007717
354.000000	93.950283
355.000000	93.888968
356.000000	93.817673
357.000000	93.740928
358.000000	93.653010
359.000000	93.555633
360.000000	93.450528
361.000000	93.334073
362.000000	93.206965
363.000000	93.068450
364.000000	92.914093
365.000000	92.745933
366.000000	92.563781
367.000000	92.370155
368.000000	92.158953
369.000000	91.931476
370.000000	91.688819
371.000000	91.428119
372.000000	91.150375
373.000000	90.853377
374.000000	90.540425
375.000000	90.210191
376.000000	89.859830
377.000000	89.480606
378.000000	89.083288
379.000000	88.666437
380.000000	88.232083
381.000000	87.782151
382.000000	87.313032
383.000000	86.827568
384.000000	86.326228
385.000000	85.811173
386.000000	85.283818
387.000000	84.744657
388.000000	84.193151
389.000000	83.632113
390.000000	83.064098
391.000000	82.490451
392.000000	81.911917
393.000000	81.331398
394.000000	80.749095
395.000000	80.167048
396.000000	79.588011
397.000000	79.014362
398.000000	78.444775
399.000000	77.882400
400.000000	77.327891
401.000000	76.783207
402.000000	76.248201
403.000000	75.724454
404.000000	75.213169
405.000000	74.716802
406.000000	74.235856
407.000000	73.771762
408.000000	73.325875
409.000000	72.896509
410.000000	72.484854
411.000000	72.096010
412.000000	71.739011
413.000000	71.403657
414.000000	71.089966
415.000000	70.799460
416.000000	70.532788
417.000000	70.289668
418.000000	70.070202
419.000000	69.874844
420.000000	69.702500
421.000000	69.553494
422.000000	69.428485
423.000000	69.326706
424.000000	69.247883
425.000000	69.191335
426.000000	69.156570
427.000000	69.143818
428.000000	69.152028
429.000000	69.180220
430.000000	69.226928
431.000000	69.290427
432.000000	69.370202
433.000000	69.464768
434.000000	69.573069
435.000000	69.692737
436.000000	69.820423
437.000000	69.954301
438.000000	70.092942
439.000000	70.234598
440.000000	70.374908
441.000000	70.511854
442.000000	70.644220
443.000000	70.770709
444.000000	70.889490
445.000000	70.997895
446.000000	71.095984
447.000000	71.182812
448.000000	71.258734
449.000000	71.323472
450.000000	71.376509
451.000000	71.417593
452.000000	71.446898
453.000000	71.464575
454.000000	71.471017
455.000000	71.466848
456.000000	71.451999
457.000000	71.425505
458.000000	71.387950
459.000000	71.339950
460.000000	71.281161
461.000000	71.211839
462.000000	71.131979
463.000000	71.042134
464.000000	70.943612
465.000000	70.836950
466.000000	70.723392
467.000000	70.603701
468.000000	70.479220
469.000000	70.351211
470.000000	70.221491
471.000000	70.092630
472.000000	69.965810
473.000000	69.842527
474.000000	69.723767
475.000000	69.611103
476.000000	69.505649
477.000000	69.407679
478.000000	69.316709
479.000000	69.233534
480.000000	69.159860
481.000000	69.094331
482.000000	69.036048
483.000000	68.983584
484.000000	68.935913
485.000000	68.892929
486.000000	68.853463
487.000000	68.816635
488.000000	68.782243
489.000000	68.748939
490.000000	68.716208
491.000000	68.684195
492.000000	68.653365
493.000000	68.623420
494.000000	68.593053
495.000000	68.563612
496.000000	68.535672
497.000000	68.509009
498.000000	68.482207
499.000000	68.454737
500.000000	68.426959
501.000000	68.398399
502.000000	68.367970
503.000000	68.335186
504.000000	68.298848
505.000000	68.257764
506.000000	68.211493
507.000000	68.159056
508.000000	68.099235
509.000000	68.030775
510.000000	67.953835
511.000000	67.868287
512.000000	67.772901
513.000000	67.668287
514.000000	67.553745
515.000000	67.427833
516.000000	67.291891
517.000000	67.145683
518.000000	66.990317
519.000000	66.825082
520.000000	66.649280
521.000000	66.463025
522.000000	66.266692
523.000000	66.059175
524.000000	65.841396
525.000000	65.613334
526.000000	65.374690
527.000000	65.124822
528.000000	64.863020
529.000000	64.590821
530.000000	64.307119
531.000000	64.011773
532.000000	63.705280
533.000000	63.389322
534.000000	63.064038
535.000000	62.729874
536.000000	62.386455
537.000000	62.036652
538.000000	61.680816
539.000000	61.320221
540.000000	60.955866
541.000000	60.588726
542.000000	60.220975
543.000000	59.853124
544.000000	59.487179
545.000000	59.123190
546.000000	58.762270
547.000000	58.405788
548.000000	58.055179
549.000000	57.711913
550.000000	57.377444
551.000000	57.049600
552.000000	56.731167
553.000000	56.420716
554.000000	56.119617
555.000000	55.828576
556.000000	55.548178
557.000000	55.278529
558.000000	55.020339
559.000000	54.773304
560.000000	54.534702
561.000000	54.307560
562.000000	54.092235
563.000000	53.887204
564.000000	53.692009
565.000000	53.507387
566.000000	53.331317
567.000000	53.163573
568.000000	53.004030
569.000000	52.851679
570.000000	52.705972
571.000000	52.566352
572.000000	52.430250
573.000000	52.298147
574.000000	52.167346
575.000000	52.039241
576.000000	51.912816
577.000000	51.786579
578.000000	51.661250
579.000000	51.535933
580.000000	51.410868
581.000000	51.288506
582.000000	51.167051
583.000000	51.046698
584.000000	50.926644
585.000000	50.806518
586.000000	50.687418
587.000000	50.571210
588.000000	50.458345
589.000000	50.349669
590.000000	50.245413
591.000000	50.145351
592.000000	50.051188
593.000000	49.963128
594.000000	49.880402
595.000000	49.806799
596.000000	49.739126
597.000000	49.676013
598.000000	49.619969
599.000000	49.570139
600.000000	49.527918
601.000000	49.491946
602.000000	49.463358
603.000000	49.440295
604.000000	49.423129
605.000000	49.412183
606.000000	49.407612
607.000000	49.409415
608.000000	49.416378
609.000000	49.431261
610.000000	49.452631
611.000000	49.481178
612.000000	49.515589
613.000000	49.557121
614.000000	49.605193
615.000000	49.660581
616.000000	49.719430
617.000000	49.783647
618.000000	49.852594
619.000000	49.926333
620.000000	50.003630
621.000000	50.084525
622.000000	50.167173
623.000000	50.251256
624.000000	50.336117
625.000000	50.420675
626.000000	50.504823
627.000000	50.586759
628.000000	50.665839
629.000000	50.741657
630.000000	50.813428
631.000000	50.879998
632.000000	50.943322
633.000000	51.001573
634.000000	51.056075
635.000000	51.103917
636.000000	51.146193
637.000000	51.181553
638.000000	51.211597
639.000000	51.234744
640.000000	51.250652
641.000000	51.258198
642.000000	51.258397
643.000000	51.250848
644.000000	51.235507
645.000000	51.212179
646.000000	51.180236
647.000000	51.141650
648.000000	51.094912
649.000000	51.041269
650.000000	50.979112
651.000000	50.910858
652.000000	50.836507
653.000000	50.755261
654.000000	50.667385
655.000000	50.573727
656.000000	50.475729
657.000000	50.371755
658.000000	50.261780
659.000000	50.145427
660.000000	50.022941
661.000000	49.894983
662.000000	49.761978
663.000000	49.622840
664.000000	49.478836
665.000000	49.330158
666.000000	49.176642
667.000000	49.016651
668.000000	48.851326
669.000000	48.678242
670.000000	48.497661
671.000000	48.311571
672.000000	48.119375
673.000000	47.918755
674.000000	47.712325
675.000000	47.498601
676.000000	47.279987
677.000000	47.055821
678.000000	46.826865
679.000000	46.592285
680.000000	46.351672
681.000000	46.106316
682.000000	45.854933
683.000000	45.598309
684.000000	45.335716
685.000000	45.068576
686.000000	44.796836
687.000000	44.520415
688.000000	44.241068
689.000000	43.956712
690.000000	43.669545
691.000000	43.378062
692.000000	43.083236
693.000000	42.787793
694.000000	42.492084
695.000000	42.196814
696.000000	41.901005
697.000000	41.606390
698.000000	41.313491
699.000000	41.020559
700.000000	40.727609
701.000000	40.436333
702.000000	40.147474
703.000000	39.860971
704.000000	39.576541
705.000000	39.293368
706.000000	39.012339
707.000000	38.733934
708.000000	38.458603
709.000000	38.186954
710.000000	37.919115
711.000000	37.652192
712.000000	37.389010
713.000000	37.130889
714.000000	36.876592
715.000000	36.627415
716.000000	36.382170
717.000000	36.142355
718.000000	35.908021
719.000000	35.680310
720.000000	35.456588
721.000000	35.237222
722.000000	35.023517
723.000000	34.813312
724.000000	34.609650
725.000000	34.409700
726.000000	34.214323
727.000000	34.021748
728.000000	33.831770
729.000000	33.645791
730.000000	33.460946
731.000000	33.279047
732.000000	33.097290
733.000000	32.916612
734.000000	32.739156
735.000000	32.564042
736.000000	32.390511
737.000000	32.217237
738.000000	32.046432
739.000000	31.879892
740.000000	31.717136
741.000000	31.556451
742.000000	31.398679
743.000000	31.244168
744.000000	31.091015
745.000000	30.940348
746.000000	30.794392
747.000000	30.650937
748.000000	30.507054
749.000000	30.364107
750.000000	30.223682
751.000000	30.084598
752.000000	29.944257
753.000000	29.801512
754.000000	29.659356
755.000000	29.518613
756.000000	29.377142
757.000000	29.236830
758.000000	29.098126
759.000000	28.961044
760.000000	28.825947
761.000000	28.690737
762.000000	28.555948
763.000000	28.421537
764.000000	28.285970
765.000000	28.151737
766.000000	28.015618
767.000000	27.882357
768.000000	27.753394
769.000000	27.624735
770.000000	27.495909
771.000000	27.365238
772.000000	27.234932
773.000000	27.106231
774.000000	26.976718
775.000000	26.845283
776.000000	26.715708
777.000000	26.584437
778.000000	26.454112
779.000000	26.325534
780.000000	26.196447
781.000000	26.065368
782.000000	25.934157
783.000000	25.804201
784.000000	25.676220
785.000000	25.547328
786.000000	25.414069
787.000000	25.286208
788.000000	25.164089
789.000000	25.042842
790.000000	24.917639
791.000000	24.791652
792.000000	24.667131
793.000000	24.541352
794.000000	24.416283
795.000000	24.290290
796.000000	24.165661
797.000000	24.040282
798.000000	23.915131
799.000000	23.787735
800.000000	23.660382
801.000000	23.535717
802.000000	23.409434
803.000000	23.281355
804.000000	23.152311
805.000000	23.025158
806.000000	22.900089
807.000000	22.774927
808.000000	22.647520
809.000000	22.519971
810.000000	22.395075
811.000000	22.268196
812.000000	22.144597
813.000000	22.021063
814.000000	21.896855
815.000000	21.774049
816.000000	21.648801
817.000000	21.523581
818.000000	21.398811
819.000000	21.274726
820.000000	21.150370
821.000000	21.027235
822.000000	20.901199
823.000000	20.772263
824.000000	20.645943
825.000000	20.524345
826.000000	20.407349
827.000000	20.283471
828.000000	20.159026
829.000000	20.033554
830.000000	19.911177
831.000000	19.793756
832.000000	19.675539
833.000000	19.555355
834.000000	19.439893
835.000000	19.325169
836.000000	19.216375
837.000000	19.102045
838.000000	18.980497
839.000000	18.864604
840.000000	18.753127
841.000000	18.640277
842.000000	18.529308
843.000000	18.418459
844.000000	18.304274
845.000000	18.194427
846.000000	18.088537
847.000000	17.972947
848.000000	17.867514
849.000000	17.760140
850.000000	17.661246
851.000000	17.552817
852.000000	17.449216
853.000000	17.347568
854.000000	17.247377
855.000000	17.136954
856.000000	17.031660
857.000000	16.939850
858.000000	16.842768
859.000000	16.717990
860.000000	16.574373
861.000000	16.440537
862.000000	16.318988
863.000000	16.209543
864.000000	16.085129
865.000000	15.945506
866.000000	15.846590
867.000000	15.719308
868.000000	15.598687
869.000000	15.486935
870.000000	15.361368
871.000000	15.250210
872.000000	15.139243
873.000000	15.020979
874.000000	14.896326
875.000000	14.793934
876.000000	14.699850
877.000000	14.569431
878.000000	14.434936
879.000000	14.301175
880.000000	14.182343
881.000000	14.058114
882.000000	13.939698
883.000000	13.823141
884.000000	13.706665
885.000000	13.582472
886.000000	13.468573
887.000000	13.359896
888.000000	13.214557
889.000000	13.101990
890.000000	12.983291
891.000000	12.866190
892.000000	12.760126
893.000000	12.657391
894.000000	12.562920
895.000000	12.503267
896.000000	12.419116
897.000000	12.349636
898.000000	12.261266
899.000000	12.170567
900.000000	12.125485
901.000000	12.019134
902.000000	11.947566
903.000000	11.887959
904.000000	11.792388
905.000000	11.711583
906.000000	11.645237
907.000000	11.567003
908.000000	11.507722
909.000000	11.423024
910.000000	11.319278
911.000000	11.230828
912.000000	11.220922
913.000000	11.195194
914.000000	11.140532
915.000000	11.081922
916.000000	11.038891
917.000000	10.967881
918.000000	10.920613
919.000000	10.878443
920.000000	10.830259
921.000000	10.789396
922.000000	10.747719
923.000000	10.718576
924.000000	10.660441
925.000000	10.603236
926.000000	10.560663
927.000000	10.485481
928.000000	10.414650
929.000000	10.381069
930.000000	10.340719
931.000000	10.296869
932.000000	10.242900
933.000000	10.168821
934.000000	10.105672
935.000000	10.047921
936.000000	10.002246
937.000000	9.970409
938.000000	9.914302
939.000000	9.866301
940.000000	9.804687
941.000000	9.732647
942.000000	9.684481
943.000000	9.622631
944.000000	9.575804
945.000000	9.545571
946.000000	9.495134
947.000000	9.374688
948.000000	9.308704
949.000000	9.293310
950.000000	9.242271
951.000000	9.195204
952.000000	9.156648
953.000000	9.083415
954.000000	9.002099
955.000000	8.930977
956.000000	8.844935
957.000000	8.767566
958.000000	8.703456
959.000000	8.652837
960.000000	8.624440
961.000000	8.607387
962.000000	8.559284
963.000000	8.522063
964.000000	8.456337
965.000000	8.375036
966.000000	8.321894
967.000000	8.253139
968.000000	8.216465
969.000000	8.186476
970.000000	8.124634
971.000000	8.068516
972.000000	7.979057
973.000000	7.920325
974.000000	7.869775
975.000000	7.851749
976.000000	7.813890
977.000000	7.751757
978.000000	7.716410
979.000000	7.700954
980.000000	7.631079
981.000000	7.577745
982.000000	7.544696
983.000000	7.486595
984.000000	7.415309
985.000000	7.341209
986.000000	7.268154
987.000000	7.219453
988.000000	7.180592
989.000000	7.134765
990.000000	7.101183
991.000000	7.084757
992.000000	7.015076
993.000000	6.967491
994.000000	6.917003
995.000000	6.853585
996.000000	6.775005
997.000000	6.742561
998.000000	6.673492
999.000000	6.601724
1000.000000	6.547189
1001.000000	6.504819
1002.000000	6.480889
1003.000000	6.448136
1004.000000	6.421125
1005.000000	6.387775
1006.000000	6.357975
1007.000000	6.334444
1008.000000	6.268171
1009.000000	6.234057
1010.000000	6.184651
1011.000000	6.134266
1012.000000	6.110229
1013.000000	6.067702
1014.000000	6.024979
1015.000000	5.998321
1016.000000	5.944320
1017.000000	5.911194
1018.000000	5.871509
1019.000000	5.825102
1020.000000	5.804731
1021.000000	5.747585
1022.000000	5.717843
1023.000000	5.688055
1024.000000	5.660891
1025.000000	5.632556
1026.000000	5.607071
1027.000000	5.580643
1028.000000	5.543170
1029.000000	5.509625
1030.000000	5.484321
1031.000000	5.442973
1032.000000	5.401737
1033.000000	5.386295
1034.000000	5.381245
1035.000000	5.352220
1036.000000	5.288054
1037.000000	5.244448
1038.000000	5.201908
1039.000000	5.149852
1040.000000	5.102814
1041.000000	5.049124
1042.000000	5.004508
1043.000000	4.959719
1044.000000	4.903206
1045.000000	4.872109
1046.000000	4.837827
1047.000000	4.770715
1048.000000	4.725376
1049.000000	4.687914
1050.000000	4.661585
1051.000000	4.644618
1052.000000	4.623210
1053.000000	4.602235
1054.000000	4.585571
1055.000000	4.538980
1056.000000	4.522209
1057.000000	4.493009
1058.000000	4.446123
1059.000000	4.388838
1060.000000	4.306822
1061.000000	4.239510
1062.000000	4.239760
1063.000000	4.222912
1064.000000	4.182093
1065.000000	4.139217
1066.000000	4.093792
1067.000000	4.045352
1068.000000	4.002323
1069.000000	3.949313
1070.000000	3.898744
1071.000000	3.899189
1072.000000	3.859307
1073.000000	3.844994
1074.000000	3.821771
1075.000000	3.811255
1076.000000	3.791355
1077.000000	3.773218
1078.000000	3.795039
1079.000000	3.805649
1080.000000	3.776512
1081.000000	3.725077
1082.000000	3.731083
1083.000000	3.686175
1084.000000	3.646930
1085.000000	3.624288
1086.000000	3.590708
1087.000000	3.536703
1088.000000	3.513184
1089.000000	3.494700
1090.000000	3.493571
1091.000000	3.483906
1092.000000	3.470886
1093.000000	3.456627
1094.000000	3.455567
1095.000000	3.454528
1096.000000	3.443660
1097.000000	3.399488
1098.000000	3.379010
1099.000000	3.357566
1100.000000	3.365683
1101.000000	3.381693
1102.000000	3.367678
1103.000000	3.364831
1104.000000	3.372839
1105.000000	3.402213
1106.000000	3.387834
1107.000000	3.369782
1108.000000	3.348655
1109.000000	3.335710
1110.000000	3.293767
1111.000000	3.263900
1112.000000	3.233983
1113.000000	3.165313
1114.000000	3.130138
1115.000000	3.119066
1116.000000	3.141243
1117.000000	3.078689
1118.000000	3.089284
1119.000000	3.078164
1120.000000	3.069375
1121.000000	3.077263
1122.000000	3.058812
1123.000000	2.996077
1124.000000	2.952631
1125.000000	2.921565
1126.000000	2.925259
1127.000000	2.889501
1128.000000	2.871736
1129.000000	2.841059
1130.000000	2.857695
1131.000000	2.851008
1132.000000	2.840911
1133.000000	2.820277
1134.000000	2.748035
1135.000000	2.735524
1136.000000	2.720716
1137.000000	2.713153
1138.000000	2.694729
1139.000000	2.679946
1140.000000	2.664240
1141.000000	2.679375
1142.000000	2.670287
1143.000000	2.669808
1144.000000	2.684569
1145.000000	2.709413
1146.000000	2.736317
1147.000000	2.748312
1148.000000	2.814793
1149.000000	2.784720
1150.000000	2.805270
1151.000000	2.807624
1152.000000	2.834964
1153.000000	2.824489
1154.000000	2.853387
1155.000000	2.865165
1156.000000	2.864216
1157.000000	2.914399
1158.000000	2.972456
1159.000000	3.022167
1160.000000	3.060357
1161.000000	3.073709
1162.000000	3.117288
1163.000000	3.137840
1164.000000	3.197071
1165.000000	3.206359
1166.000000	3.255105
1167.000000	3.282015
1168.000000	3.317679
1169.000000	3.439399
1170.000000	3.498214
1171.000000	3.532716
1172.000000	3.570857
1173.000000	3.606957
1174.000000	3.637499
1175.000000	3.699629
1176.000000	3.734359
1177.000000	3.775501
1178.000000	3.811602
1179.000000	3.796806
1180.000000	3.811539
1181.000000	3.818260
1182.000000	3.844019
1183.000000	3.835344
1184.000000	3.919840
1185.000000	3.971176
1186.000000	4.001935
1187.000000	4.067232
1188.000000	4.105714
1189.000000	4.101819
1190.000000	4.114394
1191.000000	4.150046
1192.000000	4.145260
1193.000000	4.150016
1194.000000	4.157215
1195.000000	4.181202
1196.000000	4.202214
1197.000000	4.228871
1198.000000	4.248952
1199.000000	4.234226
1200.000000	4.241890
1201.000000	4.212911
1202.000000	4.203170
1203.000000	4.216129
1204.000000	4.203719
1205.000000	4.170054
