PE UV       SUBTECH     SPECTRUM    ASCII       PEDS        4.00        
   -1
PELID.001-TX3.ASC
23/11/30
15:17:19.00
23/11/30
15:17:19.00
Vinicio Soto Monge
PELID 1
250,000000
1
Lambda 1050
1050L1511233
PerkinElmer UV WinLab 6.3.2.0749 / 2.02.05 Lambda 900 UV/VIS/NIR, Aug  7 2015 09:38:08

0
0
3350/servo 860,8/2
0
0
UV/VIS
1
1
1
DoubleDePol,CommonBeamDepol,RBeamAtt,SBeamAtt,60mm sphere, WB InGaAs Detector
0
0
0
0
Program
Program
3350/servo 860,8/2
3350/0,4 860,8/0,4
3350/0,4 860,8/0,4
0
20.00
 
 
 
0
 
860,8
319,2
860,8
Front
100
on
S:100 R:100
0
0
0
0
 
0
 
 
 
0
 
 
0
0
0
0
0
 
 
 
 
0
0


0
0
#HDR
-1
-1
#GR
nm
%A
1.0
0.0
2200,000000
-1,000000
1951
8
42,961348
0,210139
#DATA
284.000000	93.719100
285.000000	93.732571
286.000000	93.746286
287.000000	93.760831
288.000000	93.773452
289.000000	93.785965
290.000000	93.796887
291.000000	93.807723
292.000000	93.818520
293.000000	93.826091
294.000000	93.833510
295.000000	93.841175
296.000000	93.846782
297.000000	93.850580
298.000000	93.855145
299.000000	93.860924
300.000000	93.864445
301.000000	93.867128
302.000000	93.868566
303.000000	93.872176
304.000000	93.875245
305.000000	93.881058
306.000000	93.885880
307.000000	93.890040
308.000000	93.893308
309.000000	93.898114
310.000000	93.902998
311.000000	93.906091
312.000000	93.910745
313.000000	93.915195
314.000000	93.920795
315.000000	93.925062
316.000000	93.929115
317.000000	93.937137
318.000000	93.940735
319.000000	93.950764
320.000000	93.964721
321.000000	93.975046
322.000000	93.982317
323.000000	93.991900
324.000000	94.001707
325.000000	94.012598
326.000000	94.021883
327.000000	94.035483
328.000000	94.048464
329.000000	94.062895
330.000000	94.073281
331.000000	94.085783
332.000000	94.103497
333.000000	94.116874
334.000000	94.128392
335.000000	94.143921
336.000000	94.157721
337.000000	94.172757
338.000000	94.184755
339.000000	94.196980
340.000000	94.206947
341.000000	94.216369
342.000000	94.226473
343.000000	94.234672
344.000000	94.242585
345.000000	94.251324
346.000000	94.258448
347.000000	94.265774
348.000000	94.274132
349.000000	94.281365
350.000000	94.287840
351.000000	94.295865
352.000000	94.301222
353.000000	94.309219
354.000000	94.312872
355.000000	94.311919
356.000000	94.313441
357.000000	94.318087
358.000000	94.318495
359.000000	94.317308
360.000000	94.315877
361.000000	94.316227
362.000000	94.313196
363.000000	94.311809
364.000000	94.307658
365.000000	94.307254
366.000000	94.305231
367.000000	94.298487
368.000000	94.294238
369.000000	94.289296
370.000000	94.283659
371.000000	94.278579
372.000000	94.271655
373.000000	94.265036
374.000000	94.259515
375.000000	94.252387
376.000000	94.245477
377.000000	94.236860
378.000000	94.229180
379.000000	94.219085
380.000000	94.209292
381.000000	94.199017
382.000000	94.187800
383.000000	94.175414
384.000000	94.161818
385.000000	94.149026
386.000000	94.133938
387.000000	94.117534
388.000000	94.099889
389.000000	94.081149
390.000000	94.062826
391.000000	94.043229
392.000000	94.021290
393.000000	94.000793
394.000000	93.980151
395.000000	93.957214
396.000000	93.932714
397.000000	93.906613
398.000000	93.878823
399.000000	93.852200
400.000000	93.823639
401.000000	93.793934
402.000000	93.764343
403.000000	93.733454
404.000000	93.701543
405.000000	93.667447
406.000000	93.631733
407.000000	93.596015
408.000000	93.558659
409.000000	93.518136
410.000000	93.478267
411.000000	93.435801
412.000000	93.393491
413.000000	93.349368
414.000000	93.303435
415.000000	93.255877
416.000000	93.206680
417.000000	93.155681
418.000000	93.102963
419.000000	93.048490
420.000000	92.991746
421.000000	92.932881
422.000000	92.872289
423.000000	92.809934
424.000000	92.745746
425.000000	92.679411
426.000000	92.611258
427.000000	92.541588
428.000000	92.470281
429.000000	92.397510
430.000000	92.322988
431.000000	92.246446
432.000000	92.168647
433.000000	92.089354
434.000000	92.007925
435.000000	91.925050
436.000000	91.840065
437.000000	91.753627
438.000000	91.665909
439.000000	91.577251
440.000000	91.487119
441.000000	91.395233
442.000000	91.301665
443.000000	91.207309
444.000000	91.111801
445.000000	91.014617
446.000000	90.916419
447.000000	90.817327
448.000000	90.717995
449.000000	90.617847
450.000000	90.516860
451.000000	90.415141
452.000000	90.312479
453.000000	90.209060
454.000000	90.104904
455.000000	90.000348
456.000000	89.895580
457.000000	89.790408
458.000000	89.684316
459.000000	89.577384
460.000000	89.469910
461.000000	89.361839
462.000000	89.252697
463.000000	89.142448
464.000000	89.030916
465.000000	88.919014
466.000000	88.806348
467.000000	88.692331
468.000000	88.577109
469.000000	88.460932
470.000000	88.344157
471.000000	88.226418
472.000000	88.107466
473.000000	87.987090
474.000000	87.865221
475.000000	87.742332
476.000000	87.618595
477.000000	87.493570
478.000000	87.367051
479.000000	87.239817
480.000000	87.111840
481.000000	86.981862
482.000000	86.850301
483.000000	86.716963
484.000000	86.582289
485.000000	86.446253
486.000000	86.308947
487.000000	86.170155
488.000000	86.029699
489.000000	85.887414
490.000000	85.743227
491.000000	85.596840
492.000000	85.448770
493.000000	85.298897
494.000000	85.146904
495.000000	84.992846
496.000000	84.837360
497.000000	84.680083
498.000000	84.520265
499.000000	84.358603
500.000000	84.194565
501.000000	84.028251
502.000000	83.860303
503.000000	83.690531
504.000000	83.518189
505.000000	83.343944
506.000000	83.167559
507.000000	82.988568
508.000000	82.807424
509.000000	82.623826
510.000000	82.437367
511.000000	82.248332
512.000000	82.056765
513.000000	81.861908
514.000000	81.663872
515.000000	81.462504
516.000000	81.258730
517.000000	81.051726
518.000000	80.841787
519.000000	80.628309
520.000000	80.411662
521.000000	80.191576
522.000000	79.968344
523.000000	79.741837
524.000000	79.512651
525.000000	79.279582
526.000000	79.043187
527.000000	78.803586
528.000000	78.560471
529.000000	78.314351
530.000000	78.064401
531.000000	77.809633
532.000000	77.551396
533.000000	77.289773
534.000000	77.023787
535.000000	76.753363
536.000000	76.478411
537.000000	76.198704
538.000000	75.913816
539.000000	75.624501
540.000000	75.328899
541.000000	75.027424
542.000000	74.720656
543.000000	74.407620
544.000000	74.088140
545.000000	73.762422
546.000000	73.430831
547.000000	73.092794
548.000000	72.749504
549.000000	72.400083
550.000000	72.045963
551.000000	71.686936
552.000000	71.324138
553.000000	70.956835
554.000000	70.586789
555.000000	70.213625
556.000000	69.837635
557.000000	69.459618
558.000000	69.081490
559.000000	68.701767
560.000000	68.324022
561.000000	67.946633
562.000000	67.570750
563.000000	67.196500
564.000000	66.825281
565.000000	66.457700
566.000000	66.094407
567.000000	65.734557
568.000000	65.380158
569.000000	65.031979
570.000000	64.691597
571.000000	64.357612
572.000000	64.030467
573.000000	63.711313
574.000000	63.400002
575.000000	63.098054
576.000000	62.805621
577.000000	62.522683
578.000000	62.249115
579.000000	61.985016
580.000000	61.731131
581.000000	61.487695
582.000000	61.253450
583.000000	61.028804
584.000000	60.813581
585.000000	60.606594
586.000000	60.408108
587.000000	60.217180
588.000000	60.034514
589.000000	59.858417
590.000000	59.688154
591.000000	59.522908
592.000000	59.362061
593.000000	59.204975
594.000000	59.051148
595.000000	58.899019
596.000000	58.749329
597.000000	58.600604
598.000000	58.453266
599.000000	58.305229
600.000000	58.157200
601.000000	58.007293
602.000000	57.857300
603.000000	57.704212
604.000000	57.547429
605.000000	57.386314
606.000000	57.222168
607.000000	57.054367
608.000000	56.882994
609.000000	56.708440
610.000000	56.528487
611.000000	56.344544
612.000000	56.155283
613.000000	55.962646
614.000000	55.765852
615.000000	55.563804
616.000000	55.356490
617.000000	55.146055
618.000000	54.932132
619.000000	54.715113
620.000000	54.494076
621.000000	54.268546
622.000000	54.039456
623.000000	53.807372
624.000000	53.571555
625.000000	53.332716
626.000000	53.091908
627.000000	52.850064
628.000000	52.605012
629.000000	52.358393
630.000000	52.108708
631.000000	51.856538
632.000000	51.604813
633.000000	51.349961
634.000000	51.094016
635.000000	50.835626
636.000000	50.577359
637.000000	50.317398
638.000000	50.057005
639.000000	49.796228
640.000000	49.534122
641.000000	49.271106
642.000000	49.007431
643.000000	48.741813
644.000000	48.474935
645.000000	48.208807
646.000000	47.941630
647.000000	47.674387
648.000000	47.406370
649.000000	47.138946
650.000000	46.872183
651.000000	46.605015
652.000000	46.338333
653.000000	46.070260
654.000000	45.800712
655.000000	45.530738
656.000000	45.262968
657.000000	44.994543
658.000000	44.725199
659.000000	44.455918
660.000000	44.187401
661.000000	43.918316
662.000000	43.648635
663.000000	43.379822
664.000000	43.112506
665.000000	42.846361
666.000000	42.582023
667.000000	42.315133
668.000000	42.049835
669.000000	41.783808
670.000000	41.519060
671.000000	41.254938
672.000000	40.991121
673.000000	40.728045
674.000000	40.465593
675.000000	40.205302
676.000000	39.946490
677.000000	39.687443
678.000000	39.430118
679.000000	39.174375
680.000000	38.918189
681.000000	38.664215
682.000000	38.410054
683.000000	38.156626
684.000000	37.902786
685.000000	37.649425
686.000000	37.397597
687.000000	37.147295
688.000000	36.899119
689.000000	36.650955
690.000000	36.406238
691.000000	36.160438
692.000000	35.916144
693.000000	35.673387
694.000000	35.431562
695.000000	35.190615
696.000000	34.950092
697.000000	34.712207
698.000000	34.474998
699.000000	34.237793
700.000000	34.002853
701.000000	33.767943
702.000000	33.533567
703.000000	33.301080
704.000000	33.072132
705.000000	32.843415
706.000000	32.614830
707.000000	32.388179
708.000000	32.161477
709.000000	31.934953
710.000000	31.709111
711.000000	31.481869
712.000000	31.258563
713.000000	31.038608
714.000000	30.816629
715.000000	30.596957
716.000000	30.377692
717.000000	30.160374
718.000000	29.943572
719.000000	29.730334
720.000000	29.516736
721.000000	29.302056
722.000000	29.088571
723.000000	28.874712
724.000000	28.664324
725.000000	28.454998
726.000000	28.246603
727.000000	28.038442
728.000000	27.829994
729.000000	27.623911
730.000000	27.418996
731.000000	27.217514
732.000000	27.015724
733.000000	26.815327
734.000000	26.616346
735.000000	26.415964
736.000000	26.215886
737.000000	26.018237
738.000000	25.822252
739.000000	25.625177
740.000000	25.428282
741.000000	25.232381
742.000000	25.038161
743.000000	24.846456
744.000000	24.655066
745.000000	24.464025
746.000000	24.274452
747.000000	24.084963
748.000000	23.895765
749.000000	23.710027
750.000000	23.524626
751.000000	23.338467
752.000000	23.152969
753.000000	22.968915
754.000000	22.785059
755.000000	22.605769
756.000000	22.430246
757.000000	22.251772
758.000000	22.073875
759.000000	21.898003
760.000000	21.722408
761.000000	21.547237
762.000000	21.373587
763.000000	21.201291
764.000000	21.029268
765.000000	20.856892
766.000000	20.683913
767.000000	20.511940
768.000000	20.342346
769.000000	20.171164
770.000000	20.002764
771.000000	19.836292
772.000000	19.671235
773.000000	19.504553
774.000000	19.339788
775.000000	19.177239
776.000000	19.016512
777.000000	18.856052
778.000000	18.693764
779.000000	18.530991
780.000000	18.372666
781.000000	18.217712
782.000000	18.061475
783.000000	17.904741
784.000000	17.751923
785.000000	17.597377
786.000000	17.444459
787.000000	17.293789
788.000000	17.144059
789.000000	16.997167
790.000000	16.849567
791.000000	16.699700
792.000000	16.551968
793.000000	16.406918
794.000000	16.259867
795.000000	16.113182
796.000000	15.966580
797.000000	15.821395
798.000000	15.676588
799.000000	15.534692
800.000000	15.395294
801.000000	15.254925
802.000000	15.116267
803.000000	14.976392
804.000000	14.837707
805.000000	14.702762
806.000000	14.566817
807.000000	14.434027
808.000000	14.301393
809.000000	14.168334
810.000000	14.039185
811.000000	13.904917
812.000000	13.768740
813.000000	13.636938
814.000000	13.514205
815.000000	13.391017
816.000000	13.265546
817.000000	13.142049
818.000000	13.019095
819.000000	12.898216
820.000000	12.777108
821.000000	12.656275
822.000000	12.534089
823.000000	12.412351
824.000000	12.293674
825.000000	12.178906
826.000000	12.056581
827.000000	11.932135
828.000000	11.814396
829.000000	11.702980
830.000000	11.591049
831.000000	11.485868
832.000000	11.373376
833.000000	11.262593
834.000000	11.151657
835.000000	11.039993
836.000000	10.938803
837.000000	10.838269
838.000000	10.729659
839.000000	10.628201
840.000000	10.518733
841.000000	10.420491
842.000000	10.322464
843.000000	10.228066
844.000000	10.127923
845.000000	10.019186
846.000000	9.922632
847.000000	9.831559
848.000000	9.735604
849.000000	9.643039
850.000000	9.552548
851.000000	9.454156
852.000000	9.359541
853.000000	9.277747
854.000000	9.186576
855.000000	9.094154
856.000000	9.000518
857.000000	8.926348
858.000000	8.903684
859.000000	8.794041
860.000000	8.652723
861.000000	8.539445
862.000000	8.465060
863.000000	8.346084
864.000000	8.242814
865.000000	8.151705
866.000000	8.072053
867.000000	7.984728
868.000000	7.874815
869.000000	7.779671
870.000000	7.684823
871.000000	7.568478
872.000000	7.462219
873.000000	7.393391
874.000000	7.298979
875.000000	7.192585
876.000000	7.082003
877.000000	6.964530
878.000000	6.880975
879.000000	6.798132
880.000000	6.686818
881.000000	6.570414
882.000000	6.468832
883.000000	6.345626
884.000000	6.241214
885.000000	6.135852
886.000000	6.015921
887.000000	5.928443
888.000000	5.803669
889.000000	5.682285
890.000000	5.579902
891.000000	5.476224
892.000000	5.392837
893.000000	5.226051
894.000000	5.137067
895.000000	5.093915
896.000000	5.024241
897.000000	4.927764
898.000000	4.831479
899.000000	4.752893
900.000000	4.661362
901.000000	4.580059
902.000000	4.543938
903.000000	4.510191
904.000000	4.450268
905.000000	4.407823
906.000000	4.355912
907.000000	4.318490
908.000000	4.250745
909.000000	4.223985
910.000000	4.213458
911.000000	4.173428
912.000000	4.164847
913.000000	4.102832
914.000000	4.021256
915.000000	4.034705
916.000000	4.040251
917.000000	3.995606
918.000000	3.968292
919.000000	3.920005
920.000000	3.867255
921.000000	3.851547
922.000000	3.818037
923.000000	3.789214
924.000000	3.792436
925.000000	3.763546
926.000000	3.732985
927.000000	3.677641
928.000000	3.636936
929.000000	3.614792
930.000000	3.600801
931.000000	3.599948
932.000000	3.600991
933.000000	3.599569
934.000000	3.571134
935.000000	3.580688
936.000000	3.556381
937.000000	3.501581
938.000000	3.465045
939.000000	3.447634
940.000000	3.380697
941.000000	3.369345
942.000000	3.297361
943.000000	3.249452
944.000000	3.208844
945.000000	3.160435
946.000000	3.152203
947.000000	3.084736
948.000000	3.068349
949.000000	3.085927
950.000000	3.044974
951.000000	3.007326
952.000000	3.001975
953.000000	3.003690
954.000000	2.973504
955.000000	2.963590
956.000000	2.933490
957.000000	2.895072
958.000000	2.838559
959.000000	2.774484
960.000000	2.755992
961.000000	2.761807
962.000000	2.732238
963.000000	2.733805
964.000000	2.712179
965.000000	2.663525
966.000000	2.622859
967.000000	2.582199
968.000000	2.571387
969.000000	2.551626
970.000000	2.510310
971.000000	2.503344
972.000000	2.470538
973.000000	2.443523
974.000000	2.424032
975.000000	2.410402
976.000000	2.369570
977.000000	2.388081
978.000000	2.378116
979.000000	2.350310
980.000000	2.336538
981.000000	2.305565
982.000000	2.308667
983.000000	2.290746
984.000000	2.239425
985.000000	2.177199
986.000000	2.147150
987.000000	2.119363
988.000000	2.085552
989.000000	2.066886
990.000000	2.055419
991.000000	2.061083
992.000000	2.031941
993.000000	2.053385
994.000000	2.060629
995.000000	2.058400
996.000000	2.042413
997.000000	2.032205
998.000000	1.993841
999.000000	1.949929
1000.000000	1.948215
1001.000000	1.943981
1002.000000	1.933175
1003.000000	1.939648
1004.000000	1.947838
1005.000000	1.950897
1006.000000	1.913670
1007.000000	1.908082
1008.000000	1.894578
1009.000000	1.880368
1010.000000	1.884806
1011.000000	1.889179
1012.000000	1.878825
1013.000000	1.870249
1014.000000	1.856617
1015.000000	1.847698
1016.000000	1.836725
1017.000000	1.794313
1018.000000	1.737225
1019.000000	1.756586
1020.000000	1.778339
1021.000000	1.750605
1022.000000	1.730813
1023.000000	1.722960
1024.000000	1.724387
1025.000000	1.709669
1026.000000	1.678475
1027.000000	1.648919
1028.000000	1.626399
1029.000000	1.614555
1030.000000	1.571520
1031.000000	1.540865
1032.000000	1.536844
1033.000000	1.526295
1034.000000	1.554117
1035.000000	1.548974
1036.000000	1.533860
1037.000000	1.518378
1038.000000	1.501309
1039.000000	1.492486
1040.000000	1.474256
1041.000000	1.464316
1042.000000	1.446090
1043.000000	1.429893
1044.000000	1.401016
1045.000000	1.402866
1046.000000	1.409630
1047.000000	1.395094
1048.000000	1.385539
1049.000000	1.384244
1050.000000	1.372740
1051.000000	1.367724
1052.000000	1.418916
1053.000000	1.483472
1054.000000	1.456952
1055.000000	1.420425
1056.000000	1.426397
1057.000000	1.426378
1058.000000	1.430943
1059.000000	1.443139
1060.000000	1.446743
1061.000000	1.442020
1062.000000	1.498329
1063.000000	1.520725
1064.000000	1.551600
1065.000000	1.585459
1066.000000	1.581640
1067.000000	1.574537
1068.000000	1.587623
1069.000000	1.563683
1070.000000	1.535882
1071.000000	1.524352
1072.000000	1.526542
1073.000000	1.540573
1074.000000	1.535714
1075.000000	1.518496
1076.000000	1.517026
1077.000000	1.525742
1078.000000	1.539895
1079.000000	1.561930
1080.000000	1.567013
1081.000000	1.543830
1082.000000	1.552043
1083.000000	1.515167
1084.000000	1.462377
1085.000000	1.424008
1086.000000	1.417102
1087.000000	1.391092
1088.000000	1.325898
1089.000000	1.324172
1090.000000	1.356855
1091.000000	1.357643
1092.000000	1.370986
1093.000000	1.397976
1094.000000	1.389069
1095.000000	1.380560
1096.000000	1.389248
1097.000000	1.360434
1098.000000	1.326415
1099.000000	1.289922
1100.000000	1.256234
1101.000000	1.265297
1102.000000	1.261390
1103.000000	1.268410
1104.000000	1.280338
1105.000000	1.327120
1106.000000	1.303785
1107.000000	1.279994
1108.000000	1.251774
1109.000000	1.257773
1110.000000	1.240939
1111.000000	1.211167
1112.000000	1.167727
1113.000000	1.113717
1114.000000	1.079495
1115.000000	1.073845
1116.000000	1.111074
1117.000000	1.123607
1118.000000	1.152940
1119.000000	1.202458
1120.000000	1.206160
1121.000000	1.187367
1122.000000	1.180607
1123.000000	1.194280
1124.000000	1.197053
1125.000000	1.200616
1126.000000	1.205618
1127.000000	1.148792
1128.000000	1.084804
1129.000000	1.042267
1130.000000	1.056656
1131.000000	1.063996
1132.000000	1.077129
1133.000000	1.073939
1134.000000	1.023294
1135.000000	1.058099
1136.000000	1.080174
1137.000000	1.052434
1138.000000	1.024279
1139.000000	0.998875
1140.000000	0.979357
1141.000000	1.023218
1142.000000	1.052082
1143.000000	1.081769
1144.000000	1.103621
1145.000000	1.136186
1146.000000	1.152209
1147.000000	1.186127
1148.000000	1.247994
1149.000000	1.261668
1150.000000	1.270743
1151.000000	1.233302
1152.000000	1.194853
1153.000000	1.202878
1154.000000	1.246918
1155.000000	1.279064
1156.000000	1.314144
1157.000000	1.318717
1158.000000	1.374379
1159.000000	1.419796
1160.000000	1.438771
1161.000000	1.445964
1162.000000	1.538549
1163.000000	1.584605
1164.000000	1.667576
1165.000000	1.681104
1166.000000	1.692733
1167.000000	1.694794
1168.000000	1.793954
1169.000000	1.905737
1170.000000	2.007465
1171.000000	2.038463
1172.000000	2.139699
1173.000000	2.207332
1174.000000	2.273538
1175.000000	2.324459
1176.000000	2.396996
1177.000000	2.435471
1178.000000	2.469011
1179.000000	2.487728
1180.000000	2.514027
1181.000000	2.552153
1182.000000	2.576161
1183.000000	2.614740
1184.000000	2.681295
1185.000000	2.725917
1186.000000	2.779878
1187.000000	2.824779
1188.000000	2.851645
1189.000000	2.863643
1190.000000	2.916565
1191.000000	2.921487
1192.000000	2.943318
1193.000000	2.918741
1194.000000	2.910813
1195.000000	2.911056
1196.000000	2.957491
1197.000000	2.941250
1198.000000	2.953322
1199.000000	2.937626
1200.000000	2.950897
1201.000000	2.955638
1202.000000	2.985192
1203.000000	2.957516
1204.000000	2.942256
1205.000000	2.876001
1206.000000	2.843557
1207.000000	2.806453
1208.000000	2.793733
1209.000000	2.810578
1210.000000	2.819231
