PE UV       SUBTECH     SPECTRUM    ASCII       PEDS        4.00        
   -1
C.CUPR.MV23-TX3.ASC
23/11/29
12:57:02.00
23/11/29
12:57:02.00
Vinicio Soto Monge
C. CUPREOMARGINATA MV 23-15
250,000000
1
Lambda 1050
1050L1511233
PerkinElmer UV WinLab 6.3.2.0749 / 2.02.05 Lambda 900 UV/VIS/NIR, Aug  7 2015 09:38:08

0
0
3350/servo 860,8/2
0
0
UV/VIS
1
1
1
DoubleDePol,CommonBeamDepol,RBeamAtt,SBeamAtt,60mm sphere, WB InGaAs Detector
0
0
0
0
Program
Program
3350/servo 860,8/2
3350/0,4 860,8/0,4
3350/0,4 860,8/0,4
0
20.00
 
 
 
0
 
860,8
319,2
860,8
Front
100
on
S:100 R:100
0
0
0
0
 
0
 
 
 
0
 
 
0
0
0
0
0
 
 
 
 
0
0


0
0
#HDR
-1
-1
#GR
nm
%A
1.0
0.0
2200,000000
-1,000000
1951
8
84,599875
0,293470
#DATA
284.000000	93.362900
285.000000	93.380725
286.000000	93.396525
287.000000	93.412039
288.000000	93.427119
289.000000	93.440263
290.000000	93.452332
291.000000	93.464001
292.000000	93.474442
293.000000	93.484773
294.000000	93.493757
295.000000	93.502876
296.000000	93.511001
297.000000	93.521707
298.000000	93.529241
299.000000	93.536812
300.000000	93.544606
301.000000	93.552745
302.000000	93.559262
303.000000	93.565820
304.000000	93.572025
305.000000	93.578180
306.000000	93.583113
307.000000	93.590227
308.000000	93.595453
309.000000	93.601766
310.000000	93.606884
311.000000	93.610573
312.000000	93.617026
313.000000	93.624411
314.000000	93.631469
315.000000	93.637428
316.000000	93.645091
317.000000	93.658781
318.000000	93.672311
319.000000	93.684905
320.000000	93.697368
321.000000	93.709462
322.000000	93.720052
323.000000	93.733597
324.000000	93.748823
325.000000	93.761262
326.000000	93.776843
327.000000	93.790724
328.000000	93.805487
329.000000	93.820529
330.000000	93.837383
331.000000	93.851102
332.000000	93.866328
333.000000	93.882297
334.000000	93.896197
335.000000	93.910213
336.000000	93.922182
337.000000	93.936142
338.000000	93.949818
339.000000	93.961785
340.000000	93.974720
341.000000	93.987930
342.000000	93.999329
343.000000	94.010121
344.000000	94.021390
345.000000	94.031618
346.000000	94.039442
347.000000	94.046690
348.000000	94.053025
349.000000	94.059636
350.000000	94.066059
351.000000	94.070575
352.000000	94.069017
353.000000	94.065586
354.000000	94.061452
355.000000	94.055526
356.000000	94.047958
357.000000	94.039395
358.000000	94.025759
359.000000	94.010434
360.000000	93.995795
361.000000	93.976834
362.000000	93.956774
363.000000	93.932984
364.000000	93.907224
365.000000	93.876701
366.000000	93.845600
367.000000	93.808539
368.000000	93.768352
369.000000	93.726595
370.000000	93.682471
371.000000	93.635665
372.000000	93.581818
373.000000	93.523713
374.000000	93.463643
375.000000	93.398450
376.000000	93.325990
377.000000	93.243963
378.000000	93.157694
379.000000	93.065448
380.000000	92.968915
381.000000	92.869606
382.000000	92.763844
383.000000	92.653067
384.000000	92.536495
385.000000	92.414454
386.000000	92.288199
387.000000	92.157656
388.000000	92.023444
389.000000	91.884198
390.000000	91.741732
391.000000	91.595714
392.000000	91.447265
393.000000	91.295833
394.000000	91.140605
395.000000	90.983088
396.000000	90.823430
397.000000	90.662415
398.000000	90.500483
399.000000	90.337594
400.000000	90.174307
401.000000	90.010787
402.000000	89.849171
403.000000	89.688701
404.000000	89.529144
405.000000	89.369993
406.000000	89.213716
407.000000	89.060114
408.000000	88.909893
409.000000	88.762566
410.000000	88.618097
411.000000	88.479925
412.000000	88.350959
413.000000	88.227146
414.000000	88.108625
415.000000	87.994959
416.000000	87.886956
417.000000	87.784535
418.000000	87.687317
419.000000	87.595184
420.000000	87.507586
421.000000	87.424707
422.000000	87.346266
423.000000	87.271626
424.000000	87.200737
425.000000	87.133317
426.000000	87.069116
427.000000	87.007761
428.000000	86.948670
429.000000	86.891275
430.000000	86.834932
431.000000	86.778697
432.000000	86.722653
433.000000	86.666116
434.000000	86.608451
435.000000	86.549148
436.000000	86.487442
437.000000	86.422923
438.000000	86.355352
439.000000	86.284663
440.000000	86.209845
441.000000	86.129562
442.000000	86.044722
443.000000	85.955045
444.000000	85.860039
445.000000	85.758861
446.000000	85.651593
447.000000	85.539122
448.000000	85.421061
449.000000	85.297001
450.000000	85.167514
451.000000	85.032368
452.000000	84.891399
453.000000	84.745161
454.000000	84.593740
455.000000	84.437934
456.000000	84.277883
457.000000	84.113200
458.000000	83.944647
459.000000	83.772320
460.000000	83.596692
461.000000	83.417576
462.000000	83.235171
463.000000	83.050147
464.000000	82.862761
465.000000	82.673318
466.000000	82.482193
467.000000	82.289138
468.000000	82.094935
469.000000	81.900000
470.000000	81.704437
471.000000	81.508495
472.000000	81.312188
473.000000	81.115494
474.000000	80.918368
475.000000	80.721276
476.000000	80.524616
477.000000	80.327470
478.000000	80.129166
479.000000	79.929870
480.000000	79.730032
481.000000	79.528576
482.000000	79.324692
483.000000	79.116824
484.000000	78.904056
485.000000	78.685639
486.000000	78.460879
487.000000	78.229515
488.000000	77.991679
489.000000	77.745840
490.000000	77.491905
491.000000	77.228017
492.000000	76.954117
493.000000	76.669256
494.000000	76.372502
495.000000	76.062956
496.000000	75.740822
497.000000	75.404895
498.000000	75.053936
499.000000	74.687552
500.000000	74.303990
501.000000	73.902931
502.000000	73.483462
503.000000	73.044470
504.000000	72.585193
505.000000	72.104982
506.000000	71.603073
507.000000	71.079108
508.000000	70.533050
509.000000	69.964818
510.000000	69.373885
511.000000	68.760387
512.000000	68.123608
513.000000	67.464157
514.000000	66.782902
515.000000	66.080735
516.000000	65.358923
517.000000	64.617965
518.000000	63.860600
519.000000	63.088380
520.000000	62.302763
521.000000	61.505533
522.000000	60.698166
523.000000	59.880676
524.000000	59.056574
525.000000	58.227285
526.000000	57.394866
527.000000	56.560960
528.000000	55.727148
529.000000	54.895273
530.000000	54.066313
531.000000	53.241752
532.000000	52.423336
533.000000	51.612704
534.000000	50.811294
535.000000	50.021473
536.000000	49.245083
537.000000	48.484738
538.000000	47.741150
539.000000	47.016528
540.000000	46.312390
541.000000	45.629841
542.000000	44.971120
543.000000	44.337175
544.000000	43.727995
545.000000	43.145567
546.000000	42.587987
547.000000	42.056597
548.000000	41.551783
549.000000	41.073558
550.000000	40.620062
551.000000	40.189514
552.000000	39.781403
553.000000	39.393744
554.000000	39.026009
555.000000	38.678191
556.000000	38.348948
557.000000	38.036462
558.000000	37.742950
559.000000	37.464924
560.000000	37.199703
561.000000	36.949705
562.000000	36.714354
563.000000	36.492490
564.000000	36.284871
565.000000	36.091662
566.000000	35.911330
567.000000	35.742500
568.000000	35.585173
569.000000	35.438859
570.000000	35.303465
571.000000	35.177292
572.000000	35.057564
573.000000	34.945458
574.000000	34.837822
575.000000	34.734982
576.000000	34.637902
577.000000	34.543901
578.000000	34.451996
579.000000	34.363745
580.000000	34.279251
581.000000	34.200929
582.000000	34.128663
583.000000	34.063582
584.000000	34.004412
585.000000	33.953400
586.000000	33.910346
587.000000	33.877584
588.000000	33.856357
589.000000	33.845702
590.000000	33.846038
591.000000	33.857225
592.000000	33.878530
593.000000	33.908236
594.000000	33.946632
595.000000	33.995617
596.000000	34.051759
597.000000	34.114710
598.000000	34.182850
599.000000	34.255414
600.000000	34.331881
601.000000	34.410388
602.000000	34.491488
603.000000	34.573379
604.000000	34.655286
605.000000	34.736664
606.000000	34.816564
607.000000	34.895419
608.000000	34.972107
609.000000	35.048419
610.000000	35.120840
611.000000	35.189253
612.000000	35.251155
613.000000	35.307601
614.000000	35.356067
615.000000	35.394580
616.000000	35.422618
617.000000	35.438846
618.000000	35.442324
619.000000	35.433652
620.000000	35.409639
621.000000	35.370908
622.000000	35.316234
623.000000	35.246186
624.000000	35.161080
625.000000	35.058834
626.000000	34.939783
627.000000	34.807026
628.000000	34.660575
629.000000	34.500834
630.000000	34.328303
631.000000	34.143276
632.000000	33.946928
633.000000	33.739008
634.000000	33.520901
635.000000	33.293567
636.000000	33.056862
637.000000	32.812192
638.000000	32.561820
639.000000	32.305509
640.000000	32.043700
641.000000	31.776479
642.000000	31.505372
643.000000	31.230752
644.000000	30.952667
645.000000	30.674114
646.000000	30.393361
647.000000	30.113585
648.000000	29.835016
649.000000	29.558808
650.000000	29.284585
651.000000	29.014045
652.000000	28.748605
653.000000	28.486858
654.000000	28.228150
655.000000	27.975454
656.000000	27.730596
657.000000	27.492211
658.000000	27.259134
659.000000	27.031276
660.000000	26.808034
661.000000	26.591158
662.000000	26.379026
663.000000	26.170454
664.000000	25.965701
665.000000	25.763544
666.000000	25.565190
667.000000	25.367644
668.000000	25.174942
669.000000	24.982680
670.000000	24.790428
671.000000	24.602522
672.000000	24.416171
673.000000	24.228573
674.000000	24.041807
675.000000	23.856969
676.000000	23.672459
677.000000	23.487465
678.000000	23.304653
679.000000	23.123326
680.000000	22.941182
681.000000	22.760543
682.000000	22.580097
683.000000	22.399421
684.000000	22.217636
685.000000	22.036163
686.000000	21.854645
687.000000	21.672516
688.000000	21.492582
689.000000	21.311831
690.000000	21.130923
691.000000	20.948388
692.000000	20.766191
693.000000	20.584880
694.000000	20.403081
695.000000	20.223512
696.000000	20.045139
697.000000	19.867609
698.000000	19.691634
699.000000	19.516747
700.000000	19.342531
701.000000	19.169243
702.000000	19.000598
703.000000	18.834321
704.000000	18.670838
705.000000	18.509317
706.000000	18.348425
707.000000	18.191018
708.000000	18.036794
709.000000	17.885252
710.000000	17.735716
711.000000	17.588100
712.000000	17.443936
713.000000	17.302079
714.000000	17.160439
715.000000	17.022499
716.000000	16.885521
717.000000	16.752288
718.000000	16.622747
719.000000	16.497619
720.000000	16.373911
721.000000	16.249922
722.000000	16.130124
723.000000	16.011789
724.000000	15.895771
725.000000	15.780810
726.000000	15.668162
727.000000	15.555689
728.000000	15.444008
729.000000	15.335482
730.000000	15.226996
731.000000	15.118048
732.000000	15.010444
733.000000	14.903543
734.000000	14.798571
735.000000	14.697278
736.000000	14.596832
737.000000	14.493865
738.000000	14.390616
739.000000	14.290066
740.000000	14.191992
741.000000	14.097369
742.000000	14.002077
743.000000	13.906717
744.000000	13.811599
745.000000	13.717155
746.000000	13.625561
747.000000	13.535348
748.000000	13.442342
749.000000	13.352042
750.000000	13.263740
751.000000	13.175116
752.000000	13.086133
753.000000	12.994224
754.000000	12.902989
755.000000	12.816257
756.000000	12.730788
757.000000	12.643741
758.000000	12.557130
759.000000	12.474247
760.000000	12.393914
761.000000	12.313397
762.000000	12.233424
763.000000	12.153015
764.000000	12.072324
765.000000	11.993140
766.000000	11.915437
767.000000	11.838680
768.000000	11.763419
769.000000	11.689800
770.000000	11.615168
771.000000	11.539980
772.000000	11.465425
773.000000	11.391681
774.000000	11.317737
775.000000	11.242435
776.000000	11.168862
777.000000	11.095450
778.000000	11.022480
779.000000	10.950790
780.000000	10.879477
781.000000	10.807847
782.000000	10.738436
783.000000	10.672215
784.000000	10.607492
785.000000	10.542977
786.000000	10.478362
787.000000	10.414279
788.000000	10.358087
789.000000	10.302763
790.000000	10.245411
791.000000	10.187587
792.000000	10.131995
793.000000	10.077122
794.000000	10.024151
795.000000	9.970480
796.000000	9.919650
797.000000	9.871170
798.000000	9.821261
799.000000	9.771186
800.000000	9.722279
801.000000	9.674804
802.000000	9.629670
803.000000	9.585422
804.000000	9.540265
805.000000	9.495555
806.000000	9.452771
807.000000	9.411778
808.000000	9.369548
809.000000	9.324830
810.000000	9.283802
811.000000	9.238494
812.000000	9.198764
813.000000	9.161624
814.000000	9.121873
815.000000	9.083306
816.000000	9.045569
817.000000	9.005062
818.000000	8.969777
819.000000	8.933883
820.000000	8.892876
821.000000	8.855980
822.000000	8.819175
823.000000	8.781301
824.000000	8.748431
825.000000	8.717108
826.000000	8.687281
827.000000	8.650459
828.000000	8.614216
829.000000	8.576851
830.000000	8.545373
831.000000	8.516883
832.000000	8.483242
833.000000	8.454614
834.000000	8.427174
835.000000	8.403881
836.000000	8.383631
837.000000	8.360296
838.000000	8.332309
839.000000	8.309469
840.000000	8.285750
841.000000	8.257698
842.000000	8.236965
843.000000	8.216274
844.000000	8.200110
845.000000	8.176339
846.000000	8.158783
847.000000	8.137714
848.000000	8.118086
849.000000	8.098870
850.000000	8.078710
851.000000	8.053302
852.000000	8.037738
853.000000	8.008911
854.000000	7.991651
855.000000	7.968464
856.000000	7.943202
857.000000	7.928988
858.000000	7.906639
859.000000	7.825856
860.000000	7.751428
861.000000	7.682487
862.000000	7.650709
863.000000	7.601387
864.000000	7.528888
865.000000	7.472543
866.000000	7.435307
867.000000	7.375430
868.000000	7.301720
869.000000	7.252768
870.000000	7.178218
871.000000	7.103045
872.000000	7.052715
873.000000	6.997758
874.000000	6.924222
875.000000	6.830555
876.000000	6.785104
877.000000	6.714377
878.000000	6.641028
879.000000	6.565748
880.000000	6.488032
881.000000	6.429837
882.000000	6.382513
883.000000	6.307097
884.000000	6.231772
885.000000	6.155574
886.000000	6.088550
887.000000	6.019034
888.000000	5.931322
889.000000	5.854945
890.000000	5.785346
891.000000	5.733115
892.000000	5.673111
893.000000	5.603179
894.000000	5.566179
895.000000	5.542159
896.000000	5.513309
897.000000	5.469820
898.000000	5.419271
899.000000	5.383981
900.000000	5.341453
901.000000	5.281010
902.000000	5.250331
903.000000	5.243958
904.000000	5.204693
905.000000	5.169247
906.000000	5.146834
907.000000	5.097483
908.000000	5.052013
909.000000	5.016587
910.000000	4.993952
911.000000	4.958111
912.000000	4.974687
913.000000	4.950315
914.000000	4.920115
915.000000	4.907449
916.000000	4.874109
917.000000	4.816079
918.000000	4.792537
919.000000	4.781601
920.000000	4.760694
921.000000	4.746544
922.000000	4.727315
923.000000	4.720700
924.000000	4.708463
925.000000	4.677778
926.000000	4.625663
927.000000	4.590199
928.000000	4.571730
929.000000	4.571208
930.000000	4.559964
931.000000	4.530539
932.000000	4.495835
933.000000	4.453887
934.000000	4.415101
935.000000	4.387621
936.000000	4.358898
937.000000	4.335096
938.000000	4.299682
939.000000	4.266181
940.000000	4.245533
941.000000	4.212406
942.000000	4.178144
943.000000	4.153342
944.000000	4.117837
945.000000	4.115836
946.000000	4.081550
947.000000	3.990695
948.000000	3.962177
949.000000	3.951781
950.000000	3.920819
951.000000	3.893016
952.000000	3.881684
953.000000	3.865367
954.000000	3.831063
955.000000	3.811622
956.000000	3.759243
957.000000	3.721184
958.000000	3.678661
959.000000	3.633209
960.000000	3.627176
961.000000	3.644988
962.000000	3.611450
963.000000	3.585570
964.000000	3.559126
965.000000	3.496753
966.000000	3.493800
967.000000	3.482541
968.000000	3.478840
969.000000	3.491290
970.000000	3.477114
971.000000	3.464959
972.000000	3.450101
973.000000	3.440968
974.000000	3.413882
975.000000	3.402225
976.000000	3.387875
977.000000	3.375955
978.000000	3.355265
979.000000	3.363946
980.000000	3.337506
981.000000	3.309298
982.000000	3.309105
983.000000	3.292057
984.000000	3.267234
985.000000	3.245846
986.000000	3.226663
987.000000	3.212646
988.000000	3.175639
989.000000	3.131927
990.000000	3.105542
991.000000	3.104412
992.000000	3.081610
993.000000	3.079259
994.000000	3.074597
995.000000	3.050220
996.000000	2.998338
997.000000	2.987853
998.000000	2.939324
999.000000	2.879908
1000.000000	2.883165
1001.000000	2.860044
1002.000000	2.842666
1003.000000	2.837778
1004.000000	2.818594
1005.000000	2.796543
1006.000000	2.785530
1007.000000	2.765960
1008.000000	2.723697
1009.000000	2.719485
1010.000000	2.700231
1011.000000	2.685369
1012.000000	2.670248
1013.000000	2.645487
1014.000000	2.619409
1015.000000	2.604120
1016.000000	2.598396
1017.000000	2.597331
1018.000000	2.594360
1019.000000	2.588590
1020.000000	2.588014
1021.000000	2.550788
1022.000000	2.520852
1023.000000	2.518336
1024.000000	2.533507
1025.000000	2.540266
1026.000000	2.532202
1027.000000	2.501099
1028.000000	2.489880
1029.000000	2.469559
1030.000000	2.440378
1031.000000	2.429928
1032.000000	2.431520
1033.000000	2.461708
1034.000000	2.487248
1035.000000	2.470717
1036.000000	2.430211
1037.000000	2.403172
1038.000000	2.377407
1039.000000	2.346376
1040.000000	2.331379
1041.000000	2.308886
1042.000000	2.281947
1043.000000	2.258588
1044.000000	2.234488
1045.000000	2.235059
1046.000000	2.233219
1047.000000	2.204300
1048.000000	2.204188
1049.000000	2.217515
1050.000000	2.238471
1051.000000	2.236618
1052.000000	2.224074
1053.000000	2.212685
1054.000000	2.194939
1055.000000	2.153061
1056.000000	2.167419
1057.000000	2.167476
1058.000000	2.143868
1059.000000	2.125269
1060.000000	2.095744
1061.000000	2.074500
1062.000000	2.093712
1063.000000	2.100035
1064.000000	2.096542
1065.000000	2.074286
1066.000000	2.051025
1067.000000	2.019778
1068.000000	1.992167
1069.000000	1.987663
1070.000000	1.975000
1071.000000	1.999706
1072.000000	1.991377
1073.000000	2.023282
1074.000000	2.052369
1075.000000	2.061576
1076.000000	2.046489
1077.000000	2.055944
1078.000000	2.071069
1079.000000	2.077808
1080.000000	2.058332
1081.000000	2.027119
1082.000000	2.052408
1083.000000	2.034068
1084.000000	2.008912
1085.000000	1.971223
1086.000000	1.960957
1087.000000	1.942912
1088.000000	1.933990
1089.000000	1.930525
1090.000000	1.936377
1091.000000	1.924782
1092.000000	1.914900
1093.000000	1.927441
1094.000000	1.925111
1095.000000	1.904142
1096.000000	1.906808
1097.000000	1.903871
1098.000000	1.879536
1099.000000	1.853706
1100.000000	1.883569
1101.000000	1.914326
1102.000000	1.918652
1103.000000	1.906226
1104.000000	1.895710
1105.000000	1.908500
1106.000000	1.882047
1107.000000	1.873396
1108.000000	1.840037
1109.000000	1.824130
1110.000000	1.812014
1111.000000	1.797379
1112.000000	1.795346
1113.000000	1.772652
1114.000000	1.796727
1115.000000	1.790653
1116.000000	1.813856
1117.000000	1.783099
1118.000000	1.784940
1119.000000	1.775452
1120.000000	1.779097
1121.000000	1.775416
1122.000000	1.761018
1123.000000	1.733443
1124.000000	1.721298
1125.000000	1.710224
1126.000000	1.732068
1127.000000	1.713785
1128.000000	1.685407
1129.000000	1.664471
1130.000000	1.697697
1131.000000	1.698922
1132.000000	1.698011
1133.000000	1.684031
1134.000000	1.662281
1135.000000	1.678064
1136.000000	1.669541
1137.000000	1.655635
1138.000000	1.641448
1139.000000	1.636815
1140.000000	1.625832
1141.000000	1.638425
1142.000000	1.659939
1143.000000	1.683691
1144.000000	1.677479
1145.000000	1.691821
1146.000000	1.696978
1147.000000	1.686380
1148.000000	1.719780
1149.000000	1.680266
1150.000000	1.699537
1151.000000	1.689186
1152.000000	1.702625
1153.000000	1.678957
1154.000000	1.702585
1155.000000	1.665118
1156.000000	1.660181
1157.000000	1.686965
1158.000000	1.724111
1159.000000	1.737992
1160.000000	1.766907
1161.000000	1.757472
1162.000000	1.793388
1163.000000	1.814052
1164.000000	1.840454
1165.000000	1.841746
1166.000000	1.879756
1167.000000	1.870606
1168.000000	1.883035
1169.000000	1.936753
1170.000000	1.937716
1171.000000	1.940600
1172.000000	1.966652
1173.000000	1.995470
1174.000000	2.010258
1175.000000	2.051359
1176.000000	2.056930
1177.000000	2.059623
1178.000000	2.058153
1179.000000	2.053266
1180.000000	2.049282
1181.000000	2.056242
1182.000000	2.082284
1183.000000	2.069758
1184.000000	2.094272
1185.000000	2.133900
1186.000000	2.146005
1187.000000	2.160565
1188.000000	2.182164
1189.000000	2.167672
1190.000000	2.219565
1191.000000	2.224662
1192.000000	2.205395
1193.000000	2.174629
1194.000000	2.196897
1195.000000	2.219944
1196.000000	2.223421
1197.000000	2.236674
1198.000000	2.279965
1199.000000	2.285581
1200.000000	2.273030
1201.000000	2.226595
1202.000000	2.226341
1203.000000	2.238877
1204.000000	2.232770
1205.000000	2.238925
1206.000000	2.225819
1207.000000	2.224892
1208.000000	2.224877
1209.000000	2.229114
1210.000000	2.195692
1211.000000	2.182855
