PE UV       SUBTECH     SPECTRUM    ASCII       PEDS        4.00        
   -1
BIOUCR0002-3.Sample.ASC
24/02/19
11:37:44.00
24/02/19
11:37:44.00
Vinicio Soto Monge
P. cupreomarginata (sin datos) Monteverde(dudoso) Filtro Der: Menos cafe
250,000000
1
Lambda 1050
1050L1511233
PerkinElmer UV WinLab 6.3.2.0749 / 2.02.05 Lambda 900 UV/VIS/NIR, Aug  7 2015 09:38:08

0
0
3350/servo 860,8/2
0
0
UV/VIS
1
1
1
DoubleDePol,CommonBeamDepol,RBeamAtt,SBeamAtt,60mm sphere, WB InGaAs Detector
0
0
0
0
Program
Program
3350/servo 860,8/2
3350/0,2 860,8/0,2
3350/0,2 860,8/0,2
0
15.00
 
 
 
0
 
860,8
319,2
860,8
Front
100
on
S:100 R:100
0
0
0
0
 
0
 
 
 
0
 
 
0
0
0
0
0
 
 
 
 
0
0


0
0
#HDR
-1
-1
#GR
nm
%R
1.0
0.0
2500,000000
-1,000000
2251
8
21,126100
1,559200
#DATA

250.000000	nan
251.000000	nan
252.000000	nan
253.000000	nan
254.000000	nan
255.000000	nan
256.000000	nan
257.000000	nan
258.000000	nan
259.000000	2.037435
260.000000	2.034133
261.000000	2.031212
262.000000	2.027082
263.000000	2.023781
264.000000	2.018507
265.000000	2.014008
266.000000	2.009004
267.000000	2.002742
268.000000	1.998031
269.000000	1.993841
270.000000	1.988353
271.000000	1.982480
272.000000	1.977605
273.000000	1.973565
274.000000	1.970281
275.000000	1.967302
276.000000	1.964432
277.000000	1.962359
278.000000	1.960633
279.000000	1.958684
280.000000	1.957559
281.000000	1.956626
282.000000	1.954541
283.000000	1.951783
284.000000	1.948348
285.000000	1.945287
286.000000	1.941796
287.000000	1.939372
288.000000	1.935958
289.000000	1.932516
290.000000	1.928670
291.000000	1.925861
292.000000	1.925080
293.000000	1.922415
294.000000	1.921377
295.000000	1.918318
296.000000	1.916549
297.000000	1.913992
298.000000	1.911574
299.000000	1.910606
300.000000	1.908620
301.000000	1.904238
302.000000	1.899705
303.000000	1.899090
304.000000	1.896859
305.000000	1.895160
306.000000	1.893313
307.000000	1.893201
308.000000	1.892340
309.000000	1.889498
310.000000	1.888621
311.000000	1.888806
312.000000	1.888086
313.000000	1.886858
314.000000	1.885949
315.000000	1.884641
316.000000	1.884258
317.000000	1.889968
318.000000	1.893814
319.000000	1.901453
320.000000	1.908196
321.000000	1.913096
322.000000	1.917956
323.000000	1.917031
324.000000	1.917325
325.000000	1.921041
326.000000	1.924003
327.000000	1.915949
328.000000	1.909147
329.000000	1.902268
330.000000	1.899270
331.000000	1.893390
332.000000	1.888297
333.000000	1.888866
334.000000	1.886632
335.000000	1.880540
336.000000	1.875680
337.000000	1.874643
338.000000	1.873045
339.000000	1.873251
340.000000	1.870663
341.000000	1.870704
342.000000	1.868366
343.000000	1.869303
344.000000	1.871095
345.000000	1.873272
346.000000	1.874268
347.000000	1.875368
348.000000	1.877453
349.000000	1.875468
350.000000	1.873696
351.000000	1.875850
352.000000	1.877993
353.000000	1.878104
354.000000	1.880363
355.000000	1.879861
356.000000	1.879562
357.000000	1.879602
358.000000	1.882352
359.000000	1.886962
360.000000	1.890848
361.000000	1.891813
362.000000	1.895431
363.000000	1.896133
364.000000	1.896866
365.000000	1.903244
366.000000	1.911088
367.000000	1.918195
368.000000	1.921428
369.000000	1.921495
370.000000	1.919416
371.000000	1.919508
372.000000	1.920899
373.000000	1.923669
374.000000	1.924594
375.000000	1.925877
376.000000	1.919734
377.000000	1.899276
378.000000	1.881786
379.000000	1.866164
380.000000	1.852211
381.000000	1.837842
382.000000	1.822578
383.000000	1.808124
384.000000	1.795313
385.000000	1.780329
386.000000	1.772156
387.000000	1.780091
388.000000	1.787718
389.000000	1.795622
390.000000	1.804295
391.000000	1.814070
392.000000	1.824115
393.000000	1.834055
394.000000	1.844568
395.000000	1.856504
396.000000	1.868577
397.000000	1.880980
398.000000	1.894374
399.000000	1.908851
400.000000	1.924487
401.000000	1.941077
402.000000	1.959289
403.000000	1.979871
404.000000	2.002897
405.000000	2.027710
406.000000	2.055127
407.000000	2.085103
408.000000	2.118372
409.000000	2.155161
410.000000	2.195647
411.000000	2.239907
412.000000	2.288708
413.000000	2.341909
414.000000	2.399231
415.000000	2.461359
416.000000	2.528748
417.000000	2.602196
418.000000	2.680445
419.000000	2.763633
420.000000	2.852597
421.000000	2.946839
422.000000	3.045691
423.000000	3.149381
424.000000	3.257835
425.000000	3.371241
426.000000	3.489111
427.000000	3.610653
428.000000	3.735810
429.000000	3.863589
430.000000	3.993260
431.000000	4.125609
432.000000	4.259284
433.000000	4.393633
434.000000	4.528904
435.000000	4.664193
436.000000	4.798759
437.000000	4.930993
438.000000	5.061233
439.000000	5.190421
440.000000	5.317708
441.000000	5.442047
442.000000	5.563529
443.000000	5.682126
444.000000	5.797365
445.000000	5.909165
446.000000	6.017615
447.000000	6.123648
448.000000	6.227233
449.000000	6.326524
450.000000	6.422360
451.000000	6.514910
452.000000	6.604775
453.000000	6.692184
454.000000	6.776230
455.000000	6.857278
456.000000	6.935805
457.000000	7.011587
458.000000	7.084672
459.000000	7.156383
460.000000	7.226285
461.000000	7.294528
462.000000	7.361141
463.000000	7.425116
464.000000	7.487191
465.000000	7.546930
466.000000	7.603820
467.000000	7.657933
468.000000	7.708795
469.000000	7.755898
470.000000	7.798996
471.000000	7.837903
472.000000	7.871728
473.000000	7.900482
474.000000	7.923492
475.000000	7.940330
476.000000	7.951305
477.000000	7.956023
478.000000	7.954050
479.000000	7.945497
480.000000	7.929248
481.000000	7.903877
482.000000	7.871146
483.000000	7.833517
484.000000	7.793128
485.000000	7.751377
486.000000	7.708507
487.000000	7.665745
488.000000	7.624197
489.000000	7.585577
490.000000	7.551512
491.000000	7.524513
492.000000	7.505051
493.000000	7.493010
494.000000	7.488926
495.000000	7.494084
496.000000	7.510484
497.000000	7.539207
498.000000	7.582682
499.000000	7.641295
500.000000	7.715722
501.000000	7.807729
502.000000	7.918832
503.000000	8.049584
504.000000	8.198930
505.000000	8.366152
506.000000	8.550258
507.000000	8.751720
508.000000	8.967683
509.000000	9.196925
510.000000	9.439482
511.000000	9.692247
512.000000	9.952912
513.000000	10.218872
514.000000	10.488580
515.000000	10.760703
516.000000	11.034546
517.000000	11.307431
518.000000	11.579593
519.000000	11.851541
520.000000	12.122325
521.000000	12.393450
522.000000	12.664241
523.000000	12.934944
524.000000	13.207893
525.000000	13.482517
526.000000	13.758403
527.000000	14.036819
528.000000	14.317457
529.000000	14.599756
530.000000	14.884171
531.000000	15.170723
532.000000	15.459334
533.000000	15.750912
534.000000	16.043502
535.000000	16.337940
536.000000	16.633651
537.000000	16.930105
538.000000	17.227312
539.000000	17.523600
540.000000	17.817500
541.000000	18.107588
542.000000	18.393202
543.000000	18.672485
544.000000	18.945684
545.000000	19.210966
546.000000	19.467508
547.000000	19.714604
548.000000	19.951391
549.000000	20.178670
550.000000	20.395397
551.000000	20.601561
552.000000	20.797755
553.000000	20.982784
554.000000	21.157152
555.000000	21.320666
556.000000	21.474732
557.000000	21.618337
558.000000	21.753430
559.000000	21.879161
560.000000	21.943959
561.000000	21.993133
562.000000	22.033660
563.000000	22.067125
564.000000	22.093757
565.000000	22.115268
566.000000	22.132009
567.000000	22.145404
568.000000	22.153985
569.000000	22.158802
570.000000	22.212875
571.000000	22.271571
572.000000	22.326425
573.000000	22.380181
574.000000	22.433212
575.000000	22.482593
576.000000	22.529779
577.000000	22.573625
578.000000	22.613574
579.000000	22.650763
580.000000	22.685893
581.000000	22.716917
582.000000	22.746255
583.000000	22.771418
584.000000	22.792982
585.000000	22.810771
586.000000	22.825118
587.000000	22.834556
588.000000	22.841684
589.000000	22.845057
590.000000	22.842522
591.000000	22.837798
592.000000	22.827022
593.000000	22.811552
594.000000	22.789799
595.000000	22.765639
596.000000	22.735832
597.000000	22.701660
598.000000	22.662235
599.000000	22.616876
600.000000	22.565527
601.000000	22.506090
602.000000	22.441716
603.000000	22.368716
604.000000	22.286558
605.000000	22.194586
606.000000	22.094385
607.000000	21.987353
608.000000	21.868534
609.000000	21.742084
610.000000	21.606926
611.000000	21.464193
612.000000	21.311576
613.000000	21.152831
614.000000	20.987433
615.000000	20.813936
616.000000	20.631790
617.000000	20.437968
618.000000	20.237767
619.000000	20.025941
620.000000	19.804477
621.000000	19.570752
622.000000	19.329867
623.000000	19.080732
624.000000	18.824037
625.000000	18.563693
626.000000	18.300355
627.000000	18.037753
628.000000	17.775009
629.000000	17.515527
630.000000	17.260751
631.000000	17.011300
632.000000	16.765469
633.000000	16.523700
634.000000	16.286166
635.000000	16.048566
636.000000	15.812190
637.000000	15.577547
638.000000	15.346275
639.000000	15.119111
640.000000	14.898762
641.000000	14.687814
642.000000	14.489997
643.000000	14.308474
644.000000	14.146003
645.000000	14.007921
646.000000	13.895695
647.000000	13.809606
648.000000	13.751721
649.000000	13.722358
650.000000	13.721561
651.000000	13.747763
652.000000	13.796124
653.000000	13.866411
654.000000	13.957744
655.000000	14.066606
656.000000	14.189520
657.000000	14.328895
658.000000	14.480553
659.000000	14.641165
660.000000	14.810543
661.000000	14.989547
662.000000	15.178656
663.000000	15.376366
664.000000	15.578575
665.000000	15.785978
666.000000	15.998568
667.000000	16.212214
668.000000	16.425201
669.000000	16.639829
670.000000	16.850304
671.000000	17.055777
672.000000	17.252302
673.000000	17.438514
674.000000	17.613836
675.000000	17.777934
676.000000	17.930091
677.000000	18.068132
678.000000	18.194723
679.000000	18.308191
680.000000	18.411599
681.000000	18.504184
682.000000	18.588367
683.000000	18.664349
684.000000	18.735011
685.000000	18.800350
686.000000	18.860903
687.000000	18.919360
688.000000	18.973177
689.000000	19.025296
690.000000	19.073794
691.000000	19.118136
692.000000	19.159680
693.000000	19.199401
694.000000	19.237093
695.000000	19.271449
696.000000	19.302822
697.000000	19.331658
698.000000	19.358594
699.000000	19.381896
700.000000	19.402730
701.000000	19.423909
702.000000	19.447376
703.000000	19.469349
704.000000	19.489814
705.000000	19.510418
706.000000	19.533451
707.000000	19.557120
708.000000	19.583523
709.000000	19.613132
710.000000	19.645784
711.000000	19.679140
712.000000	19.712311
713.000000	19.749004
714.000000	19.791833
715.000000	19.838366
716.000000	19.885187
717.000000	19.934874
718.000000	19.987299
719.000000	20.041463
720.000000	20.096711
721.000000	20.157366
722.000000	20.220179
723.000000	20.283768
724.000000	20.345552
725.000000	20.408452
726.000000	20.475106
727.000000	20.545302
728.000000	20.619377
729.000000	20.693491
730.000000	20.770689
731.000000	20.849238
732.000000	20.931359
733.000000	21.016666
734.000000	21.105762
735.000000	21.197419
736.000000	21.287886
737.000000	21.375968
738.000000	21.462023
739.000000	21.549767
740.000000	21.634996
741.000000	21.715407
742.000000	21.792200
743.000000	21.865711
744.000000	21.933040
745.000000	21.995436
746.000000	22.056430
747.000000	22.111688
748.000000	22.161006
749.000000	22.207069
750.000000	22.249828
751.000000	22.287854
752.000000	22.319665
753.000000	22.346189
754.000000	22.369299
755.000000	22.386520
756.000000	22.396712
757.000000	22.404959
758.000000	22.407483
759.000000	22.400116
760.000000	22.389439
761.000000	22.379238
762.000000	22.366589
763.000000	22.351013
764.000000	22.334963
765.000000	22.320461
766.000000	22.306507
767.000000	22.293982
768.000000	22.286324
769.000000	22.284463
770.000000	22.287923
771.000000	22.291924
772.000000	22.300432
773.000000	22.311198
774.000000	22.323530
775.000000	22.336973
776.000000	22.353668
777.000000	22.374040
778.000000	22.393086
779.000000	22.410405
780.000000	22.424261
781.000000	22.432984
782.000000	22.439809
783.000000	22.446601
784.000000	22.450285
785.000000	22.445482
786.000000	22.434789
787.000000	22.417973
788.000000	22.397131
789.000000	22.373872
790.000000	22.344044
791.000000	22.311668
792.000000	22.273402
793.000000	22.228633
794.000000	22.181729
795.000000	22.133467
796.000000	22.079367
797.000000	22.018884
798.000000	21.953490
799.000000	21.885595
800.000000	21.816940
801.000000	21.751339
802.000000	21.684399
803.000000	21.620161
804.000000	21.557169
805.000000	21.497338
806.000000	21.446326
807.000000	21.402379
808.000000	21.373396
809.000000	21.354741
810.000000	21.339628
811.000000	21.328086
812.000000	21.324142
813.000000	21.325075
814.000000	21.327305
815.000000	21.332494
816.000000	21.342213
817.000000	21.352982
818.000000	21.356877
819.000000	21.352243
820.000000	21.348431
821.000000	21.343026
822.000000	21.328209
823.000000	21.313064
824.000000	21.296482
825.000000	21.274909
826.000000	21.243448
827.000000	21.206074
828.000000	21.158796
829.000000	21.107581
830.000000	21.054228
831.000000	20.990626
832.000000	20.923378
833.000000	20.842950
834.000000	20.753296
835.000000	20.665287
836.000000	20.569585
837.000000	20.466064
838.000000	20.362308
839.000000	20.259828
840.000000	20.147047
841.000000	20.036703
842.000000	19.922728
843.000000	19.815144
844.000000	19.710264
845.000000	19.602708
846.000000	19.509108
847.000000	19.412419
848.000000	19.321942
849.000000	19.223113
850.000000	19.141412
851.000000	19.062009
852.000000	18.994582
853.000000	18.936308
854.000000	18.879751
855.000000	18.821757
856.000000	18.767614
857.000000	18.744235
858.000000	18.797674
859.000000	18.834490
860.000000	18.869108
861.000000	18.916855
862.000000	18.976152
863.000000	19.039860
864.000000	19.116010
865.000000	19.208141
866.000000	19.298775
867.000000	19.378847
868.000000	19.389090
869.000000	19.433223
870.000000	19.477617
871.000000	19.517827
872.000000	19.550523
873.000000	19.578410
874.000000	19.602297
875.000000	19.619333
876.000000	19.634920
877.000000	19.646117
878.000000	19.657280
879.000000	19.664500
880.000000	19.670903
881.000000	19.675543
882.000000	19.679853
883.000000	19.680053
884.000000	19.677343
885.000000	19.676507
886.000000	19.672563
887.000000	19.668463
888.000000	19.657957
889.000000	19.649363
890.000000	19.637217
891.000000	19.623103
892.000000	19.605633
893.000000	19.588123
894.000000	19.568983
895.000000	19.547933
896.000000	19.527283
897.000000	19.504197
898.000000	19.484217
899.000000	19.463807
900.000000	19.447150
901.000000	19.429837
902.000000	19.416527
903.000000	19.403323
904.000000	19.392963
905.000000	19.382627
906.000000	19.373667
907.000000	19.367147
908.000000	19.361427
909.000000	19.357153
910.000000	19.352457
911.000000	19.351280
912.000000	19.346863
913.000000	19.344837
914.000000	19.343507
915.000000	19.343820
916.000000	19.343243
917.000000	19.342553
918.000000	19.339283
919.000000	19.335603
920.000000	19.332760
921.000000	19.327993
922.000000	19.325157
923.000000	19.318970
924.000000	19.314083
925.000000	19.306453
926.000000	19.298393
927.000000	19.287863
928.000000	19.278637
929.000000	19.267050
930.000000	19.252943
931.000000	19.237393
932.000000	19.221427
933.000000	19.205713
934.000000	19.186563
935.000000	19.169317
936.000000	19.150457
937.000000	19.132673
938.000000	19.113070
939.000000	19.091557
940.000000	19.070093
941.000000	19.047287
942.000000	19.022667
943.000000	18.997243
944.000000	18.970930
945.000000	18.943380
946.000000	18.914710
947.000000	18.885990
948.000000	18.858267
949.000000	18.832277
950.000000	18.803480
951.000000	18.774930
952.000000	18.746483
953.000000	18.716690
954.000000	18.687450
955.000000	18.657223
956.000000	18.626917
957.000000	18.596120
958.000000	18.565563
959.000000	18.532447
960.000000	18.500347
961.000000	18.468567
962.000000	18.436427
963.000000	18.406527
964.000000	18.376557
965.000000	18.345897
966.000000	18.316580
967.000000	18.285907
968.000000	18.256167
969.000000	18.228027
970.000000	18.200650
971.000000	18.172740
972.000000	18.147647
973.000000	18.121497
974.000000	18.096750
975.000000	18.074483
976.000000	18.052983
977.000000	18.034727
978.000000	18.016930
979.000000	18.000690
980.000000	17.987320
981.000000	17.976353
982.000000	17.965063
983.000000	17.957063
984.000000	17.950463
985.000000	17.943360
986.000000	17.938943
987.000000	17.935490
988.000000	17.931870
989.000000	17.929900
990.000000	17.927897
991.000000	17.927607
992.000000	17.928813
993.000000	17.929287
994.000000	17.930110
995.000000	17.931950
996.000000	17.933107
997.000000	17.934407
998.000000	17.936143
999.000000	17.936543
1000.000000	17.937090
1001.000000	17.936283
1002.000000	17.933960
1003.000000	17.932130
1004.000000	17.930023
1005.000000	17.926553
1006.000000	17.922393
1007.000000	17.917170
1008.000000	17.911647
1009.000000	17.906980
1010.000000	17.902310
1011.000000	17.897053
1012.000000	17.892203
1013.000000	17.887143
1014.000000	17.881527
1015.000000	17.875970
1016.000000	17.869967
1017.000000	17.864897
1018.000000	17.860750
1019.000000	17.855767
1020.000000	17.849567
1021.000000	17.843913
1022.000000	17.839343
1023.000000	17.835070
1024.000000	17.831517
1025.000000	17.828777
1026.000000	17.826343
1027.000000	17.825163
1028.000000	17.825167
1029.000000	17.826053
1030.000000	17.828940
1031.000000	17.833617
1032.000000	17.838433
1033.000000	17.843913
1034.000000	17.851020
1035.000000	17.859657
1036.000000	17.869470
1037.000000	17.880200
1038.000000	17.891877
1039.000000	17.904980
1040.000000	17.919423
1041.000000	17.934157
1042.000000	17.949597
1043.000000	17.965543
1044.000000	17.981187
1045.000000	17.998577
1046.000000	18.017537
1047.000000	18.035387
1048.000000	18.053217
1049.000000	18.071397
1050.000000	18.088687
1051.000000	18.106230
1052.000000	18.124980
1053.000000	18.144727
1054.000000	18.165550
1055.000000	18.185283
1056.000000	18.204240
1057.000000	18.224080
1058.000000	18.244030
1059.000000	18.263523
1060.000000	18.283010
1061.000000	18.303230
1062.000000	18.323357
1063.000000	18.343550
1064.000000	18.361770
1065.000000	18.378500
1066.000000	18.395773
1067.000000	18.413273
1068.000000	18.429787
1069.000000	18.446143
1070.000000	18.463470
1071.000000	18.480170
1072.000000	18.495667
1073.000000	18.510590
1074.000000	18.527113
1075.000000	18.544417
1076.000000	18.561763
1077.000000	18.578497
1078.000000	18.594623
1079.000000	18.609637
1080.000000	18.623450
1081.000000	18.637287
1082.000000	18.650620
1083.000000	18.662473
1084.000000	18.672697
1085.000000	18.684017
1086.000000	18.694557
1087.000000	18.704723
1088.000000	18.713997
1089.000000	18.723357
1090.000000	18.733347
1091.000000	18.743183
1092.000000	18.753520
1093.000000	18.764353
1094.000000	18.775550
1095.000000	18.785223
1096.000000	18.794783
1097.000000	18.804457
1098.000000	18.815217
1099.000000	18.827207
1100.000000	18.839580
1101.000000	18.851283
1102.000000	18.862010
1103.000000	18.872620
1104.000000	18.884823
1105.000000	18.896263
1106.000000	18.907513
1107.000000	18.918200
1108.000000	18.930260
1109.000000	18.942643
1110.000000	18.953163
1111.000000	18.963283
1112.000000	18.974860
1113.000000	18.985357
1114.000000	18.993263
1115.000000	19.002727
1116.000000	19.012000
1117.000000	19.022270
1118.000000	19.031687
1119.000000	19.039543
1120.000000	19.046890
1121.000000	19.055573
1122.000000	19.063563
1123.000000	19.072237
1124.000000	19.080067
1125.000000	19.088017
1126.000000	19.095217
1127.000000	19.099733
1128.000000	19.102277
1129.000000	19.106123
1130.000000	19.109697
1131.000000	19.108053
1132.000000	19.101257
1133.000000	19.093130
1134.000000	19.087597
1135.000000	19.083590
1136.000000	19.079083
1137.000000	19.071663
1138.000000	19.063227
1139.000000	19.051663
1140.000000	19.039197
1141.000000	19.030100
1142.000000	19.023327
1143.000000	19.018060
1144.000000	19.009953
1145.000000	19.000123
1146.000000	18.990447
1147.000000	18.984743
1148.000000	18.979600
1149.000000	18.974683
1150.000000	18.971680
1151.000000	18.967380
1152.000000	18.964607
1153.000000	18.960710
1154.000000	18.956550
1155.000000	18.949567
1156.000000	18.940673
1157.000000	18.928320
1158.000000	18.915993
1159.000000	18.902740
1160.000000	18.884257
1161.000000	18.865060
1162.000000	18.843147
1163.000000	18.818407
1164.000000	18.792567
1165.000000	18.764210
1166.000000	18.734500
1167.000000	18.706387
1168.000000	18.675797
1169.000000	18.645533
1170.000000	18.617493
1171.000000	18.589107
