PE UV       SUBTECH     SPECTRUM    ASCII       PEDS        4.00        
   -1
BIOUCR0024-3.Sample.ASC
24/02/20
14:02:04.00
24/02/20
14:02:04.00
Vinicio Soto Monge
P. resplendens 18 de Mayo de 1985 R.W. Volcan, Panama
250,000000
1
Lambda 1050
1050L1511233
PerkinElmer UV WinLab 6.3.2.0749 / 2.02.05 Lambda 900 UV/VIS/NIR, Aug  7 2015 09:38:08

0
0
3350/servo 860,8/2
0
0
UV/VIS
1
1
1
DoubleDePol,CommonBeamDepol,RBeamAtt,SBeamAtt,60mm sphere, WB InGaAs Detector
0
0
0
0
Program
Program
3350/servo 860,8/2
3350/0,2 860,8/0,2
3350/0,2 860,8/0,2
0
15.00
 
 
 
0
 
860,8
319,2
860,8
Front
100
on
S:100 R:100
0
0
0
0
 
0
 
 
 
0
 
 
0
0
0
0
0
 
 
 
 
0
0


0
0
#HDR
-1
-1
#GR
nm
%R
1.0
0.0
2500,000000
-1,000000
2251
8
24,512600
1,671100
#DATA

250.000000	nan
251.000000	nan
252.000000	nan
253.000000	nan
254.000000	nan
255.000000	nan
256.000000	nan
257.000000	nan
258.000000	nan
259.000000	1.985916
260.000000	1.980752
261.000000	1.978114
262.000000	1.971737
263.000000	1.965958
264.000000	1.961635
265.000000	1.957879
266.000000	1.953967
267.000000	1.947449
268.000000	1.938845
269.000000	1.933080
270.000000	1.927280
271.000000	1.919330
272.000000	1.916919
273.000000	1.910902
274.000000	1.906026
275.000000	1.901511
276.000000	1.895553
277.000000	1.890936
278.000000	1.888152
279.000000	1.885564
280.000000	1.885275
281.000000	1.883620
282.000000	1.881320
283.000000	1.881605
284.000000	1.879830
285.000000	1.879158
286.000000	1.878903
287.000000	1.879529
288.000000	1.878000
289.000000	1.875206
290.000000	1.872645
291.000000	1.869766
292.000000	1.866132
293.000000	1.863819
294.000000	1.860943
295.000000	1.855817
296.000000	1.854065
297.000000	1.852278
298.000000	1.851117
299.000000	1.853383
300.000000	1.851621
301.000000	1.849257
302.000000	1.845980
303.000000	1.844276
304.000000	1.844369
305.000000	1.846342
306.000000	1.841427
307.000000	1.839375
308.000000	1.837732
309.000000	1.833491
310.000000	1.830863
311.000000	1.829831
312.000000	1.832139
313.000000	1.832438
314.000000	1.830666
315.000000	1.828236
316.000000	1.833176
317.000000	1.861273
318.000000	1.888745
319.000000	1.906580
320.000000	1.939755
321.000000	1.964625
322.000000	1.983161
323.000000	1.990449
324.000000	2.009550
325.000000	2.027925
326.000000	2.046503
327.000000	2.036698
328.000000	2.028130
329.000000	2.024223
330.000000	1.999367
331.000000	1.985943
332.000000	1.978243
333.000000	1.974997
334.000000	1.957476
335.000000	1.948032
336.000000	1.939823
337.000000	1.926694
338.000000	1.914419
339.000000	1.907067
340.000000	1.905555
341.000000	1.903482
342.000000	1.901382
343.000000	1.902918
344.000000	1.905444
345.000000	1.900645
346.000000	1.891217
347.000000	1.888510
348.000000	1.885203
349.000000	1.880095
350.000000	1.880898
351.000000	1.879778
352.000000	1.874551
353.000000	1.866808
354.000000	1.863702
355.000000	1.862446
356.000000	1.866183
357.000000	1.866299
358.000000	1.865688
359.000000	1.868229
360.000000	1.866543
361.000000	1.864519
362.000000	1.864486
363.000000	1.869803
364.000000	1.869211
365.000000	1.864187
366.000000	1.855606
367.000000	1.853487
368.000000	1.852184
369.000000	1.847567
370.000000	1.836111
371.000000	1.824721
372.000000	1.811385
373.000000	1.796008
374.000000	1.785803
375.000000	1.779426
376.000000	1.772255
377.000000	1.755623
378.000000	1.739218
379.000000	1.725496
380.000000	1.719458
381.000000	1.713320
382.000000	1.710822
383.000000	1.711775
384.000000	1.713130
385.000000	1.714850
386.000000	1.717626
387.000000	1.729293
388.000000	1.742002
389.000000	1.755818
390.000000	1.770208
391.000000	1.786427
392.000000	1.803960
393.000000	1.822937
394.000000	1.843517
395.000000	1.865919
396.000000	1.890779
397.000000	1.917357
398.000000	1.945556
399.000000	1.975458
400.000000	2.007527
401.000000	2.041482
402.000000	2.076933
403.000000	2.113794
404.000000	2.152289
405.000000	2.192377
406.000000	2.233286
407.000000	2.275498
408.000000	2.319595
409.000000	2.365012
410.000000	2.411068
411.000000	2.457899
412.000000	2.506206
413.000000	2.555278
414.000000	2.605074
415.000000	2.655318
416.000000	2.706014
417.000000	2.756825
418.000000	2.807579
419.000000	2.858653
420.000000	2.910319
421.000000	2.961990
422.000000	3.012855
423.000000	3.062949
424.000000	3.112763
425.000000	3.161827
426.000000	3.210742
427.000000	3.259552
428.000000	3.307591
429.000000	3.354726
430.000000	3.400739
431.000000	3.445334
432.000000	3.488350
433.000000	3.530479
434.000000	3.570959
435.000000	3.610181
436.000000	3.647447
437.000000	3.682066
438.000000	3.714836
439.000000	3.745343
440.000000	3.773614
441.000000	3.799959
442.000000	3.823573
443.000000	3.844207
444.000000	3.862326
445.000000	3.877535
446.000000	3.890591
447.000000	3.902121
448.000000	3.911207
449.000000	3.917980
450.000000	3.922643
451.000000	3.925416
452.000000	3.927549
453.000000	3.929220
454.000000	3.930809
455.000000	3.932450
456.000000	3.934194
457.000000	3.936653
458.000000	3.941123
459.000000	3.948128
460.000000	3.958019
461.000000	3.971698
462.000000	3.990045
463.000000	4.012907
464.000000	4.040714
465.000000	4.074088
466.000000	4.113509
467.000000	4.159204
468.000000	4.210939
469.000000	4.268720
470.000000	4.332210
471.000000	4.400872
472.000000	4.474024
473.000000	4.551571
474.000000	4.632724
475.000000	4.716723
476.000000	4.802311
477.000000	4.889163
478.000000	4.976592
479.000000	5.063569
480.000000	5.148929
481.000000	5.231079
482.000000	5.309623
483.000000	5.385205
484.000000	5.459331
485.000000	5.531727
486.000000	5.602841
487.000000	5.672597
488.000000	5.741037
489.000000	5.807376
490.000000	5.873311
491.000000	5.940205
492.000000	6.008507
493.000000	6.077850
494.000000	6.146407
495.000000	6.214942
496.000000	6.284322
497.000000	6.354647
498.000000	6.426676
499.000000	6.501675
500.000000	6.580200
501.000000	6.663172
502.000000	6.750036
503.000000	6.840962
504.000000	6.937053
505.000000	7.038188
506.000000	7.144239
507.000000	7.254887
508.000000	7.369530
509.000000	7.487563
510.000000	7.607903
511.000000	7.729981
512.000000	7.853475
513.000000	7.977400
514.000000	8.100690
515.000000	8.222866
516.000000	8.343258
517.000000	8.462424
518.000000	8.579905
519.000000	8.696233
520.000000	8.811828
521.000000	8.926260
522.000000	9.039731
523.000000	9.153974
524.000000	9.269668
525.000000	9.387471
526.000000	9.507571
527.000000	9.629454
528.000000	9.753264
529.000000	9.880277
530.000000	10.009572
531.000000	10.142341
532.000000	10.279962
533.000000	10.420426
534.000000	10.563966
535.000000	10.710599
536.000000	10.860904
537.000000	11.013732
538.000000	11.170312
539.000000	11.330458
540.000000	11.494845
541.000000	11.662987
542.000000	11.833262
543.000000	12.007019
544.000000	12.182428
545.000000	12.358038
546.000000	12.533197
547.000000	12.709415
548.000000	12.885374
549.000000	13.059334
550.000000	13.230969
551.000000	13.399261
552.000000	13.564705
553.000000	13.725411
554.000000	13.881622
555.000000	14.033898
556.000000	14.183425
557.000000	14.329018
558.000000	14.470394
559.000000	14.608214
560.000000	14.701542
561.000000	14.785330
562.000000	14.863692
563.000000	14.938323
564.000000	15.009211
565.000000	15.076871
566.000000	15.138325
567.000000	15.195054
568.000000	15.247671
569.000000	15.295538
570.000000	15.379728
571.000000	15.464693
572.000000	15.544323
573.000000	15.619824
574.000000	15.692058
575.000000	15.759854
576.000000	15.824969
577.000000	15.886072
578.000000	15.942673
579.000000	15.995254
580.000000	16.042963
581.000000	16.085448
582.000000	16.124975
583.000000	16.158742
584.000000	16.187576
585.000000	16.211584
586.000000	16.231526
587.000000	16.247295
588.000000	16.260160
589.000000	16.270825
590.000000	16.279526
591.000000	16.288078
592.000000	16.296667
593.000000	16.305909
594.000000	16.313847
595.000000	16.322530
596.000000	16.330074
597.000000	16.336701
598.000000	16.342850
599.000000	16.345484
600.000000	16.344636
601.000000	16.339502
602.000000	16.328834
603.000000	16.314554
604.000000	16.294341
605.000000	16.269629
606.000000	16.241022
607.000000	16.207411
608.000000	16.168624
609.000000	16.128465
610.000000	16.088778
611.000000	16.050733
612.000000	16.014598
613.000000	15.978877
614.000000	15.947877
615.000000	15.918063
616.000000	15.890952
617.000000	15.867072
618.000000	15.842536
619.000000	15.815052
620.000000	15.784187
621.000000	15.747853
622.000000	15.705981
623.000000	15.656816
624.000000	15.599749
625.000000	15.534985
626.000000	15.460170
627.000000	15.378701
628.000000	15.292948
629.000000	15.204053
630.000000	15.111188
631.000000	15.015329
632.000000	14.919442
633.000000	14.824718
634.000000	14.732757
635.000000	14.644071
636.000000	14.561362
637.000000	14.481506
638.000000	14.406800
639.000000	14.338999
640.000000	14.278294
641.000000	14.226511
642.000000	14.182167
643.000000	14.145902
644.000000	14.117355
645.000000	14.097787
646.000000	14.087129
647.000000	14.086366
648.000000	14.095266
649.000000	14.113353
650.000000	14.139842
651.000000	14.173397
652.000000	14.213008
653.000000	14.261151
654.000000	14.315902
655.000000	14.376092
656.000000	14.439848
657.000000	14.506854
658.000000	14.575772
659.000000	14.643793
660.000000	14.711189
661.000000	14.776604
662.000000	14.839375
663.000000	14.897662
664.000000	14.949919
665.000000	14.996008
666.000000	15.037482
667.000000	15.073001
668.000000	15.102965
669.000000	15.127911
670.000000	15.148114
671.000000	15.166972
672.000000	15.183952
673.000000	15.198701
674.000000	15.214789
675.000000	15.233324
676.000000	15.253419
677.000000	15.275448
678.000000	15.300766
679.000000	15.331131
680.000000	15.367839
681.000000	15.406862
682.000000	15.449720
683.000000	15.497697
684.000000	15.550113
685.000000	15.606823
686.000000	15.667833
687.000000	15.735395
688.000000	15.807465
689.000000	15.882154
690.000000	15.956851
691.000000	16.035941
692.000000	16.118412
693.000000	16.202322
694.000000	16.286335
695.000000	16.369426
696.000000	16.450048
697.000000	16.527041
698.000000	16.600182
699.000000	16.669474
700.000000	16.736851
701.000000	16.798081
702.000000	16.853101
703.000000	16.902378
704.000000	16.946642
705.000000	16.984820
706.000000	17.019796
707.000000	17.051356
708.000000	17.079290
709.000000	17.104333
710.000000	17.126398
711.000000	17.147551
712.000000	17.170060
713.000000	17.194539
714.000000	17.224401
715.000000	17.260502
716.000000	17.302034
717.000000	17.351103
718.000000	17.409676
719.000000	17.478841
720.000000	17.560002
721.000000	17.654457
722.000000	17.760797
723.000000	17.878803
724.000000	18.006819
725.000000	18.146749
726.000000	18.298356
727.000000	18.458871
728.000000	18.629221
729.000000	18.808199
730.000000	18.992805
731.000000	19.182523
732.000000	19.377521
733.000000	19.575631
734.000000	19.776438
735.000000	19.979168
736.000000	20.180841
737.000000	20.382065
738.000000	20.580167
739.000000	20.775865
740.000000	20.968661
741.000000	21.153426
742.000000	21.330834
743.000000	21.502317
744.000000	21.665513
745.000000	21.818588
746.000000	21.963513
747.000000	22.099137
748.000000	22.223221
749.000000	22.335390
750.000000	22.438305
751.000000	22.535934
752.000000	22.627142
753.000000	22.710437
754.000000	22.784464
755.000000	22.853279
756.000000	22.919986
757.000000	22.982179
758.000000	23.040886
759.000000	23.097292
760.000000	23.151968
761.000000	23.205759
762.000000	23.256128
763.000000	23.304575
764.000000	23.353262
765.000000	23.398274
766.000000	23.437893
767.000000	23.476521
768.000000	23.514855
769.000000	23.549194
770.000000	23.577671
771.000000	23.600630
772.000000	23.621139
773.000000	23.638931
774.000000	23.655345
775.000000	23.673423
776.000000	23.687410
777.000000	23.695702
778.000000	23.704171
779.000000	23.711506
780.000000	23.717304
781.000000	23.723061
782.000000	23.729661
783.000000	23.736866
784.000000	23.738697
785.000000	23.734280
786.000000	23.726794
787.000000	23.720445
788.000000	23.713047
789.000000	23.706801
790.000000	23.701958
791.000000	23.694068
792.000000	23.679989
793.000000	23.663917
794.000000	23.651591
795.000000	23.637373
796.000000	23.626781
797.000000	23.614678
798.000000	23.600560
799.000000	23.584333
800.000000	23.567010
801.000000	23.553343
802.000000	23.544714
803.000000	23.535548
804.000000	23.524724
805.000000	23.519537
806.000000	23.516534
807.000000	23.515373
808.000000	23.520360
809.000000	23.529127
810.000000	23.538815
811.000000	23.541712
812.000000	23.544629
813.000000	23.551732
814.000000	23.556630
815.000000	23.555186
816.000000	23.554430
817.000000	23.552080
818.000000	23.542530
819.000000	23.530794
820.000000	23.519665
821.000000	23.512160
822.000000	23.498905
823.000000	23.488541
824.000000	23.477483
825.000000	23.462226
826.000000	23.444198
827.000000	23.425564
828.000000	23.402307
829.000000	23.373443
830.000000	23.334044
831.000000	23.290040
832.000000	23.247999
833.000000	23.195809
834.000000	23.136136
835.000000	23.072993
836.000000	23.004802
837.000000	22.935290
838.000000	22.850919
839.000000	22.771952
840.000000	22.683586
841.000000	22.584803
842.000000	22.490141
843.000000	22.386739
844.000000	22.284510
845.000000	22.179816
846.000000	22.072715
847.000000	21.959637
848.000000	21.844509
849.000000	21.727752
850.000000	21.612612
851.000000	21.500237
852.000000	21.365752
853.000000	21.228533
854.000000	21.093873
855.000000	20.952374
856.000000	20.816695
857.000000	20.697673
858.000000	20.639008
859.000000	20.590316
860.000000	20.552870
861.000000	20.522651
862.000000	20.509981
863.000000	20.511166
864.000000	20.517062
865.000000	20.542141
866.000000	20.565235
867.000000	20.577658
868.000000	20.546010
869.000000	20.502670
870.000000	20.460570
871.000000	20.420957
872.000000	20.380043
873.000000	20.334917
874.000000	20.289490
875.000000	20.242963
876.000000	20.195740
877.000000	20.149660
878.000000	20.107520
879.000000	20.066137
880.000000	20.026560
881.000000	19.988460
882.000000	19.951863
883.000000	19.917810
884.000000	19.885297
885.000000	19.853850
886.000000	19.823120
887.000000	19.793403
888.000000	19.762247
889.000000	19.732790
890.000000	19.707773
891.000000	19.680210
892.000000	19.653870
893.000000	19.628103
894.000000	19.603720
895.000000	19.579140
896.000000	19.557030
897.000000	19.536760
898.000000	19.517813
899.000000	19.498070
900.000000	19.476137
901.000000	19.457467
902.000000	19.439433
903.000000	19.421573
904.000000	19.404703
905.000000	19.390480
906.000000	19.375303
907.000000	19.359553
908.000000	19.344690
909.000000	19.331313
910.000000	19.315050
911.000000	19.300137
912.000000	19.284873
913.000000	19.273803
914.000000	19.258963
915.000000	19.241080
916.000000	19.225403
917.000000	19.210170
918.000000	19.195147
919.000000	19.179297
920.000000	19.166680
921.000000	19.153633
922.000000	19.140947
923.000000	19.124163
924.000000	19.107353
925.000000	19.093060
926.000000	19.077797
927.000000	19.059283
928.000000	19.039967
929.000000	19.018483
930.000000	18.997207
931.000000	18.972613
932.000000	18.949210
933.000000	18.924417
934.000000	18.902633
935.000000	18.882673
936.000000	18.862647
937.000000	18.842700
938.000000	18.823277
939.000000	18.804150
940.000000	18.784250
941.000000	18.765710
942.000000	18.745897
943.000000	18.727197
944.000000	18.706273
945.000000	18.682250
946.000000	18.659330
947.000000	18.638920
948.000000	18.618630
949.000000	18.599917
950.000000	18.581270
951.000000	18.564580
952.000000	18.548217
953.000000	18.534787
954.000000	18.521330
955.000000	18.508437
956.000000	18.496343
957.000000	18.485123
958.000000	18.474180
959.000000	18.465210
960.000000	18.457973
961.000000	18.452000
962.000000	18.446463
963.000000	18.439793
964.000000	18.434860
965.000000	18.431033
966.000000	18.426063
967.000000	18.421710
968.000000	18.419083
969.000000	18.416903
970.000000	18.413660
971.000000	18.408740
972.000000	18.405360
973.000000	18.402253
974.000000	18.399800
975.000000	18.397803
976.000000	18.396923
977.000000	18.395250
978.000000	18.393140
979.000000	18.389740
980.000000	18.388237
981.000000	18.388340
982.000000	18.388167
983.000000	18.388923
984.000000	18.389643
985.000000	18.390250
986.000000	18.391207
987.000000	18.392580
988.000000	18.395033
989.000000	18.398143
990.000000	18.401440
991.000000	18.403263
992.000000	18.403877
993.000000	18.405620
994.000000	18.408927
995.000000	18.412973
996.000000	18.415927
997.000000	18.417700
998.000000	18.420897
999.000000	18.425677
1000.000000	18.429777
1001.000000	18.435943
1002.000000	18.443127
1003.000000	18.449837
1004.000000	18.455660
1005.000000	18.462730
1006.000000	18.471020
1007.000000	18.480660
1008.000000	18.488420
1009.000000	18.496153
1010.000000	18.505633
1011.000000	18.515403
1012.000000	18.525327
1013.000000	18.535117
1014.000000	18.545193
1015.000000	18.554410
1016.000000	18.563323
1017.000000	18.572493
1018.000000	18.582337
1019.000000	18.592127
1020.000000	18.600797
1021.000000	18.609123
1022.000000	18.617963
1023.000000	18.628317
1024.000000	18.639373
1025.000000	18.650207
1026.000000	18.661453
1027.000000	18.672907
1028.000000	18.683610
1029.000000	18.692390
1030.000000	18.699910
1031.000000	18.708010
1032.000000	18.717027
1033.000000	18.725777
1034.000000	18.734553
1035.000000	18.743433
1036.000000	18.751867
1037.000000	18.760577
1038.000000	18.769757
1039.000000	18.780983
1040.000000	18.793007
1041.000000	18.804160
1042.000000	18.814267
1043.000000	18.823100
1044.000000	18.831207
1045.000000	18.839357
1046.000000	18.847527
1047.000000	18.855917
1048.000000	18.864330
1049.000000	18.872793
1050.000000	18.882167
1051.000000	18.892543
1052.000000	18.904037
1053.000000	18.917053
1054.000000	18.930580
1055.000000	18.944800
1056.000000	18.959203
1057.000000	18.973317
1058.000000	18.987650
1059.000000	19.001113
1060.000000	19.014410
1061.000000	19.027200
1062.000000	19.038287
1063.000000	19.049200
1064.000000	19.060613
1065.000000	19.070483
1066.000000	19.079317
1067.000000	19.088217
1068.000000	19.097103
1069.000000	19.106453
1070.000000	19.115333
1071.000000	19.124923
1072.000000	19.135670
1073.000000	19.145707
1074.000000	19.154070
1075.000000	19.163857
1076.000000	19.175130
1077.000000	19.185307
1078.000000	19.194750
1079.000000	19.204170
1080.000000	19.212813
1081.000000	19.218917
1082.000000	19.224733
1083.000000	19.230417
1084.000000	19.236810
1085.000000	19.241523
1086.000000	19.244213
1087.000000	19.248493
1088.000000	19.253293
1089.000000	19.257603
1090.000000	19.261790
1091.000000	19.267403
1092.000000	19.272020
1093.000000	19.276870
1094.000000	19.281797
1095.000000	19.287567
1096.000000	19.294270
1097.000000	19.300867
1098.000000	19.306997
1099.000000	19.313317
1100.000000	19.321180
1101.000000	19.329143
1102.000000	19.336750
1103.000000	19.343803
1104.000000	19.349697
1105.000000	19.356997
1106.000000	19.366203
1107.000000	19.372377
1108.000000	19.378813
1109.000000	19.386100
1110.000000	19.391240
1111.000000	19.395990
1112.000000	19.400503
1113.000000	19.403903
1114.000000	19.408967
1115.000000	19.411677
1116.000000	19.412817
1117.000000	19.416167
1118.000000	19.417837
1119.000000	19.418450
1120.000000	19.419047
1121.000000	19.418717
1122.000000	19.420633
1123.000000	19.423637
1124.000000	19.423950
1125.000000	19.422513
1126.000000	19.420890
1127.000000	19.419127
1128.000000	19.415533
1129.000000	19.410993
1130.000000	19.404930
1131.000000	19.396727
1132.000000	19.383973
1133.000000	19.367247
1134.000000	19.349913
1135.000000	19.336723
1136.000000	19.323593
1137.000000	19.305727
1138.000000	19.286530
1139.000000	19.266153
1140.000000	19.246317
1141.000000	19.226920
1142.000000	19.209190
1143.000000	19.191963
1144.000000	19.175880
1145.000000	19.157757
1146.000000	19.138213
1147.000000	19.122217
1148.000000	19.109667
1149.000000	19.096463
1150.000000	19.083160
1151.000000	19.073110
1152.000000	19.060543
1153.000000	19.050950
1154.000000	19.042037
1155.000000	19.031763
1156.000000	19.021303
1157.000000	19.008637
1158.000000	18.993707
1159.000000	18.977517
1160.000000	18.960380
1161.000000	18.940073
1162.000000	18.920430
1163.000000	18.895893
1164.000000	18.868930
1165.000000	18.840327
1166.000000	18.811050
1167.000000	18.779257
1168.000000	18.748657
1169.000000	18.717777
1170.000000	18.688887
1171.000000	18.659643
1172.000000	18.631420
1173.000000	18.605323
