PE UV       SUBTECH     SPECTRUM    ASCII       PEDS        4.00        
   -1
BIOUCR0006-3.Sample.ASC
24/02/19
13:22:08.00
24/02/19
13:22:08.00
Vinicio Soto Monge
P. cupreomarginata (sin datos) Monteverde(dudoso)
250,000000
1
Lambda 1050
1050L1511233
PerkinElmer UV WinLab 6.3.2.0749 / 2.02.05 Lambda 900 UV/VIS/NIR, Aug  7 2015 09:38:08

0
0
3350/servo 860,8/2
0
0
UV/VIS
1
1
1
DoubleDePol,CommonBeamDepol,RBeamAtt,SBeamAtt,60mm sphere, WB InGaAs Detector
0
0
0
0
Program
Program
3350/servo 860,8/2
3350/0,2 860,8/0,2
3350/0,2 860,8/0,2
0
15.00
 
 
 
0
 
860,8
319,2
860,8
Front
100
on
S:100 R:100
0
0
0
0
 
0
 
 
 
0
 
 
0
0
0
0
0
 
 
 
 
0
0


0
0
#HDR
-1
-1
#GR
nm
%R
1.0
0.0
2500,000000
-1,000000
2251
8
24,135800
1,746600
#DATA

250.000000	nan
251.000000	nan
252.000000	nan
253.000000	nan
254.000000	nan
255.000000	nan
256.000000	nan
257.000000	nan
258.000000	nan
259.000000	2.003351
260.000000	1.998966
261.000000	1.995045
262.000000	1.991470
263.000000	1.988338
264.000000	1.979222
265.000000	1.974872
266.000000	1.969317
267.000000	1.960840
268.000000	1.954155
269.000000	1.947284
270.000000	1.942085
271.000000	1.934917
272.000000	1.928686
273.000000	1.923165
274.000000	1.921520
275.000000	1.919270
276.000000	1.916200
277.000000	1.915097
278.000000	1.912052
279.000000	1.910547
280.000000	1.907295
281.000000	1.908380
282.000000	1.907563
283.000000	1.905367
284.000000	1.903579
285.000000	1.901638
286.000000	1.901419
287.000000	1.898933
288.000000	1.899556
289.000000	1.897680
290.000000	1.895830
291.000000	1.893783
292.000000	1.892417
293.000000	1.891206
294.000000	1.890959
295.000000	1.889608
296.000000	1.886183
297.000000	1.881853
298.000000	1.878513
299.000000	1.876313
300.000000	1.875224
301.000000	1.869453
302.000000	1.866941
303.000000	1.866976
304.000000	1.863309
305.000000	1.860508
306.000000	1.858566
307.000000	1.858626
308.000000	1.856727
309.000000	1.854882
310.000000	1.852277
311.000000	1.852355
312.000000	1.851758
313.000000	1.849149
314.000000	1.847735
315.000000	1.846426
316.000000	1.845201
317.000000	1.864332
318.000000	1.891030
319.000000	1.912096
320.000000	1.921639
321.000000	1.935715
322.000000	1.956545
323.000000	1.971310
324.000000	1.977700
325.000000	1.989784
326.000000	1.998598
327.000000	1.985841
328.000000	1.965977
329.000000	1.950285
330.000000	1.951601
331.000000	1.944087
332.000000	1.929893
333.000000	1.919873
334.000000	1.925176
335.000000	1.918918
336.000000	1.914998
337.000000	1.911955
338.000000	1.908168
339.000000	1.908117
340.000000	1.901671
341.000000	1.897638
342.000000	1.896173
343.000000	1.891943
344.000000	1.881938
345.000000	1.879803
346.000000	1.879769
347.000000	1.879033
348.000000	1.875930
349.000000	1.870393
350.000000	1.868874
351.000000	1.866244
352.000000	1.859871
353.000000	1.856489
354.000000	1.851241
355.000000	1.846734
356.000000	1.838616
357.000000	1.832146
358.000000	1.827139
359.000000	1.824220
360.000000	1.819589
361.000000	1.819891
362.000000	1.819293
363.000000	1.817668
364.000000	1.817850
365.000000	1.817054
366.000000	1.818807
367.000000	1.819317
368.000000	1.818770
369.000000	1.818667
370.000000	1.814883
371.000000	1.806395
372.000000	1.798832
373.000000	1.792969
374.000000	1.786118
375.000000	1.775268
376.000000	1.761449
377.000000	1.743730
378.000000	1.728204
379.000000	1.711280
380.000000	1.696945
381.000000	1.686181
382.000000	1.676525
383.000000	1.667952
384.000000	1.660951
385.000000	1.657810
386.000000	1.657697
387.000000	1.665374
388.000000	1.673385
389.000000	1.683225
390.000000	1.694885
391.000000	1.707261
392.000000	1.720173
393.000000	1.734283
394.000000	1.750324
395.000000	1.767974
396.000000	1.787089
397.000000	1.807856
398.000000	1.829790
399.000000	1.852826
400.000000	1.876808
401.000000	1.902661
402.000000	1.930550
403.000000	1.960627
404.000000	1.992130
405.000000	2.024553
406.000000	2.058482
407.000000	2.094114
408.000000	2.131567
409.000000	2.170601
410.000000	2.211192
411.000000	2.253625
412.000000	2.297899
413.000000	2.342857
414.000000	2.388653
415.000000	2.436283
416.000000	2.484989
417.000000	2.534792
418.000000	2.585350
419.000000	2.636377
420.000000	2.688467
421.000000	2.740886
422.000000	2.793059
423.000000	2.845301
424.000000	2.897492
425.000000	2.949403
426.000000	3.000847
427.000000	3.051617
428.000000	3.102042
429.000000	3.152170
430.000000	3.201052
431.000000	3.248689
432.000000	3.295786
433.000000	3.342551
434.000000	3.388325
435.000000	3.432350
436.000000	3.475174
437.000000	3.516956
438.000000	3.557063
439.000000	3.595608
440.000000	3.632592
441.000000	3.667969
442.000000	3.701535
443.000000	3.732875
444.000000	3.761439
445.000000	3.788238
446.000000	3.813503
447.000000	3.836638
448.000000	3.857743
449.000000	3.876519
450.000000	3.893080
451.000000	3.906791
452.000000	3.917240
453.000000	3.925506
454.000000	3.932679
455.000000	3.937996
456.000000	3.941309
457.000000	3.943307
458.000000	3.944181
459.000000	3.944719
460.000000	3.945956
461.000000	3.948744
462.000000	3.953472
463.000000	3.960457
464.000000	3.970345
465.000000	3.984154
466.000000	4.002226
467.000000	4.024831
468.000000	4.052897
469.000000	4.086794
470.000000	4.126911
471.000000	4.173294
472.000000	4.226643
473.000000	4.286495
474.000000	4.352667
475.000000	4.424898
476.000000	4.502437
477.000000	4.585362
478.000000	4.673133
479.000000	4.764996
480.000000	4.859295
481.000000	4.954648
482.000000	5.050023
483.000000	5.146074
484.000000	5.243336
485.000000	5.341264
486.000000	5.439434
487.000000	5.536660
488.000000	5.632912
489.000000	5.727720
490.000000	5.821901
491.000000	5.916031
492.000000	6.010404
493.000000	6.105004
494.000000	6.198542
495.000000	6.291120
496.000000	6.384847
497.000000	6.481281
498.000000	6.581762
499.000000	6.686903
500.000000	6.798123
501.000000	6.916727
502.000000	7.044034
503.000000	7.180898
504.000000	7.329141
505.000000	7.488776
506.000000	7.660079
507.000000	7.843292
508.000000	8.037216
509.000000	8.242519
510.000000	8.458590
511.000000	8.685060
512.000000	8.921250
513.000000	9.165428
514.000000	9.416240
515.000000	9.674043
516.000000	9.937051
517.000000	10.202999
518.000000	10.473049
519.000000	10.746116
520.000000	11.021435
521.000000	11.298398
522.000000	11.576183
523.000000	11.854379
524.000000	12.132337
525.000000	12.408705
526.000000	12.683055
527.000000	12.955655
528.000000	13.224754
529.000000	13.489969
530.000000	13.749789
531.000000	14.003933
532.000000	14.251476
533.000000	14.491639
534.000000	14.724174
535.000000	14.949675
536.000000	15.167760
537.000000	15.377823
538.000000	15.580092
539.000000	15.775266
540.000000	15.964446
541.000000	16.147676
542.000000	16.324926
543.000000	16.497540
544.000000	16.663812
545.000000	16.824177
546.000000	16.978782
547.000000	17.129534
548.000000	17.274811
549.000000	17.414144
550.000000	17.546648
551.000000	17.671832
552.000000	17.789912
553.000000	17.899841
554.000000	18.003986
555.000000	18.102818
556.000000	18.195235
557.000000	18.281798
558.000000	18.362305
559.000000	18.438325
560.000000	18.461572
561.000000	18.472782
562.000000	18.479801
563.000000	18.480612
564.000000	18.475939
565.000000	18.464704
566.000000	18.449450
567.000000	18.427063
568.000000	18.398313
569.000000	18.362502
570.000000	18.367656
571.000000	18.373280
572.000000	18.370878
573.000000	18.365554
574.000000	18.354277
575.000000	18.335313
576.000000	18.308017
577.000000	18.274553
578.000000	18.235412
579.000000	18.189474
580.000000	18.137620
581.000000	18.080038
582.000000	18.015709
583.000000	17.943689
584.000000	17.862599
585.000000	17.774511
586.000000	17.678176
587.000000	17.573247
588.000000	17.460975
589.000000	17.339630
590.000000	17.209775
591.000000	17.072683
592.000000	16.929534
593.000000	16.781892
594.000000	16.630121
595.000000	16.476878
596.000000	16.321878
597.000000	16.164979
598.000000	16.005894
599.000000	15.846363
600.000000	15.685312
601.000000	15.521062
602.000000	15.355530
603.000000	15.185401
604.000000	15.012930
605.000000	14.837373
606.000000	14.660386
607.000000	14.484070
608.000000	14.309979
609.000000	14.138372
610.000000	13.973852
611.000000	13.819394
612.000000	13.675384
613.000000	13.545232
614.000000	13.433132
615.000000	13.338813
616.000000	13.264324
617.000000	13.208724
618.000000	13.171092
619.000000	13.155183
620.000000	13.157663
621.000000	13.178308
622.000000	13.216954
623.000000	13.268843
624.000000	13.334082
625.000000	13.409899
626.000000	13.494683
627.000000	13.587370
628.000000	13.686790
629.000000	13.789463
630.000000	13.895084
631.000000	14.001392
632.000000	14.105285
633.000000	14.209900
634.000000	14.309330
635.000000	14.404808
636.000000	14.492488
637.000000	14.572254
638.000000	14.643909
639.000000	14.705591
640.000000	14.756588
641.000000	14.796190
642.000000	14.826808
643.000000	14.847758
644.000000	14.859498
645.000000	14.862361
646.000000	14.859081
647.000000	14.851874
648.000000	14.840793
649.000000	14.828956
650.000000	14.817655
651.000000	14.807559
652.000000	14.801036
653.000000	14.798692
654.000000	14.803053
655.000000	14.814382
656.000000	14.833723
657.000000	14.861179
658.000000	14.897730
659.000000	14.943379
660.000000	14.999586
661.000000	15.066357
662.000000	15.142451
663.000000	15.227025
664.000000	15.321543
665.000000	15.423005
666.000000	15.531258
667.000000	15.645721
668.000000	15.765968
669.000000	15.890863
670.000000	16.018430
671.000000	16.148943
672.000000	16.278974
673.000000	16.408660
674.000000	16.533147
675.000000	16.655013
676.000000	16.773765
677.000000	16.886208
678.000000	16.990941
679.000000	17.086579
680.000000	17.173868
681.000000	17.251475
682.000000	17.321242
683.000000	17.380435
684.000000	17.432386
685.000000	17.477062
686.000000	17.514232
687.000000	17.545608
688.000000	17.573613
689.000000	17.598965
690.000000	17.620564
691.000000	17.640333
692.000000	17.658346
693.000000	17.677223
694.000000	17.699483
695.000000	17.724774
696.000000	17.753673
697.000000	17.787993
698.000000	17.826049
699.000000	17.869388
700.000000	17.919595
701.000000	17.977476
702.000000	18.044021
703.000000	18.119188
704.000000	18.201117
705.000000	18.290063
706.000000	18.387482
707.000000	18.491790
708.000000	18.604401
709.000000	18.724423
710.000000	18.850368
711.000000	18.980205
712.000000	19.111504
713.000000	19.246296
714.000000	19.382202
715.000000	19.515867
716.000000	19.647606
717.000000	19.777269
718.000000	19.899558
719.000000	20.015989
720.000000	20.126657
721.000000	20.230590
722.000000	20.330383
723.000000	20.421757
724.000000	20.507008
725.000000	20.588631
726.000000	20.664016
727.000000	20.735102
728.000000	20.804341
729.000000	20.869033
730.000000	20.928526
731.000000	20.985459
732.000000	21.039427
733.000000	21.091991
734.000000	21.142243
735.000000	21.189823
736.000000	21.234929
737.000000	21.275842
738.000000	21.314361
739.000000	21.351248
740.000000	21.386307
741.000000	21.420600
742.000000	21.451347
743.000000	21.477404
744.000000	21.501011
745.000000	21.524078
746.000000	21.548330
747.000000	21.571231
748.000000	21.590972
749.000000	21.611843
750.000000	21.634719
751.000000	21.654591
752.000000	21.674113
753.000000	21.696486
754.000000	21.718988
755.000000	21.742012
756.000000	21.765456
757.000000	21.790418
758.000000	21.818320
759.000000	21.846071
760.000000	21.874992
761.000000	21.909420
762.000000	21.947833
763.000000	21.987877
764.000000	22.032124
765.000000	22.079083
766.000000	22.126010
767.000000	22.172596
768.000000	22.219193
769.000000	22.267314
770.000000	22.316027
771.000000	22.361244
772.000000	22.402492
773.000000	22.441044
774.000000	22.473768
775.000000	22.499856
776.000000	22.524662
777.000000	22.549112
778.000000	22.568021
779.000000	22.582123
780.000000	22.589697
781.000000	22.593504
782.000000	22.595725
783.000000	22.594790
784.000000	22.589966
785.000000	22.579463
786.000000	22.561995
787.000000	22.540471
788.000000	22.516320
789.000000	22.483751
790.000000	22.448570
791.000000	22.410191
792.000000	22.362878
793.000000	22.311082
794.000000	22.255586
795.000000	22.196810
796.000000	22.132800
797.000000	22.064850
798.000000	21.998637
799.000000	21.932710
800.000000	21.858479
801.000000	21.785495
802.000000	21.718390
803.000000	21.648057
804.000000	21.576452
805.000000	21.509567
806.000000	21.441364
807.000000	21.375143
808.000000	21.313174
809.000000	21.254370
810.000000	21.199916
811.000000	21.139778
812.000000	21.079354
813.000000	21.021101
814.000000	20.966366
815.000000	20.907320
816.000000	20.852518
817.000000	20.796713
818.000000	20.730844
819.000000	20.664356
820.000000	20.600805
821.000000	20.535885
822.000000	20.468005
823.000000	20.402739
824.000000	20.330497
825.000000	20.261333
826.000000	20.188441
827.000000	20.109357
828.000000	20.034619
829.000000	19.954727
830.000000	19.874346
831.000000	19.796611
832.000000	19.719299
833.000000	19.639940
834.000000	19.567080
835.000000	19.489356
836.000000	19.418721
837.000000	19.345001
838.000000	19.271753
839.000000	19.205276
840.000000	19.133465
841.000000	19.062633
842.000000	18.995465
843.000000	18.924885
844.000000	18.853237
845.000000	18.791304
846.000000	18.720441
847.000000	18.663881
848.000000	18.603058
849.000000	18.532008
850.000000	18.470829
851.000000	18.412310
852.000000	18.335753
853.000000	18.264176
854.000000	18.201667
855.000000	18.139808
856.000000	18.093598
857.000000	18.043193
858.000000	17.960790
859.000000	17.970201
860.000000	17.976894
861.000000	17.986302
862.000000	18.016495
863.000000	18.053752
864.000000	18.089640
865.000000	18.128003
866.000000	18.163213
867.000000	18.202838
868.000000	18.285483
869.000000	18.291157
870.000000	18.299837
871.000000	18.310530
872.000000	18.322893
873.000000	18.334990
874.000000	18.346850
875.000000	18.358990
876.000000	18.371870
877.000000	18.384427
878.000000	18.398520
879.000000	18.413163
880.000000	18.430887
881.000000	18.451437
882.000000	18.474583
883.000000	18.497530
884.000000	18.522827
885.000000	18.549523
886.000000	18.577257
887.000000	18.606757
888.000000	18.634597
889.000000	18.665387
890.000000	18.696653
891.000000	18.726247
892.000000	18.753280
893.000000	18.780293
894.000000	18.805143
895.000000	18.828380
896.000000	18.850837
897.000000	18.874817
898.000000	18.898937
899.000000	18.920797
900.000000	18.940623
901.000000	18.959003
902.000000	18.976443
903.000000	18.992530
904.000000	19.008873
905.000000	19.025140
906.000000	19.040463
907.000000	19.052777
908.000000	19.063417
909.000000	19.072363
910.000000	19.081490
911.000000	19.088073
912.000000	19.093947
913.000000	19.101903
914.000000	19.106317
915.000000	19.108197
916.000000	19.109190
917.000000	19.107897
918.000000	19.105457
919.000000	19.100607
920.000000	19.093700
921.000000	19.089047
922.000000	19.083623
923.000000	19.074867
924.000000	19.065663
925.000000	19.054473
926.000000	19.043093
927.000000	19.030760
928.000000	19.016447
929.000000	19.001263
930.000000	18.985690
931.000000	18.967930
932.000000	18.947917
933.000000	18.926420
934.000000	18.906947
935.000000	18.889943
936.000000	18.870990
937.000000	18.854177
938.000000	18.838673
939.000000	18.824943
940.000000	18.807077
941.000000	18.788990
942.000000	18.770493
943.000000	18.752390
944.000000	18.731537
945.000000	18.710760
946.000000	18.690383
947.000000	18.668663
948.000000	18.646050
949.000000	18.623767
950.000000	18.603033
951.000000	18.584453
952.000000	18.567627
953.000000	18.552383
954.000000	18.539197
955.000000	18.524973
956.000000	18.510250
957.000000	18.495920
958.000000	18.483820
959.000000	18.469713
960.000000	18.459160
961.000000	18.447640
962.000000	18.436747
963.000000	18.425627
964.000000	18.415510
965.000000	18.405747
966.000000	18.397353
967.000000	18.389953
968.000000	18.382523
969.000000	18.376973
970.000000	18.372400
971.000000	18.368537
972.000000	18.363820
973.000000	18.359740
974.000000	18.356027
975.000000	18.353383
976.000000	18.351637
977.000000	18.350230
978.000000	18.349517
979.000000	18.350233
980.000000	18.350127
981.000000	18.350307
982.000000	18.354023
983.000000	18.358767
984.000000	18.362850
985.000000	18.366727
986.000000	18.371050
987.000000	18.375283
988.000000	18.378793
989.000000	18.382137
990.000000	18.386150
991.000000	18.391587
992.000000	18.396713
993.000000	18.400983
994.000000	18.406090
995.000000	18.411023
996.000000	18.415090
997.000000	18.420370
998.000000	18.427250
999.000000	18.433840
1000.000000	18.440543
1001.000000	18.446307
1002.000000	18.450717
1003.000000	18.455477
1004.000000	18.460343
1005.000000	18.466110
1006.000000	18.472240
1007.000000	18.478093
1008.000000	18.483830
1009.000000	18.491077
1010.000000	18.499153
1011.000000	18.507773
1012.000000	18.517287
1013.000000	18.527317
1014.000000	18.538153
1015.000000	18.549377
1016.000000	18.561403
1017.000000	18.573470
1018.000000	18.585563
1019.000000	18.598157
1020.000000	18.611093
1021.000000	18.624393
1022.000000	18.638127
1023.000000	18.652780
1024.000000	18.668243
1025.000000	18.684460
1026.000000	18.702103
1027.000000	18.720970
1028.000000	18.740070
1029.000000	18.758073
1030.000000	18.776123
1031.000000	18.795433
1032.000000	18.814470
1033.000000	18.832773
1034.000000	18.850530
1035.000000	18.868960
1036.000000	18.887503
1037.000000	18.905647
1038.000000	18.924820
1039.000000	18.943980
1040.000000	18.962217
1041.000000	18.979937
1042.000000	18.998343
1043.000000	19.016673
1044.000000	19.034750
1045.000000	19.052880
1046.000000	19.070293
1047.000000	19.087330
1048.000000	19.103140
1049.000000	19.119940
1050.000000	19.138357
1051.000000	19.155707
1052.000000	19.172220
1053.000000	19.190170
1054.000000	19.209210
1055.000000	19.227470
1056.000000	19.245777
1057.000000	19.265103
1058.000000	19.284803
1059.000000	19.303940
1060.000000	19.322913
1061.000000	19.343900
1062.000000	19.366277
1063.000000	19.388457
1064.000000	19.409293
1065.000000	19.429453
1066.000000	19.450653
1067.000000	19.471917
1068.000000	19.494253
1069.000000	19.516937
1070.000000	19.538457
1071.000000	19.558883
1072.000000	19.579753
1073.000000	19.600467
1074.000000	19.621667
1075.000000	19.643540
1076.000000	19.665060
1077.000000	19.686213
1078.000000	19.705043
1079.000000	19.723350
1080.000000	19.742313
1081.000000	19.761123
1082.000000	19.779347
1083.000000	19.796783
1084.000000	19.813970
1085.000000	19.828460
1086.000000	19.842667
1087.000000	19.856260
1088.000000	19.870140
1089.000000	19.884560
1090.000000	19.898823
1091.000000	19.912640
1092.000000	19.925417
1093.000000	19.937577
1094.000000	19.948463
1095.000000	19.961543
1096.000000	19.973957
1097.000000	19.984963
1098.000000	19.996230
1099.000000	20.008577
1100.000000	20.020657
1101.000000	20.031670
1102.000000	20.042053
1103.000000	20.052530
1104.000000	20.063777
1105.000000	20.074783
1106.000000	20.084920
1107.000000	20.097230
1108.000000	20.108420
1109.000000	20.117677
1110.000000	20.126257
1111.000000	20.135537
1112.000000	20.145167
1113.000000	20.153330
1114.000000	20.162640
1115.000000	20.171490
1116.000000	20.181097
1117.000000	20.188347
1118.000000	20.196310
1119.000000	20.201880
1120.000000	20.206867
1121.000000	20.211123
1122.000000	20.214263
1123.000000	20.218607
1124.000000	20.221113
1125.000000	20.221853
1126.000000	20.220347
1127.000000	20.217747
1128.000000	20.212630
1129.000000	20.207277
1130.000000	20.199857
1131.000000	20.189733
1132.000000	20.175100
1133.000000	20.154517
1134.000000	20.131700
1135.000000	20.112213
1136.000000	20.092343
1137.000000	20.068730
1138.000000	20.042640
1139.000000	20.013593
1140.000000	19.983863
1141.000000	19.954287
1142.000000	19.926327
1143.000000	19.899883
1144.000000	19.873530
1145.000000	19.845560
1146.000000	19.816797
1147.000000	19.792343
1148.000000	19.769127
1149.000000	19.749337
1150.000000	19.729967
1151.000000	19.711440
1152.000000	19.694640
1153.000000	19.679103
1154.000000	19.664793
1155.000000	19.646890
1156.000000	19.628033
1157.000000	19.606597
1158.000000	19.583990
1159.000000	19.559187
1160.000000	19.534183
1161.000000	19.505463
1162.000000	19.473953
1163.000000	19.439857
1164.000000	19.401427
1165.000000	19.361990
1166.000000	19.322333
1167.000000	19.280987
1168.000000	19.239310
1169.000000	19.197053
1170.000000	19.154397
1171.000000	19.115323
1172.000000	19.075420
