PE UV       SUBTECH     SPECTRUM    ASCII       PEDS        4.00        
   -1
BIOUCR0010-3.Sample.ASC
24/02/19
14:48:03.00
24/02/19
14:48:03.00
Vinicio Soto Monge
P. chalcotea
250,000000
1
Lambda 1050
1050L1511233
PerkinElmer UV WinLab 6.3.2.0749 / 2.02.05 Lambda 900 UV/VIS/NIR, Aug  7 2015 09:38:08

0
0
3350/servo 860,8/2
0
0
UV/VIS
1
1
1
DoubleDePol,CommonBeamDepol,RBeamAtt,SBeamAtt,60mm sphere, WB InGaAs Detector
0
0
0
0
Program
Program
3350/servo 860,8/2
3350/0,2 860,8/0,2
3350/0,2 860,8/0,2
0
15.00
 
 
 
0
 
860,8
319,2
860,8
Front
100
on
S:100 R:100
0
0
0
0
 
0
 
 
 
0
 
 
0
0
0
0
0
 
 
 
 
0
0


0
0
#HDR
-1
-1
#GR
nm
%R
1.0
0.0
2500,000000
-1,000000
2251
8
19,675600
1,594900
#DATA

250.000000	nan
251.000000	nan
252.000000	nan
253.000000	nan
254.000000	nan
255.000000	nan
256.000000	nan
257.000000	nan
258.000000	nan
259.000000	2.124510
260.000000	2.120824
261.000000	2.117177
262.000000	2.113159
263.000000	2.109611
264.000000	2.105075
265.000000	2.099608
266.000000	2.093321
267.000000	2.087644
268.000000	2.081346
269.000000	2.077500
270.000000	2.073168
271.000000	2.068543
272.000000	2.062813
273.000000	2.059184
274.000000	2.056015
275.000000	2.052560
276.000000	2.046462
277.000000	2.042773
278.000000	2.040401
279.000000	2.036225
280.000000	2.033142
281.000000	2.029753
282.000000	2.027304
283.000000	2.022898
284.000000	2.019448
285.000000	2.018371
286.000000	2.018604
287.000000	2.015666
288.000000	2.012241
289.000000	2.009408
290.000000	2.006105
291.000000	2.001730
292.000000	1.998796
293.000000	1.997002
294.000000	1.994419
295.000000	1.987833
296.000000	1.981475
297.000000	1.977378
298.000000	1.974380
299.000000	1.971228
300.000000	1.967920
301.000000	1.965694
302.000000	1.962665
303.000000	1.958807
304.000000	1.957199
305.000000	1.957252
306.000000	1.957085
307.000000	1.955563
308.000000	1.953287
309.000000	1.952401
310.000000	1.951401
311.000000	1.948838
312.000000	1.947415
313.000000	1.946773
314.000000	1.943302
315.000000	1.940379
316.000000	1.941155
317.000000	1.955146
318.000000	1.962966
319.000000	1.967739
320.000000	1.973778
321.000000	1.978217
322.000000	1.986966
323.000000	1.999821
324.000000	2.007416
325.000000	2.015983
326.000000	2.015123
327.000000	2.008622
328.000000	2.001518
329.000000	1.997409
330.000000	1.993619
331.000000	1.991146
332.000000	1.984515
333.000000	1.972039
334.000000	1.967699
335.000000	1.958500
336.000000	1.957806
337.000000	1.949773
338.000000	1.948931
339.000000	1.948332
340.000000	1.946814
341.000000	1.947618
342.000000	1.943982
343.000000	1.941193
344.000000	1.938686
345.000000	1.939070
346.000000	1.937389
347.000000	1.936444
348.000000	1.934522
349.000000	1.928551
350.000000	1.921259
351.000000	1.915391
352.000000	1.914369
353.000000	1.912917
354.000000	1.908186
355.000000	1.904974
356.000000	1.900298
357.000000	1.897984
358.000000	1.895614
359.000000	1.897061
360.000000	1.895822
361.000000	1.892781
362.000000	1.890258
363.000000	1.887666
364.000000	1.886928
365.000000	1.883772
366.000000	1.880325
367.000000	1.873308
368.000000	1.867297
369.000000	1.861697
370.000000	1.859903
371.000000	1.857874
372.000000	1.850996
373.000000	1.845941
374.000000	1.840451
375.000000	1.836552
376.000000	1.829351
377.000000	1.809831
378.000000	1.789873
379.000000	1.768292
380.000000	1.745590
381.000000	1.723961
382.000000	1.704876
383.000000	1.684598
384.000000	1.664532
385.000000	1.644441
386.000000	1.630005
387.000000	1.628421
388.000000	1.627096
389.000000	1.625880
390.000000	1.624596
391.000000	1.623450
392.000000	1.622457
393.000000	1.621664
394.000000	1.621074
395.000000	1.619986
396.000000	1.618202
397.000000	1.617331
398.000000	1.616737
399.000000	1.615875
400.000000	1.614605
401.000000	1.612955
402.000000	1.611559
403.000000	1.610465
404.000000	1.609200
405.000000	1.607916
406.000000	1.606986
407.000000	1.605595
408.000000	1.604329
409.000000	1.602988
410.000000	1.601822
411.000000	1.600847
412.000000	1.599938
413.000000	1.598561
414.000000	1.597020
415.000000	1.595881
416.000000	1.595088
417.000000	1.594676
418.000000	1.593637
419.000000	1.592949
420.000000	1.592404
421.000000	1.591785
422.000000	1.591115
423.000000	1.590591
424.000000	1.590137
425.000000	1.589524
426.000000	1.588746
427.000000	1.587617
428.000000	1.586756
429.000000	1.585906
430.000000	1.584962
431.000000	1.584049
432.000000	1.583385
433.000000	1.582634
434.000000	1.582030
435.000000	1.581778
436.000000	1.581304
437.000000	1.580870
438.000000	1.580374
439.000000	1.579888
440.000000	1.579696
441.000000	1.579594
442.000000	1.578977
443.000000	1.578319
444.000000	1.577592
445.000000	1.576728
446.000000	1.576381
447.000000	1.576037
448.000000	1.575638
449.000000	1.575680
450.000000	1.575818
451.000000	1.575609
452.000000	1.575803
453.000000	1.576286
454.000000	1.576800
455.000000	1.577429
456.000000	1.578084
457.000000	1.578874
458.000000	1.579870
459.000000	1.580847
460.000000	1.582070
461.000000	1.583770
462.000000	1.585601
463.000000	1.587543
464.000000	1.590070
465.000000	1.592745
466.000000	1.595484
467.000000	1.598710
468.000000	1.602326
469.000000	1.605938
470.000000	1.609713
471.000000	1.613888
472.000000	1.618222
473.000000	1.622974
474.000000	1.628150
475.000000	1.633665
476.000000	1.639587
477.000000	1.645765
478.000000	1.652506
479.000000	1.660441
480.000000	1.669251
481.000000	1.678695
482.000000	1.689105
483.000000	1.700970
484.000000	1.714473
485.000000	1.730325
486.000000	1.748632
487.000000	1.769608
488.000000	1.793289
489.000000	1.819359
490.000000	1.848386
491.000000	1.880828
492.000000	1.917159
493.000000	1.957035
494.000000	2.000677
495.000000	2.048194
496.000000	2.100025
497.000000	2.157097
498.000000	2.220072
499.000000	2.290150
500.000000	2.368191
501.000000	2.454713
502.000000	2.550312
503.000000	2.655470
504.000000	2.769850
505.000000	2.893106
506.000000	3.024912
507.000000	3.164001
508.000000	3.309100
509.000000	3.458768
510.000000	3.612181
511.000000	3.767489
512.000000	3.923973
513.000000	4.081741
514.000000	4.240837
515.000000	4.401129
516.000000	4.562874
517.000000	4.727396
518.000000	4.895268
519.000000	5.066917
520.000000	5.241907
521.000000	5.421559
522.000000	5.605141
523.000000	5.791609
524.000000	5.979443
525.000000	6.167709
526.000000	6.355044
527.000000	6.539256
528.000000	6.718774
529.000000	6.892861
530.000000	7.060305
531.000000	7.219981
532.000000	7.370825
533.000000	7.510838
534.000000	7.640291
535.000000	7.758923
536.000000	7.866439
537.000000	7.963058
538.000000	8.048018
539.000000	8.120724
540.000000	8.180911
541.000000	8.228255
542.000000	8.262895
543.000000	8.286358
544.000000	8.297341
545.000000	8.295441
546.000000	8.280406
547.000000	8.253062
548.000000	8.213758
549.000000	8.162821
550.000000	8.099354
551.000000	8.023642
552.000000	7.936103
553.000000	7.834513
554.000000	7.718782
555.000000	7.589144
556.000000	7.445266
557.000000	7.284038
558.000000	7.105172
559.000000	6.909010
560.000000	6.682267
561.000000	6.438861
562.000000	6.182570
563.000000	5.918622
564.000000	5.651957
565.000000	5.388251
566.000000	5.133032
567.000000	4.892443
568.000000	4.671820
569.000000	4.473836
570.000000	4.316264
571.000000	4.187101
572.000000	4.084606
573.000000	4.007396
574.000000	3.953563
575.000000	3.919795
576.000000	3.902075
577.000000	3.899246
578.000000	3.908022
579.000000	3.926013
580.000000	3.950412
581.000000	3.979892
582.000000	4.011260
583.000000	4.042005
584.000000	4.069100
585.000000	4.089999
586.000000	4.102833
587.000000	4.104466
588.000000	4.093156
589.000000	4.068419
590.000000	4.030684
591.000000	3.980804
592.000000	3.921953
593.000000	3.856928
594.000000	3.790688
595.000000	3.726392
596.000000	3.668491
597.000000	3.618955
598.000000	3.581067
599.000000	3.555357
600.000000	3.543125
601.000000	3.543126
602.000000	3.552634
603.000000	3.569435
604.000000	3.589905
605.000000	3.610460
606.000000	3.627749
607.000000	3.639880
608.000000	3.644972
609.000000	3.642780
610.000000	3.632200
611.000000	3.614519
612.000000	3.591624
613.000000	3.566526
614.000000	3.539870
615.000000	3.514888
616.000000	3.494570
617.000000	3.479372
618.000000	3.470566
619.000000	3.469223
620.000000	3.474090
621.000000	3.485034
622.000000	3.500433
623.000000	3.517084
624.000000	3.535509
625.000000	3.553312
626.000000	3.567210
627.000000	3.577605
628.000000	3.583881
629.000000	3.585441
630.000000	3.583690
631.000000	3.578001
632.000000	3.570930
633.000000	3.564227
634.000000	3.557803
635.000000	3.554194
636.000000	3.554903
637.000000	3.560594
638.000000	3.571348
639.000000	3.586784
640.000000	3.607004
641.000000	3.631378
642.000000	3.658439
643.000000	3.686930
644.000000	3.716347
645.000000	3.744395
646.000000	3.770651
647.000000	3.793786
648.000000	3.813581
649.000000	3.829928
650.000000	3.842909
651.000000	3.853782
652.000000	3.862274
653.000000	3.869608
654.000000	3.876365
655.000000	3.883711
656.000000	3.892722
657.000000	3.904516
658.000000	3.919080
659.000000	3.937523
660.000000	3.959400
661.000000	3.984316
662.000000	4.012245
663.000000	4.042335
664.000000	4.074684
665.000000	4.107937
666.000000	4.140617
667.000000	4.172685
668.000000	4.203450
669.000000	4.232300
670.000000	4.258616
671.000000	4.282416
672.000000	4.303759
673.000000	4.323644
674.000000	4.340794
675.000000	4.357004
676.000000	4.373342
677.000000	4.389902
678.000000	4.407584
679.000000	4.426103
680.000000	4.446705
681.000000	4.469672
682.000000	4.495760
683.000000	4.523254
684.000000	4.553006
685.000000	4.585360
686.000000	4.618672
687.000000	4.652516
688.000000	4.685940
689.000000	4.719983
690.000000	4.754300
691.000000	4.786843
692.000000	4.817309
693.000000	4.847522
694.000000	4.877171
695.000000	4.905053
696.000000	4.932541
697.000000	4.959829
698.000000	4.987720
699.000000	5.015579
700.000000	5.042624
701.000000	5.070596
702.000000	5.100126
703.000000	5.130506
704.000000	5.162293
705.000000	5.195915
706.000000	5.231484
707.000000	5.268942
708.000000	5.307303
709.000000	5.346615
710.000000	5.388940
711.000000	5.432554
712.000000	5.476309
713.000000	5.520636
714.000000	5.563782
715.000000	5.606862
716.000000	5.649791
717.000000	5.692126
718.000000	5.734981
719.000000	5.776896
720.000000	5.816166
721.000000	5.855267
722.000000	5.894813
723.000000	5.932918
724.000000	5.972289
725.000000	6.012025
726.000000	6.051549
727.000000	6.090937
728.000000	6.130413
729.000000	6.170966
730.000000	6.213141
731.000000	6.255676
732.000000	6.298098
733.000000	6.342241
734.000000	6.387283
735.000000	6.433055
736.000000	6.479278
737.000000	6.524525
738.000000	6.569410
739.000000	6.614468
740.000000	6.658380
741.000000	6.702785
742.000000	6.747928
743.000000	6.792434
744.000000	6.835359
745.000000	6.876809
746.000000	6.917937
747.000000	6.961200
748.000000	7.003927
749.000000	7.045373
750.000000	7.088296
751.000000	7.130032
752.000000	7.170348
753.000000	7.212104
754.000000	7.256079
755.000000	7.300233
756.000000	7.345162
757.000000	7.389346
758.000000	7.433576
759.000000	7.480201
760.000000	7.527335
761.000000	7.577066
762.000000	7.629375
763.000000	7.681865
764.000000	7.733787
765.000000	7.786421
766.000000	7.838959
767.000000	7.893981
768.000000	7.953095
769.000000	8.010907
770.000000	8.067663
771.000000	8.124929
772.000000	8.183224
773.000000	8.241674
774.000000	8.301152
775.000000	8.364083
776.000000	8.429260
777.000000	8.493880
778.000000	8.556622
779.000000	8.620529
780.000000	8.687516
781.000000	8.754762
782.000000	8.820676
783.000000	8.887002
784.000000	8.955185
785.000000	9.023793
786.000000	9.092150
787.000000	9.162880
788.000000	9.235456
789.000000	9.310369
790.000000	9.384573
791.000000	9.459710
792.000000	9.537187
793.000000	9.616764
794.000000	9.695950
795.000000	9.773957
796.000000	9.853911
797.000000	9.933802
798.000000	10.012685
799.000000	10.092564
800.000000	10.172143
801.000000	10.252150
802.000000	10.333497
803.000000	10.415326
804.000000	10.496526
805.000000	10.579969
806.000000	10.661407
807.000000	10.738673
808.000000	10.822317
809.000000	10.905420
810.000000	10.986830
811.000000	11.068460
812.000000	11.148606
813.000000	11.228478
814.000000	11.308244
815.000000	11.385928
816.000000	11.462767
817.000000	11.540835
818.000000	11.613563
819.000000	11.686286
820.000000	11.762365
821.000000	11.834207
822.000000	11.904823
823.000000	11.970119
824.000000	12.038012
825.000000	12.103897
826.000000	12.170983
827.000000	12.237631
828.000000	12.302513
829.000000	12.365633
830.000000	12.426538
831.000000	12.488936
832.000000	12.547270
833.000000	12.607505
834.000000	12.658052
835.000000	12.708843
836.000000	12.763617
837.000000	12.813450
838.000000	12.863902
839.000000	12.914314
840.000000	12.965844
841.000000	13.008992
842.000000	13.053815
843.000000	13.098675
844.000000	13.150889
845.000000	13.203079
846.000000	13.240919
847.000000	13.283317
848.000000	13.320768
849.000000	13.358411
850.000000	13.394811
851.000000	13.436600
852.000000	13.477546
853.000000	13.509438
854.000000	13.534868
855.000000	13.558512
856.000000	13.597652
857.000000	13.629400
858.000000	13.687792
859.000000	13.737843
860.000000	13.786031
861.000000	13.835182
862.000000	13.885911
863.000000	13.945426
864.000000	14.009999
865.000000	14.076732
866.000000	14.135826
867.000000	14.202121
868.000000	14.243287
869.000000	14.289437
870.000000	14.334207
871.000000	14.378897
872.000000	14.421837
873.000000	14.463137
874.000000	14.503400
875.000000	14.539917
876.000000	14.574923
877.000000	14.608333
878.000000	14.640780
879.000000	14.672877
880.000000	14.705883
881.000000	14.739170
882.000000	14.771807
883.000000	14.803823
884.000000	14.835710
885.000000	14.868810
886.000000	14.899750
887.000000	14.931217
888.000000	14.963573
889.000000	14.996407
890.000000	15.030303
891.000000	15.060007
892.000000	15.090673
893.000000	15.120960
894.000000	15.148320
895.000000	15.177083
896.000000	15.208157
897.000000	15.238030
898.000000	15.265700
899.000000	15.294120
900.000000	15.321463
901.000000	15.352150
902.000000	15.382220
903.000000	15.413273
904.000000	15.446660
905.000000	15.477827
906.000000	15.508023
907.000000	15.538853
908.000000	15.571213
909.000000	15.603337
910.000000	15.634750
911.000000	15.668003
912.000000	15.698663
913.000000	15.729860
914.000000	15.760197
915.000000	15.790190
916.000000	15.821147
917.000000	15.850340
918.000000	15.879450
919.000000	15.908130
920.000000	15.935737
921.000000	15.960853
922.000000	15.985783
923.000000	16.009210
924.000000	16.032113
925.000000	16.052423
926.000000	16.071967
927.000000	16.093520
928.000000	16.114397
929.000000	16.131710
930.000000	16.148163
931.000000	16.164970
932.000000	16.182663
933.000000	16.200113
934.000000	16.218010
935.000000	16.237707
936.000000	16.255463
937.000000	16.274033
938.000000	16.291907
939.000000	16.313203
940.000000	16.334363
941.000000	16.351613
942.000000	16.369800
943.000000	16.388887
944.000000	16.404817
945.000000	16.421240
946.000000	16.438887
947.000000	16.454923
948.000000	16.472783
949.000000	16.489170
950.000000	16.504523
951.000000	16.524357
952.000000	16.545463
953.000000	16.563950
954.000000	16.585127
955.000000	16.606153
956.000000	16.627757
957.000000	16.649907
958.000000	16.669853
959.000000	16.690673
960.000000	16.713810
961.000000	16.734600
962.000000	16.754910
963.000000	16.775947
964.000000	16.797430
965.000000	16.817210
966.000000	16.835300
967.000000	16.853243
968.000000	16.872930
969.000000	16.891923
970.000000	16.911600
971.000000	16.931660
972.000000	16.950130
973.000000	16.969443
974.000000	16.988757
975.000000	17.010347
976.000000	17.032477
977.000000	17.053480
978.000000	17.073780
979.000000	17.092850
980.000000	17.111373
981.000000	17.130347
982.000000	17.150877
983.000000	17.172497
984.000000	17.192163
985.000000	17.211467
986.000000	17.232197
987.000000	17.252610
988.000000	17.273223
989.000000	17.294687
990.000000	17.316687
991.000000	17.338053
992.000000	17.357453
993.000000	17.375897
994.000000	17.395247
995.000000	17.414503
996.000000	17.433330
997.000000	17.452890
998.000000	17.472730
999.000000	17.493413
1000.000000	17.511843
1001.000000	17.531020
1002.000000	17.551270
1003.000000	17.571300
1004.000000	17.590623
1005.000000	17.610373
1006.000000	17.630320
1007.000000	17.648693
1008.000000	17.666243
1009.000000	17.683670
1010.000000	17.702987
1011.000000	17.722150
1012.000000	17.740980
1013.000000	17.759203
1014.000000	17.777927
1015.000000	17.796490
1016.000000	17.815143
1017.000000	17.834710
1018.000000	17.854780
1019.000000	17.874307
1020.000000	17.893790
1021.000000	17.914500
1022.000000	17.935633
1023.000000	17.956553
1024.000000	17.978187
1025.000000	18.000253
1026.000000	18.020953
1027.000000	18.042537
1028.000000	18.065070
1029.000000	18.087337
1030.000000	18.109233
1031.000000	18.130047
1032.000000	18.150543
1033.000000	18.171683
1034.000000	18.192903
1035.000000	18.213080
1036.000000	18.233727
1037.000000	18.255200
1038.000000	18.275090
1039.000000	18.294037
1040.000000	18.313680
1041.000000	18.334570
1042.000000	18.355227
1043.000000	18.375453
1044.000000	18.395660
1045.000000	18.415533
1046.000000	18.435290
1047.000000	18.453630
1048.000000	18.472757
1049.000000	18.494257
1050.000000	18.515557
1051.000000	18.534593
1052.000000	18.553957
1053.000000	18.574423
1054.000000	18.594180
1055.000000	18.614257
1056.000000	18.635037
1057.000000	18.655250
1058.000000	18.675000
1059.000000	18.693190
1060.000000	18.710170
1061.000000	18.728287
1062.000000	18.747087
1063.000000	18.765807
1064.000000	18.784370
1065.000000	18.803293
1066.000000	18.821663
1067.000000	18.840293
1068.000000	18.859247
1069.000000	18.878417
1070.000000	18.898817
1071.000000	18.918657
1072.000000	18.938770
1073.000000	18.959830
1074.000000	18.980783
1075.000000	19.001000
1076.000000	19.020920
1077.000000	19.040790
1078.000000	19.060157
1079.000000	19.079327
1080.000000	19.097113
1081.000000	19.114950
1082.000000	19.131757
1083.000000	19.147797
1084.000000	19.163710
1085.000000	19.178913
1086.000000	19.195930
1087.000000	19.213380
1088.000000	19.230247
1089.000000	19.246713
1090.000000	19.263103
1091.000000	19.280567
1092.000000	19.296930
1093.000000	19.311813
1094.000000	19.326447
1095.000000	19.344347
1096.000000	19.359850
1097.000000	19.374810
1098.000000	19.389687
1099.000000	19.403893
1100.000000	19.418407
1101.000000	19.430780
1102.000000	19.443957
1103.000000	19.458433
1104.000000	19.473477
1105.000000	19.485420
1106.000000	19.497270
1107.000000	19.508313
1108.000000	19.519007
1109.000000	19.528960
1110.000000	19.539753
1111.000000	19.550493
1112.000000	19.561177
1113.000000	19.570650
1114.000000	19.578320
1115.000000	19.585333
1116.000000	19.592263
1117.000000	19.600493
1118.000000	19.609240
1119.000000	19.618137
1120.000000	19.625577
1121.000000	19.633410
1122.000000	19.641770
1123.000000	19.650757
1124.000000	19.661097
1125.000000	19.670640
1126.000000	19.679437
1127.000000	19.686127
1128.000000	19.691417
1129.000000	19.697963
1130.000000	19.702973
1131.000000	19.705447
1132.000000	19.701533
1133.000000	19.693223
1134.000000	19.683607
1135.000000	19.677927
1136.000000	19.674027
1137.000000	19.668930
1138.000000	19.662027
1139.000000	19.651243
1140.000000	19.640073
1141.000000	19.629850
1142.000000	19.624320
1143.000000	19.620357
1144.000000	19.615050
1145.000000	19.605557
1146.000000	19.594620
1147.000000	19.586940
1148.000000	19.580887
1149.000000	19.576270
1150.000000	19.571973
1151.000000	19.567330
1152.000000	19.561890
1153.000000	19.558690
1154.000000	19.556997
1155.000000	19.552957
1156.000000	19.547623
1157.000000	19.537913
1158.000000	19.526043
1159.000000	19.513567
1160.000000	19.500660
1161.000000	19.485110
1162.000000	19.466093
1163.000000	19.443390
1164.000000	19.415043
1165.000000	19.388090
1166.000000	19.359773
1167.000000	19.332430
1168.000000	19.305020
1169.000000	19.277857
1170.000000	19.249927
1171.000000	19.222897
1172.000000	19.199220
1173.000000	19.176100
1174.000000	19.157277
1175.000000	19.138370
1176.000000	19.121877
1177.000000	19.107237
1178.000000	19.093723
1179.000000	19.081997
1180.000000	19.070460
1181.000000	19.060967
1182.000000	19.051943
1183.000000	19.045273
1184.000000	19.039383
1185.000000	19.035520
1186.000000	19.031560
1187.000000	19.027997
