PE UV       SUBTECH     SPECTRUM    ASCII       PEDS        4.00        
   -1
BIOUCR0016-3.Sample.ASC
24/02/19
16:22:16.00
24/02/19
16:22:16.00
Vinicio Soto Monge
P. resplendens (sin datos) Parte inferior de elitros cafe bajo Filtro izq. Plateado bajo filtro derecho
250,000000
1
Lambda 1050
1050L1511233
PerkinElmer UV WinLab 6.3.2.0749 / 2.02.05 Lambda 900 UV/VIS/NIR, Aug  7 2015 09:38:08

0
0
3350/servo 860,8/2
0
0
UV/VIS
1
1
1
DoubleDePol,CommonBeamDepol,RBeamAtt,SBeamAtt,60mm sphere, WB InGaAs Detector
0
0
0
0
Program
Program
3350/servo 860,8/2
3350/0,2 860,8/0,2
3350/0,2 860,8/0,2
0
15.00
 
 
 
0
 
860,8
319,2
860,8
Front
100
on
S:100 R:100
0
0
0
0
 
0
 
 
 
0
 
 
0
0
0
0
0
 
 
 
 
0
0


0
0
#HDR
-1
-1
#GR
nm
%R
1.0
0.0
2500,000000
-1,000000
2251
8
21,302500
1,541000
#DATA

250.000000	nan
251.000000	nan
252.000000	nan
253.000000	nan
254.000000	nan
255.000000	nan
256.000000	nan
257.000000	nan
258.000000	nan
259.000000	2.070952
260.000000	2.066415
261.000000	2.063191
262.000000	2.059830
263.000000	2.054710
264.000000	2.047724
265.000000	2.043892
266.000000	2.038609
267.000000	2.030752
268.000000	2.023813
269.000000	2.017550
270.000000	2.011627
271.000000	2.007391
272.000000	2.001742
273.000000	1.997383
274.000000	1.994275
275.000000	1.989621
276.000000	1.985559
277.000000	1.984714
278.000000	1.983841
279.000000	1.982262
280.000000	1.977323
281.000000	1.971967
282.000000	1.968478
283.000000	1.963459
284.000000	1.958919
285.000000	1.955736
286.000000	1.952510
287.000000	1.948310
288.000000	1.943425
289.000000	1.939197
290.000000	1.937120
291.000000	1.935480
292.000000	1.930755
293.000000	1.926944
294.000000	1.922799
295.000000	1.920185
296.000000	1.915145
297.000000	1.911201
298.000000	1.906220
299.000000	1.901911
300.000000	1.897287
301.000000	1.892294
302.000000	1.890567
303.000000	1.887035
304.000000	1.887031
305.000000	1.881639
306.000000	1.878903
307.000000	1.875662
308.000000	1.876610
309.000000	1.873453
310.000000	1.875123
311.000000	1.873401
312.000000	1.870639
313.000000	1.871391
314.000000	1.868819
315.000000	1.868845
316.000000	1.870038
317.000000	1.897694
318.000000	1.934758
319.000000	1.960668
320.000000	1.992938
321.000000	2.022535
322.000000	2.046267
323.000000	2.066328
324.000000	2.068878
325.000000	2.089607
326.000000	2.109285
327.000000	2.100728
328.000000	2.077229
329.000000	2.070319
330.000000	2.044784
331.000000	2.022790
332.000000	2.003304
333.000000	1.998805
334.000000	2.011127
335.000000	1.996833
336.000000	1.981482
337.000000	1.972468
338.000000	1.961729
339.000000	1.944167
340.000000	1.936517
341.000000	1.932001
342.000000	1.928784
343.000000	1.911075
344.000000	1.896640
345.000000	1.895460
346.000000	1.888904
347.000000	1.884229
348.000000	1.881512
349.000000	1.880776
350.000000	1.886577
351.000000	1.881867
352.000000	1.884309
353.000000	1.887419
354.000000	1.883139
355.000000	1.876125
356.000000	1.873926
357.000000	1.868557
358.000000	1.864088
359.000000	1.859152
360.000000	1.846611
361.000000	1.846887
362.000000	1.836919
363.000000	1.828162
364.000000	1.824778
365.000000	1.817524
366.000000	1.811918
367.000000	1.804944
368.000000	1.800894
369.000000	1.793477
370.000000	1.784095
371.000000	1.775813
372.000000	1.770815
373.000000	1.761055
374.000000	1.747277
375.000000	1.736380
376.000000	1.735174
377.000000	1.718069
378.000000	1.700387
379.000000	1.689453
380.000000	1.682412
381.000000	1.670696
382.000000	1.661002
383.000000	1.657324
384.000000	1.658185
385.000000	1.658851
386.000000	1.651365
387.000000	1.658890
388.000000	1.667012
389.000000	1.675866
390.000000	1.685212
391.000000	1.695278
392.000000	1.706876
393.000000	1.720831
394.000000	1.736268
395.000000	1.752993
396.000000	1.770661
397.000000	1.790264
398.000000	1.811634
399.000000	1.835634
400.000000	1.861792
401.000000	1.890723
402.000000	1.921825
403.000000	1.954261
404.000000	1.989918
405.000000	2.028586
406.000000	2.070036
407.000000	2.113808
408.000000	2.160560
409.000000	2.209564
410.000000	2.261284
411.000000	2.315184
412.000000	2.371825
413.000000	2.431550
414.000000	2.493620
415.000000	2.557316
416.000000	2.623130
417.000000	2.691616
418.000000	2.761594
419.000000	2.832946
420.000000	2.905627
421.000000	2.979579
422.000000	3.054416
423.000000	3.129940
424.000000	3.206027
425.000000	3.282753
426.000000	3.359729
427.000000	3.436825
428.000000	3.514750
429.000000	3.592743
430.000000	3.669818
431.000000	3.747072
432.000000	3.824232
433.000000	3.900603
434.000000	3.976565
435.000000	4.052381
436.000000	4.127942
437.000000	4.202128
438.000000	4.274640
439.000000	4.346498
440.000000	4.418094
441.000000	4.487989
442.000000	4.556606
443.000000	4.624126
444.000000	4.689553
445.000000	4.753462
446.000000	4.815816
447.000000	4.876388
448.000000	4.934338
449.000000	4.988959
450.000000	5.040034
451.000000	5.087699
452.000000	5.131689
453.000000	5.172141
454.000000	5.208982
455.000000	5.240430
456.000000	5.266253
457.000000	5.288353
458.000000	5.307656
459.000000	5.323494
460.000000	5.335870
461.000000	5.344961
462.000000	5.350879
463.000000	5.354496
464.000000	5.357212
465.000000	5.360391
466.000000	5.364091
467.000000	5.367985
468.000000	5.373098
469.000000	5.380762
470.000000	5.392100
471.000000	5.408774
472.000000	5.431460
473.000000	5.460080
474.000000	5.495449
475.000000	5.538015
476.000000	5.589200
477.000000	5.649714
478.000000	5.719297
479.000000	5.798237
480.000000	5.885134
481.000000	5.977061
482.000000	6.073646
483.000000	6.176221
484.000000	6.284464
485.000000	6.398319
486.000000	6.516139
487.000000	6.636043
488.000000	6.756641
489.000000	6.876381
490.000000	6.995330
491.000000	7.114735
492.000000	7.234492
493.000000	7.351476
494.000000	7.463233
495.000000	7.569822
496.000000	7.670577
497.000000	7.764990
498.000000	7.853296
499.000000	7.937297
500.000000	8.018116
501.000000	8.095249
502.000000	8.167410
503.000000	8.235909
504.000000	8.302449
505.000000	8.365312
506.000000	8.425504
507.000000	8.483697
508.000000	8.540623
509.000000	8.595758
510.000000	8.648715
511.000000	8.700252
512.000000	8.751749
513.000000	8.803251
514.000000	8.854212
515.000000	8.906435
516.000000	8.961218
517.000000	9.019395
518.000000	9.081358
519.000000	9.148430
520.000000	9.221078
521.000000	9.299096
522.000000	9.382552
523.000000	9.472183
524.000000	9.568473
525.000000	9.671192
526.000000	9.780136
527.000000	9.896372
528.000000	10.019813
529.000000	10.150642
530.000000	10.289893
531.000000	10.437895
532.000000	10.595845
533.000000	10.764911
534.000000	10.945626
535.000000	11.139059
536.000000	11.346044
537.000000	11.566158
538.000000	11.799399
539.000000	12.043207
540.000000	12.295938
541.000000	12.557135
542.000000	12.824699
543.000000	13.095103
544.000000	13.366414
545.000000	13.636005
546.000000	13.900241
547.000000	14.157721
548.000000	14.406517
549.000000	14.646485
550.000000	14.877384
551.000000	15.097285
552.000000	15.304564
553.000000	15.497671
554.000000	15.675796
555.000000	15.837889
556.000000	15.983355
557.000000	16.109548
558.000000	16.216793
559.000000	16.305574
560.000000	16.333312
561.000000	16.338531
562.000000	16.327760
563.000000	16.306489
564.000000	16.277438
565.000000	16.243087
566.000000	16.206680
567.000000	16.172684
568.000000	16.141078
569.000000	16.114312
570.000000	16.133667
571.000000	16.163112
572.000000	16.196082
573.000000	16.231156
574.000000	16.264360
575.000000	16.294948
576.000000	16.320855
577.000000	16.340973
578.000000	16.353964
579.000000	16.359080
580.000000	16.357700
581.000000	16.348614
582.000000	16.333830
583.000000	16.312082
584.000000	16.287295
585.000000	16.259796
586.000000	16.232916
587.000000	16.207736
588.000000	16.187841
589.000000	16.170425
590.000000	16.157343
591.000000	16.151208
592.000000	16.150674
593.000000	16.154564
594.000000	16.162676
595.000000	16.173082
596.000000	16.183516
597.000000	16.191478
598.000000	16.194102
599.000000	16.190685
600.000000	16.177920
601.000000	16.153517
602.000000	16.118925
603.000000	16.072339
604.000000	16.012347
605.000000	15.940087
606.000000	15.856802
607.000000	15.761730
608.000000	15.657131
609.000000	15.544318
610.000000	15.423763
611.000000	15.297075
612.000000	15.163244
613.000000	15.025063
614.000000	14.881490
615.000000	14.732235
616.000000	14.576678
617.000000	14.415402
618.000000	14.248162
619.000000	14.073994
620.000000	13.890415
621.000000	13.695613
622.000000	13.489467
623.000000	13.271487
624.000000	13.043713
625.000000	12.805987
626.000000	12.559760
627.000000	12.307967
628.000000	12.052567
629.000000	11.798620
630.000000	11.552300
631.000000	11.318015
632.000000	11.101784
633.000000	10.906915
634.000000	10.736717
635.000000	10.593116
636.000000	10.478053
637.000000	10.390724
638.000000	10.330303
639.000000	10.295471
640.000000	10.284708
641.000000	10.296421
642.000000	10.327121
643.000000	10.375638
644.000000	10.440331
645.000000	10.518998
646.000000	10.608825
647.000000	10.707761
648.000000	10.813814
649.000000	10.922185
650.000000	11.031897
651.000000	11.139226
652.000000	11.241129
653.000000	11.335581
654.000000	11.418749
655.000000	11.492057
656.000000	11.553746
657.000000	11.604935
658.000000	11.645349
659.000000	11.677064
660.000000	11.700918
661.000000	11.717331
662.000000	11.729490
663.000000	11.736487
664.000000	11.740675
665.000000	11.742660
666.000000	11.743398
667.000000	11.742050
668.000000	11.739215
669.000000	11.736176
670.000000	11.730794
671.000000	11.724335
672.000000	11.715547
673.000000	11.705315
674.000000	11.693019
675.000000	11.678554
676.000000	11.660729
677.000000	11.640125
678.000000	11.618484
679.000000	11.594795
680.000000	11.571735
681.000000	11.549981
682.000000	11.530028
683.000000	11.513665
684.000000	11.502881
685.000000	11.498409
686.000000	11.504173
687.000000	11.518860
688.000000	11.540852
689.000000	11.575827
690.000000	11.621770
691.000000	11.678113
692.000000	11.746172
693.000000	11.825337
694.000000	11.912477
695.000000	12.006139
696.000000	12.104938
697.000000	12.209003
698.000000	12.318931
699.000000	12.429078
700.000000	12.539599
701.000000	12.649314
702.000000	12.755356
703.000000	12.857309
704.000000	12.954913
705.000000	13.048943
706.000000	13.138936
707.000000	13.223544
708.000000	13.303854
709.000000	13.379903
710.000000	13.451689
711.000000	13.520445
712.000000	13.587143
713.000000	13.652869
714.000000	13.718388
715.000000	13.781736
716.000000	13.842281
717.000000	13.903394
718.000000	13.964063
719.000000	14.023240
720.000000	14.081902
721.000000	14.139926
722.000000	14.197864
723.000000	14.254974
724.000000	14.309844
725.000000	14.362352
726.000000	14.416141
727.000000	14.468788
728.000000	14.517544
729.000000	14.566316
730.000000	14.614233
731.000000	14.661903
732.000000	14.708612
733.000000	14.752114
734.000000	14.795342
735.000000	14.841441
736.000000	14.885461
737.000000	14.928854
738.000000	14.975536
739.000000	15.024601
740.000000	15.073734
741.000000	15.120858
742.000000	15.168316
743.000000	15.217162
744.000000	15.265806
745.000000	15.314174
746.000000	15.363240
747.000000	15.412721
748.000000	15.459242
749.000000	15.503391
750.000000	15.548970
751.000000	15.596246
752.000000	15.641489
753.000000	15.686096
754.000000	15.729463
755.000000	15.771574
756.000000	15.812466
757.000000	15.851236
758.000000	15.890891
759.000000	15.928123
760.000000	15.963242
761.000000	15.999690
762.000000	16.036225
763.000000	16.070025
764.000000	16.103726
765.000000	16.136755
766.000000	16.169540
767.000000	16.202921
768.000000	16.235274
769.000000	16.268565
770.000000	16.299226
771.000000	16.324762
772.000000	16.350837
773.000000	16.377906
774.000000	16.406753
775.000000	16.437519
776.000000	16.467625
777.000000	16.497542
778.000000	16.530575
779.000000	16.564735
780.000000	16.599381
781.000000	16.638127
782.000000	16.676407
783.000000	16.713100
784.000000	16.746592
785.000000	16.781024
786.000000	16.816239
787.000000	16.851353
788.000000	16.884657
789.000000	16.917853
790.000000	16.951651
791.000000	16.983822
792.000000	17.016086
793.000000	17.048905
794.000000	17.086074
795.000000	17.122196
796.000000	17.155956
797.000000	17.189182
798.000000	17.220632
799.000000	17.251151
800.000000	17.278164
801.000000	17.306911
802.000000	17.335318
803.000000	17.365288
804.000000	17.391350
805.000000	17.415421
806.000000	17.443147
807.000000	17.469378
808.000000	17.497766
809.000000	17.527952
810.000000	17.561609
811.000000	17.594120
812.000000	17.627745
813.000000	17.657419
814.000000	17.688910
815.000000	17.718113
816.000000	17.746742
817.000000	17.775525
818.000000	17.797333
819.000000	17.817945
820.000000	17.838968
821.000000	17.855548
822.000000	17.870501
823.000000	17.887050
824.000000	17.902441
825.000000	17.921285
826.000000	17.938003
827.000000	17.951773
828.000000	17.966830
829.000000	17.983306
830.000000	17.997898
831.000000	18.020367
832.000000	18.042815
833.000000	18.065660
834.000000	18.092020
835.000000	18.117600
836.000000	18.143274
837.000000	18.170764
838.000000	18.203995
839.000000	18.232892
840.000000	18.260805
841.000000	18.288772
842.000000	18.307402
843.000000	18.332039
844.000000	18.351152
845.000000	18.369372
846.000000	18.395424
847.000000	18.424257
848.000000	18.440648
849.000000	18.453817
850.000000	18.479999
851.000000	18.495775
852.000000	18.523499
853.000000	18.554543
854.000000	18.572057
855.000000	18.589078
856.000000	18.595404
857.000000	18.617400
858.000000	18.703519
859.000000	18.775434
860.000000	18.835628
861.000000	18.902622
862.000000	18.969687
863.000000	19.029972
864.000000	19.109424
865.000000	19.190940
866.000000	19.277623
867.000000	19.349973
868.000000	19.369453
869.000000	19.407967
870.000000	19.447217
871.000000	19.485837
872.000000	19.522413
873.000000	19.558340
874.000000	19.590400
875.000000	19.622653
876.000000	19.653240
877.000000	19.683943
878.000000	19.712943
879.000000	19.743310
880.000000	19.775150
881.000000	19.806857
882.000000	19.837047
883.000000	19.868980
884.000000	19.901533
885.000000	19.933340
886.000000	19.963810
887.000000	19.995503
888.000000	20.028377
889.000000	20.060290
890.000000	20.090917
891.000000	20.122020
892.000000	20.154413
893.000000	20.184600
894.000000	20.215503
895.000000	20.244890
896.000000	20.277457
897.000000	20.306183
898.000000	20.335180
899.000000	20.364163
900.000000	20.394373
901.000000	20.424633
902.000000	20.454397
903.000000	20.484080
904.000000	20.513403
905.000000	20.544243
906.000000	20.574137
907.000000	20.605687
908.000000	20.638323
909.000000	20.670460
910.000000	20.699790
911.000000	20.729493
912.000000	20.756993
913.000000	20.784863
914.000000	20.812403
915.000000	20.838177
916.000000	20.862750
917.000000	20.885317
918.000000	20.906740
919.000000	20.927537
920.000000	20.948653
921.000000	20.964850
922.000000	20.981433
923.000000	20.996607
924.000000	21.010230
925.000000	21.022487
926.000000	21.031637
927.000000	21.041753
928.000000	21.049627
929.000000	21.058053
930.000000	21.064607
931.000000	21.071093
932.000000	21.077663
933.000000	21.085320
934.000000	21.092613
935.000000	21.101463
936.000000	21.110283
937.000000	21.117817
938.000000	21.124337
939.000000	21.128113
940.000000	21.131993
941.000000	21.132860
942.000000	21.130763
943.000000	21.125847
944.000000	21.118697
945.000000	21.108330
946.000000	21.098103
947.000000	21.085880
948.000000	21.073883
949.000000	21.062367
950.000000	21.051033
951.000000	21.042443
952.000000	21.035897
953.000000	21.027893
954.000000	21.020293
955.000000	21.013170
956.000000	21.003920
957.000000	20.996370
958.000000	20.987900
959.000000	20.975500
960.000000	20.961160
961.000000	20.945213
962.000000	20.927063
963.000000	20.909317
964.000000	20.890337
965.000000	20.870293
966.000000	20.850253
967.000000	20.828020
968.000000	20.806153
969.000000	20.786077
970.000000	20.767880
971.000000	20.751070
972.000000	20.735207
973.000000	20.719087
974.000000	20.704347
975.000000	20.689897
976.000000	20.676507
977.000000	20.664977
978.000000	20.654523
979.000000	20.645310
980.000000	20.634713
981.000000	20.625043
982.000000	20.616690
983.000000	20.609120
984.000000	20.601720
985.000000	20.594920
986.000000	20.587983
987.000000	20.580663
988.000000	20.572123
989.000000	20.564183
990.000000	20.558630
991.000000	20.552460
992.000000	20.546893
993.000000	20.543390
994.000000	20.540380
995.000000	20.537523
996.000000	20.535927
997.000000	20.536473
998.000000	20.538723
999.000000	20.540593
1000.000000	20.541970
1001.000000	20.544977
1002.000000	20.547000
1003.000000	20.547360
1004.000000	20.548410
1005.000000	20.548910
1006.000000	20.549093
1007.000000	20.546487
1008.000000	20.542153
1009.000000	20.538440
1010.000000	20.534073
1011.000000	20.527387
1012.000000	20.519810
1013.000000	20.513103
1014.000000	20.505697
1015.000000	20.499100
1016.000000	20.493277
1017.000000	20.488830
1018.000000	20.484810
1019.000000	20.480040
1020.000000	20.475397
1021.000000	20.472483
1022.000000	20.471420
1023.000000	20.469743
1024.000000	20.467387
1025.000000	20.465760
1026.000000	20.463410
1027.000000	20.460667
1028.000000	20.458833
1029.000000	20.456700
1030.000000	20.454920
1031.000000	20.453330
1032.000000	20.451060
1033.000000	20.449647
1034.000000	20.450003
1035.000000	20.450093
1036.000000	20.450207
1037.000000	20.451633
1038.000000	20.453530
1039.000000	20.456913
1040.000000	20.461770
1041.000000	20.467550
1042.000000	20.474047
1043.000000	20.480223
1044.000000	20.486617
1045.000000	20.494320
1046.000000	20.503117
1047.000000	20.511637
1048.000000	20.520520
1049.000000	20.530873
1050.000000	20.541950
1051.000000	20.552910
1052.000000	20.564353
1053.000000	20.578000
1054.000000	20.592350
1055.000000	20.606907
1056.000000	20.621940
1057.000000	20.637987
1058.000000	20.654590
1059.000000	20.670403
1060.000000	20.685733
1061.000000	20.701160
1062.000000	20.716897
1063.000000	20.732370
1064.000000	20.747323
1065.000000	20.762680
1066.000000	20.778430
1067.000000	20.793223
1068.000000	20.807280
1069.000000	20.822377
1070.000000	20.839123
1071.000000	20.856853
1072.000000	20.875323
1073.000000	20.892727
1074.000000	20.911007
1075.000000	20.929087
1076.000000	20.947010
1077.000000	20.964797
1078.000000	20.982590
1079.000000	21.000650
1080.000000	21.017250
1081.000000	21.032430
1082.000000	21.045673
1083.000000	21.058283
1084.000000	21.068753
1085.000000	21.077547
1086.000000	21.086207
1087.000000	21.094943
1088.000000	21.103813
1089.000000	21.109640
1090.000000	21.113723
1091.000000	21.118393
1092.000000	21.123290
1093.000000	21.128817
1094.000000	21.135043
1095.000000	21.141340
1096.000000	21.146800
1097.000000	21.151060
1098.000000	21.154370
1099.000000	21.158250
1100.000000	21.162750
1101.000000	21.167063
1102.000000	21.171053
1103.000000	21.173917
1104.000000	21.175880
1105.000000	21.178167
1106.000000	21.179910
1107.000000	21.182043
1108.000000	21.182590
1109.000000	21.181067
1110.000000	21.179447
1111.000000	21.177710
1112.000000	21.176490
1113.000000	21.173597
1114.000000	21.171650
1115.000000	21.168590
1116.000000	21.164300
1117.000000	21.159593
1118.000000	21.157007
1119.000000	21.156780
1120.000000	21.156287
1121.000000	21.154283
1122.000000	21.151570
1123.000000	21.150230
1124.000000	21.146877
1125.000000	21.144330
1126.000000	21.143470
1127.000000	21.140727
1128.000000	21.134923
1129.000000	21.127847
1130.000000	21.119420
1131.000000	21.107507
1132.000000	21.090943
1133.000000	21.069857
1134.000000	21.049347
1135.000000	21.030003
1136.000000	21.010573
1137.000000	20.989317
1138.000000	20.966023
1139.000000	20.939713
1140.000000	20.912907
1141.000000	20.888527
1142.000000	20.866650
1143.000000	20.847797
1144.000000	20.827210
1145.000000	20.806420
1146.000000	20.783473
1147.000000	20.765490
1148.000000	20.748823
1149.000000	20.734577
1150.000000	20.720813
1151.000000	20.707413
1152.000000	20.694877
1153.000000	20.685113
1154.000000	20.676363
1155.000000	20.663143
1156.000000	20.648703
1157.000000	20.629860
1158.000000	20.611957
1159.000000	20.590300
1160.000000	20.565333
1161.000000	20.537867
1162.000000	20.505870
1163.000000	20.468263
1164.000000	20.427633
1165.000000	20.386500
1166.000000	20.344667
1167.000000	20.300640
1168.000000	20.255370
1169.000000	20.211083
1170.000000	20.168667
