PE UV       SUBTECH     SPECTRUM    ASCII       PEDS        4.00        
   -1
BIOUCR0009-3.Sample.ASC
24/02/19
14:35:46.00
24/02/19
14:35:46.00
Vinicio Soto Monge
P. chalcotea
250,000000
1
Lambda 1050
1050L1511233
PerkinElmer UV WinLab 6.3.2.0749 / 2.02.05 Lambda 900 UV/VIS/NIR, Aug  7 2015 09:38:08

0
0
3350/servo 860,8/2
0
0
UV/VIS
1
1
1
DoubleDePol,CommonBeamDepol,RBeamAtt,SBeamAtt,60mm sphere, WB InGaAs Detector
0
0
0
0
Program
Program
3350/servo 860,8/2
3350/0,2 860,8/0,2
3350/0,2 860,8/0,2
0
15.00
 
 
 
0
 
860,8
319,2
860,8
Front
100
on
S:100 R:100
0
0
0
0
 
0
 
 
 
0
 
 
0
0
0
0
0
 
 
 
 
0
0


0
0
#HDR
-1
-1
#GR
nm
%R
1.0
0.0
2500,000000
-1,000000
2251
8
20,301000
1,537100
#DATA

250.000000	nan
251.000000	nan
252.000000	nan
253.000000	nan
254.000000	nan
255.000000	nan
256.000000	nan
257.000000	nan
258.000000	nan
259.000000	1.971369
260.000000	1.967967
261.000000	1.965202
262.000000	1.961082
263.000000	1.958887
264.000000	1.954854
265.000000	1.951306
266.000000	1.947055
267.000000	1.942892
268.000000	1.936811
269.000000	1.931945
270.000000	1.929184
271.000000	1.925284
272.000000	1.922013
273.000000	1.918209
274.000000	1.914639
275.000000	1.911767
276.000000	1.908748
277.000000	1.905308
278.000000	1.903170
279.000000	1.900879
280.000000	1.897610
281.000000	1.894897
282.000000	1.892255
283.000000	1.890440
284.000000	1.889011
285.000000	1.886474
286.000000	1.882476
287.000000	1.879350
288.000000	1.876973
289.000000	1.874167
290.000000	1.872191
291.000000	1.867597
292.000000	1.865308
293.000000	1.861223
294.000000	1.859305
295.000000	1.855757
296.000000	1.852629
297.000000	1.850487
298.000000	1.847165
299.000000	1.844661
300.000000	1.840448
301.000000	1.840232
302.000000	1.838373
303.000000	1.837543
304.000000	1.834953
305.000000	1.834213
306.000000	1.834391
307.000000	1.834657
308.000000	1.835153
309.000000	1.834065
310.000000	1.834420
311.000000	1.833226
312.000000	1.829428
313.000000	1.826318
314.000000	1.824386
315.000000	1.823382
316.000000	1.822439
317.000000	1.829159
318.000000	1.839771
319.000000	1.848892
320.000000	1.855534
321.000000	1.863153
322.000000	1.869303
323.000000	1.876616
324.000000	1.886895
325.000000	1.888372
326.000000	1.893542
327.000000	1.890053
328.000000	1.880318
329.000000	1.873727
330.000000	1.870187
331.000000	1.867029
332.000000	1.868421
333.000000	1.863097
334.000000	1.854929
335.000000	1.852157
336.000000	1.848937
337.000000	1.844442
338.000000	1.842871
339.000000	1.838596
340.000000	1.835138
341.000000	1.829552
342.000000	1.820543
343.000000	1.820298
344.000000	1.815631
345.000000	1.815539
346.000000	1.811811
347.000000	1.808758
348.000000	1.806205
349.000000	1.803247
350.000000	1.799319
351.000000	1.794938
352.000000	1.795030
353.000000	1.790769
354.000000	1.790244
355.000000	1.789474
356.000000	1.784699
357.000000	1.781704
358.000000	1.778967
359.000000	1.778355
360.000000	1.774853
361.000000	1.775881
362.000000	1.771909
363.000000	1.769733
364.000000	1.765870
365.000000	1.762611
366.000000	1.762816
367.000000	1.758823
368.000000	1.753159
369.000000	1.749618
370.000000	1.749080
371.000000	1.744611
372.000000	1.742747
373.000000	1.739622
374.000000	1.735240
375.000000	1.729018
376.000000	1.719087
377.000000	1.699732
378.000000	1.681136
379.000000	1.660766
380.000000	1.639240
381.000000	1.618880
382.000000	1.598860
383.000000	1.579045
384.000000	1.561864
385.000000	1.544325
386.000000	1.530982
387.000000	1.530014
388.000000	1.529129
389.000000	1.528027
390.000000	1.526704
391.000000	1.524887
392.000000	1.523452
393.000000	1.522491
394.000000	1.521651
395.000000	1.521259
396.000000	1.520771
397.000000	1.519640
398.000000	1.518510
399.000000	1.517531
400.000000	1.517176
401.000000	1.517130
402.000000	1.516951
403.000000	1.516080
404.000000	1.515444
405.000000	1.514341
406.000000	1.513263
407.000000	1.512860
408.000000	1.512815
409.000000	1.512591
410.000000	1.511525
411.000000	1.510200
412.000000	1.509150
413.000000	1.508360
414.000000	1.507499
415.000000	1.506620
416.000000	1.505670
417.000000	1.504787
418.000000	1.504189
419.000000	1.503243
420.000000	1.502501
421.000000	1.502343
422.000000	1.502045
423.000000	1.501450
424.000000	1.500737
425.000000	1.500204
426.000000	1.499764
427.000000	1.498958
428.000000	1.497739
429.000000	1.496843
430.000000	1.496335
431.000000	1.495501
432.000000	1.494662
433.000000	1.494239
434.000000	1.494018
435.000000	1.493622
436.000000	1.492815
437.000000	1.492171
438.000000	1.492048
439.000000	1.491810
440.000000	1.491482
441.000000	1.491317
442.000000	1.490940
443.000000	1.490418
444.000000	1.489682
445.000000	1.488934
446.000000	1.488722
447.000000	1.488908
448.000000	1.488722
449.000000	1.488471
450.000000	1.488377
451.000000	1.488316
452.000000	1.488534
453.000000	1.488523
454.000000	1.488549
455.000000	1.489069
456.000000	1.489399
457.000000	1.489503
458.000000	1.489680
459.000000	1.490108
460.000000	1.490748
461.000000	1.491332
462.000000	1.491702
463.000000	1.492659
464.000000	1.494408
465.000000	1.496312
466.000000	1.498362
467.000000	1.500630
468.000000	1.503370
469.000000	1.506646
470.000000	1.510096
471.000000	1.513700
472.000000	1.518111
473.000000	1.522955
474.000000	1.527798
475.000000	1.532949
476.000000	1.539045
477.000000	1.545950
478.000000	1.553763
479.000000	1.562662
480.000000	1.572919
481.000000	1.584850
482.000000	1.598049
483.000000	1.613759
484.000000	1.632854
485.000000	1.655770
486.000000	1.682629
487.000000	1.713331
488.000000	1.748104
489.000000	1.787206
490.000000	1.830649
491.000000	1.878627
492.000000	1.930706
493.000000	1.985671
494.000000	2.043784
495.000000	2.104473
496.000000	2.167208
497.000000	2.232697
498.000000	2.300795
499.000000	2.371661
500.000000	2.445958
501.000000	2.523683
502.000000	2.605864
503.000000	2.692934
504.000000	2.783987
505.000000	2.879157
506.000000	2.979149
507.000000	3.083710
508.000000	3.192536
509.000000	3.305491
510.000000	3.422046
511.000000	3.543360
512.000000	3.668843
513.000000	3.798680
514.000000	3.933675
515.000000	4.073859
516.000000	4.218922
517.000000	4.368456
518.000000	4.522395
519.000000	4.680299
520.000000	4.841441
521.000000	5.003759
522.000000	5.166916
523.000000	5.329881
524.000000	5.490514
525.000000	5.647614
526.000000	5.799766
527.000000	5.945970
528.000000	6.086066
529.000000	6.219127
530.000000	6.344407
531.000000	6.461748
532.000000	6.570238
533.000000	6.669403
534.000000	6.758203
535.000000	6.836045
536.000000	6.902845
537.000000	6.959043
538.000000	7.001404
539.000000	7.029820
540.000000	7.042869
541.000000	7.039971
542.000000	7.020220
543.000000	6.983036
544.000000	6.928747
545.000000	6.858260
546.000000	6.772802
547.000000	6.672111
548.000000	6.559885
549.000000	6.436815
550.000000	6.306883
551.000000	6.171534
552.000000	6.032336
553.000000	5.891548
554.000000	5.751025
555.000000	5.611066
556.000000	5.471918
557.000000	5.334958
558.000000	5.199870
559.000000	5.067515
560.000000	4.925271
561.000000	4.784015
562.000000	4.646817
563.000000	4.513964
564.000000	4.386497
565.000000	4.265232
566.000000	4.151026
567.000000	4.043597
568.000000	3.943470
569.000000	3.850418
570.000000	3.774485
571.000000	3.705023
572.000000	3.639253
573.000000	3.575537
574.000000	3.513201
575.000000	3.452216
576.000000	3.391845
577.000000	3.333477
578.000000	3.277143
579.000000	3.223165
580.000000	3.174279
581.000000	3.131787
582.000000	3.096804
583.000000	3.069897
584.000000	3.052168
585.000000	3.043167
586.000000	3.042271
587.000000	3.047043
588.000000	3.057316
589.000000	3.071059
590.000000	3.086360
591.000000	3.100789
592.000000	3.112305
593.000000	3.120839
594.000000	3.123981
595.000000	3.122385
596.000000	3.116030
597.000000	3.106084
598.000000	3.092849
599.000000	3.077737
600.000000	3.061760
601.000000	3.046636
602.000000	3.033819
603.000000	3.023528
604.000000	3.016687
605.000000	3.013531
606.000000	3.014499
607.000000	3.018297
608.000000	3.024454
609.000000	3.032203
610.000000	3.040671
611.000000	3.048855
612.000000	3.055896
613.000000	3.060954
614.000000	3.063536
615.000000	3.062807
616.000000	3.058650
617.000000	3.052044
618.000000	3.042920
619.000000	3.032506
620.000000	3.021223
621.000000	3.009683
622.000000	2.998685
623.000000	2.989801
624.000000	2.984168
625.000000	2.981846
626.000000	2.982753
627.000000	2.987601
628.000000	2.995478
629.000000	3.006124
630.000000	3.019555
631.000000	3.034359
632.000000	3.050440
633.000000	3.066197
634.000000	3.081245
635.000000	3.095248
636.000000	3.107335
637.000000	3.117026
638.000000	3.124730
639.000000	3.130182
640.000000	3.133987
641.000000	3.136576
642.000000	3.137700
643.000000	3.139023
644.000000	3.140582
645.000000	3.142819
646.000000	3.146638
647.000000	3.152852
648.000000	3.161416
649.000000	3.172701
650.000000	3.185769
651.000000	3.201683
652.000000	3.220186
653.000000	3.239492
654.000000	3.260443
655.000000	3.281692
656.000000	3.303429
657.000000	3.324089
658.000000	3.343957
659.000000	3.362385
660.000000	3.379761
661.000000	3.395630
662.000000	3.409442
663.000000	3.422849
664.000000	3.434981
665.000000	3.446432
666.000000	3.457342
667.000000	3.469209
668.000000	3.482169
669.000000	3.495930
670.000000	3.510921
671.000000	3.527008
672.000000	3.545702
673.000000	3.565510
674.000000	3.586247
675.000000	3.608516
676.000000	3.632729
677.000000	3.657482
678.000000	3.682351
679.000000	3.707557
680.000000	3.733126
681.000000	3.758305
682.000000	3.782147
683.000000	3.805774
684.000000	3.829114
685.000000	3.851522
686.000000	3.872058
687.000000	3.891868
688.000000	3.911412
689.000000	3.929762
690.000000	3.947225
691.000000	3.965728
692.000000	3.984643
693.000000	4.003548
694.000000	4.023267
695.000000	4.044737
696.000000	4.067527
697.000000	4.091246
698.000000	4.116010
699.000000	4.142971
700.000000	4.171707
701.000000	4.200978
702.000000	4.230764
703.000000	4.261493
704.000000	4.292544
705.000000	4.323237
706.000000	4.354032
707.000000	4.384968
708.000000	4.415659
709.000000	4.444795
710.000000	4.472874
711.000000	4.499935
712.000000	4.526403
713.000000	4.552407
714.000000	4.577306
715.000000	4.601685
716.000000	4.626691
717.000000	4.651457
718.000000	4.676554
719.000000	4.703580
720.000000	4.730535
721.000000	4.757901
722.000000	4.787721
723.000000	4.818293
724.000000	4.850586
725.000000	4.883911
726.000000	4.917543
727.000000	4.952089
728.000000	4.987432
729.000000	5.023282
730.000000	5.059826
731.000000	5.097008
732.000000	5.133382
733.000000	5.170224
734.000000	5.206901
735.000000	5.243248
736.000000	5.278354
737.000000	5.313495
738.000000	5.347600
739.000000	5.381049
740.000000	5.415269
741.000000	5.449138
742.000000	5.482424
743.000000	5.515577
744.000000	5.549442
745.000000	5.584308
746.000000	5.620533
747.000000	5.656434
748.000000	5.694088
749.000000	5.733103
750.000000	5.772339
751.000000	5.813930
752.000000	5.857794
753.000000	5.903669
754.000000	5.950665
755.000000	5.997927
756.000000	6.046124
757.000000	6.096606
758.000000	6.148350
759.000000	6.200396
760.000000	6.254577
761.000000	6.310707
762.000000	6.366284
763.000000	6.420033
764.000000	6.474901
765.000000	6.531491
766.000000	6.588609
767.000000	6.646318
768.000000	6.704446
769.000000	6.764078
770.000000	6.824666
771.000000	6.884430
772.000000	6.945113
773.000000	7.008072
774.000000	7.072201
775.000000	7.138821
776.000000	7.207253
777.000000	7.275400
778.000000	7.344777
779.000000	7.416431
780.000000	7.489434
781.000000	7.563039
782.000000	7.637614
783.000000	7.714014
784.000000	7.790182
785.000000	7.867307
786.000000	7.947792
787.000000	8.030352
788.000000	8.113681
789.000000	8.196184
790.000000	8.279058
791.000000	8.363437
792.000000	8.450203
793.000000	8.539087
794.000000	8.627734
795.000000	8.714399
796.000000	8.800733
797.000000	8.887251
798.000000	8.972713
799.000000	9.059364
800.000000	9.145197
801.000000	9.230947
802.000000	9.315601
803.000000	9.397837
804.000000	9.478603
805.000000	9.560650
806.000000	9.642236
807.000000	9.723127
808.000000	9.807585
809.000000	9.894335
810.000000	9.981983
811.000000	10.067646
812.000000	10.155136
813.000000	10.240771
814.000000	10.331032
815.000000	10.418332
816.000000	10.505856
817.000000	10.591822
818.000000	10.672104
819.000000	10.751652
820.000000	10.830077
821.000000	10.908902
822.000000	10.985982
823.000000	11.058463
824.000000	11.127237
825.000000	11.197865
826.000000	11.265074
827.000000	11.332193
828.000000	11.404596
829.000000	11.468470
830.000000	11.530576
831.000000	11.585891
832.000000	11.641050
833.000000	11.700797
834.000000	11.755736
835.000000	11.811820
836.000000	11.863621
837.000000	11.918644
838.000000	11.960612
839.000000	12.009853
840.000000	12.051635
841.000000	12.103630
842.000000	12.147071
843.000000	12.190423
844.000000	12.235587
845.000000	12.276381
846.000000	12.315050
847.000000	12.353931
848.000000	12.397031
849.000000	12.430082
850.000000	12.465768
851.000000	12.497637
852.000000	12.527569
853.000000	12.547990
854.000000	12.564096
855.000000	12.586887
856.000000	12.618024
857.000000	12.635109
858.000000	12.623589
859.000000	12.664791
860.000000	12.705269
861.000000	12.741389
862.000000	12.784679
863.000000	12.836559
864.000000	12.893742
865.000000	12.945255
866.000000	12.992082
867.000000	13.046388
868.000000	13.129970
869.000000	13.166380
870.000000	13.204660
871.000000	13.243433
872.000000	13.281400
873.000000	13.317350
874.000000	13.353140
875.000000	13.386597
876.000000	13.419840
877.000000	13.452740
878.000000	13.487480
879.000000	13.519287
880.000000	13.552297
881.000000	13.586147
882.000000	13.619350
883.000000	13.654263
884.000000	13.687967
885.000000	13.722827
886.000000	13.757097
887.000000	13.793987
888.000000	13.828410
889.000000	13.863627
890.000000	13.899557
891.000000	13.933717
892.000000	13.966247
893.000000	14.000060
894.000000	14.032973
895.000000	14.063443
896.000000	14.095143
897.000000	14.124090
898.000000	14.153007
899.000000	14.181507
900.000000	14.210697
901.000000	14.240843
902.000000	14.271330
903.000000	14.298590
904.000000	14.326570
905.000000	14.356337
906.000000	14.386487
907.000000	14.416143
908.000000	14.445753
909.000000	14.474413
910.000000	14.501777
911.000000	14.528477
912.000000	14.556257
913.000000	14.582343
914.000000	14.605663
915.000000	14.629027
916.000000	14.650627
917.000000	14.671337
918.000000	14.693360
919.000000	14.716000
920.000000	14.737900
921.000000	14.757903
922.000000	14.775047
923.000000	14.794597
924.000000	14.816107
925.000000	14.833127
926.000000	14.847297
927.000000	14.861810
928.000000	14.874763
929.000000	14.886583
930.000000	14.896430
931.000000	14.908577
932.000000	14.921570
933.000000	14.933000
934.000000	14.942917
935.000000	14.957577
936.000000	14.971943
937.000000	14.987217
938.000000	15.003287
939.000000	15.019617
940.000000	15.035043
941.000000	15.048717
942.000000	15.063033
943.000000	15.076343
944.000000	15.090817
945.000000	15.101327
946.000000	15.115097
947.000000	15.130980
948.000000	15.144993
949.000000	15.160753
950.000000	15.178220
951.000000	15.197233
952.000000	15.216917
953.000000	15.238490
954.000000	15.259947
955.000000	15.283007
956.000000	15.305210
957.000000	15.325630
958.000000	15.347747
959.000000	15.370603
960.000000	15.393837
961.000000	15.415320
962.000000	15.437960
963.000000	15.459740
964.000000	15.482367
965.000000	15.506420
966.000000	15.529940
967.000000	15.553587
968.000000	15.578530
969.000000	15.601623
970.000000	15.624130
971.000000	15.649133
972.000000	15.673030
973.000000	15.696993
974.000000	15.720150
975.000000	15.744187
976.000000	15.769460
977.000000	15.794163
978.000000	15.818047
979.000000	15.843580
980.000000	15.869997
981.000000	15.894797
982.000000	15.920083
983.000000	15.946703
984.000000	15.973753
985.000000	15.999707
986.000000	16.025353
987.000000	16.052247
988.000000	16.079747
989.000000	16.105443
990.000000	16.132090
991.000000	16.159487
992.000000	16.186560
993.000000	16.212417
994.000000	16.238917
995.000000	16.265610
996.000000	16.292487
997.000000	16.317163
998.000000	16.340850
999.000000	16.366117
1000.000000	16.391040
1001.000000	16.416020
1002.000000	16.442050
1003.000000	16.468290
1004.000000	16.494227
1005.000000	16.519943
1006.000000	16.545480
1007.000000	16.571843
1008.000000	16.597987
1009.000000	16.624043
1010.000000	16.650313
1011.000000	16.675743
1012.000000	16.699903
1013.000000	16.724497
1014.000000	16.749060
1015.000000	16.774047
1016.000000	16.798587
1017.000000	16.822853
1018.000000	16.848380
1019.000000	16.874233
1020.000000	16.899367
1021.000000	16.925463
1022.000000	16.952077
1023.000000	16.977787
1024.000000	17.002983
1025.000000	17.027607
1026.000000	17.052500
1027.000000	17.078507
1028.000000	17.104220
1029.000000	17.129273
1030.000000	17.154320
1031.000000	17.179443
1032.000000	17.203547
1033.000000	17.227590
1034.000000	17.252613
1035.000000	17.278767
1036.000000	17.305277
1037.000000	17.331763
1038.000000	17.356900
1039.000000	17.380433
1040.000000	17.403357
1041.000000	17.426183
1042.000000	17.449973
1043.000000	17.474010
1044.000000	17.498073
1045.000000	17.521113
1046.000000	17.543707
1047.000000	17.565787
1048.000000	17.588463
1049.000000	17.612467
1050.000000	17.636500
1051.000000	17.660033
1052.000000	17.683957
1053.000000	17.708697
1054.000000	17.732567
1055.000000	17.756187
1056.000000	17.779307
1057.000000	17.801257
1058.000000	17.824280
1059.000000	17.847090
1060.000000	17.869407
1061.000000	17.893430
1062.000000	17.916370
1063.000000	17.938693
1064.000000	17.961010
1065.000000	17.983193
1066.000000	18.005273
1067.000000	18.028637
1068.000000	18.050943
1069.000000	18.073293
1070.000000	18.097000
1071.000000	18.118657
1072.000000	18.140627
1073.000000	18.162440
1074.000000	18.184147
1075.000000	18.206303
1076.000000	18.229397
1077.000000	18.252723
1078.000000	18.275493
1079.000000	18.297827
1080.000000	18.319137
1081.000000	18.339780
1082.000000	18.361220
1083.000000	18.383893
1084.000000	18.405397
1085.000000	18.426887
1086.000000	18.447363
1087.000000	18.467327
1088.000000	18.487553
1089.000000	18.506507
1090.000000	18.525640
1091.000000	18.545710
1092.000000	18.564120
1093.000000	18.581847
1094.000000	18.601027
1095.000000	18.618897
1096.000000	18.637133
1097.000000	18.654243
1098.000000	18.671140
1099.000000	18.688613
1100.000000	18.705763
1101.000000	18.723137
1102.000000	18.741267
1103.000000	18.759667
1104.000000	18.776647
1105.000000	18.794717
1106.000000	18.811877
1107.000000	18.829537
1108.000000	18.847127
1109.000000	18.864227
1110.000000	18.880210
1111.000000	18.896217
1112.000000	18.911643
1113.000000	18.924710
1114.000000	18.938293
1115.000000	18.950117
1116.000000	18.962443
1117.000000	18.974600
1118.000000	18.986800
1119.000000	18.998447
1120.000000	19.010057
1121.000000	19.021823
1122.000000	19.034800
1123.000000	19.048557
1124.000000	19.061507
1125.000000	19.074143
1126.000000	19.086240
1127.000000	19.096820
1128.000000	19.107397
1129.000000	19.121257
1130.000000	19.135187
1131.000000	19.144683
1132.000000	19.149463
1133.000000	19.150840
1134.000000	19.152603
1135.000000	19.158947
1136.000000	19.166793
1137.000000	19.173147
1138.000000	19.175917
1139.000000	19.174137
1140.000000	19.172657
1141.000000	19.173690
1142.000000	19.175590
1143.000000	19.179590
1144.000000	19.183890
1145.000000	19.184403
1146.000000	19.184467
1147.000000	19.186557
1148.000000	19.189173
1149.000000	19.193747
1150.000000	19.199067
1151.000000	19.203887
1152.000000	19.210037
1153.000000	19.217110
1154.000000	19.224640
1155.000000	19.229457
1156.000000	19.233140
1157.000000	19.234703
1158.000000	19.238580
1159.000000	19.239753
1160.000000	19.237007
1161.000000	19.232610
1162.000000	19.227227
1163.000000	19.218540
1164.000000	19.205943
1165.000000	19.193750
1166.000000	19.180507
1167.000000	19.167120
1168.000000	19.152423
1169.000000	19.138507
1170.000000	19.126153
1171.000000	19.114540
1172.000000	19.104000
1173.000000	19.096040
1174.000000	19.088693
1175.000000	19.082347
1176.000000	19.077063
1177.000000	19.073147
1178.000000	19.069990
1179.000000	19.066147
1180.000000	19.063427
1181.000000	19.063597
1182.000000	19.063623
1183.000000	19.061633
1184.000000	19.062203
1185.000000	19.063187
1186.000000	19.064920
1187.000000	19.066613
