PE UV       SUBTECH     SPECTRUM    ASCII       PEDS        4.00        
   -1
BIOUCR0013-3.Sample.ASC
24/02/19
15:29:33.00
24/02/19
15:29:33.00
Vinicio Soto Monge
P. chalcotea
250,000000
1
Lambda 1050
1050L1511233
PerkinElmer UV WinLab 6.3.2.0749 / 2.02.05 Lambda 900 UV/VIS/NIR, Aug  7 2015 09:38:08

0
0
3350/servo 860,8/2
0
0
UV/VIS
1
1
1
DoubleDePol,CommonBeamDepol,RBeamAtt,SBeamAtt,60mm sphere, WB InGaAs Detector
0
0
0
0
Program
Program
3350/servo 860,8/2
3350/0,2 860,8/0,2
3350/0,2 860,8/0,2
0
15.00
 
 
 
0
 
860,8
319,2
860,8
Front
100
on
S:100 R:100
0
0
0
0
 
0
 
 
 
0
 
 
0
0
0
0
0
 
 
 
 
0
0


0
0
#HDR
-1
-1
#GR
nm
%R
1.0
0.0
2500,000000
-1,000000
2251
8
20,774800
1,454800
#DATA

250.000000	nan
251.000000	nan
252.000000	nan
253.000000	nan
254.000000	nan
255.000000	nan
256.000000	nan
257.000000	nan
258.000000	nan
259.000000	1.923606
260.000000	1.920407
261.000000	1.917965
262.000000	1.914244
263.000000	1.912901
264.000000	1.908531
265.000000	1.907188
266.000000	1.905337
267.000000	1.900624
268.000000	1.898058
269.000000	1.894127
270.000000	1.889050
271.000000	1.882603
272.000000	1.878735
273.000000	1.872945
274.000000	1.868789
275.000000	1.863913
276.000000	1.861277
277.000000	1.859928
278.000000	1.855301
279.000000	1.850596
280.000000	1.848200
281.000000	1.846065
282.000000	1.843319
283.000000	1.842495
284.000000	1.840112
285.000000	1.837001
286.000000	1.833907
287.000000	1.832130
288.000000	1.828707
289.000000	1.828498
290.000000	1.825662
291.000000	1.825504
292.000000	1.822794
293.000000	1.817409
294.000000	1.813602
295.000000	1.810090
296.000000	1.805367
297.000000	1.802107
298.000000	1.800597
299.000000	1.797352
300.000000	1.795629
301.000000	1.790815
302.000000	1.788352
303.000000	1.789676
304.000000	1.787731
305.000000	1.786300
306.000000	1.785442
307.000000	1.782181
308.000000	1.779504
309.000000	1.780203
310.000000	1.778336
311.000000	1.777580
312.000000	1.773744
313.000000	1.769867
314.000000	1.771876
315.000000	1.770223
316.000000	1.771352
317.000000	1.788544
318.000000	1.814437
319.000000	1.829171
320.000000	1.851656
321.000000	1.879488
322.000000	1.887245
323.000000	1.894573
324.000000	1.899429
325.000000	1.907432
326.000000	1.909934
327.000000	1.907866
328.000000	1.878854
329.000000	1.865827
330.000000	1.849329
331.000000	1.823841
332.000000	1.820911
333.000000	1.816684
334.000000	1.815013
335.000000	1.809767
336.000000	1.804913
337.000000	1.788854
338.000000	1.793289
339.000000	1.792006
340.000000	1.779572
341.000000	1.774945
342.000000	1.776377
343.000000	1.772541
344.000000	1.767597
345.000000	1.766302
346.000000	1.764589
347.000000	1.764398
348.000000	1.766363
349.000000	1.765582
350.000000	1.768610
351.000000	1.770387
352.000000	1.763673
353.000000	1.763820
354.000000	1.759378
355.000000	1.756851
356.000000	1.757065
357.000000	1.753418
358.000000	1.745864
359.000000	1.738354
360.000000	1.734011
361.000000	1.728764
362.000000	1.726600
363.000000	1.719950
364.000000	1.716985
365.000000	1.710688
366.000000	1.702557
367.000000	1.696671
368.000000	1.692731
369.000000	1.687256
370.000000	1.682761
371.000000	1.675219
372.000000	1.665751
373.000000	1.661559
374.000000	1.652225
375.000000	1.640179
376.000000	1.631049
377.000000	1.615060
378.000000	1.595970
379.000000	1.579227
380.000000	1.563506
381.000000	1.549054
382.000000	1.535230
383.000000	1.518649
384.000000	1.506414
385.000000	1.498367
386.000000	1.488702
387.000000	1.487621
388.000000	1.486869
389.000000	1.486123
390.000000	1.485218
391.000000	1.484725
392.000000	1.484087
393.000000	1.483750
394.000000	1.483801
395.000000	1.483397
396.000000	1.483076
397.000000	1.482593
398.000000	1.482290
399.000000	1.481446
400.000000	1.480657
401.000000	1.479621
402.000000	1.478990
403.000000	1.478212
404.000000	1.477078
405.000000	1.476666
406.000000	1.476323
407.000000	1.475650
408.000000	1.475023
409.000000	1.474391
410.000000	1.473625
411.000000	1.473181
412.000000	1.472332
413.000000	1.471757
414.000000	1.471371
415.000000	1.470522
416.000000	1.469543
417.000000	1.468769
418.000000	1.467963
419.000000	1.467526
420.000000	1.467162
421.000000	1.466751
422.000000	1.466650
423.000000	1.466354
424.000000	1.465789
425.000000	1.465135
426.000000	1.464998
427.000000	1.464895
428.000000	1.464465
429.000000	1.463990
430.000000	1.463542
431.000000	1.463168
432.000000	1.462766
433.000000	1.461962
434.000000	1.461470
435.000000	1.461282
436.000000	1.460616
437.000000	1.459750
438.000000	1.459111
439.000000	1.458649
440.000000	1.458438
441.000000	1.458088
442.000000	1.457586
443.000000	1.457660
444.000000	1.457705
445.000000	1.457418
446.000000	1.457445
447.000000	1.457527
448.000000	1.457596
449.000000	1.457571
450.000000	1.457308
451.000000	1.457091
452.000000	1.457137
453.000000	1.457243
454.000000	1.457193
455.000000	1.457107
456.000000	1.457105
457.000000	1.457578
458.000000	1.458253
459.000000	1.459019
460.000000	1.459853
461.000000	1.460944
462.000000	1.462151
463.000000	1.463113
464.000000	1.464275
465.000000	1.465981
466.000000	1.467871
467.000000	1.469729
468.000000	1.471493
469.000000	1.473413
470.000000	1.475596
471.000000	1.477655
472.000000	1.479650
473.000000	1.482133
474.000000	1.484986
475.000000	1.487923
476.000000	1.491049
477.000000	1.494364
478.000000	1.498274
479.000000	1.502919
480.000000	1.508097
481.000000	1.513807
482.000000	1.520328
483.000000	1.528149
484.000000	1.537545
485.000000	1.548803
486.000000	1.562608
487.000000	1.578995
488.000000	1.598144
489.000000	1.620163
490.000000	1.645691
491.000000	1.675164
492.000000	1.708503
493.000000	1.745082
494.000000	1.785221
495.000000	1.829151
496.000000	1.876662
497.000000	1.927455
498.000000	1.982039
499.000000	2.040793
500.000000	2.103881
501.000000	2.171296
502.000000	2.243885
503.000000	2.322329
504.000000	2.407764
505.000000	2.500651
506.000000	2.601378
507.000000	2.711414
508.000000	2.831017
509.000000	2.961175
510.000000	3.101355
511.000000	3.251903
512.000000	3.412509
513.000000	3.582080
514.000000	3.758950
515.000000	3.941829
516.000000	4.129054
517.000000	4.318567
518.000000	4.508531
519.000000	4.696546
520.000000	4.882069
521.000000	5.064021
522.000000	5.241201
523.000000	5.413025
524.000000	5.578790
525.000000	5.738322
526.000000	5.891529
527.000000	6.038763
528.000000	6.180005
529.000000	6.315533
530.000000	6.445609
531.000000	6.570901
532.000000	6.690193
533.000000	6.804793
534.000000	6.914421
535.000000	7.019099
536.000000	7.118779
537.000000	7.213653
538.000000	7.303523
539.000000	7.388277
540.000000	7.466809
541.000000	7.538153
542.000000	7.603772
543.000000	7.661417
544.000000	7.710779
545.000000	7.751189
546.000000	7.781533
547.000000	7.800512
548.000000	7.807096
549.000000	7.800035
550.000000	7.778580
551.000000	7.740975
552.000000	7.685523
553.000000	7.611827
554.000000	7.519095
555.000000	7.406614
556.000000	7.274884
557.000000	7.123690
558.000000	6.955383
559.000000	6.771575
560.000000	6.558190
561.000000	6.333705
562.000000	6.103565
563.000000	5.872875
564.000000	5.646306
565.000000	5.428988
566.000000	5.224448
567.000000	5.036504
568.000000	4.867340
569.000000	4.717928
570.000000	4.604199
571.000000	4.510722
572.000000	4.433618
573.000000	4.369641
574.000000	4.315664
575.000000	4.267953
576.000000	4.223962
577.000000	4.181945
578.000000	4.139897
579.000000	4.097317
580.000000	4.054412
581.000000	4.012081
582.000000	3.971521
583.000000	3.933303
584.000000	3.899109
585.000000	3.869915
586.000000	3.846151
587.000000	3.827727
588.000000	3.815069
589.000000	3.807046
590.000000	3.802936
591.000000	3.801150
592.000000	3.800227
593.000000	3.798795
594.000000	3.795308
595.000000	3.789279
596.000000	3.780856
597.000000	3.769129
598.000000	3.752983
599.000000	3.733339
600.000000	3.710898
601.000000	3.686592
602.000000	3.660711
603.000000	3.635273
604.000000	3.610849
605.000000	3.587701
606.000000	3.566400
607.000000	3.547690
608.000000	3.532194
609.000000	3.520956
610.000000	3.512328
611.000000	3.506405
612.000000	3.503532
613.000000	3.502350
614.000000	3.502999
615.000000	3.504198
616.000000	3.506100
617.000000	3.508006
618.000000	3.509097
619.000000	3.507997
620.000000	3.506718
621.000000	3.504234
622.000000	3.500070
623.000000	3.494867
624.000000	3.488309
625.000000	3.481640
626.000000	3.475150
627.000000	3.468532
628.000000	3.462225
629.000000	3.457031
630.000000	3.452158
631.000000	3.448429
632.000000	3.446093
633.000000	3.446402
634.000000	3.447848
635.000000	3.450892
636.000000	3.454666
637.000000	3.459167
638.000000	3.465298
639.000000	3.472572
640.000000	3.480934
641.000000	3.489256
642.000000	3.498037
643.000000	3.506550
644.000000	3.516099
645.000000	3.525266
646.000000	3.534022
647.000000	3.543518
648.000000	3.553087
649.000000	3.562271
650.000000	3.572795
651.000000	3.583976
652.000000	3.596304
653.000000	3.609020
654.000000	3.622631
655.000000	3.637276
656.000000	3.653556
657.000000	3.670859
658.000000	3.689391
659.000000	3.710007
660.000000	3.729811
661.000000	3.750269
662.000000	3.771435
663.000000	3.792971
664.000000	3.814220
665.000000	3.836024
666.000000	3.857009
667.000000	3.877214
668.000000	3.896797
669.000000	3.914924
670.000000	3.931884
671.000000	3.948833
672.000000	3.964497
673.000000	3.979261
674.000000	3.993198
675.000000	4.006024
676.000000	4.018285
677.000000	4.030801
678.000000	4.043501
679.000000	4.056338
680.000000	4.070460
681.000000	4.085512
682.000000	4.100901
683.000000	4.117036
684.000000	4.135126
685.000000	4.154882
686.000000	4.175616
687.000000	4.197204
688.000000	4.219686
689.000000	4.243177
690.000000	4.267530
691.000000	4.291368
692.000000	4.316374
693.000000	4.342259
694.000000	4.367965
695.000000	4.394366
696.000000	4.421343
697.000000	4.448871
698.000000	4.476921
699.000000	4.505756
700.000000	4.535201
701.000000	4.565848
702.000000	4.597863
703.000000	4.630507
704.000000	4.664140
705.000000	4.698592
706.000000	4.734861
707.000000	4.772353
708.000000	4.810102
709.000000	4.848776
710.000000	4.889737
711.000000	4.931676
712.000000	4.973250
713.000000	5.015368
714.000000	5.058014
715.000000	5.100701
716.000000	5.143199
717.000000	5.185251
718.000000	5.226621
719.000000	5.267054
720.000000	5.305856
721.000000	5.343585
722.000000	5.381017
723.000000	5.417132
724.000000	5.451811
725.000000	5.485404
726.000000	5.518457
727.000000	5.551413
728.000000	5.584076
729.000000	5.616243
730.000000	5.648306
731.000000	5.680032
732.000000	5.710773
733.000000	5.741140
734.000000	5.771808
735.000000	5.802979
736.000000	5.833961
737.000000	5.864868
738.000000	5.896953
739.000000	5.929454
740.000000	5.961702
741.000000	5.995631
742.000000	6.031283
743.000000	6.068675
744.000000	6.106952
745.000000	6.146245
746.000000	6.186794
747.000000	6.228769
748.000000	6.272250
749.000000	6.317380
750.000000	6.364156
751.000000	6.411615
752.000000	6.459631
753.000000	6.509226
754.000000	6.561362
755.000000	6.615441
756.000000	6.670475
757.000000	6.727727
758.000000	6.787663
759.000000	6.849144
760.000000	6.912488
761.000000	6.978722
762.000000	7.049406
763.000000	7.123293
764.000000	7.197920
765.000000	7.274231
766.000000	7.355152
767.000000	7.438069
768.000000	7.522561
769.000000	7.610389
770.000000	7.700418
771.000000	7.792914
772.000000	7.885489
773.000000	7.978233
774.000000	8.076181
775.000000	8.177123
776.000000	8.277191
777.000000	8.377778
778.000000	8.477355
779.000000	8.578059
780.000000	8.680506
781.000000	8.781022
782.000000	8.883393
783.000000	8.987275
784.000000	9.086265
785.000000	9.183418
786.000000	9.280887
787.000000	9.379110
788.000000	9.478588
789.000000	9.574982
790.000000	9.670156
791.000000	9.768745
792.000000	9.866205
793.000000	9.959967
794.000000	10.054292
795.000000	10.149257
796.000000	10.243336
797.000000	10.336426
798.000000	10.430707
799.000000	10.523523
800.000000	10.614888
801.000000	10.701425
802.000000	10.785716
803.000000	10.870988
804.000000	10.958623
805.000000	11.044201
806.000000	11.125474
807.000000	11.204361
808.000000	11.281572
809.000000	11.360916
810.000000	11.436647
811.000000	11.509933
812.000000	11.580002
813.000000	11.649597
814.000000	11.717897
815.000000	11.781562
816.000000	11.844048
817.000000	11.905230
818.000000	11.961784
819.000000	12.014516
820.000000	12.065913
821.000000	12.115644
822.000000	12.169789
823.000000	12.218069
824.000000	12.260923
825.000000	12.304117
826.000000	12.346938
827.000000	12.387452
828.000000	12.426835
829.000000	12.461100
830.000000	12.491415
831.000000	12.522424
832.000000	12.549726
833.000000	12.577237
834.000000	12.603628
835.000000	12.634704
836.000000	12.661296
837.000000	12.683777
838.000000	12.705808
839.000000	12.728786
840.000000	12.751271
841.000000	12.770081
842.000000	12.789229
843.000000	12.798719
844.000000	12.804596
845.000000	12.806303
846.000000	12.811797
847.000000	12.823321
848.000000	12.824470
849.000000	12.820258
850.000000	12.823254
851.000000	12.825049
852.000000	12.829847
853.000000	12.838091
854.000000	12.841453
855.000000	12.843369
856.000000	12.834561
857.000000	12.839060
858.000000	12.844288
859.000000	12.886243
860.000000	12.923034
861.000000	12.962593
862.000000	12.997636
863.000000	13.040992
864.000000	13.093766
865.000000	13.147215
866.000000	13.211601
867.000000	13.259415
868.000000	13.314817
869.000000	13.340847
870.000000	13.367547
871.000000	13.394287
872.000000	13.418250
873.000000	13.440290
874.000000	13.461470
875.000000	13.480247
876.000000	13.499573
877.000000	13.518500
878.000000	13.538857
879.000000	13.558770
880.000000	13.578157
881.000000	13.599787
882.000000	13.622263
883.000000	13.644257
884.000000	13.665963
885.000000	13.689387
886.000000	13.712013
887.000000	13.734440
888.000000	13.756807
889.000000	13.777887
890.000000	13.801453
891.000000	13.823377
892.000000	13.843753
893.000000	13.865443
894.000000	13.887693
895.000000	13.910893
896.000000	13.933723
897.000000	13.958167
898.000000	13.981257
899.000000	14.009523
900.000000	14.036997
901.000000	14.063920
902.000000	14.092690
903.000000	14.122170
904.000000	14.151677
905.000000	14.180303
906.000000	14.210790
907.000000	14.241560
908.000000	14.272683
909.000000	14.302657
910.000000	14.332607
911.000000	14.363403
912.000000	14.394070
913.000000	14.423290
914.000000	14.452537
915.000000	14.483407
916.000000	14.514203
917.000000	14.543973
918.000000	14.574530
919.000000	14.602990
920.000000	14.630640
921.000000	14.658720
922.000000	14.687767
923.000000	14.716450
924.000000	14.745420
925.000000	14.771750
926.000000	14.796870
927.000000	14.821377
928.000000	14.847000
929.000000	14.872607
930.000000	14.897273
931.000000	14.921220
932.000000	14.942380
933.000000	14.966320
934.000000	14.989350
935.000000	15.014417
936.000000	15.040477
937.000000	15.066333
938.000000	15.090890
939.000000	15.116380
940.000000	15.143610
941.000000	15.170153
942.000000	15.198443
943.000000	15.223813
944.000000	15.248933
945.000000	15.272620
946.000000	15.297937
947.000000	15.323093
948.000000	15.347933
949.000000	15.372453
950.000000	15.397027
951.000000	15.422733
952.000000	15.449223
953.000000	15.477723
954.000000	15.506233
955.000000	15.535920
956.000000	15.563250
957.000000	15.592030
958.000000	15.622740
959.000000	15.652720
960.000000	15.682537
961.000000	15.711893
962.000000	15.741160
963.000000	15.770713
964.000000	15.800093
965.000000	15.827907
966.000000	15.855353
967.000000	15.883677
968.000000	15.911460
969.000000	15.938540
970.000000	15.965397
971.000000	15.992227
972.000000	16.019480
973.000000	16.045777
974.000000	16.072193
975.000000	16.100513
976.000000	16.128887
977.000000	16.156187
978.000000	16.183350
979.000000	16.211240
980.000000	16.238430
981.000000	16.266423
982.000000	16.294417
983.000000	16.322550
984.000000	16.351150
985.000000	16.378823
986.000000	16.407133
987.000000	16.434683
988.000000	16.461543
989.000000	16.488803
990.000000	16.516557
991.000000	16.543767
992.000000	16.569710
993.000000	16.595137
994.000000	16.621183
995.000000	16.647967
996.000000	16.674283
997.000000	16.700833
998.000000	16.726620
999.000000	16.752250
1000.000000	16.778720
1001.000000	16.804517
1002.000000	16.830763
1003.000000	16.858513
1004.000000	16.884273
1005.000000	16.907273
1006.000000	16.930987
1007.000000	16.955240
1008.000000	16.980423
1009.000000	17.005680
1010.000000	17.029480
1011.000000	17.052957
1012.000000	17.076427
1013.000000	17.099023
1014.000000	17.122673
1015.000000	17.148223
1016.000000	17.172340
1017.000000	17.195990
1018.000000	17.220303
1019.000000	17.243583
1020.000000	17.267857
1021.000000	17.292693
1022.000000	17.317333
1023.000000	17.342150
1024.000000	17.367057
1025.000000	17.390953
1026.000000	17.415893
1027.000000	17.441143
1028.000000	17.465727
1029.000000	17.490523
1030.000000	17.515360
1031.000000	17.540400
1032.000000	17.565317
1033.000000	17.589567
1034.000000	17.613877
1035.000000	17.639463
1036.000000	17.664523
1037.000000	17.689203
1038.000000	17.713380
1039.000000	17.737343
1040.000000	17.761500
1041.000000	17.785593
1042.000000	17.810647
1043.000000	17.835650
1044.000000	17.860107
1045.000000	17.883647
1046.000000	17.907237
1047.000000	17.931050
1048.000000	17.954817
1049.000000	17.979177
1050.000000	18.003353
1051.000000	18.027253
1052.000000	18.050033
1053.000000	18.072637
1054.000000	18.095487
1055.000000	18.119037
1056.000000	18.142803
1057.000000	18.167093
1058.000000	18.191617
1059.000000	18.214987
1060.000000	18.237480
1061.000000	18.260213
1062.000000	18.283593
1063.000000	18.306637
1064.000000	18.329527
1065.000000	18.352627
1066.000000	18.375150
1067.000000	18.397413
1068.000000	18.419997
1069.000000	18.443900
1070.000000	18.467680
1071.000000	18.490913
1072.000000	18.514293
1073.000000	18.538213
1074.000000	18.562903
1075.000000	18.586030
1076.000000	18.608633
1077.000000	18.630910
1078.000000	18.653347
1079.000000	18.675613
1080.000000	18.698733
1081.000000	18.721440
1082.000000	18.744030
1083.000000	18.765463
1084.000000	18.785517
1085.000000	18.805510
1086.000000	18.825980
1087.000000	18.848277
1088.000000	18.869040
1089.000000	18.887407
1090.000000	18.905957
1091.000000	18.924967
1092.000000	18.942700
1093.000000	18.960710
1094.000000	18.979333
1095.000000	18.998383
1096.000000	19.016663
1097.000000	19.032857
1098.000000	19.049330
1099.000000	19.066627
1100.000000	19.083137
1101.000000	19.099627
1102.000000	19.116390
1103.000000	19.132620
1104.000000	19.147767
1105.000000	19.162260
1106.000000	19.176350
1107.000000	19.190063
1108.000000	19.205073
1109.000000	19.219903
1110.000000	19.232953
1111.000000	19.245860
1112.000000	19.258197
1113.000000	19.269807
1114.000000	19.280687
1115.000000	19.291460
1116.000000	19.302037
1117.000000	19.312707
1118.000000	19.322210
1119.000000	19.332207
1120.000000	19.343397
1121.000000	19.353057
1122.000000	19.362090
1123.000000	19.372543
1124.000000	19.383973
1125.000000	19.392647
1126.000000	19.399973
1127.000000	19.404390
1128.000000	19.406273
1129.000000	19.407667
1130.000000	19.406893
1131.000000	19.403680
1132.000000	19.397273
1133.000000	19.386703
1134.000000	19.375110
1135.000000	19.365320
1136.000000	19.356227
1137.000000	19.345140
1138.000000	19.331387
1139.000000	19.314017
1140.000000	19.295207
1141.000000	19.278043
1142.000000	19.262620
1143.000000	19.246903
1144.000000	19.230100
1145.000000	19.212880
1146.000000	19.196000
1147.000000	19.180730
1148.000000	19.168280
1149.000000	19.158007
1150.000000	19.148953
1151.000000	19.139087
1152.000000	19.130633
1153.000000	19.123883
1154.000000	19.117767
1155.000000	19.109193
1156.000000	19.097917
1157.000000	19.086393
1158.000000	19.072913
1159.000000	19.058330
1160.000000	19.041187
1161.000000	19.021277
1162.000000	18.998010
1163.000000	18.971920
1164.000000	18.941077
1165.000000	18.911010
1166.000000	18.879097
1167.000000	18.846173
1168.000000	18.812257
1169.000000	18.777107
1170.000000	18.743160
1171.000000	18.710177
1172.000000	18.677803
1173.000000	18.648697
1174.000000	18.622357
1175.000000	18.596137
1176.000000	18.572903
1177.000000	18.552400
1178.000000	18.532783
1179.000000	18.514847
1180.000000	18.497910
1181.000000	18.482537
1182.000000	18.469017
1183.000000	18.454640
1184.000000	18.442230
1185.000000	18.430953
1186.000000	18.422350
1187.000000	18.412757
