PE UV       SUBTECH     SPECTRUM    ASCII       PEDS        4.00        
   -1
BIOUCR0001-3.Sample.ASC
24/02/19
11:14:54.00
24/02/19
11:14:54.00
Vinicio Soto Monge
P. cupreomarginata (sin datos) Monteverde(dudoso) Filtro Izq: Mas cafe
250,000000
1
Lambda 1050
1050L1511233
PerkinElmer UV WinLab 6.3.2.0749 / 2.02.05 Lambda 900 UV/VIS/NIR, Aug  7 2015 09:38:08

0
0
3350/servo 860,8/2
0
0
UV/VIS
1
1
1
DoubleDePol,CommonBeamDepol,RBeamAtt,SBeamAtt,60mm sphere, WB InGaAs Detector
0
0
0
0
Program
Program
3350/servo 860,8/2
3350/0,2 860,8/0,2
3350/0,2 860,8/0,2
0
15.00
 
 
 
0
 
860,8
319,2
860,8
Front
100
on
S:100 R:100
0
0
0
0
 
0
 
 
 
0
 
 
0
0
0
0
0
 
 
 
 
0
0


0
0
#HDR
-1
-1
#GR
nm
%R
1.0
0.0
2500,000000
-1,000000
2251
8
20,032600
1,574800
#DATA

250.000000	nan
251.000000	nan
252.000000	nan
253.000000	nan
254.000000	nan
255.000000	nan
256.000000	nan
257.000000	nan
258.000000	nan
259.000000	1.941225
260.000000	1.937825
261.000000	1.932955
262.000000	1.927665
263.000000	1.921389
264.000000	1.918153
265.000000	1.914827
266.000000	1.911400
267.000000	1.905727
268.000000	1.901214
269.000000	1.894179
270.000000	1.891813
271.000000	1.887229
272.000000	1.883468
273.000000	1.877792
274.000000	1.873063
275.000000	1.870278
276.000000	1.865582
277.000000	1.861781
278.000000	1.858254
279.000000	1.856320
280.000000	1.851661
281.000000	1.848517
282.000000	1.843994
283.000000	1.842816
284.000000	1.841852
285.000000	1.837272
286.000000	1.834543
287.000000	1.832890
288.000000	1.828757
289.000000	1.826428
290.000000	1.824747
291.000000	1.822646
292.000000	1.820958
293.000000	1.815825
294.000000	1.810884
295.000000	1.807803
296.000000	1.806514
297.000000	1.804097
298.000000	1.800940
299.000000	1.798583
300.000000	1.795226
301.000000	1.792166
302.000000	1.791200
303.000000	1.793541
304.000000	1.792623
305.000000	1.792514
306.000000	1.790705
307.000000	1.789118
308.000000	1.789901
309.000000	1.788539
310.000000	1.787753
311.000000	1.787286
312.000000	1.787034
313.000000	1.784801
314.000000	1.784447
315.000000	1.783585
316.000000	1.785641
317.000000	1.813966
318.000000	1.824917
319.000000	1.838752
320.000000	1.864780
321.000000	1.885640
322.000000	1.901169
323.000000	1.906299
324.000000	1.906944
325.000000	1.911093
326.000000	1.926660
327.000000	1.904624
328.000000	1.897626
329.000000	1.894196
330.000000	1.879568
331.000000	1.864958
332.000000	1.850130
333.000000	1.850381
334.000000	1.857606
335.000000	1.857382
336.000000	1.845083
337.000000	1.840096
338.000000	1.835853
339.000000	1.825357
340.000000	1.823751
341.000000	1.822165
342.000000	1.826455
343.000000	1.823542
344.000000	1.819086
345.000000	1.817607
346.000000	1.812991
347.000000	1.817238
348.000000	1.818694
349.000000	1.819560
350.000000	1.816190
351.000000	1.813209
352.000000	1.807859
353.000000	1.806001
354.000000	1.805551
355.000000	1.802731
356.000000	1.801345
357.000000	1.792658
358.000000	1.790646
359.000000	1.792777
360.000000	1.786656
361.000000	1.784501
362.000000	1.784696
363.000000	1.782263
364.000000	1.779024
365.000000	1.777354
366.000000	1.777395
367.000000	1.779830
368.000000	1.778676
369.000000	1.774647
370.000000	1.772909
371.000000	1.769268
372.000000	1.765816
373.000000	1.759588
374.000000	1.753360
375.000000	1.750376
376.000000	1.745011
377.000000	1.726638
378.000000	1.709750
379.000000	1.691906
380.000000	1.675382
381.000000	1.661518
382.000000	1.645979
383.000000	1.636623
384.000000	1.626306
385.000000	1.614241
386.000000	1.602827
387.000000	1.605475
388.000000	1.609557
389.000000	1.613359
390.000000	1.616634
391.000000	1.620662
392.000000	1.625041
393.000000	1.629554
394.000000	1.634384
395.000000	1.639789
396.000000	1.645966
397.000000	1.652120
398.000000	1.658111
399.000000	1.664586
400.000000	1.671884
401.000000	1.679702
402.000000	1.688119
403.000000	1.696563
404.000000	1.705923
405.000000	1.716346
406.000000	1.728055
407.000000	1.740963
408.000000	1.755027
409.000000	1.770269
410.000000	1.786790
411.000000	1.804731
412.000000	1.823952
413.000000	1.845418
414.000000	1.867999
415.000000	1.891823
416.000000	1.917298
417.000000	1.945849
418.000000	1.976550
419.000000	2.009942
420.000000	2.045564
421.000000	2.083881
422.000000	2.125643
423.000000	2.170461
424.000000	2.218692
425.000000	2.269994
426.000000	2.324133
427.000000	2.380147
428.000000	2.439366
429.000000	2.501577
430.000000	2.567071
431.000000	2.635823
432.000000	2.706982
433.000000	2.780792
434.000000	2.857408
435.000000	2.936755
436.000000	3.019161
437.000000	3.104442
438.000000	3.191559
439.000000	3.280961
440.000000	3.372649
441.000000	3.465789
442.000000	3.560510
443.000000	3.656319
444.000000	3.752893
445.000000	3.850441
446.000000	3.948374
447.000000	4.046209
448.000000	4.143931
449.000000	4.240692
450.000000	4.336012
451.000000	4.430169
452.000000	4.523181
453.000000	4.614985
454.000000	4.705451
455.000000	4.794612
456.000000	4.882293
457.000000	4.968811
458.000000	5.054564
459.000000	5.138709
460.000000	5.221786
461.000000	5.304218
462.000000	5.385273
463.000000	5.464796
464.000000	5.542778
465.000000	5.619165
466.000000	5.694207
467.000000	5.767156
468.000000	5.837680
469.000000	5.906732
470.000000	5.974151
471.000000	6.039196
472.000000	6.102097
473.000000	6.162738
474.000000	6.221221
475.000000	6.276914
476.000000	6.329678
477.000000	6.380287
478.000000	6.428575
479.000000	6.474635
480.000000	6.516382
481.000000	6.552764
482.000000	6.584379
483.000000	6.613761
484.000000	6.641560
485.000000	6.668323
486.000000	6.694129
487.000000	6.719063
488.000000	6.742668
489.000000	6.765918
490.000000	6.790221
491.000000	6.815979
492.000000	6.843005
493.000000	6.868819
494.000000	6.892837
495.000000	6.914788
496.000000	6.935389
497.000000	6.954609
498.000000	6.973076
499.000000	6.990322
500.000000	7.007219
501.000000	7.025957
502.000000	7.046983
503.000000	7.071136
504.000000	7.098854
505.000000	7.131691
506.000000	7.170757
507.000000	7.216685
508.000000	7.270864
509.000000	7.333688
510.000000	7.405573
511.000000	7.487270
512.000000	7.578841
513.000000	7.680830
514.000000	7.793876
515.000000	7.916751
516.000000	8.047824
517.000000	8.187868
518.000000	8.335201
519.000000	8.488726
520.000000	8.648816
521.000000	8.813921
522.000000	8.982561
523.000000	9.153529
524.000000	9.326382
525.000000	9.500522
526.000000	9.676959
527.000000	9.853989
528.000000	10.031630
529.000000	10.211371
530.000000	10.392402
531.000000	10.573606
532.000000	10.757409
533.000000	10.943373
534.000000	11.131527
535.000000	11.321681
536.000000	11.512192
537.000000	11.704795
538.000000	11.898689
539.000000	12.092677
540.000000	12.285893
541.000000	12.477594
542.000000	12.665170
543.000000	12.848301
544.000000	13.025412
545.000000	13.196575
546.000000	13.361675
547.000000	13.517908
548.000000	13.666545
549.000000	13.807564
550.000000	13.941555
551.000000	14.069670
552.000000	14.193469
553.000000	14.313762
554.000000	14.430687
555.000000	14.544858
556.000000	14.658171
557.000000	14.770638
558.000000	14.881601
559.000000	14.991669
560.000000	15.060892
561.000000	15.121268
562.000000	15.176393
563.000000	15.226036
564.000000	15.268348
565.000000	15.305193
566.000000	15.332142
567.000000	15.351767
568.000000	15.363282
569.000000	15.366339
570.000000	15.401600
571.000000	15.435219
572.000000	15.464572
573.000000	15.488744
574.000000	15.511844
575.000000	15.530195
576.000000	15.545593
577.000000	15.556153
578.000000	15.563683
579.000000	15.565801
580.000000	15.561456
581.000000	15.549696
582.000000	15.529142
583.000000	15.501490
584.000000	15.463337
585.000000	15.416143
586.000000	15.363474
587.000000	15.305597
588.000000	15.241807
589.000000	15.175179
590.000000	15.107859
591.000000	15.043374
592.000000	14.983242
593.000000	14.927734
594.000000	14.878717
595.000000	14.839230
596.000000	14.805333
597.000000	14.776656
598.000000	14.755191
599.000000	14.741209
600.000000	14.731338
601.000000	14.725522
602.000000	14.720238
603.000000	14.714566
604.000000	14.706892
605.000000	14.695605
606.000000	14.677539
607.000000	14.653758
608.000000	14.621232
609.000000	14.575486
610.000000	14.518113
611.000000	14.445863
612.000000	14.360519
613.000000	14.261050
614.000000	14.148104
615.000000	14.021854
616.000000	13.888090
617.000000	13.744630
618.000000	13.594884
619.000000	13.442348
620.000000	13.288137
621.000000	13.137488
622.000000	12.990367
623.000000	12.849795
624.000000	12.717537
625.000000	12.592895
626.000000	12.477016
627.000000	12.371538
628.000000	12.276119
629.000000	12.190665
630.000000	12.113844
631.000000	12.042802
632.000000	11.978793
633.000000	11.919535
634.000000	11.864659
635.000000	11.812993
636.000000	11.762638
637.000000	11.711761
638.000000	11.659558
639.000000	11.604474
640.000000	11.547633
641.000000	11.488181
642.000000	11.426147
643.000000	11.360993
644.000000	11.292758
645.000000	11.220340
646.000000	11.146137
647.000000	11.073744
648.000000	11.001296
649.000000	10.931211
650.000000	10.865647
651.000000	10.808987
652.000000	10.759648
653.000000	10.722534
654.000000	10.697980
655.000000	10.691411
656.000000	10.702839
657.000000	10.732045
658.000000	10.782733
659.000000	10.855205
660.000000	10.946446
661.000000	11.054432
662.000000	11.180385
663.000000	11.319437
664.000000	11.471168
665.000000	11.630938
666.000000	11.794748
667.000000	11.960889
668.000000	12.122353
669.000000	12.277649
670.000000	12.425888
671.000000	12.562825
672.000000	12.686164
673.000000	12.795219
674.000000	12.887792
675.000000	12.963943
676.000000	13.023639
677.000000	13.067976
678.000000	13.100347
679.000000	13.119987
680.000000	13.129515
681.000000	13.130094
682.000000	13.125595
683.000000	13.118074
684.000000	13.110149
685.000000	13.102749
686.000000	13.097251
687.000000	13.097368
688.000000	13.103272
689.000000	13.116220
690.000000	13.136706
691.000000	13.167304
692.000000	13.204548
693.000000	13.248154
694.000000	13.298972
695.000000	13.354799
696.000000	13.417315
697.000000	13.482129
698.000000	13.548963
699.000000	13.616287
700.000000	13.682510
701.000000	13.746501
702.000000	13.809803
703.000000	13.871770
704.000000	13.929869
705.000000	13.985527
706.000000	14.036494
707.000000	14.085086
708.000000	14.131227
709.000000	14.174967
710.000000	14.215526
711.000000	14.253076
712.000000	14.288674
713.000000	14.322614
714.000000	14.356295
715.000000	14.390819
716.000000	14.427030
717.000000	14.461228
718.000000	14.495521
719.000000	14.532031
720.000000	14.570685
721.000000	14.612984
722.000000	14.657525
723.000000	14.705748
724.000000	14.754744
725.000000	14.804581
726.000000	14.856148
727.000000	14.910382
728.000000	14.966356
729.000000	15.022162
730.000000	15.078410
731.000000	15.134073
732.000000	15.188678
733.000000	15.241104
734.000000	15.292662
735.000000	15.343061
736.000000	15.391202
737.000000	15.436771
738.000000	15.479281
739.000000	15.519552
740.000000	15.557820
741.000000	15.592384
742.000000	15.623608
743.000000	15.653059
744.000000	15.680152
745.000000	15.704161
746.000000	15.727140
747.000000	15.748422
748.000000	15.768762
749.000000	15.787675
750.000000	15.804437
751.000000	15.821524
752.000000	15.838145
753.000000	15.853437
754.000000	15.870416
755.000000	15.889400
756.000000	15.909630
757.000000	15.931781
758.000000	15.953248
759.000000	15.976045
760.000000	16.002251
761.000000	16.031386
762.000000	16.063342
763.000000	16.097507
764.000000	16.132073
765.000000	16.167743
766.000000	16.204621
767.000000	16.239336
768.000000	16.276164
769.000000	16.315399
770.000000	16.351699
771.000000	16.387332
772.000000	16.419907
773.000000	16.450262
774.000000	16.481790
775.000000	16.512664
776.000000	16.539950
777.000000	16.567599
778.000000	16.592899
779.000000	16.616116
780.000000	16.640373
781.000000	16.659627
782.000000	16.678413
783.000000	16.699740
784.000000	16.720021
785.000000	16.740022
786.000000	16.760888
787.000000	16.783782
788.000000	16.811539
789.000000	16.838296
790.000000	16.864503
791.000000	16.891456
792.000000	16.921473
793.000000	16.950973
794.000000	16.977065
795.000000	17.001697
796.000000	17.025121
797.000000	17.046483
798.000000	17.063906
799.000000	17.082429
800.000000	17.098428
801.000000	17.116352
802.000000	17.130670
803.000000	17.142205
804.000000	17.154638
805.000000	17.166935
806.000000	17.177930
807.000000	17.189195
808.000000	17.209733
809.000000	17.235143
810.000000	17.264645
811.000000	17.292614
812.000000	17.327087
813.000000	17.363228
814.000000	17.402506
815.000000	17.446273
816.000000	17.491198
817.000000	17.534276
818.000000	17.566296
819.000000	17.595966
820.000000	17.624354
821.000000	17.654557
822.000000	17.678170
823.000000	17.701828
824.000000	17.720449
825.000000	17.733200
826.000000	17.742869
827.000000	17.759706
828.000000	17.773449
829.000000	17.782910
830.000000	17.792894
831.000000	17.801210
832.000000	17.815667
833.000000	17.830334
834.000000	17.848960
835.000000	17.872527
836.000000	17.898487
837.000000	17.919159
838.000000	17.950953
839.000000	17.982839
840.000000	18.013530
841.000000	18.033484
842.000000	18.051299
843.000000	18.062592
844.000000	18.071720
845.000000	18.074347
846.000000	18.074277
847.000000	18.080310
848.000000	18.075806
849.000000	18.060461
850.000000	18.053171
851.000000	18.050070
852.000000	18.057927
853.000000	18.065921
854.000000	18.081001
855.000000	18.098075
856.000000	18.103120
857.000000	18.101334
858.000000	18.132884
859.000000	18.181129
860.000000	18.220197
861.000000	18.267554
862.000000	18.305999
863.000000	18.352174
864.000000	18.396375
865.000000	18.444629
866.000000	18.510757
867.000000	18.577697
868.000000	18.616383
869.000000	18.649710
870.000000	18.686443
871.000000	18.723573
872.000000	18.756663
873.000000	18.788220
874.000000	18.816953
875.000000	18.842130
876.000000	18.868593
877.000000	18.894990
878.000000	18.922113
879.000000	18.949330
880.000000	18.975410
881.000000	19.003913
882.000000	19.032230
883.000000	19.060533
884.000000	19.088930
885.000000	19.117840
886.000000	19.145210
887.000000	19.171940
888.000000	19.197150
889.000000	19.224580
890.000000	19.250610
891.000000	19.274803
892.000000	19.297800
893.000000	19.321393
894.000000	19.343373
895.000000	19.365890
896.000000	19.388757
897.000000	19.415860
898.000000	19.442920
899.000000	19.469380
900.000000	19.498580
901.000000	19.528207
902.000000	19.560100
903.000000	19.591030
904.000000	19.623363
905.000000	19.657203
906.000000	19.687637
907.000000	19.716543
908.000000	19.745730
909.000000	19.773620
910.000000	19.799637
911.000000	19.822623
912.000000	19.842787
913.000000	19.859660
914.000000	19.877853
915.000000	19.893410
916.000000	19.909777
917.000000	19.923670
918.000000	19.936607
919.000000	19.950037
920.000000	19.963277
921.000000	19.977750
922.000000	19.994097
923.000000	20.012270
924.000000	20.027240
925.000000	20.038490
926.000000	20.050177
927.000000	20.059397
928.000000	20.067863
929.000000	20.069487
930.000000	20.067653
931.000000	20.063070
932.000000	20.052827
933.000000	20.042713
934.000000	20.031717
935.000000	20.023237
936.000000	20.012533
937.000000	20.001720
938.000000	19.991260
939.000000	19.983603
940.000000	19.977607
941.000000	19.969633
942.000000	19.964703
943.000000	19.958790
944.000000	19.951937
945.000000	19.946613
946.000000	19.944487
947.000000	19.942030
948.000000	19.938960
949.000000	19.934633
950.000000	19.928743
951.000000	19.925213
952.000000	19.921310
953.000000	19.915043
954.000000	19.909803
955.000000	19.902903
956.000000	19.890427
957.000000	19.877930
958.000000	19.863837
959.000000	19.850740
960.000000	19.839227
961.000000	19.827307
962.000000	19.815780
963.000000	19.805167
964.000000	19.794447
965.000000	19.784093
966.000000	19.776233
967.000000	19.769893
968.000000	19.763770
969.000000	19.759560
970.000000	19.754357
971.000000	19.749167
972.000000	19.744293
973.000000	19.739873
974.000000	19.733793
975.000000	19.725047
976.000000	19.716033
977.000000	19.704793
978.000000	19.693203
979.000000	19.679833
980.000000	19.664897
981.000000	19.648763
982.000000	19.631890
983.000000	19.614070
984.000000	19.596443
985.000000	19.578943
986.000000	19.559857
987.000000	19.541643
988.000000	19.522757
989.000000	19.504110
990.000000	19.487117
991.000000	19.472280
992.000000	19.458020
993.000000	19.444483
994.000000	19.430820
995.000000	19.417330
996.000000	19.405340
997.000000	19.394493
998.000000	19.383687
999.000000	19.371940
1000.000000	19.359147
1001.000000	19.345053
1002.000000	19.330127
1003.000000	19.313367
1004.000000	19.295383
1005.000000	19.278150
1006.000000	19.260727
1007.000000	19.242570
1008.000000	19.224703
1009.000000	19.207720
1010.000000	19.191877
1011.000000	19.177083
1012.000000	19.163537
1013.000000	19.152203
1014.000000	19.143153
1015.000000	19.135550
1016.000000	19.129107
1017.000000	19.124477
1018.000000	19.122233
1019.000000	19.121967
1020.000000	19.122087
1021.000000	19.121970
1022.000000	19.122763
1023.000000	19.124903
1024.000000	19.127623
1025.000000	19.130923
1026.000000	19.133763
1027.000000	19.135660
1028.000000	19.138293
1029.000000	19.140453
1030.000000	19.143163
1031.000000	19.147187
1032.000000	19.152533
1033.000000	19.158407
1034.000000	19.163413
1035.000000	19.168220
1036.000000	19.172927
1037.000000	19.178647
1038.000000	19.185190
1039.000000	19.191727
1040.000000	19.198603
1041.000000	19.205853
1042.000000	19.211697
1043.000000	19.216777
1044.000000	19.222587
1045.000000	19.228863
1046.000000	19.236427
1047.000000	19.243087
1048.000000	19.248750
1049.000000	19.255720
1050.000000	19.261980
1051.000000	19.266360
1052.000000	19.270177
1053.000000	19.274390
1054.000000	19.278630
1055.000000	19.281270
1056.000000	19.281930
1057.000000	19.282880
1058.000000	19.283250
1059.000000	19.282250
1060.000000	19.281240
1061.000000	19.280873
1062.000000	19.280813
1063.000000	19.279580
1064.000000	19.277727
1065.000000	19.277397
1066.000000	19.278623
1067.000000	19.278803
1068.000000	19.278700
1069.000000	19.280447
1070.000000	19.282137
1071.000000	19.283707
1072.000000	19.284933
1073.000000	19.286767
1074.000000	19.288637
1075.000000	19.289347
1076.000000	19.290210
1077.000000	19.292127
1078.000000	19.294243
1079.000000	19.294450
1080.000000	19.294957
1081.000000	19.296040
1082.000000	19.297150
1083.000000	19.297757
1084.000000	19.298110
1085.000000	19.299023
1086.000000	19.299413
1087.000000	19.300290
1088.000000	19.301330
1089.000000	19.302600
1090.000000	19.304320
1091.000000	19.306287
1092.000000	19.308673
1093.000000	19.311843
1094.000000	19.316097
1095.000000	19.320390
1096.000000	19.325040
1097.000000	19.329807
1098.000000	19.334637
1099.000000	19.339933
1100.000000	19.345760
1101.000000	19.351247
1102.000000	19.356313
1103.000000	19.362963
1104.000000	19.370023
1105.000000	19.377113
1106.000000	19.384057
1107.000000	19.391340
1108.000000	19.398843
1109.000000	19.405653
1110.000000	19.412377
1111.000000	19.419753
1112.000000	19.428913
1113.000000	19.436417
1114.000000	19.442107
1115.000000	19.448020
1116.000000	19.453503
1117.000000	19.458647
1118.000000	19.464550
1119.000000	19.470890
1120.000000	19.476443
1121.000000	19.481857
1122.000000	19.486910
1123.000000	19.493340
1124.000000	19.500350
1125.000000	19.507213
1126.000000	19.513853
1127.000000	19.519350
1128.000000	19.522377
1129.000000	19.525417
1130.000000	19.527283
1131.000000	19.526253
1132.000000	19.519820
1133.000000	19.508113
1134.000000	19.497740
1135.000000	19.491763
1136.000000	19.487227
1137.000000	19.479783
1138.000000	19.468513
1139.000000	19.454650
1140.000000	19.440227
1141.000000	19.427460
1142.000000	19.416367
1143.000000	19.407270
1144.000000	19.395580
1145.000000	19.379330
1146.000000	19.360973
1147.000000	19.346710
1148.000000	19.336023
1149.000000	19.325717
1150.000000	19.316093
1151.000000	19.305650
1152.000000	19.295797
1153.000000	19.286357
1154.000000	19.278013
1155.000000	19.267680
1156.000000	19.257437
1157.000000	19.242997
1158.000000	19.226053
1159.000000	19.208157
1160.000000	19.186710
1161.000000	19.162920
1162.000000	19.137987
1163.000000	19.108053
1164.000000	19.076283
1165.000000	19.042460
1166.000000	19.008030
1167.000000	18.972710
1168.000000	18.937917
1169.000000	18.902150
1170.000000	18.870133
1171.000000	18.837450
1172.000000	18.807660
