PE UV       SUBTECH     SPECTRUM    ASCII       PEDS        4.00        
   -1
BIOUCR0008-3.Sample.ASC
24/02/19
14:10:31.00
24/02/19
14:10:31.00
Vinicio Soto Monge
P. chalcotea
250,000000
1
Lambda 1050
1050L1511233
PerkinElmer UV WinLab 6.3.2.0749 / 2.02.05 Lambda 900 UV/VIS/NIR, Aug  7 2015 09:38:08

0
0
3350/servo 860,8/2
0
0
UV/VIS
1
1
1
DoubleDePol,CommonBeamDepol,RBeamAtt,SBeamAtt,60mm sphere, WB InGaAs Detector
0
0
0
0
Program
Program
3350/servo 860,8/2
3350/0,2 860,8/0,2
3350/0,2 860,8/0,2
0
15.00
 
 
 
0
 
860,8
319,2
860,8
Front
100
on
S:100 R:100
0
0
0
0
 
0
 
 
 
0
 
 
0
0
0
0
0
 
 
 
 
0
0


0
0
#HDR
-1
-1
#GR
nm
%R
1.0
0.0
2500,000000
-1,000000
2251
8
18,268700
1,514200
#DATA

250.000000	nan
251.000000	nan
252.000000	nan
253.000000	nan
254.000000	nan
255.000000	nan
256.000000	nan
257.000000	nan
258.000000	nan
259.000000	2.134292
260.000000	2.129337
261.000000	2.124475
262.000000	2.122310
263.000000	2.118075
264.000000	2.113999
265.000000	2.109739
266.000000	2.105313
267.000000	2.101132
268.000000	2.095316
269.000000	2.089676
270.000000	2.085978
271.000000	2.081494
272.000000	2.076633
273.000000	2.072933
274.000000	2.069566
275.000000	2.068469
276.000000	2.064781
277.000000	2.061889
278.000000	2.059430
279.000000	2.060575
280.000000	2.060045
281.000000	2.058490
282.000000	2.055031
283.000000	2.054993
284.000000	2.056193
285.000000	2.051034
286.000000	2.049617
287.000000	2.046781
288.000000	2.045976
289.000000	2.043215
290.000000	2.039403
291.000000	2.037297
292.000000	2.037057
293.000000	2.033138
294.000000	2.028951
295.000000	2.028346
296.000000	2.026908
297.000000	2.025275
298.000000	2.021791
299.000000	2.020092
300.000000	2.018569
301.000000	2.017354
302.000000	2.015225
303.000000	2.013775
304.000000	2.011055
305.000000	2.010249
306.000000	2.008474
307.000000	2.005735
308.000000	2.003665
309.000000	2.001197
310.000000	2.001237
311.000000	2.000266
312.000000	1.997507
313.000000	1.996494
314.000000	1.996368
315.000000	1.993538
316.000000	1.994339
317.000000	2.008633
318.000000	2.027290
319.000000	2.036949
320.000000	2.043356
321.000000	2.052355
322.000000	2.059612
323.000000	2.062374
324.000000	2.067395
325.000000	2.075669
326.000000	2.079563
327.000000	2.069380
328.000000	2.055615
329.000000	2.055889
330.000000	2.053797
331.000000	2.047129
332.000000	2.048185
333.000000	2.051582
334.000000	2.051996
335.000000	2.048119
336.000000	2.044659
337.000000	2.043512
338.000000	2.041757
339.000000	2.031371
340.000000	2.028338
341.000000	2.027891
342.000000	2.022069
343.000000	2.016711
344.000000	2.013151
345.000000	2.010555
346.000000	2.008844
347.000000	2.006639
348.000000	2.002970
349.000000	2.002984
350.000000	1.997795
351.000000	1.993299
352.000000	1.990116
353.000000	1.988009
354.000000	1.984122
355.000000	1.980625
356.000000	1.978423
357.000000	1.977157
358.000000	1.974419
359.000000	1.971105
360.000000	1.970048
361.000000	1.970092
362.000000	1.969699
363.000000	1.967532
364.000000	1.966738
365.000000	1.966206
366.000000	1.962774
367.000000	1.958173
368.000000	1.957522
369.000000	1.956513
370.000000	1.951837
371.000000	1.945805
372.000000	1.943221
373.000000	1.940990
374.000000	1.934916
375.000000	1.926695
376.000000	1.917453
377.000000	1.895731
378.000000	1.874038
379.000000	1.852030
380.000000	1.833248
381.000000	1.814379
382.000000	1.792540
383.000000	1.770868
384.000000	1.752696
385.000000	1.736527
386.000000	1.723743
387.000000	1.724113
388.000000	1.723174
389.000000	1.722455
390.000000	1.722035
391.000000	1.721658
392.000000	1.720808
393.000000	1.720550
394.000000	1.720113
395.000000	1.719690
396.000000	1.718992
397.000000	1.718450
398.000000	1.717973
399.000000	1.717630
400.000000	1.717187
401.000000	1.716485
402.000000	1.716963
403.000000	1.717316
404.000000	1.717298
405.000000	1.717337
406.000000	1.717257
407.000000	1.717107
408.000000	1.717480
409.000000	1.717538
410.000000	1.717487
411.000000	1.717385
412.000000	1.716755
413.000000	1.715998
414.000000	1.715607
415.000000	1.715568
416.000000	1.715502
417.000000	1.715238
418.000000	1.714779
419.000000	1.714441
420.000000	1.714189
421.000000	1.713921
422.000000	1.713760
423.000000	1.713186
424.000000	1.712752
425.000000	1.712255
426.000000	1.711867
427.000000	1.711495
428.000000	1.711495
429.000000	1.711353
430.000000	1.710969
431.000000	1.710851
432.000000	1.710941
433.000000	1.711473
434.000000	1.712071
435.000000	1.712547
436.000000	1.713012
437.000000	1.713790
438.000000	1.714436
439.000000	1.715190
440.000000	1.716223
441.000000	1.717358
442.000000	1.718657
443.000000	1.720000
444.000000	1.721020
445.000000	1.722429
446.000000	1.724233
447.000000	1.725620
448.000000	1.727062
449.000000	1.728949
450.000000	1.730927
451.000000	1.732817
452.000000	1.734697
453.000000	1.736877
454.000000	1.739647
455.000000	1.742619
456.000000	1.745794
457.000000	1.749562
458.000000	1.753707
459.000000	1.758049
460.000000	1.763003
461.000000	1.768467
462.000000	1.774697
463.000000	1.781497
464.000000	1.788667
465.000000	1.796661
466.000000	1.805384
467.000000	1.814971
468.000000	1.825285
469.000000	1.836694
470.000000	1.848834
471.000000	1.861888
472.000000	1.875865
473.000000	1.890452
474.000000	1.906057
475.000000	1.922527
476.000000	1.940044
477.000000	1.959007
478.000000	1.979958
479.000000	2.003490
480.000000	2.030690
481.000000	2.062266
482.000000	2.099330
483.000000	2.143638
484.000000	2.196751
485.000000	2.260047
486.000000	2.334730
487.000000	2.422068
488.000000	2.522161
489.000000	2.634971
490.000000	2.760245
491.000000	2.897064
492.000000	3.045138
493.000000	3.202238
494.000000	3.365985
495.000000	3.533806
496.000000	3.703221
497.000000	3.872631
498.000000	4.040167
499.000000	4.204651
500.000000	4.364820
501.000000	4.519838
502.000000	4.667680
503.000000	4.808807
504.000000	4.943231
505.000000	5.070823
506.000000	5.192107
507.000000	5.306308
508.000000	5.414502
509.000000	5.515918
510.000000	5.610815
511.000000	5.699097
512.000000	5.780057
513.000000	5.853538
514.000000	5.919113
515.000000	5.976602
516.000000	6.025727
517.000000	6.066196
518.000000	6.097434
519.000000	6.119269
520.000000	6.130620
521.000000	6.131795
522.000000	6.123348
523.000000	6.104564
524.000000	6.075285
525.000000	6.035951
526.000000	5.987189
527.000000	5.929474
528.000000	5.862714
529.000000	5.787588
530.000000	5.705907
531.000000	5.619943
532.000000	5.532112
533.000000	5.445063
534.000000	5.361585
535.000000	5.284071
536.000000	5.214771
537.000000	5.155920
538.000000	5.110205
539.000000	5.077640
540.000000	5.058127
541.000000	5.049124
542.000000	5.047587
543.000000	5.050725
544.000000	5.053768
545.000000	5.052373
546.000000	5.042770
547.000000	5.020496
548.000000	4.982501
549.000000	4.928496
550.000000	4.857772
551.000000	4.772228
552.000000	4.674954
553.000000	4.569428
554.000000	4.461210
555.000000	4.355953
556.000000	4.258157
557.000000	4.174065
558.000000	4.106191
559.000000	4.057081
560.000000	4.017566
561.000000	3.996522
562.000000	3.992703
563.000000	4.003438
564.000000	4.023821
565.000000	4.049009
566.000000	4.074390
567.000000	4.095603
568.000000	4.108619
569.000000	4.110040
570.000000	4.108899
571.000000	4.094774
572.000000	4.067271
573.000000	4.027534
574.000000	3.979175
575.000000	3.925608
576.000000	3.870234
577.000000	3.815639
578.000000	3.766657
579.000000	3.726688
580.000000	3.696862
581.000000	3.678695
582.000000	3.674166
583.000000	3.682573
584.000000	3.700960
585.000000	3.727619
586.000000	3.760193
587.000000	3.795779
588.000000	3.830169
589.000000	3.860851
590.000000	3.885049
591.000000	3.901556
592.000000	3.907891
593.000000	3.903130
594.000000	3.889324
595.000000	3.866968
596.000000	3.837785
597.000000	3.803396
598.000000	3.767889
599.000000	3.732310
600.000000	3.700441
601.000000	3.672982
602.000000	3.653300
603.000000	3.642361
604.000000	3.640484
605.000000	3.647581
606.000000	3.661833
607.000000	3.683594
608.000000	3.709830
609.000000	3.739258
610.000000	3.770047
611.000000	3.800128
612.000000	3.826817
613.000000	3.848916
614.000000	3.864517
615.000000	3.873432
616.000000	3.876013
617.000000	3.872089
618.000000	3.862455
619.000000	3.848180
620.000000	3.829933
621.000000	3.810801
622.000000	3.791979
623.000000	3.774717
624.000000	3.760361
625.000000	3.750936
626.000000	3.747229
627.000000	3.750099
628.000000	3.758404
629.000000	3.772837
630.000000	3.793054
631.000000	3.817603
632.000000	3.844904
633.000000	3.873637
634.000000	3.904787
635.000000	3.935029
636.000000	3.963191
637.000000	3.987857
638.000000	4.009478
639.000000	4.027019
640.000000	4.040816
641.000000	4.049708
642.000000	4.054908
643.000000	4.056935
644.000000	4.055940
645.000000	4.052872
646.000000	4.049513
647.000000	4.047260
648.000000	4.046465
649.000000	4.048089
650.000000	4.051447
651.000000	4.059637
652.000000	4.071981
653.000000	4.088975
654.000000	4.110132
655.000000	4.134778
656.000000	4.163153
657.000000	4.193719
658.000000	4.226054
659.000000	4.259236
660.000000	4.293572
661.000000	4.326538
662.000000	4.358158
663.000000	4.388021
664.000000	4.415551
665.000000	4.440977
666.000000	4.462780
667.000000	4.481699
668.000000	4.498604
669.000000	4.513321
670.000000	4.526253
671.000000	4.537148
672.000000	4.546934
673.000000	4.556730
674.000000	4.566598
675.000000	4.577578
676.000000	4.590535
677.000000	4.604608
678.000000	4.621109
679.000000	4.640030
680.000000	4.660268
681.000000	4.684548
682.000000	4.712121
683.000000	4.741421
684.000000	4.772760
685.000000	4.805632
686.000000	4.839323
687.000000	4.874630
688.000000	4.910050
689.000000	4.944603
690.000000	4.979796
691.000000	5.013986
692.000000	5.045663
693.000000	5.076571
694.000000	5.106228
695.000000	5.134307
696.000000	5.160710
697.000000	5.185039
698.000000	5.207749
699.000000	5.230384
700.000000	5.252243
701.000000	5.272404
702.000000	5.292196
703.000000	5.311834
704.000000	5.331651
705.000000	5.352029
706.000000	5.373681
707.000000	5.397393
708.000000	5.422396
709.000000	5.449230
710.000000	5.477079
711.000000	5.507670
712.000000	5.541179
713.000000	5.576391
714.000000	5.612193
715.000000	5.649343
716.000000	5.687984
717.000000	5.726850
718.000000	5.765173
719.000000	5.803123
720.000000	5.842607
721.000000	5.880430
722.000000	5.915539
723.000000	5.949332
724.000000	5.982706
725.000000	6.013604
726.000000	6.043208
727.000000	6.071491
728.000000	6.099667
729.000000	6.127247
730.000000	6.152191
731.000000	6.176548
732.000000	6.201220
733.000000	6.225532
734.000000	6.250751
735.000000	6.277365
736.000000	6.303983
737.000000	6.331613
738.000000	6.360328
739.000000	6.389715
740.000000	6.420006
741.000000	6.452383
742.000000	6.487988
743.000000	6.525879
744.000000	6.564153
745.000000	6.603574
746.000000	6.644276
747.000000	6.685121
748.000000	6.726028
749.000000	6.767549
750.000000	6.809303
751.000000	6.850649
752.000000	6.890074
753.000000	6.927786
754.000000	6.964075
755.000000	7.001412
756.000000	7.038921
757.000000	7.074675
758.000000	7.109488
759.000000	7.143527
760.000000	7.177364
761.000000	7.210970
762.000000	7.244024
763.000000	7.276809
764.000000	7.311670
765.000000	7.346287
766.000000	7.379189
767.000000	7.412840
768.000000	7.448678
769.000000	7.485819
770.000000	7.524503
771.000000	7.565661
772.000000	7.609959
773.000000	7.655501
774.000000	7.702816
775.000000	7.750919
776.000000	7.801964
777.000000	7.856393
778.000000	7.911041
779.000000	7.967051
780.000000	8.024909
781.000000	8.082824
782.000000	8.141475
783.000000	8.203827
784.000000	8.268339
785.000000	8.332133
786.000000	8.395629
787.000000	8.459699
788.000000	8.526471
789.000000	8.594551
790.000000	8.663185
791.000000	8.731862
792.000000	8.803132
793.000000	8.875550
794.000000	8.946425
795.000000	9.020071
796.000000	9.094553
797.000000	9.171477
798.000000	9.247956
799.000000	9.325733
800.000000	9.404047
801.000000	9.486020
802.000000	9.567559
803.000000	9.647617
804.000000	9.729493
805.000000	9.812858
806.000000	9.901384
807.000000	9.989190
808.000000	10.079395
809.000000	10.170730
810.000000	10.266794
811.000000	10.363925
812.000000	10.461518
813.000000	10.563388
814.000000	10.664205
815.000000	10.766827
816.000000	10.868344
817.000000	10.971865
818.000000	11.073977
819.000000	11.179359
820.000000	11.281116
821.000000	11.379345
822.000000	11.480512
823.000000	11.575901
824.000000	11.668299
825.000000	11.760235
826.000000	11.849689
827.000000	11.937466
828.000000	12.026643
829.000000	12.111998
830.000000	12.197713
831.000000	12.278126
832.000000	12.362166
833.000000	12.447919
834.000000	12.538260
835.000000	12.617299
836.000000	12.696067
837.000000	12.772343
838.000000	12.848747
839.000000	12.918780
840.000000	12.983563
841.000000	13.059113
842.000000	13.127934
843.000000	13.195915
844.000000	13.259998
845.000000	13.328169
846.000000	13.398248
847.000000	13.460662
848.000000	13.526296
849.000000	13.589619
850.000000	13.661634
851.000000	13.713962
852.000000	13.774035
853.000000	13.825308
854.000000	13.872372
855.000000	13.931845
856.000000	13.985762
857.000000	14.048833
858.000000	14.256825
859.000000	14.337849
860.000000	14.411439
861.000000	14.496116
862.000000	14.567917
863.000000	14.647626
864.000000	14.730913
865.000000	14.802441
866.000000	14.874272
867.000000	14.941987
868.000000	14.853160
869.000000	14.892243
870.000000	14.927857
871.000000	14.961043
872.000000	14.990243
873.000000	15.014957
874.000000	15.036063
875.000000	15.053930
876.000000	15.069140
877.000000	15.082230
878.000000	15.094877
879.000000	15.107127
880.000000	15.118503
881.000000	15.129023
882.000000	15.139377
883.000000	15.149237
884.000000	15.161053
885.000000	15.171527
886.000000	15.181367
887.000000	15.190457
888.000000	15.199603
889.000000	15.206877
890.000000	15.214437
891.000000	15.222710
892.000000	15.230273
893.000000	15.236000
894.000000	15.238970
895.000000	15.243393
896.000000	15.246670
897.000000	15.250443
898.000000	15.253927
899.000000	15.258710
900.000000	15.262957
901.000000	15.264467
902.000000	15.268737
903.000000	15.272760
904.000000	15.276093
905.000000	15.279093
906.000000	15.282257
907.000000	15.283743
908.000000	15.285067
909.000000	15.285523
910.000000	15.283317
911.000000	15.282393
912.000000	15.278900
913.000000	15.275437
914.000000	15.272753
915.000000	15.267280
916.000000	15.261597
917.000000	15.255510
918.000000	15.247283
919.000000	15.236750
920.000000	15.228817
921.000000	15.219397
922.000000	15.208297
923.000000	15.196083
924.000000	15.182690
925.000000	15.169513
926.000000	15.154377
927.000000	15.138390
928.000000	15.122287
929.000000	15.107063
930.000000	15.088833
931.000000	15.069457
932.000000	15.051807
933.000000	15.035297
934.000000	15.019347
935.000000	15.005210
936.000000	14.992563
937.000000	14.980813
938.000000	14.968300
939.000000	14.955233
940.000000	14.941713
941.000000	14.928963
942.000000	14.914170
943.000000	14.897987
944.000000	14.880847
945.000000	14.862670
946.000000	14.845300
947.000000	14.826647
948.000000	14.809053
949.000000	14.793057
950.000000	14.778670
951.000000	14.764427
952.000000	14.752003
953.000000	14.743320
954.000000	14.732733
955.000000	14.722677
956.000000	14.712563
957.000000	14.704787
958.000000	14.698543
959.000000	14.690580
960.000000	14.683143
961.000000	14.677127
962.000000	14.671193
963.000000	14.663423
964.000000	14.656410
965.000000	14.650087
966.000000	14.644190
967.000000	14.637213
968.000000	14.630187
969.000000	14.625317
970.000000	14.620800
971.000000	14.616427
972.000000	14.612913
973.000000	14.609703
974.000000	14.608603
975.000000	14.607657
976.000000	14.606230
977.000000	14.606627
978.000000	14.606563
979.000000	14.605813
980.000000	14.606150
981.000000	14.607310
982.000000	14.609977
983.000000	14.612563
984.000000	14.614693
985.000000	14.618230
986.000000	14.622880
987.000000	14.627467
988.000000	14.632397
989.000000	14.638957
990.000000	14.644800
991.000000	14.651117
992.000000	14.656443
993.000000	14.661563
994.000000	14.667103
995.000000	14.672660
996.000000	14.678987
997.000000	14.685290
998.000000	14.692417
999.000000	14.699360
1000.000000	14.706997
1001.000000	14.714260
1002.000000	14.722673
1003.000000	14.733650
1004.000000	14.745023
1005.000000	14.755300
1006.000000	14.764450
1007.000000	14.773167
1008.000000	14.782253
1009.000000	14.793393
1010.000000	14.805643
1011.000000	14.817870
1012.000000	14.829600
1013.000000	14.840947
1014.000000	14.852277
1015.000000	14.864667
1016.000000	14.877563
1017.000000	14.892330
1018.000000	14.907697
1019.000000	14.920853
1020.000000	14.934600
1021.000000	14.949500
1022.000000	14.963360
1023.000000	14.976343
1024.000000	14.990650
1025.000000	15.004703
1026.000000	15.017570
1027.000000	15.030000
1028.000000	15.042763
1029.000000	15.055657
1030.000000	15.067100
1031.000000	15.079130
1032.000000	15.093800
1033.000000	15.110090
1034.000000	15.125807
1035.000000	15.141360
1036.000000	15.158630
1037.000000	15.175817
1038.000000	15.192523
1039.000000	15.209490
1040.000000	15.226063
1041.000000	15.241030
1042.000000	15.254290
1043.000000	15.267950
1044.000000	15.283033
1045.000000	15.298120
1046.000000	15.311883
1047.000000	15.325597
1048.000000	15.339320
1049.000000	15.353423
1050.000000	15.369650
1051.000000	15.386957
1052.000000	15.405417
1053.000000	15.423323
1054.000000	15.438907
1055.000000	15.454243
1056.000000	15.470713
1057.000000	15.487170
1058.000000	15.503590
1059.000000	15.519963
1060.000000	15.535410
1061.000000	15.550450
1062.000000	15.563947
1063.000000	15.577700
1064.000000	15.592377
1065.000000	15.607613
1066.000000	15.621857
1067.000000	15.635897
1068.000000	15.650850
1069.000000	15.667010
1070.000000	15.683007
1071.000000	15.698250
1072.000000	15.713160
1073.000000	15.727637
1074.000000	15.743977
1075.000000	15.760900
1076.000000	15.778283
1077.000000	15.794947
1078.000000	15.810217
1079.000000	15.824887
1080.000000	15.838780
1081.000000	15.852873
1082.000000	15.868350
1083.000000	15.883323
1084.000000	15.896483
1085.000000	15.909287
1086.000000	15.921977
1087.000000	15.934720
1088.000000	15.948347
1089.000000	15.958793
1090.000000	15.970137
1091.000000	15.981800
1092.000000	15.992590
1093.000000	16.003780
1094.000000	16.014540
1095.000000	16.024940
1096.000000	16.036703
1097.000000	16.049223
1098.000000	16.060027
1099.000000	16.072647
1100.000000	16.084103
1101.000000	16.095093
1102.000000	16.106460
1103.000000	16.117673
1104.000000	16.129277
1105.000000	16.139413
1106.000000	16.148060
1107.000000	16.157023
1108.000000	16.166677
1109.000000	16.176220
1110.000000	16.185133
1111.000000	16.194253
1112.000000	16.203190
1113.000000	16.211253
1114.000000	16.218090
1115.000000	16.227103
1116.000000	16.235743
1117.000000	16.243260
1118.000000	16.249233
1119.000000	16.256620
1120.000000	16.264923
1121.000000	16.272780
1122.000000	16.280880
1123.000000	16.288623
1124.000000	16.298233
1125.000000	16.304810
1126.000000	16.311533
1127.000000	16.318280
1128.000000	16.325373
1129.000000	16.331263
1130.000000	16.336977
1131.000000	16.341370
1132.000000	16.341693
1133.000000	16.338710
1134.000000	16.334273
1135.000000	16.335540
1136.000000	16.339340
1137.000000	16.340110
1138.000000	16.337180
1139.000000	16.331780
1140.000000	16.326280
1141.000000	16.320547
1142.000000	16.318007
1143.000000	16.318157
1144.000000	16.317090
1145.000000	16.311387
1146.000000	16.303997
1147.000000	16.299550
1148.000000	16.297490
1149.000000	16.297563
1150.000000	16.295877
1151.000000	16.295800
1152.000000	16.295140
1153.000000	16.295173
1154.000000	16.295160
1155.000000	16.295080
1156.000000	16.292630
1157.000000	16.289273
1158.000000	16.286117
1159.000000	16.281787
1160.000000	16.278347
1161.000000	16.272413
1162.000000	16.266323
1163.000000	16.255913
1164.000000	16.244567
1165.000000	16.231430
1166.000000	16.216647
1167.000000	16.200730
1168.000000	16.184447
1169.000000	16.169197
1170.000000	16.152450
1171.000000	16.136523
1172.000000	16.120263
1173.000000	16.107120
1174.000000	16.095447
1175.000000	16.085240
1176.000000	16.076827
1177.000000	16.070300
1178.000000	16.062297
1179.000000	16.053347
1180.000000	16.047837
1181.000000	16.041963
1182.000000	16.036410
1183.000000	16.031473
1184.000000	16.027050
1185.000000	16.024683
1186.000000	16.023517
1187.000000	16.022023
