PE UV       SUBTECH     SPECTRUM    ASCII       PEDS        4.00        
   -1
BIOUCR0025-3.Sample.ASC
24/02/20
14:15:33.00
24/02/20
14:15:33.00
Vinicio Soto Monge
P. resplendens 18 de Mayo de 1985 R.W. Volcan, Panama
250,000000
1
Lambda 1050
1050L1511233
PerkinElmer UV WinLab 6.3.2.0749 / 2.02.05 Lambda 900 UV/VIS/NIR, Aug  7 2015 09:38:08

0
0
3350/servo 860,8/2
0
0
UV/VIS
1
1
1
DoubleDePol,CommonBeamDepol,RBeamAtt,SBeamAtt,60mm sphere, WB InGaAs Detector
0
0
0
0
Program
Program
3350/servo 860,8/2
3350/0,2 860,8/0,2
3350/0,2 860,8/0,2
0
15.00
 
 
 
0
 
860,8
319,2
860,8
Front
100
on
S:100 R:100
0
0
0
0
 
0
 
 
 
0
 
 
0
0
0
0
0
 
 
 
 
0
0


0
0
#HDR
-1
-1
#GR
nm
%R
1.0
0.0
2500,000000
-1,000000
2251
8
22,736500
1,498200
#DATA

250.000000	nan
251.000000	nan
252.000000	nan
253.000000	nan
254.000000	nan
255.000000	nan
256.000000	nan
257.000000	nan
258.000000	nan
259.000000	1.912540
260.000000	1.908337
261.000000	1.906376
262.000000	1.898949
263.000000	1.900930
264.000000	1.899457
265.000000	1.896353
266.000000	1.892995
267.000000	1.890304
268.000000	1.884922
269.000000	1.882232
270.000000	1.878245
271.000000	1.873897
272.000000	1.870264
273.000000	1.864028
274.000000	1.858463
275.000000	1.852371
276.000000	1.846224
277.000000	1.841343
278.000000	1.840725
279.000000	1.836758
280.000000	1.835065
281.000000	1.833257
282.000000	1.832372
283.000000	1.829881
284.000000	1.832101
285.000000	1.829040
286.000000	1.830822
287.000000	1.828326
288.000000	1.827534
289.000000	1.828179
290.000000	1.828011
291.000000	1.826964
292.000000	1.826536
293.000000	1.824037
294.000000	1.818495
295.000000	1.815065
296.000000	1.814241
297.000000	1.814350
298.000000	1.815680
299.000000	1.811756
300.000000	1.810599
301.000000	1.810724
302.000000	1.812642
303.000000	1.811885
304.000000	1.812276
305.000000	1.814961
306.000000	1.811902
307.000000	1.809962
308.000000	1.807625
309.000000	1.806701
310.000000	1.806819
311.000000	1.805805
312.000000	1.800208
313.000000	1.798469
314.000000	1.794990
315.000000	1.800350
316.000000	1.813191
317.000000	1.902324
318.000000	1.982452
319.000000	2.053225
320.000000	2.102511
321.000000	2.149337
322.000000	2.197705
323.000000	2.238384
324.000000	2.291906
325.000000	2.324308
326.000000	2.352046
327.000000	2.318128
328.000000	2.267469
329.000000	2.229130
330.000000	2.215218
331.000000	2.204510
332.000000	2.188866
333.000000	2.169356
334.000000	2.151503
335.000000	2.138829
336.000000	2.122293
337.000000	2.084041
338.000000	2.070706
339.000000	2.056816
340.000000	2.037777
341.000000	2.020001
342.000000	2.015698
343.000000	2.010984
344.000000	1.993361
345.000000	1.982363
346.000000	1.964428
347.000000	1.963119
348.000000	1.960442
349.000000	1.954435
350.000000	1.941881
351.000000	1.928962
352.000000	1.905342
353.000000	1.891938
354.000000	1.880030
355.000000	1.868209
356.000000	1.867934
357.000000	1.856066
358.000000	1.850042
359.000000	1.839118
360.000000	1.834532
361.000000	1.833789
362.000000	1.831607
363.000000	1.826676
364.000000	1.816689
365.000000	1.814356
366.000000	1.812992
367.000000	1.803399
368.000000	1.791857
369.000000	1.784057
370.000000	1.763516
371.000000	1.738510
372.000000	1.712340
373.000000	1.686163
374.000000	1.655323
375.000000	1.627460
376.000000	1.613894
377.000000	1.601769
378.000000	1.587164
379.000000	1.577868
380.000000	1.581169
381.000000	1.585295
382.000000	1.594655
383.000000	1.608745
384.000000	1.631319
385.000000	1.647294
386.000000	1.645424
387.000000	1.653596
388.000000	1.662345
389.000000	1.671450
390.000000	1.680792
391.000000	1.691210
392.000000	1.702864
393.000000	1.715577
394.000000	1.730716
395.000000	1.747127
396.000000	1.764758
397.000000	1.783094
398.000000	1.802714
399.000000	1.824079
400.000000	1.847309
401.000000	1.872393
402.000000	1.899128
403.000000	1.928393
404.000000	1.958935
405.000000	1.990967
406.000000	2.024698
407.000000	2.061244
408.000000	2.099626
409.000000	2.140210
410.000000	2.182662
411.000000	2.226572
412.000000	2.272525
413.000000	2.320387
414.000000	2.369653
415.000000	2.419995
416.000000	2.472356
417.000000	2.525485
418.000000	2.579449
419.000000	2.634586
420.000000	2.690716
421.000000	2.747386
422.000000	2.804276
423.000000	2.861286
424.000000	2.918992
425.000000	2.977334
426.000000	3.034780
427.000000	3.092184
428.000000	3.149455
429.000000	3.206140
430.000000	3.262077
431.000000	3.317505
432.000000	3.372965
433.000000	3.428069
434.000000	3.481926
435.000000	3.534531
436.000000	3.586535
437.000000	3.637961
438.000000	3.688080
439.000000	3.736895
440.000000	3.785182
441.000000	3.832532
442.000000	3.877855
443.000000	3.921149
444.000000	3.962863
445.000000	4.003448
446.000000	4.043170
447.000000	4.080937
448.000000	4.116647
449.000000	4.150728
450.000000	4.182875
451.000000	4.213251
452.000000	4.242279
453.000000	4.270269
454.000000	4.297498
455.000000	4.323043
456.000000	4.346413
457.000000	4.368992
458.000000	4.391616
459.000000	4.414000
460.000000	4.436088
461.000000	4.458603
462.000000	4.481973
463.000000	4.506467
464.000000	4.532531
465.000000	4.561159
466.000000	4.592691
467.000000	4.626680
468.000000	4.663826
469.000000	4.704433
470.000000	4.748341
471.000000	4.796583
472.000000	4.849201
473.000000	4.906647
474.000000	4.968668
475.000000	5.034585
476.000000	5.104700
477.000000	5.180348
478.000000	5.261391
479.000000	5.346952
480.000000	5.435811
481.000000	5.525652
482.000000	5.617067
483.000000	5.710286
484.000000	5.807012
485.000000	5.908109
486.000000	6.012414
487.000000	6.118658
488.000000	6.226326
489.000000	6.335766
490.000000	6.448615
491.000000	6.565794
492.000000	6.685735
493.000000	6.808754
494.000000	6.933173
495.000000	7.057891
496.000000	7.183062
497.000000	7.309562
498.000000	7.438430
499.000000	7.570264
500.000000	7.704600
501.000000	7.842127
502.000000	7.984801
503.000000	8.131765
504.000000	8.283835
505.000000	8.442022
506.000000	8.606802
507.000000	8.777218
508.000000	8.953408
509.000000	9.135954
510.000000	9.324773
511.000000	9.519697
512.000000	9.719493
513.000000	9.924753
514.000000	10.133455
515.000000	10.343938
516.000000	10.556890
517.000000	10.772973
518.000000	10.989123
519.000000	11.204168
520.000000	11.418486
521.000000	11.631385
522.000000	11.842750
523.000000	12.051553
524.000000	12.258724
525.000000	12.465099
526.000000	12.669399
527.000000	12.871838
528.000000	13.072628
529.000000	13.271962
530.000000	13.469820
531.000000	13.665885
532.000000	13.860667
533.000000	14.052953
534.000000	14.242414
535.000000	14.428445
536.000000	14.610719
537.000000	14.787267
538.000000	14.957780
539.000000	15.122869
540.000000	15.281963
541.000000	15.435285
542.000000	15.582455
543.000000	15.723903
544.000000	15.859579
545.000000	15.989256
546.000000	16.113485
547.000000	16.233526
548.000000	16.349582
549.000000	16.462044
550.000000	16.569327
551.000000	16.671361
552.000000	16.768646
553.000000	16.861240
554.000000	16.947104
555.000000	17.027344
556.000000	17.100091
557.000000	17.165895
558.000000	17.224878
559.000000	17.276464
560.000000	17.280283
561.000000	17.271273
562.000000	17.252955
563.000000	17.225593
564.000000	17.192683
565.000000	17.153775
566.000000	17.109626
567.000000	17.062426
568.000000	17.011187
569.000000	16.955152
570.000000	16.936035
571.000000	16.920853
572.000000	16.904448
573.000000	16.886792
574.000000	16.866747
575.000000	16.843076
576.000000	16.817996
577.000000	16.788499
578.000000	16.756079
579.000000	16.720848
580.000000	16.681429
581.000000	16.638074
582.000000	16.590366
583.000000	16.538782
584.000000	16.483433
585.000000	16.424148
586.000000	16.360752
587.000000	16.295153
588.000000	16.228859
589.000000	16.159590
590.000000	16.091413
591.000000	16.021422
592.000000	15.950595
593.000000	15.880250
594.000000	15.811699
595.000000	15.747454
596.000000	15.685884
597.000000	15.625850
598.000000	15.566837
599.000000	15.511448
600.000000	15.458040
601.000000	15.409189
602.000000	15.362863
603.000000	15.319184
604.000000	15.278023
605.000000	15.237489
606.000000	15.196074
607.000000	15.155848
608.000000	15.116083
609.000000	15.073590
610.000000	15.029077
611.000000	14.982594
612.000000	14.933785
613.000000	14.881872
614.000000	14.825735
615.000000	14.766419
616.000000	14.706133
617.000000	14.643781
618.000000	14.578989
619.000000	14.515618
620.000000	14.453471
621.000000	14.391907
622.000000	14.334404
623.000000	14.280328
624.000000	14.232524
625.000000	14.193179
626.000000	14.161305
627.000000	14.137408
628.000000	14.123765
629.000000	14.120808
630.000000	14.128069
631.000000	14.146091
632.000000	14.173198
633.000000	14.210723
634.000000	14.256741
635.000000	14.309673
636.000000	14.370154
637.000000	14.436922
638.000000	14.508366
639.000000	14.584122
640.000000	14.662358
641.000000	14.740388
642.000000	14.818205
643.000000	14.895445
644.000000	14.969736
645.000000	15.039724
646.000000	15.106408
647.000000	15.167203
648.000000	15.223050
649.000000	15.272642
650.000000	15.316742
651.000000	15.355414
652.000000	15.389282
653.000000	15.417205
654.000000	15.439133
655.000000	15.458181
656.000000	15.474964
657.000000	15.489133
658.000000	15.501067
659.000000	15.511097
660.000000	15.521850
661.000000	15.535675
662.000000	15.554562
663.000000	15.579385
664.000000	15.611189
665.000000	15.647708
666.000000	15.688008
667.000000	15.738065
668.000000	15.796647
669.000000	15.863620
670.000000	15.938725
671.000000	16.019002
672.000000	16.104128
673.000000	16.193779
674.000000	16.288263
675.000000	16.387249
676.000000	16.491059
677.000000	16.594128
678.000000	16.695861
679.000000	16.796775
680.000000	16.895777
681.000000	16.994682
682.000000	17.090993
683.000000	17.184401
684.000000	17.274265
685.000000	17.359126
686.000000	17.438555
687.000000	17.514783
688.000000	17.588182
689.000000	17.658438
690.000000	17.724562
691.000000	17.785581
692.000000	17.842231
693.000000	17.895887
694.000000	17.945974
695.000000	17.993408
696.000000	18.039548
697.000000	18.084247
698.000000	18.128599
699.000000	18.175231
700.000000	18.223752
701.000000	18.275517
702.000000	18.333148
703.000000	18.394539
704.000000	18.459995
705.000000	18.530370
706.000000	18.608264
707.000000	18.694354
708.000000	18.784788
709.000000	18.876858
710.000000	18.973309
711.000000	19.075178
712.000000	19.180095
713.000000	19.289245
714.000000	19.401707
715.000000	19.516326
716.000000	19.630125
717.000000	19.741671
718.000000	19.855784
719.000000	19.970994
720.000000	20.083911
721.000000	20.193115
722.000000	20.299655
723.000000	20.401820
724.000000	20.500759
725.000000	20.597843
726.000000	20.693189
727.000000	20.783757
728.000000	20.867055
729.000000	20.945089
730.000000	21.020076
731.000000	21.090709
732.000000	21.156437
733.000000	21.217651
734.000000	21.273411
735.000000	21.321628
736.000000	21.363343
737.000000	21.402304
738.000000	21.440278
739.000000	21.476188
740.000000	21.507055
741.000000	21.534358
742.000000	21.558319
743.000000	21.580296
744.000000	21.600668
745.000000	21.621627
746.000000	21.642924
747.000000	21.665378
748.000000	21.687675
749.000000	21.709716
750.000000	21.734254
751.000000	21.761297
752.000000	21.791070
753.000000	21.820356
754.000000	21.851140
755.000000	21.886898
756.000000	21.925817
757.000000	21.963360
758.000000	22.000307
759.000000	22.038510
760.000000	22.077788
761.000000	22.118851
762.000000	22.158789
763.000000	22.201347
764.000000	22.246899
765.000000	22.290056
766.000000	22.326672
767.000000	22.361830
768.000000	22.397723
769.000000	22.430939
770.000000	22.458049
771.000000	22.477676
772.000000	22.493851
773.000000	22.505996
774.000000	22.511627
775.000000	22.513897
776.000000	22.513831
777.000000	22.508591
778.000000	22.497619
779.000000	22.483283
780.000000	22.468982
781.000000	22.451090
782.000000	22.431660
783.000000	22.408250
784.000000	22.380640
785.000000	22.348512
786.000000	22.311557
787.000000	22.272431
788.000000	22.229614
789.000000	22.184890
790.000000	22.137261
791.000000	22.089506
792.000000	22.037000
793.000000	21.982752
794.000000	21.929970
795.000000	21.872772
796.000000	21.819226
797.000000	21.769309
798.000000	21.717508
799.000000	21.661385
800.000000	21.606781
801.000000	21.550723
802.000000	21.494962
803.000000	21.436407
804.000000	21.380370
805.000000	21.328761
806.000000	21.277879
807.000000	21.223840
808.000000	21.179703
809.000000	21.138791
810.000000	21.100791
811.000000	21.062601
812.000000	21.026519
813.000000	20.989986
814.000000	20.948712
815.000000	20.909310
816.000000	20.867301
817.000000	20.826476
818.000000	20.773455
819.000000	20.723596
820.000000	20.665858
821.000000	20.609855
822.000000	20.552643
823.000000	20.498517
824.000000	20.440676
825.000000	20.375250
826.000000	20.304267
827.000000	20.226572
828.000000	20.149561
829.000000	20.069258
830.000000	19.987059
831.000000	19.900255
832.000000	19.812189
833.000000	19.715976
834.000000	19.630042
835.000000	19.545788
836.000000	19.459624
837.000000	19.368040
838.000000	19.274348
839.000000	19.181982
840.000000	19.091049
841.000000	19.000158
842.000000	18.912934
843.000000	18.827215
844.000000	18.728427
845.000000	18.627362
846.000000	18.526716
847.000000	18.436134
848.000000	18.351223
849.000000	18.248003
850.000000	18.160489
851.000000	18.059429
852.000000	17.954092
853.000000	17.867061
854.000000	17.784693
855.000000	17.698251
856.000000	17.626853
857.000000	17.587250
858.000000	17.565817
859.000000	17.593173
860.000000	17.606577
861.000000	17.640282
862.000000	17.678129
863.000000	17.709228
864.000000	17.749940
865.000000	17.807141
866.000000	17.862160
867.000000	17.892686
868.000000	17.911043
869.000000	17.902260
870.000000	17.900093
871.000000	17.899553
872.000000	17.900460
873.000000	17.898867
874.000000	17.893793
875.000000	17.884117
876.000000	17.871933
877.000000	17.856917
878.000000	17.841930
879.000000	17.824050
880.000000	17.803523
881.000000	17.781677
882.000000	17.759253
883.000000	17.738747
884.000000	17.718073
885.000000	17.697797
886.000000	17.677887
887.000000	17.660207
888.000000	17.640490
889.000000	17.619963
890.000000	17.599047
891.000000	17.581663
892.000000	17.564840
893.000000	17.548690
894.000000	17.533323
895.000000	17.518700
896.000000	17.504823
897.000000	17.490087
898.000000	17.475153
899.000000	17.462610
900.000000	17.452387
901.000000	17.442520
902.000000	17.433243
903.000000	17.422977
904.000000	17.411520
905.000000	17.401497
906.000000	17.390940
907.000000	17.381913
908.000000	17.373990
909.000000	17.365713
910.000000	17.356723
911.000000	17.343740
912.000000	17.329327
913.000000	17.316870
914.000000	17.306103
915.000000	17.292303
916.000000	17.279230
917.000000	17.263570
918.000000	17.246020
919.000000	17.228980
920.000000	17.211910
921.000000	17.194643
922.000000	17.179063
923.000000	17.161213
924.000000	17.141587
925.000000	17.121897
926.000000	17.099913
927.000000	17.079410
928.000000	17.060697
929.000000	17.039073
930.000000	17.016840
931.000000	16.997453
932.000000	16.977133
933.000000	16.958823
934.000000	16.943397
935.000000	16.931517
936.000000	16.922077
937.000000	16.912290
938.000000	16.903537
939.000000	16.898633
940.000000	16.894083
941.000000	16.889000
942.000000	16.884940
943.000000	16.882563
944.000000	16.879633
945.000000	16.877283
946.000000	16.876520
947.000000	16.877107
948.000000	16.877557
949.000000	16.881260
950.000000	16.887630
951.000000	16.896607
952.000000	16.906950
953.000000	16.916480
954.000000	16.927507
955.000000	16.939233
956.000000	16.951040
957.000000	16.962810
958.000000	16.976117
959.000000	16.988983
960.000000	17.001657
961.000000	17.013923
962.000000	17.025807
963.000000	17.037753
964.000000	17.050207
965.000000	17.063327
966.000000	17.076013
967.000000	17.089420
968.000000	17.102803
969.000000	17.115093
970.000000	17.127907
971.000000	17.140223
972.000000	17.153513
973.000000	17.167923
974.000000	17.182170
975.000000	17.194597
976.000000	17.208757
977.000000	17.223607
978.000000	17.239150
979.000000	17.254927
980.000000	17.270893
981.000000	17.287633
982.000000	17.305337
983.000000	17.323103
984.000000	17.340153
985.000000	17.357680
986.000000	17.374607
987.000000	17.392113
988.000000	17.409873
989.000000	17.428643
990.000000	17.447297
991.000000	17.465840
992.000000	17.484497
993.000000	17.503653
994.000000	17.524880
995.000000	17.547290
996.000000	17.569430
997.000000	17.591930
998.000000	17.615087
999.000000	17.637183
1000.000000	17.659333
1001.000000	17.682230
1002.000000	17.704787
1003.000000	17.726473
1004.000000	17.748223
1005.000000	17.770190
1006.000000	17.793430
1007.000000	17.816247
1008.000000	17.837020
1009.000000	17.858797
1010.000000	17.881393
1011.000000	17.904663
1012.000000	17.928840
1013.000000	17.952773
1014.000000	17.974437
1015.000000	17.996833
1016.000000	18.019383
1017.000000	18.040470
1018.000000	18.062677
1019.000000	18.085227
1020.000000	18.107913
1021.000000	18.130763
1022.000000	18.153697
1023.000000	18.177727
1024.000000	18.202127
1025.000000	18.224873
1026.000000	18.247367
1027.000000	18.270607
1028.000000	18.294377
1029.000000	18.318123
1030.000000	18.340947
1031.000000	18.362940
1032.000000	18.383887
1033.000000	18.403560
1034.000000	18.424973
1035.000000	18.446573
1036.000000	18.467603
1037.000000	18.488707
1038.000000	18.508147
1039.000000	18.526873
1040.000000	18.546507
1041.000000	18.567027
1042.000000	18.588163
1043.000000	18.609183
1044.000000	18.629087
1045.000000	18.648917
1046.000000	18.668243
1047.000000	18.686933
1048.000000	18.706377
1049.000000	18.727100
1050.000000	18.746717
1051.000000	18.764440
1052.000000	18.781547
1053.000000	18.799633
1054.000000	18.818427
1055.000000	18.837657
1056.000000	18.856587
1057.000000	18.875637
1058.000000	18.896143
1059.000000	18.915920
1060.000000	18.936037
1061.000000	18.956570
1062.000000	18.976080
1063.000000	18.995553
1064.000000	19.014310
1065.000000	19.032293
1066.000000	19.052443
1067.000000	19.073040
1068.000000	19.092857
1069.000000	19.112290
1070.000000	19.133243
1071.000000	19.155123
1072.000000	19.177543
1073.000000	19.199143
1074.000000	19.220623
1075.000000	19.242910
1076.000000	19.265507
1077.000000	19.289427
1078.000000	19.311103
1079.000000	19.333020
1080.000000	19.354330
1081.000000	19.375437
1082.000000	19.396983
1083.000000	19.417130
1084.000000	19.436497
1085.000000	19.455940
1086.000000	19.473660
1087.000000	19.489497
1088.000000	19.506607
1089.000000	19.522403
1090.000000	19.537033
1091.000000	19.550940
1092.000000	19.565563
1093.000000	19.580093
1094.000000	19.593297
1095.000000	19.605413
1096.000000	19.617867
1097.000000	19.630190
1098.000000	19.641610
1099.000000	19.652197
1100.000000	19.662397
1101.000000	19.673463
1102.000000	19.682260
1103.000000	19.689913
1104.000000	19.699213
1105.000000	19.708210
1106.000000	19.715120
1107.000000	19.721327
1108.000000	19.728067
1109.000000	19.734860
1110.000000	19.741750
1111.000000	19.746657
1112.000000	19.751743
1113.000000	19.757777
1114.000000	19.762590
1115.000000	19.767207
1116.000000	19.773477
1117.000000	19.779350
1118.000000	19.785760
1119.000000	19.791840
1120.000000	19.796643
1121.000000	19.800430
1122.000000	19.805400
1123.000000	19.813000
1124.000000	19.820170
1125.000000	19.824933
1126.000000	19.826830
1127.000000	19.828027
1128.000000	19.826750
1129.000000	19.827200
1130.000000	19.829013
1131.000000	19.828713
1132.000000	19.822337
1133.000000	19.808813
1134.000000	19.796103
1135.000000	19.787733
1136.000000	19.783200
1137.000000	19.775947
1138.000000	19.764880
1139.000000	19.750193
1140.000000	19.732707
1141.000000	19.718027
1142.000000	19.704943
1143.000000	19.696663
1144.000000	19.685607
1145.000000	19.672967
1146.000000	19.656693
1147.000000	19.642603
1148.000000	19.633763
1149.000000	19.624850
1150.000000	19.617350
1151.000000	19.609713
1152.000000	19.602713
1153.000000	19.594050
1154.000000	19.587107
1155.000000	19.576167
1156.000000	19.564310
1157.000000	19.551540
1158.000000	19.534260
1159.000000	19.515263
1160.000000	19.493480
1161.000000	19.467850
1162.000000	19.440950
1163.000000	19.410740
1164.000000	19.378963
1165.000000	19.347370
1166.000000	19.313440
1167.000000	19.276070
1168.000000	19.240553
1169.000000	19.205410
1170.000000	19.169840
1171.000000	19.136543
1172.000000	19.104953
