PE UV       SUBTECH     SPECTRUM    ASCII       PEDS        4.00        
   -1
BIOUCR0017-3.Sample.ASC
24/02/19
16:35:13.00
24/02/19
16:35:13.00
Vinicio Soto Monge
P. resplendens (sin datos)
250,000000
1
Lambda 1050
1050L1511233
PerkinElmer UV WinLab 6.3.2.0749 / 2.02.05 Lambda 900 UV/VIS/NIR, Aug  7 2015 09:38:08

0
0
3350/servo 860,8/2
0
0
UV/VIS
1
1
1
DoubleDePol,CommonBeamDepol,RBeamAtt,SBeamAtt,60mm sphere, WB InGaAs Detector
0
0
0
0
Program
Program
3350/servo 860,8/2
3350/0,2 860,8/0,2
3350/0,2 860,8/0,2
0
15.00
 
 
 
0
 
860,8
319,2
860,8
Front
100
on
S:100 R:100
0
0
0
0
 
0
 
 
 
0
 
 
0
0
0
0
0
 
 
 
 
0
0


0
0
#HDR
-1
-1
#GR
nm
%R
1.0
0.0
2500,000000
-1,000000
2251
8
22,577600
1,430900
#DATA

250.000000	nan
251.000000	nan
252.000000	nan
253.000000	nan
254.000000	nan
255.000000	nan
256.000000	nan
257.000000	nan
258.000000	nan
259.000000	2.094615
260.000000	2.090782
261.000000	2.087041
262.000000	2.083107
263.000000	2.077555
264.000000	2.076725
265.000000	2.073970
266.000000	2.070761
267.000000	2.067580
268.000000	2.064488
269.000000	2.058980
270.000000	2.052849
271.000000	2.044816
272.000000	2.035240
273.000000	2.030703
274.000000	2.022473
275.000000	2.015110
276.000000	2.005375
277.000000	2.001003
278.000000	1.998591
279.000000	1.991609
280.000000	1.986832
281.000000	1.983672
282.000000	1.980743
283.000000	1.978493
284.000000	1.977918
285.000000	1.976380
286.000000	1.977097
287.000000	1.975111
288.000000	1.971047
289.000000	1.970959
290.000000	1.969259
291.000000	1.964368
292.000000	1.964484
293.000000	1.960909
294.000000	1.955398
295.000000	1.950762
296.000000	1.948077
297.000000	1.945174
298.000000	1.943199
299.000000	1.941550
300.000000	1.941003
301.000000	1.944630
302.000000	1.941846
303.000000	1.943220
304.000000	1.944906
305.000000	1.946407
306.000000	1.944911
307.000000	1.946552
308.000000	1.948719
309.000000	1.949451
310.000000	1.950179
311.000000	1.949596
312.000000	1.949996
313.000000	1.950499
314.000000	1.952649
315.000000	1.954376
316.000000	1.963230
317.000000	2.024470
318.000000	2.065076
319.000000	2.104888
320.000000	2.155324
321.000000	2.189289
322.000000	2.234844
323.000000	2.260608
324.000000	2.287761
325.000000	2.308639
326.000000	2.344401
327.000000	2.314126
328.000000	2.288046
329.000000	2.271592
330.000000	2.248083
331.000000	2.239222
332.000000	2.222481
333.000000	2.213585
334.000000	2.192513
335.000000	2.182688
336.000000	2.158408
337.000000	2.142051
338.000000	2.146404
339.000000	2.141451
340.000000	2.123138
341.000000	2.113123
342.000000	2.094843
343.000000	2.096888
344.000000	2.099683
345.000000	2.098836
346.000000	2.096704
347.000000	2.094322
348.000000	2.082535
349.000000	2.079752
350.000000	2.082790
351.000000	2.082526
352.000000	2.085532
353.000000	2.072873
354.000000	2.071748
355.000000	2.069320
356.000000	2.059673
357.000000	2.058774
358.000000	2.066047
359.000000	2.063863
360.000000	2.060449
361.000000	2.054022
362.000000	2.048496
363.000000	2.048679
364.000000	2.049395
365.000000	2.048412
366.000000	2.049482
367.000000	2.038830
368.000000	2.024178
369.000000	2.010782
370.000000	2.000224
371.000000	1.986841
372.000000	1.973888
373.000000	1.954482
374.000000	1.922974
375.000000	1.901088
376.000000	1.892285
377.000000	1.879352
378.000000	1.869326
379.000000	1.862178
380.000000	1.856076
381.000000	1.853604
382.000000	1.854494
383.000000	1.862197
384.000000	1.881120
385.000000	1.894138
386.000000	1.896160
387.000000	1.907525
388.000000	1.919780
389.000000	1.932659
390.000000	1.947274
391.000000	1.962487
392.000000	1.978909
393.000000	1.996028
394.000000	2.014258
395.000000	2.033586
396.000000	2.054994
397.000000	2.077245
398.000000	2.100413
399.000000	2.124947
400.000000	2.150486
401.000000	2.178039
402.000000	2.207544
403.000000	2.237171
404.000000	2.267731
405.000000	2.299567
406.000000	2.332463
407.000000	2.366624
408.000000	2.401730
409.000000	2.437684
410.000000	2.473945
411.000000	2.510420
412.000000	2.546973
413.000000	2.584854
414.000000	2.623803
415.000000	2.663686
416.000000	2.703674
417.000000	2.743589
418.000000	2.783928
419.000000	2.823603
420.000000	2.863477
421.000000	2.904321
422.000000	2.945084
423.000000	2.985703
424.000000	3.025994
425.000000	3.065417
426.000000	3.104589
427.000000	3.143201
428.000000	3.180562
429.000000	3.217398
430.000000	3.254026
431.000000	3.289305
432.000000	3.323839
433.000000	3.357419
434.000000	3.389908
435.000000	3.421319
436.000000	3.451689
437.000000	3.481122
438.000000	3.509562
439.000000	3.537274
440.000000	3.563151
441.000000	3.587345
442.000000	3.609802
443.000000	3.630651
444.000000	3.650147
445.000000	3.668097
446.000000	3.684498
447.000000	3.699851
448.000000	3.714569
449.000000	3.728319
450.000000	3.741813
451.000000	3.755109
452.000000	3.768199
453.000000	3.781304
454.000000	3.795109
455.000000	3.810158
456.000000	3.826383
457.000000	3.844444
458.000000	3.864188
459.000000	3.886079
460.000000	3.910831
461.000000	3.938830
462.000000	3.970291
463.000000	4.005559
464.000000	4.044505
465.000000	4.087083
466.000000	4.133238
467.000000	4.182425
468.000000	4.235795
469.000000	4.292751
470.000000	4.352365
471.000000	4.413944
472.000000	4.477070
473.000000	4.541532
474.000000	4.606954
475.000000	4.672661
476.000000	4.737772
477.000000	4.802035
478.000000	4.864768
479.000000	4.925937
480.000000	4.984298
481.000000	5.039362
482.000000	5.091650
483.000000	5.142077
484.000000	5.190956
485.000000	5.239096
486.000000	5.288193
487.000000	5.338152
488.000000	5.388647
489.000000	5.441052
490.000000	5.497185
491.000000	5.558122
492.000000	5.623715
493.000000	5.693970
494.000000	5.768287
495.000000	5.846970
496.000000	5.931092
497.000000	6.020627
498.000000	6.116579
499.000000	6.217854
500.000000	6.325081
501.000000	6.438776
502.000000	6.559198
503.000000	6.685864
504.000000	6.818544
505.000000	6.957357
506.000000	7.100528
507.000000	7.248076
508.000000	7.398868
509.000000	7.553277
510.000000	7.709566
511.000000	7.867595
512.000000	8.026069
513.000000	8.184716
514.000000	8.344410
515.000000	8.503779
516.000000	8.663339
517.000000	8.822288
518.000000	8.980697
519.000000	9.139564
520.000000	9.299491
521.000000	9.459984
522.000000	9.622745
523.000000	9.786789
524.000000	9.952796
525.000000	10.121903
526.000000	10.293756
527.000000	10.468833
528.000000	10.647669
529.000000	10.827986
530.000000	11.009097
531.000000	11.191745
532.000000	11.375118
533.000000	11.559138
534.000000	11.743130
535.000000	11.925737
536.000000	12.105501
537.000000	12.282854
538.000000	12.456912
539.000000	12.629503
540.000000	12.801053
541.000000	12.970384
542.000000	13.136308
543.000000	13.300250
544.000000	13.461552
545.000000	13.620901
546.000000	13.778475
547.000000	13.933273
548.000000	14.085503
549.000000	14.233676
550.000000	14.376585
551.000000	14.514692
552.000000	14.648210
553.000000	14.775850
554.000000	14.897129
555.000000	15.011355
556.000000	15.118764
557.000000	15.221160
558.000000	15.317754
559.000000	15.408253
560.000000	15.455972
561.000000	15.492605
562.000000	15.525101
563.000000	15.552099
564.000000	15.575203
565.000000	15.594537
566.000000	15.610154
567.000000	15.621591
568.000000	15.628844
569.000000	15.632566
570.000000	15.668893
571.000000	15.706517
572.000000	15.739165
573.000000	15.768030
574.000000	15.790795
575.000000	15.808344
576.000000	15.819400
577.000000	15.823830
578.000000	15.821858
579.000000	15.813182
580.000000	15.799384
581.000000	15.780159
582.000000	15.755216
583.000000	15.725486
584.000000	15.692194
585.000000	15.654490
586.000000	15.614752
587.000000	15.573751
588.000000	15.530461
589.000000	15.486055
590.000000	15.440861
591.000000	15.394695
592.000000	15.347082
593.000000	15.297897
594.000000	15.247229
595.000000	15.195102
596.000000	15.141165
597.000000	15.084113
598.000000	15.024338
599.000000	14.961161
600.000000	14.892956
601.000000	14.821032
602.000000	14.743903
603.000000	14.663811
604.000000	14.580125
605.000000	14.492358
606.000000	14.402664
607.000000	14.308632
608.000000	14.213412
609.000000	14.115079
610.000000	14.017517
611.000000	13.918679
612.000000	13.821910
613.000000	13.725404
614.000000	13.631297
615.000000	13.539862
616.000000	13.449884
617.000000	13.365463
618.000000	13.284801
619.000000	13.211231
620.000000	13.143559
621.000000	13.082051
622.000000	13.027389
623.000000	12.979452
624.000000	12.938323
625.000000	12.903843
626.000000	12.875051
627.000000	12.853821
628.000000	12.839887
629.000000	12.831343
630.000000	12.827089
631.000000	12.828530
632.000000	12.834041
633.000000	12.844172
634.000000	12.856251
635.000000	12.873463
636.000000	12.895447
637.000000	12.917923
638.000000	12.942757
639.000000	12.969682
640.000000	12.999900
641.000000	13.031986
642.000000	13.068145
643.000000	13.107383
644.000000	13.151183
645.000000	13.198601
646.000000	13.251144
647.000000	13.307994
648.000000	13.368935
649.000000	13.434484
650.000000	13.505842
651.000000	13.581981
652.000000	13.661020
653.000000	13.744355
654.000000	13.830522
655.000000	13.919200
656.000000	14.008774
657.000000	14.100581
658.000000	14.192068
659.000000	14.282874
660.000000	14.370557
661.000000	14.455691
662.000000	14.538566
663.000000	14.615923
664.000000	14.689377
665.000000	14.756107
666.000000	14.816919
667.000000	14.871470
668.000000	14.921277
669.000000	14.964944
670.000000	15.001691
671.000000	15.032509
672.000000	15.058771
673.000000	15.081720
674.000000	15.098831
675.000000	15.113089
676.000000	15.125230
677.000000	15.134697
678.000000	15.141203
679.000000	15.147404
680.000000	15.154663
681.000000	15.164387
682.000000	15.175952
683.000000	15.190446
684.000000	15.210154
685.000000	15.234834
686.000000	15.262822
687.000000	15.298797
688.000000	15.341397
689.000000	15.391795
690.000000	15.448941
691.000000	15.511372
692.000000	15.580196
693.000000	15.655069
694.000000	15.735462
695.000000	15.820459
696.000000	15.910871
697.000000	16.003005
698.000000	16.099184
699.000000	16.197707
700.000000	16.297849
701.000000	16.399468
702.000000	16.499976
703.000000	16.599370
704.000000	16.697578
705.000000	16.795304
706.000000	16.891377
707.000000	16.986380
708.000000	17.080064
709.000000	17.173526
710.000000	17.267181
711.000000	17.359969
712.000000	17.451811
713.000000	17.542819
714.000000	17.634685
715.000000	17.727039
716.000000	17.820538
717.000000	17.914958
718.000000	18.009710
719.000000	18.104266
720.000000	18.199305
721.000000	18.296667
722.000000	18.395955
723.000000	18.496817
724.000000	18.599367
725.000000	18.704685
726.000000	18.811463
727.000000	18.918367
728.000000	19.026645
729.000000	19.135044
730.000000	19.243673
731.000000	19.352747
732.000000	19.461941
733.000000	19.570673
734.000000	19.678179
735.000000	19.783652
736.000000	19.886907
737.000000	19.989732
738.000000	20.092055
739.000000	20.193418
740.000000	20.292674
741.000000	20.387313
742.000000	20.478425
743.000000	20.567725
744.000000	20.651664
745.000000	20.727490
746.000000	20.799981
747.000000	20.867730
748.000000	20.929454
749.000000	20.986095
750.000000	21.036052
751.000000	21.082427
752.000000	21.126307
753.000000	21.162870
754.000000	21.195500
755.000000	21.228424
756.000000	21.257246
757.000000	21.283166
758.000000	21.305509
759.000000	21.321382
760.000000	21.334024
761.000000	21.344037
762.000000	21.350485
763.000000	21.353941
764.000000	21.356109
765.000000	21.357563
766.000000	21.354830
767.000000	21.348251
768.000000	21.339773
769.000000	21.333856
770.000000	21.329972
771.000000	21.325913
772.000000	21.322274
773.000000	21.320096
774.000000	21.316649
775.000000	21.309607
776.000000	21.304196
777.000000	21.302891
778.000000	21.304253
779.000000	21.301069
780.000000	21.296678
781.000000	21.293674
782.000000	21.288892
783.000000	21.281380
784.000000	21.273419
785.000000	21.269596
786.000000	21.268345
787.000000	21.263046
788.000000	21.258146
789.000000	21.257462
790.000000	21.257335
791.000000	21.255007
792.000000	21.251927
793.000000	21.254934
794.000000	21.260389
795.000000	21.266285
796.000000	21.268894
797.000000	21.273213
798.000000	21.278776
799.000000	21.287673
800.000000	21.296955
801.000000	21.306876
802.000000	21.320904
803.000000	21.330133
804.000000	21.341994
805.000000	21.356493
806.000000	21.373620
807.000000	21.395734
808.000000	21.422483
809.000000	21.445695
810.000000	21.473134
811.000000	21.502421
812.000000	21.527544
813.000000	21.556371
814.000000	21.582830
815.000000	21.604971
816.000000	21.625757
817.000000	21.642537
818.000000	21.652868
819.000000	21.655249
820.000000	21.654221
821.000000	21.648454
822.000000	21.641834
823.000000	21.633151
824.000000	21.618918
825.000000	21.600378
826.000000	21.578889
827.000000	21.547794
828.000000	21.510691
829.000000	21.473244
830.000000	21.427975
831.000000	21.374959
832.000000	21.318511
833.000000	21.259619
834.000000	21.203630
835.000000	21.141214
836.000000	21.081194
837.000000	21.021228
838.000000	20.940300
839.000000	20.857388
840.000000	20.782986
841.000000	20.712114
842.000000	20.633347
843.000000	20.549619
844.000000	20.460273
845.000000	20.373540
846.000000	20.271517
847.000000	20.168160
848.000000	20.081952
849.000000	20.004095
850.000000	19.910408
851.000000	19.823357
852.000000	19.750466
853.000000	19.668111
854.000000	19.586799
855.000000	19.494805
856.000000	19.414167
857.000000	19.365851
858.000000	19.461773
859.000000	19.468344
860.000000	19.485902
861.000000	19.502664
862.000000	19.516071
863.000000	19.544100
864.000000	19.577073
865.000000	19.625007
866.000000	19.676298
867.000000	19.703783
868.000000	19.592640
869.000000	19.571913
870.000000	19.550457
871.000000	19.527613
872.000000	19.505767
873.000000	19.485437
874.000000	19.465330
875.000000	19.446260
876.000000	19.428077
877.000000	19.411420
878.000000	19.397720
879.000000	19.383653
880.000000	19.374180
881.000000	19.366057
882.000000	19.360467
883.000000	19.355127
884.000000	19.349960
885.000000	19.345657
886.000000	19.343393
887.000000	19.340510
888.000000	19.338397
889.000000	19.336000
890.000000	19.332437
891.000000	19.329593
892.000000	19.324787
893.000000	19.320160
894.000000	19.317253
895.000000	19.314490
896.000000	19.310987
897.000000	19.308067
898.000000	19.303990
899.000000	19.301327
900.000000	19.298003
901.000000	19.296017
902.000000	19.295647
903.000000	19.296723
904.000000	19.297177
905.000000	19.299537
906.000000	19.300937
907.000000	19.301260
908.000000	19.301000
909.000000	19.301330
910.000000	19.302500
911.000000	19.301393
912.000000	19.298360
913.000000	19.293723
914.000000	19.290770
915.000000	19.285567
916.000000	19.280610
917.000000	19.274860
918.000000	19.266180
919.000000	19.256400
920.000000	19.246390
921.000000	19.236237
922.000000	19.226873
923.000000	19.217647
924.000000	19.204633
925.000000	19.188937
926.000000	19.171320
927.000000	19.153947
928.000000	19.138217
929.000000	19.120190
930.000000	19.101190
931.000000	19.081670
932.000000	19.059233
933.000000	19.036277
934.000000	19.014753
935.000000	18.997150
936.000000	18.979267
937.000000	18.961740
938.000000	18.945800
939.000000	18.930143
940.000000	18.913853
941.000000	18.895910
942.000000	18.880510
943.000000	18.863830
944.000000	18.846053
945.000000	18.825393
946.000000	18.806887
947.000000	18.787820
948.000000	18.767253
949.000000	18.747603
950.000000	18.727127
951.000000	18.709317
952.000000	18.692313
953.000000	18.677077
954.000000	18.661317
955.000000	18.645263
956.000000	18.627227
957.000000	18.610757
958.000000	18.595143
959.000000	18.577990
960.000000	18.561053
961.000000	18.543113
962.000000	18.524607
963.000000	18.505100
964.000000	18.485243
965.000000	18.464863
966.000000	18.443893
967.000000	18.421167
968.000000	18.397200
969.000000	18.374817
970.000000	18.351653
971.000000	18.326553
972.000000	18.300353
973.000000	18.274320
974.000000	18.249340
975.000000	18.225120
976.000000	18.201250
977.000000	18.178127
978.000000	18.154453
979.000000	18.130443
980.000000	18.107527
981.000000	18.086507
982.000000	18.064880
983.000000	18.044577
984.000000	18.024383
985.000000	18.004140
986.000000	17.984383
987.000000	17.963650
988.000000	17.943727
989.000000	17.924447
990.000000	17.907223
991.000000	17.890170
992.000000	17.873437
993.000000	17.855523
994.000000	17.837760
995.000000	17.821000
996.000000	17.806130
997.000000	17.792357
998.000000	17.779717
999.000000	17.767880
1000.000000	17.755067
1001.000000	17.744297
1002.000000	17.734923
1003.000000	17.726717
1004.000000	17.720347
1005.000000	17.714247
1006.000000	17.707753
1007.000000	17.702573
1008.000000	17.697877
1009.000000	17.692977
1010.000000	17.688997
1011.000000	17.685353
1012.000000	17.682343
1013.000000	17.679660
1014.000000	17.677340
1015.000000	17.677030
1016.000000	17.677270
1017.000000	17.677253
1018.000000	17.678327
1019.000000	17.680250
1020.000000	17.682177
1021.000000	17.684767
1022.000000	17.689163
1023.000000	17.694850
1024.000000	17.700533
1025.000000	17.705623
1026.000000	17.711270
1027.000000	17.719337
1028.000000	17.727057
1029.000000	17.734293
1030.000000	17.742730
1031.000000	17.750380
1032.000000	17.758043
1033.000000	17.767067
1034.000000	17.776400
1035.000000	17.785950
1036.000000	17.795757
1037.000000	17.804090
1038.000000	17.813233
1039.000000	17.823893
1040.000000	17.834487
1041.000000	17.844930
1042.000000	17.854993
1043.000000	17.864447
1044.000000	17.873863
1045.000000	17.884713
1046.000000	17.895737
1047.000000	17.906400
1048.000000	17.916340
1049.000000	17.926447
1050.000000	17.937227
1051.000000	17.948970
1052.000000	17.960570
1053.000000	17.971817
1054.000000	17.982207
1055.000000	17.991453
1056.000000	18.001173
1057.000000	18.011937
1058.000000	18.023443
1059.000000	18.034457
1060.000000	18.045437
1061.000000	18.057227
1062.000000	18.070007
1063.000000	18.082420
1064.000000	18.095337
1065.000000	18.108733
1066.000000	18.122843
1067.000000	18.136910
1068.000000	18.151323
1069.000000	18.166437
1070.000000	18.181587
1071.000000	18.196953
1072.000000	18.211560
1073.000000	18.226883
1074.000000	18.242320
1075.000000	18.257477
1076.000000	18.271533
1077.000000	18.286890
1078.000000	18.302193
1079.000000	18.316557
1080.000000	18.330913
1081.000000	18.342973
1082.000000	18.353937
1083.000000	18.364760
1084.000000	18.376573
1085.000000	18.388833
1086.000000	18.400757
1087.000000	18.410993
1088.000000	18.421183
1089.000000	18.431970
1090.000000	18.441470
1091.000000	18.452913
1092.000000	18.464933
1093.000000	18.477100
1094.000000	18.488240
1095.000000	18.500650
1096.000000	18.512267
1097.000000	18.523523
1098.000000	18.534207
1099.000000	18.544997
1100.000000	18.556800
1101.000000	18.567470
1102.000000	18.578167
1103.000000	18.588003
1104.000000	18.597543
1105.000000	18.604857
1106.000000	18.613143
1107.000000	18.622227
1108.000000	18.631750
1109.000000	18.640557
1110.000000	18.648617
1111.000000	18.656960
1112.000000	18.664930
1113.000000	18.672610
1114.000000	18.680153
1115.000000	18.686817
1116.000000	18.692720
1117.000000	18.699113
1118.000000	18.704163
1119.000000	18.710113
1120.000000	18.714697
1121.000000	18.717237
1122.000000	18.719873
1123.000000	18.723723
1124.000000	18.727057
1125.000000	18.730987
1126.000000	18.734007
1127.000000	18.735220
1128.000000	18.734557
1129.000000	18.731437
1130.000000	18.728210
1131.000000	18.721807
1132.000000	18.711613
1133.000000	18.695870
1134.000000	18.679677
1135.000000	18.664430
1136.000000	18.651143
1137.000000	18.632417
1138.000000	18.612253
1139.000000	18.589623
1140.000000	18.566907
1141.000000	18.548473
1142.000000	18.531007
1143.000000	18.514887
1144.000000	18.497817
1145.000000	18.477803
1146.000000	18.454967
1147.000000	18.437130
1148.000000	18.422667
1149.000000	18.410197
1150.000000	18.396200
1151.000000	18.380993
1152.000000	18.367203
1153.000000	18.354717
1154.000000	18.341913
1155.000000	18.327827
1156.000000	18.313080
1157.000000	18.295060
1158.000000	18.273570
1159.000000	18.249260
1160.000000	18.223920
1161.000000	18.195163
1162.000000	18.162683
1163.000000	18.127373
1164.000000	18.088893
1165.000000	18.051447
1166.000000	18.011927
1167.000000	17.970857
1168.000000	17.929380
1169.000000	17.888433
1170.000000	17.848250
1171.000000	17.810937
1172.000000	17.774840
1173.000000	17.741097
1174.000000	17.710670
