PE UV       SUBTECH     SPECTRUM    ASCII       PEDS        4.00        
   -1
BIOUCR0004-3.Sample.ASC
24/02/19
12:09:18.00
24/02/19
12:09:18.00
Vinicio Soto Monge
P. cupreomarginata (sin datos) Monteverde(dudoso)
250,000000
1
Lambda 1050
1050L1511233
PerkinElmer UV WinLab 6.3.2.0749 / 2.02.05 Lambda 900 UV/VIS/NIR, Aug  7 2015 09:38:08

0
0
3350/servo 860,8/2
0
0
UV/VIS
1
1
1
DoubleDePol,CommonBeamDepol,RBeamAtt,SBeamAtt,60mm sphere, WB InGaAs Detector
0
0
0
0
Program
Program
3350/servo 860,8/2
3350/0,2 860,8/0,2
3350/0,2 860,8/0,2
0
15.00
 
 
 
0
 
860,8
319,2
860,8
Front
100
on
S:100 R:100
0
0
0
0
 
0
 
 
 
0
 
 
0
0
0
0
0
 
 
 
 
0
0


0
0
#HDR
-1
-1
#GR
nm
%R
1.0
0.0
2500,000000
-1,000000
2251
8
24,970600
1,666300
#DATA

250.000000	nan
251.000000	nan
252.000000	nan
253.000000	nan
254.000000	nan
255.000000	nan
256.000000	nan
257.000000	nan
258.000000	nan
259.000000	2.069467
260.000000	2.065971
261.000000	2.063751
262.000000	2.058722
263.000000	2.054366
264.000000	2.049427
265.000000	2.045526
266.000000	2.040456
267.000000	2.036625
268.000000	2.030649
269.000000	2.025626
270.000000	2.020113
271.000000	2.014107
272.000000	2.008766
273.000000	2.005122
274.000000	2.002424
275.000000	1.998091
276.000000	1.994884
277.000000	1.991673
278.000000	1.989246
279.000000	1.988167
280.000000	1.985603
281.000000	1.984571
282.000000	1.982538
283.000000	1.979320
284.000000	1.975456
285.000000	1.973031
286.000000	1.970915
287.000000	1.966865
288.000000	1.964332
289.000000	1.960449
290.000000	1.957595
291.000000	1.952954
292.000000	1.950604
293.000000	1.947506
294.000000	1.943264
295.000000	1.940643
296.000000	1.938404
297.000000	1.936665
298.000000	1.934693
299.000000	1.933005
300.000000	1.932354
301.000000	1.932079
302.000000	1.928564
303.000000	1.926098
304.000000	1.925481
305.000000	1.924243
306.000000	1.920289
307.000000	1.917551
308.000000	1.915187
309.000000	1.913202
310.000000	1.910052
311.000000	1.908105
312.000000	1.907440
313.000000	1.905319
314.000000	1.903286
315.000000	1.901563
316.000000	1.903085
317.000000	1.919878
318.000000	1.925865
319.000000	1.928849
320.000000	1.939306
321.000000	1.949146
322.000000	1.953623
323.000000	1.964111
324.000000	1.971730
325.000000	1.977085
326.000000	1.978821
327.000000	1.964020
328.000000	1.957203
329.000000	1.957534
330.000000	1.950286
331.000000	1.942047
332.000000	1.944987
333.000000	1.939743
334.000000	1.935762
335.000000	1.931302
336.000000	1.929742
337.000000	1.926365
338.000000	1.925737
339.000000	1.920757
340.000000	1.916247
341.000000	1.912904
342.000000	1.904715
343.000000	1.900246
344.000000	1.894220
345.000000	1.893280
346.000000	1.890528
347.000000	1.890178
348.000000	1.891113
349.000000	1.889123
350.000000	1.890762
351.000000	1.889002
352.000000	1.884901
353.000000	1.884264
354.000000	1.883320
355.000000	1.879188
356.000000	1.878349
357.000000	1.875590
358.000000	1.870124
359.000000	1.867678
360.000000	1.862541
361.000000	1.862492
362.000000	1.863297
363.000000	1.860892
364.000000	1.858333
365.000000	1.857871
366.000000	1.855108
367.000000	1.855374
368.000000	1.855744
369.000000	1.856989
370.000000	1.856787
371.000000	1.852877
372.000000	1.849993
373.000000	1.843073
374.000000	1.839044
375.000000	1.832239
376.000000	1.824973
377.000000	1.802732
378.000000	1.782599
379.000000	1.761764
380.000000	1.742229
381.000000	1.723731
382.000000	1.706104
383.000000	1.693043
384.000000	1.680927
385.000000	1.669808
386.000000	1.660221
387.000000	1.664839
388.000000	1.669391
389.000000	1.674078
390.000000	1.679967
391.000000	1.687204
392.000000	1.694719
393.000000	1.703104
394.000000	1.712618
395.000000	1.722805
396.000000	1.733738
397.000000	1.746552
398.000000	1.760742
399.000000	1.776683
400.000000	1.794097
401.000000	1.813008
402.000000	1.834075
403.000000	1.856994
404.000000	1.882158
405.000000	1.909868
406.000000	1.940830
407.000000	1.973677
408.000000	2.009120
409.000000	2.047525
410.000000	2.089067
411.000000	2.133857
412.000000	2.181461
413.000000	2.232013
414.000000	2.285554
415.000000	2.341929
416.000000	2.400628
417.000000	2.462752
418.000000	2.527266
419.000000	2.593951
420.000000	2.662571
421.000000	2.732454
422.000000	2.804088
423.000000	2.877303
424.000000	2.951345
425.000000	3.026310
426.000000	3.101832
427.000000	3.177214
428.000000	3.253280
429.000000	3.329329
430.000000	3.405373
431.000000	3.480835
432.000000	3.555198
433.000000	3.628940
434.000000	3.702013
435.000000	3.774274
436.000000	3.845488
437.000000	3.915517
438.000000	3.984275
439.000000	4.051730
440.000000	4.117662
441.000000	4.182841
442.000000	4.246871
443.000000	4.309490
444.000000	4.370691
445.000000	4.430429
446.000000	4.489482
447.000000	4.547381
448.000000	4.603541
449.000000	4.658458
450.000000	4.711432
451.000000	4.763277
452.000000	4.814415
453.000000	4.863623
454.000000	4.910986
455.000000	4.956644
456.000000	5.000396
457.000000	5.041815
458.000000	5.081209
459.000000	5.118607
460.000000	5.153678
461.000000	5.185645
462.000000	5.214233
463.000000	5.240347
464.000000	5.264530
465.000000	5.284963
466.000000	5.301483
467.000000	5.315722
468.000000	5.327098
469.000000	5.335296
470.000000	5.340958
471.000000	5.344191
472.000000	5.344932
473.000000	5.343143
474.000000	5.339512
475.000000	5.336545
476.000000	5.333821
477.000000	5.331433
478.000000	5.331545
479.000000	5.335166
480.000000	5.341926
481.000000	5.352234
482.000000	5.368565
483.000000	5.393419
484.000000	5.428207
485.000000	5.472869
486.000000	5.529389
487.000000	5.597656
488.000000	5.676359
489.000000	5.765681
490.000000	5.866606
491.000000	5.978954
492.000000	6.101026
493.000000	6.230177
494.000000	6.364220
495.000000	6.501876
496.000000	6.641892
497.000000	6.784125
498.000000	6.927495
499.000000	7.069843
500.000000	7.211924
501.000000	7.353139
502.000000	7.493267
503.000000	7.632876
504.000000	7.772697
505.000000	7.912728
506.000000	8.051736
507.000000	8.190100
508.000000	8.328892
509.000000	8.469773
510.000000	8.612794
511.000000	8.758782
512.000000	8.906980
513.000000	9.058042
514.000000	9.212343
515.000000	9.370804
516.000000	9.535190
517.000000	9.705982
518.000000	9.883232
519.000000	10.067706
520.000000	10.259563
521.000000	10.460019
522.000000	10.669857
523.000000	10.887893
524.000000	11.114264
525.000000	11.348606
526.000000	11.589944
527.000000	11.838280
528.000000	12.092294
529.000000	12.351236
530.000000	12.613079
531.000000	12.876673
532.000000	13.142246
533.000000	13.408415
534.000000	13.673734
535.000000	13.937909
536.000000	14.200919
537.000000	14.460124
538.000000	14.716632
539.000000	14.967909
540.000000	15.214688
541.000000	15.456645
542.000000	15.692850
543.000000	15.923074
544.000000	16.147079
545.000000	16.364180
546.000000	16.573415
547.000000	16.775710
548.000000	16.970626
549.000000	17.159911
550.000000	17.342337
551.000000	17.516555
552.000000	17.682825
553.000000	17.843277
554.000000	17.996252
555.000000	18.143815
556.000000	18.285520
557.000000	18.421517
558.000000	18.551095
559.000000	18.673801
560.000000	18.743857
561.000000	18.801767
562.000000	18.853960
563.000000	18.899777
564.000000	18.940319
565.000000	18.974019
566.000000	19.000486
567.000000	19.019817
568.000000	19.032942
569.000000	19.040735
570.000000	19.088105
571.000000	19.137276
572.000000	19.180532
573.000000	19.216721
574.000000	19.244511
575.000000	19.264808
576.000000	19.280135
577.000000	19.289502
578.000000	19.293576
579.000000	19.291488
580.000000	19.283729
581.000000	19.269024
582.000000	19.250438
583.000000	19.226922
584.000000	19.202299
585.000000	19.176192
586.000000	19.147232
587.000000	19.117219
588.000000	19.081910
589.000000	19.041651
590.000000	18.997571
591.000000	18.946256
592.000000	18.883926
593.000000	18.814986
594.000000	18.734267
595.000000	18.641821
596.000000	18.537893
597.000000	18.422248
598.000000	18.296323
599.000000	18.161485
600.000000	18.017719
601.000000	17.868446
602.000000	17.717118
603.000000	17.562202
604.000000	17.405729
605.000000	17.247868
606.000000	17.089197
607.000000	16.929489
608.000000	16.769699
609.000000	16.606846
610.000000	16.440411
611.000000	16.271298
612.000000	16.097302
613.000000	15.918346
614.000000	15.737424
615.000000	15.554771
616.000000	15.372948
617.000000	15.194843
618.000000	15.023853
619.000000	14.865589
620.000000	14.725258
621.000000	14.605022
622.000000	14.509479
623.000000	14.439276
624.000000	14.397820
625.000000	14.386016
626.000000	14.403518
627.000000	14.445919
628.000000	14.513763
629.000000	14.601728
630.000000	14.705827
631.000000	14.821487
632.000000	14.946716
633.000000	15.078109
634.000000	15.209688
635.000000	15.341584
636.000000	15.469009
637.000000	15.593176
638.000000	15.711680
639.000000	15.826366
640.000000	15.936977
641.000000	16.044804
642.000000	16.150091
643.000000	16.253720
644.000000	16.357119
645.000000	16.456987
646.000000	16.556007
647.000000	16.652887
648.000000	16.747326
649.000000	16.838173
650.000000	16.922731
651.000000	17.000322
652.000000	17.067808
653.000000	17.126185
654.000000	17.176742
655.000000	17.219544
656.000000	17.255456
657.000000	17.284697
658.000000	17.310227
659.000000	17.331702
660.000000	17.352227
661.000000	17.374154
662.000000	17.399712
663.000000	17.429155
664.000000	17.461862
665.000000	17.500456
666.000000	17.542601
667.000000	17.589340
668.000000	17.638405
669.000000	17.691689
670.000000	17.746142
671.000000	17.798462
672.000000	17.848666
673.000000	17.898704
674.000000	17.945677
675.000000	17.988459
676.000000	18.027924
677.000000	18.064667
678.000000	18.098375
679.000000	18.130243
680.000000	18.161055
681.000000	18.194971
682.000000	18.232597
683.000000	18.272806
684.000000	18.317809
685.000000	18.368649
686.000000	18.427103
687.000000	18.493678
688.000000	18.566136
689.000000	18.646440
690.000000	18.735898
691.000000	18.832440
692.000000	18.933971
693.000000	19.040015
694.000000	19.151339
695.000000	19.268160
696.000000	19.388490
697.000000	19.511446
698.000000	19.638887
699.000000	19.767375
700.000000	19.898086
701.000000	20.030723
702.000000	20.164362
703.000000	20.301226
704.000000	20.440357
705.000000	20.579494
706.000000	20.718449
707.000000	20.857599
708.000000	20.997340
709.000000	21.134743
710.000000	21.269173
711.000000	21.399854
712.000000	21.528512
713.000000	21.650671
714.000000	21.764340
715.000000	21.869903
716.000000	21.967653
717.000000	22.057329
718.000000	22.138714
719.000000	22.214721
720.000000	22.285324
721.000000	22.349697
722.000000	22.406625
723.000000	22.458790
724.000000	22.507585
725.000000	22.553906
726.000000	22.599390
727.000000	22.644057
728.000000	22.686021
729.000000	22.724064
730.000000	22.759307
731.000000	22.793267
732.000000	22.825706
733.000000	22.855397
734.000000	22.884260
735.000000	22.912053
736.000000	22.936644
737.000000	22.958314
738.000000	22.978313
739.000000	22.997474
740.000000	23.016088
741.000000	23.035442
742.000000	23.055559
743.000000	23.076458
744.000000	23.098766
745.000000	23.120988
746.000000	23.142524
747.000000	23.164094
748.000000	23.188041
749.000000	23.213220
750.000000	23.237365
751.000000	23.260278
752.000000	23.282599
753.000000	23.304282
754.000000	23.321388
755.000000	23.337657
756.000000	23.356345
757.000000	23.373791
758.000000	23.388527
759.000000	23.403288
760.000000	23.420894
761.000000	23.439717
762.000000	23.456478
763.000000	23.476037
764.000000	23.499602
765.000000	23.522204
766.000000	23.543497
767.000000	23.567506
768.000000	23.590280
769.000000	23.609359
770.000000	23.625266
771.000000	23.639661
772.000000	23.657228
773.000000	23.671398
774.000000	23.683637
775.000000	23.695263
776.000000	23.704272
777.000000	23.712030
778.000000	23.719118
779.000000	23.727816
780.000000	23.736551
781.000000	23.741979
782.000000	23.744907
783.000000	23.745060
784.000000	23.740466
785.000000	23.733298
786.000000	23.725300
787.000000	23.714556
788.000000	23.703393
789.000000	23.688814
790.000000	23.668603
791.000000	23.639775
792.000000	23.609751
793.000000	23.580431
794.000000	23.547795
795.000000	23.509788
796.000000	23.468638
797.000000	23.421135
798.000000	23.366967
799.000000	23.309707
800.000000	23.251652
801.000000	23.195348
802.000000	23.129560
803.000000	23.055901
804.000000	22.977670
805.000000	22.904337
806.000000	22.825376
807.000000	22.742119
808.000000	22.659472
809.000000	22.576391
810.000000	22.492171
811.000000	22.403005
812.000000	22.312600
813.000000	22.221755
814.000000	22.130116
815.000000	22.031552
816.000000	21.930873
817.000000	21.830895
818.000000	21.727417
819.000000	21.617825
820.000000	21.502095
821.000000	21.382086
822.000000	21.268551
823.000000	21.152758
824.000000	21.034916
825.000000	20.914874
826.000000	20.793048
827.000000	20.675101
828.000000	20.559991
829.000000	20.443097
830.000000	20.323938
831.000000	20.218061
832.000000	20.106287
833.000000	19.996773
834.000000	19.896122
835.000000	19.795690
836.000000	19.704699
837.000000	19.608387
838.000000	19.505877
839.000000	19.416992
840.000000	19.331450
841.000000	19.241214
842.000000	19.157428
843.000000	19.080099
844.000000	18.998339
845.000000	18.917894
846.000000	18.842192
847.000000	18.769007
848.000000	18.709763
849.000000	18.652118
850.000000	18.591291
851.000000	18.542785
852.000000	18.484790
853.000000	18.432563
854.000000	18.384111
855.000000	18.335766
856.000000	18.279198
857.000000	18.229798
858.000000	18.185013
859.000000	18.173998
860.000000	18.173792
861.000000	18.169389
862.000000	18.181569
863.000000	18.193093
864.000000	18.212449
865.000000	18.244634
866.000000	18.286185
867.000000	18.331345
868.000000	18.372993
869.000000	18.379540
870.000000	18.389317
871.000000	18.398730
872.000000	18.404873
873.000000	18.407947
874.000000	18.408700
875.000000	18.406163
876.000000	18.401850
877.000000	18.395747
878.000000	18.388820
879.000000	18.383420
880.000000	18.377413
881.000000	18.371887
882.000000	18.365073
883.000000	18.359360
884.000000	18.354140
885.000000	18.347113
886.000000	18.342517
887.000000	18.336890
888.000000	18.331503
889.000000	18.324007
890.000000	18.317397
891.000000	18.307727
892.000000	18.299233
893.000000	18.290080
894.000000	18.281443
895.000000	18.273483
896.000000	18.261887
897.000000	18.249693
898.000000	18.236087
899.000000	18.221570
900.000000	18.207373
901.000000	18.197943
902.000000	18.187477
903.000000	18.176757
904.000000	18.160203
905.000000	18.146423
906.000000	18.133240
907.000000	18.123087
908.000000	18.112540
909.000000	18.106803
910.000000	18.096510
911.000000	18.082720
912.000000	18.069333
913.000000	18.056740
914.000000	18.047637
915.000000	18.036007
916.000000	18.025300
917.000000	18.013683
918.000000	17.999940
919.000000	17.983053
920.000000	17.967257
921.000000	17.952480
922.000000	17.935793
923.000000	17.918003
924.000000	17.898777
925.000000	17.879030
926.000000	17.856437
927.000000	17.831287
928.000000	17.807227
929.000000	17.780787
930.000000	17.755687
931.000000	17.727760
932.000000	17.700040
933.000000	17.672370
934.000000	17.646847
935.000000	17.621440
936.000000	17.597667
937.000000	17.576137
938.000000	17.554857
939.000000	17.533587
940.000000	17.511607
941.000000	17.491793
942.000000	17.471160
943.000000	17.450257
944.000000	17.428223
945.000000	17.407847
946.000000	17.387777
947.000000	17.366723
948.000000	17.346370
949.000000	17.328540
950.000000	17.311607
951.000000	17.294770
952.000000	17.280520
953.000000	17.267303
954.000000	17.256543
955.000000	17.245620
956.000000	17.236357
957.000000	17.226840
958.000000	17.219303
959.000000	17.211907
960.000000	17.205033
961.000000	17.199740
962.000000	17.194777
963.000000	17.189977
964.000000	17.183603
965.000000	17.178653
966.000000	17.173997
967.000000	17.171343
968.000000	17.167373
969.000000	17.164190
970.000000	17.162323
971.000000	17.160530
972.000000	17.160253
973.000000	17.159480
974.000000	17.159897
975.000000	17.160003
976.000000	17.160107
977.000000	17.160480
978.000000	17.162320
979.000000	17.164367
980.000000	17.167423
981.000000	17.170217
982.000000	17.172910
983.000000	17.177293
984.000000	17.182417
985.000000	17.188187
986.000000	17.193743
987.000000	17.199307
988.000000	17.206450
989.000000	17.213473
990.000000	17.219803
991.000000	17.228373
992.000000	17.236790
993.000000	17.244700
994.000000	17.252003
995.000000	17.259003
996.000000	17.267207
997.000000	17.277430
998.000000	17.286693
999.000000	17.296193
1000.000000	17.306713
1001.000000	17.316813
1002.000000	17.327590
1003.000000	17.338787
1004.000000	17.351043
1005.000000	17.363370
1006.000000	17.375847
1007.000000	17.386017
1008.000000	17.395987
1009.000000	17.407807
1010.000000	17.420003
1011.000000	17.431050
1012.000000	17.442897
1013.000000	17.456187
1014.000000	17.469953
1015.000000	17.484303
1016.000000	17.497870
1017.000000	17.513513
1018.000000	17.531193
1019.000000	17.547273
1020.000000	17.562773
1021.000000	17.579100
1022.000000	17.594523
1023.000000	17.609740
1024.000000	17.625360
1025.000000	17.641983
1026.000000	17.658973
1027.000000	17.674177
1028.000000	17.688590
1029.000000	17.703173
1030.000000	17.718237
1031.000000	17.734010
1032.000000	17.749813
1033.000000	17.765560
1034.000000	17.781643
1035.000000	17.797900
1036.000000	17.814810
1037.000000	17.832610
1038.000000	17.850537
1039.000000	17.869120
1040.000000	17.887890
1041.000000	17.906090
1042.000000	17.924600
1043.000000	17.942563
1044.000000	17.959800
1045.000000	17.976483
1046.000000	17.992507
1047.000000	18.009423
1048.000000	18.025970
1049.000000	18.041933
1050.000000	18.058613
1051.000000	18.075573
1052.000000	18.091917
1053.000000	18.109340
1054.000000	18.127700
1055.000000	18.146210
1056.000000	18.164923
1057.000000	18.184050
1058.000000	18.203300
1059.000000	18.223483
1060.000000	18.243713
1061.000000	18.263663
1062.000000	18.284040
1063.000000	18.304553
1064.000000	18.324550
1065.000000	18.343973
1066.000000	18.362780
1067.000000	18.381400
1068.000000	18.400903
1069.000000	18.420533
1070.000000	18.439340
1071.000000	18.459080
1072.000000	18.479527
1073.000000	18.499403
1074.000000	18.518837
1075.000000	18.538647
1076.000000	18.559507
1077.000000	18.580213
1078.000000	18.600337
1079.000000	18.620363
1080.000000	18.639953
1081.000000	18.659557
1082.000000	18.679183
1083.000000	18.697743
1084.000000	18.715417
1085.000000	18.733973
1086.000000	18.751920
1087.000000	18.768383
1088.000000	18.784673
1089.000000	18.800073
1090.000000	18.815913
1091.000000	18.831173
1092.000000	18.845373
1093.000000	18.859237
1094.000000	18.875083
1095.000000	18.889247
1096.000000	18.903157
1097.000000	18.917077
1098.000000	18.930357
1099.000000	18.943943
1100.000000	18.957447
1101.000000	18.970393
1102.000000	18.982223
1103.000000	18.994217
1104.000000	19.003757
1105.000000	19.014067
1106.000000	19.024620
1107.000000	19.036590
1108.000000	19.047330
1109.000000	19.056453
1110.000000	19.064800
1111.000000	19.072473
1112.000000	19.081547
1113.000000	19.090780
1114.000000	19.100623
1115.000000	19.109553
1116.000000	19.117343
1117.000000	19.123837
1118.000000	19.131953
1119.000000	19.140397
1120.000000	19.148973
1121.000000	19.156963
1122.000000	19.165097
1123.000000	19.173123
1124.000000	19.180810
1125.000000	19.186567
1126.000000	19.191167
1127.000000	19.192463
1128.000000	19.192603
1129.000000	19.191703
1130.000000	19.190237
1131.000000	19.186970
1132.000000	19.177683
1133.000000	19.164467
1134.000000	19.151960
1135.000000	19.144320
1136.000000	19.136777
1137.000000	19.126960
1138.000000	19.114187
1139.000000	19.101690
1140.000000	19.087557
1141.000000	19.074393
1142.000000	19.064083
1143.000000	19.054487
1144.000000	19.042580
1145.000000	19.027117
1146.000000	19.014193
1147.000000	19.003983
1148.000000	18.994683
1149.000000	18.985763
1150.000000	18.977710
1151.000000	18.969363
1152.000000	18.961757
1153.000000	18.955563
1154.000000	18.949427
1155.000000	18.941133
1156.000000	18.929857
1157.000000	18.918507
1158.000000	18.905240
1159.000000	18.887773
1160.000000	18.868257
1161.000000	18.845900
1162.000000	18.821797
1163.000000	18.795320
1164.000000	18.765390
1165.000000	18.734740
1166.000000	18.703480
1167.000000	18.669453
1168.000000	18.635853
1169.000000	18.604690
1170.000000	18.573950
1171.000000	18.544353
1172.000000	18.516523
1173.000000	18.491447
