PE UV       SUBTECH     SPECTRUM    ASCII       PEDS        4.00        
   -1
BIOUCR0020-3.Sample.ASC
24/02/20
13:09:39.00
24/02/20
13:09:39.00
Vinicio Soto Monge
P. resplendens (sin datos) Parte central elitros cafe bajo PL. Plateado bajo PR. 
250,000000
1
Lambda 1050
1050L1511233
PerkinElmer UV WinLab 6.3.2.0749 / 2.02.05 Lambda 900 UV/VIS/NIR, Aug  7 2015 09:38:08

0
0
3350/servo 860,8/2
0
0
UV/VIS
1
1
1
DoubleDePol,CommonBeamDepol,RBeamAtt,SBeamAtt,60mm sphere, WB InGaAs Detector
0
0
0
0
Program
Program
3350/servo 860,8/2
3350/0,2 860,8/0,2
3350/0,2 860,8/0,2
0
15.00
 
 
 
0
 
860,8
319,2
860,8
Front
100
on
S:100 R:100
0
0
0
0
 
0
 
 
 
0
 
 
0
0
0
0
0
 
 
 
 
0
0


0
0
#HDR
-1
-1
#GR
nm
%R
1.0
0.0
2500,000000
-1,000000
2251
8
22,024300
1,389500
#DATA

250.000000	nan
251.000000	nan
252.000000	nan
253.000000	nan
254.000000	nan
255.000000	nan
256.000000	nan
257.000000	nan
258.000000	nan
259.000000	1.866898
260.000000	1.863184
261.000000	1.859287
262.000000	1.854186
263.000000	1.849121
264.000000	1.846886
265.000000	1.844357
266.000000	1.838771
267.000000	1.834018
268.000000	1.829004
269.000000	1.823145
270.000000	1.819047
271.000000	1.814659
272.000000	1.811142
273.000000	1.806626
274.000000	1.803677
275.000000	1.798517
276.000000	1.796969
277.000000	1.794360
278.000000	1.793063
279.000000	1.795235
280.000000	1.793706
281.000000	1.791278
282.000000	1.787138
283.000000	1.782278
284.000000	1.777105
285.000000	1.774367
286.000000	1.772261
287.000000	1.770677
288.000000	1.769126
289.000000	1.766834
290.000000	1.764669
291.000000	1.763913
292.000000	1.764611
293.000000	1.765013
294.000000	1.761970
295.000000	1.758799
296.000000	1.753875
297.000000	1.747156
298.000000	1.742739
299.000000	1.740121
300.000000	1.736823
301.000000	1.732287
302.000000	1.728811
303.000000	1.728150
304.000000	1.722605
305.000000	1.719318
306.000000	1.718558
307.000000	1.721182
308.000000	1.720475
309.000000	1.716238
310.000000	1.714784
311.000000	1.713408
312.000000	1.710631
313.000000	1.709320
314.000000	1.715247
315.000000	1.717364
316.000000	1.724857
317.000000	1.794026
318.000000	1.846746
319.000000	1.882362
320.000000	1.928599
321.000000	1.968231
322.000000	2.005590
323.000000	2.044534
324.000000	2.063860
325.000000	2.083009
326.000000	2.098870
327.000000	2.046512
328.000000	2.000524
329.000000	1.980095
330.000000	1.949864
331.000000	1.912200
332.000000	1.894416
333.000000	1.871156
334.000000	1.863795
335.000000	1.850599
336.000000	1.838036
337.000000	1.838307
338.000000	1.850088
339.000000	1.846446
340.000000	1.831985
341.000000	1.843774
342.000000	1.828623
343.000000	1.810729
344.000000	1.800908
345.000000	1.794776
346.000000	1.791214
347.000000	1.776946
348.000000	1.759839
349.000000	1.755933
350.000000	1.762293
351.000000	1.751092
352.000000	1.751305
353.000000	1.756432
354.000000	1.756686
355.000000	1.756726
356.000000	1.745986
357.000000	1.741096
358.000000	1.736918
359.000000	1.726932
360.000000	1.717449
361.000000	1.709667
362.000000	1.700074
363.000000	1.690740
364.000000	1.683325
365.000000	1.677475
366.000000	1.678155
367.000000	1.667517
368.000000	1.658205
369.000000	1.650141
370.000000	1.642079
371.000000	1.634123
372.000000	1.627627
373.000000	1.615140
374.000000	1.600097
375.000000	1.583794
376.000000	1.570800
377.000000	1.558588
378.000000	1.548310
379.000000	1.535905
380.000000	1.522546
381.000000	1.514676
382.000000	1.507070
383.000000	1.503709
384.000000	1.501239
385.000000	1.502200
386.000000	1.495838
387.000000	1.498129
388.000000	1.500412
389.000000	1.503451
390.000000	1.506164
391.000000	1.508078
392.000000	1.510245
393.000000	1.512537
394.000000	1.514608
395.000000	1.516492
396.000000	1.519813
397.000000	1.523406
398.000000	1.526900
399.000000	1.530952
400.000000	1.534839
401.000000	1.538693
402.000000	1.543270
403.000000	1.548542
404.000000	1.554818
405.000000	1.561455
406.000000	1.568030
407.000000	1.575300
408.000000	1.583054
409.000000	1.591777
410.000000	1.602826
411.000000	1.615364
412.000000	1.629058
413.000000	1.644477
414.000000	1.661110
415.000000	1.679671
416.000000	1.700236
417.000000	1.722996
418.000000	1.749055
419.000000	1.777654
420.000000	1.807889
421.000000	1.841440
422.000000	1.878713
423.000000	1.919076
424.000000	1.963140
425.000000	2.011402
426.000000	2.063752
427.000000	2.120356
428.000000	2.180608
429.000000	2.244828
430.000000	2.313643
431.000000	2.386317
432.000000	2.462609
433.000000	2.542838
434.000000	2.627150
435.000000	2.715017
436.000000	2.805779
437.000000	2.899099
438.000000	2.994940
439.000000	3.092887
440.000000	3.192542
441.000000	3.293988
442.000000	3.396331
443.000000	3.498716
444.000000	3.600664
445.000000	3.702180
446.000000	3.803919
447.000000	3.905187
448.000000	4.006209
449.000000	4.106297
450.000000	4.204669
451.000000	4.301653
452.000000	4.398224
453.000000	4.494877
454.000000	4.590533
455.000000	4.684946
456.000000	4.777800
457.000000	4.869135
458.000000	4.958588
459.000000	5.047113
460.000000	5.135123
461.000000	5.221804
462.000000	5.306291
463.000000	5.388117
464.000000	5.468403
465.000000	5.547936
466.000000	5.626327
467.000000	5.703028
468.000000	5.778149
469.000000	5.850630
470.000000	5.920472
471.000000	5.987507
472.000000	6.051881
473.000000	6.113412
474.000000	6.171862
475.000000	6.225479
476.000000	6.274006
477.000000	6.318243
478.000000	6.358032
479.000000	6.392762
480.000000	6.420900
481.000000	6.441746
482.000000	6.454904
483.000000	6.461862
484.000000	6.463669
485.000000	6.461343
486.000000	6.454748
487.000000	6.444739
488.000000	6.430242
489.000000	6.411588
490.000000	6.391527
491.000000	6.371809
492.000000	6.352638
493.000000	6.334374
494.000000	6.318454
495.000000	6.306268
496.000000	6.300720
497.000000	6.301976
498.000000	6.314191
499.000000	6.340895
500.000000	6.383716
501.000000	6.443265
502.000000	6.522329
503.000000	6.620802
504.000000	6.737669
505.000000	6.869939
506.000000	7.015329
507.000000	7.172402
508.000000	7.336744
509.000000	7.505181
510.000000	7.673839
511.000000	7.840997
512.000000	8.002641
513.000000	8.155756
514.000000	8.298659
515.000000	8.431764
516.000000	8.554417
517.000000	8.667386
518.000000	8.771072
519.000000	8.866593
520.000000	8.955246
521.000000	9.037990
522.000000	9.116577
523.000000	9.193143
524.000000	9.268881
525.000000	9.345396
526.000000	9.423995
527.000000	9.505239
528.000000	9.591397
529.000000	9.682306
530.000000	9.779872
531.000000	9.884799
532.000000	9.997900
533.000000	10.120456
534.000000	10.251792
535.000000	10.390950
536.000000	10.538049
537.000000	10.693148
538.000000	10.854893
539.000000	11.022640
540.000000	11.195270
541.000000	11.371269
542.000000	11.549885
543.000000	11.728099
544.000000	11.904882
545.000000	12.080604
546.000000	12.252486
547.000000	12.419704
548.000000	12.579919
549.000000	12.732735
550.000000	12.875219
551.000000	13.008582
552.000000	13.130059
553.000000	13.239816
554.000000	13.337148
555.000000	13.422769
556.000000	13.498307
557.000000	13.562583
558.000000	13.619500
559.000000	13.668687
560.000000	13.678460
561.000000	13.677794
562.000000	13.672541
563.000000	13.664265
564.000000	13.654171
565.000000	13.643143
566.000000	13.630761
567.000000	13.619136
568.000000	13.604914
569.000000	13.589760
570.000000	13.606737
571.000000	13.625918
572.000000	13.642493
573.000000	13.657772
574.000000	13.673074
575.000000	13.686023
576.000000	13.696253
577.000000	13.703599
578.000000	13.709012
579.000000	13.710801
580.000000	13.710936
581.000000	13.709865
582.000000	13.707485
583.000000	13.701784
584.000000	13.691379
585.000000	13.676921
586.000000	13.659423
587.000000	13.638052
588.000000	13.614219
589.000000	13.587711
590.000000	13.558391
591.000000	13.524766
592.000000	13.488108
593.000000	13.448081
594.000000	13.407861
595.000000	13.365648
596.000000	13.322044
597.000000	13.279060
598.000000	13.235869
599.000000	13.194868
600.000000	13.155215
601.000000	13.116320
602.000000	13.080620
603.000000	13.046181
604.000000	13.010261
605.000000	12.973535
606.000000	12.934999
607.000000	12.892131
608.000000	12.842889
609.000000	12.784140
610.000000	12.715865
611.000000	12.637669
612.000000	12.545345
613.000000	12.441179
614.000000	12.324225
615.000000	12.195362
616.000000	12.055625
617.000000	11.906405
618.000000	11.751956
619.000000	11.594731
620.000000	11.437755
621.000000	11.283907
622.000000	11.138710
623.000000	11.005000
624.000000	10.885861
625.000000	10.783648
626.000000	10.700202
627.000000	10.635005
628.000000	10.587403
629.000000	10.555435
630.000000	10.534589
631.000000	10.524548
632.000000	10.520587
633.000000	10.518834
634.000000	10.516708
635.000000	10.511857
636.000000	10.502077
637.000000	10.487317
638.000000	10.468260
639.000000	10.445766
640.000000	10.422196
641.000000	10.400485
642.000000	10.382958
643.000000	10.372249
644.000000	10.371834
645.000000	10.383843
646.000000	10.409096
647.000000	10.447810
648.000000	10.500468
649.000000	10.567823
650.000000	10.647356
651.000000	10.735988
652.000000	10.831818
653.000000	10.933397
654.000000	11.035492
655.000000	11.134092
656.000000	11.226983
657.000000	11.313620
658.000000	11.388685
659.000000	11.452779
660.000000	11.504420
661.000000	11.544571
662.000000	11.573287
663.000000	11.591610
664.000000	11.602002
665.000000	11.606682
666.000000	11.607852
667.000000	11.606323
668.000000	11.606524
669.000000	11.609082
670.000000	11.617745
671.000000	11.632331
672.000000	11.653986
673.000000	11.682617
674.000000	11.718426
675.000000	11.760937
676.000000	11.810369
677.000000	11.865375
678.000000	11.924474
679.000000	11.986142
680.000000	12.048279
681.000000	12.109350
682.000000	12.169810
683.000000	12.227041
684.000000	12.280941
685.000000	12.331227
686.000000	12.375835
687.000000	12.415275
688.000000	12.450912
689.000000	12.482819
690.000000	12.510388
691.000000	12.536786
692.000000	12.561867
693.000000	12.586557
694.000000	12.611421
695.000000	12.638568
696.000000	12.670215
697.000000	12.705840
698.000000	12.744069
699.000000	12.785558
700.000000	12.832029
701.000000	12.881088
702.000000	12.931462
703.000000	12.983958
704.000000	13.037097
705.000000	13.088638
706.000000	13.137828
707.000000	13.183960
708.000000	13.228225
709.000000	13.269534
710.000000	13.307739
711.000000	13.343186
712.000000	13.374371
713.000000	13.402031
714.000000	13.427122
715.000000	13.451688
716.000000	13.474009
717.000000	13.496400
718.000000	13.520022
719.000000	13.542881
720.000000	13.564743
721.000000	13.585986
722.000000	13.610095
723.000000	13.637302
724.000000	13.666521
725.000000	13.695487
726.000000	13.726105
727.000000	13.757985
728.000000	13.788078
729.000000	13.819081
730.000000	13.850109
731.000000	13.880726
732.000000	13.910119
733.000000	13.935181
734.000000	13.957318
735.000000	13.977661
736.000000	13.994703
737.000000	14.009226
738.000000	14.021072
739.000000	14.030824
740.000000	14.039597
741.000000	14.047238
742.000000	14.054741
743.000000	14.064234
744.000000	14.074976
745.000000	14.086988
746.000000	14.101179
747.000000	14.116699
748.000000	14.133623
749.000000	14.150618
750.000000	14.167348
751.000000	14.185308
752.000000	14.204629
753.000000	14.223656
754.000000	14.240731
755.000000	14.256696
756.000000	14.272910
757.000000	14.288552
758.000000	14.303780
759.000000	14.318115
760.000000	14.332856
761.000000	14.350126
762.000000	14.367168
763.000000	14.382589
764.000000	14.399522
765.000000	14.418045
766.000000	14.437080
767.000000	14.456019
768.000000	14.476690
769.000000	14.500894
770.000000	14.525370
771.000000	14.548876
772.000000	14.573671
773.000000	14.602173
774.000000	14.630920
775.000000	14.658000
776.000000	14.683543
777.000000	14.710507
778.000000	14.737785
779.000000	14.763346
780.000000	14.790365
781.000000	14.815420
782.000000	14.838292
783.000000	14.858362
784.000000	14.876059
785.000000	14.894738
786.000000	14.913475
787.000000	14.931675
788.000000	14.947331
789.000000	14.962324
790.000000	14.980103
791.000000	14.997576
792.000000	15.015178
793.000000	15.033633
794.000000	15.057332
795.000000	15.080459
796.000000	15.104487
797.000000	15.129708
798.000000	15.157340
799.000000	15.185031
800.000000	15.208715
801.000000	15.232419
802.000000	15.256957
803.000000	15.280853
804.000000	15.302443
805.000000	15.323004
806.000000	15.344955
807.000000	15.364418
808.000000	15.384858
809.000000	15.408004
810.000000	15.434236
811.000000	15.464009
812.000000	15.492764
813.000000	15.525142
814.000000	15.562519
815.000000	15.602548
816.000000	15.643614
817.000000	15.682339
818.000000	15.722902
819.000000	15.762149
820.000000	15.801767
821.000000	15.839073
822.000000	15.878424
823.000000	15.917757
824.000000	15.947643
825.000000	15.977506
826.000000	16.007807
827.000000	16.042608
828.000000	16.076004
829.000000	16.105433
830.000000	16.135238
831.000000	16.160149
832.000000	16.181439
833.000000	16.203696
834.000000	16.229981
835.000000	16.252857
836.000000	16.280130
837.000000	16.300833
838.000000	16.321774
839.000000	16.352879
840.000000	16.378174
841.000000	16.410655
842.000000	16.437282
843.000000	16.462641
844.000000	16.486879
845.000000	16.510552
846.000000	16.527798
847.000000	16.546296
848.000000	16.575150
849.000000	16.579598
850.000000	16.590101
851.000000	16.588652
852.000000	16.599507
853.000000	16.588019
854.000000	16.576031
855.000000	16.576456
856.000000	16.573092
857.000000	16.596128
858.000000	16.644946
859.000000	16.702508
860.000000	16.757885
861.000000	16.822913
862.000000	16.886356
863.000000	16.974904
864.000000	17.069240
865.000000	17.156970
866.000000	17.251528
867.000000	17.326486
868.000000	17.364207
869.000000	17.412733
870.000000	17.461243
871.000000	17.511933
872.000000	17.559447
873.000000	17.604240
874.000000	17.646023
875.000000	17.687457
876.000000	17.727250
877.000000	17.768013
878.000000	17.806850
879.000000	17.845433
880.000000	17.884150
881.000000	17.922423
882.000000	17.961973
883.000000	18.001293
884.000000	18.041957
885.000000	18.080603
886.000000	18.117790
887.000000	18.153517
888.000000	18.190560
889.000000	18.228190
890.000000	18.264920
891.000000	18.302127
892.000000	18.337727
893.000000	18.373150
894.000000	18.406627
895.000000	18.442133
896.000000	18.479093
897.000000	18.516810
898.000000	18.554870
899.000000	18.592003
900.000000	18.631250
901.000000	18.671153
902.000000	18.710743
903.000000	18.750287
904.000000	18.792773
905.000000	18.835453
906.000000	18.878130
907.000000	18.916613
908.000000	18.955117
909.000000	18.993877
910.000000	19.031217
911.000000	19.066150
912.000000	19.103493
913.000000	19.139107
914.000000	19.174013
915.000000	19.206837
916.000000	19.239857
917.000000	19.275177
918.000000	19.307350
919.000000	19.341690
920.000000	19.374680
921.000000	19.408683
922.000000	19.441220
923.000000	19.472630
924.000000	19.502770
925.000000	19.531890
926.000000	19.557333
927.000000	19.578960
928.000000	19.601580
929.000000	19.619457
930.000000	19.637767
931.000000	19.651900
932.000000	19.662337
933.000000	19.671083
934.000000	19.678103
935.000000	19.687300
936.000000	19.696997
937.000000	19.708850
938.000000	19.721327
939.000000	19.733730
940.000000	19.741423
941.000000	19.751270
942.000000	19.762743
943.000000	19.773500
944.000000	19.783577
945.000000	19.791253
946.000000	19.798333
947.000000	19.805470
948.000000	19.810753
949.000000	19.814563
950.000000	19.820730
951.000000	19.824700
952.000000	19.826920
953.000000	19.829640
954.000000	19.833677
955.000000	19.836243
956.000000	19.837227
957.000000	19.836923
958.000000	19.837677
959.000000	19.839773
960.000000	19.842130
961.000000	19.846640
962.000000	19.853157
963.000000	19.860520
964.000000	19.866437
965.000000	19.875040
966.000000	19.885537
967.000000	19.897050
968.000000	19.907697
969.000000	19.917960
970.000000	19.927867
971.000000	19.936377
972.000000	19.945883
973.000000	19.955040
974.000000	19.964937
975.000000	19.973303
976.000000	19.980217
977.000000	19.985607
978.000000	19.992503
979.000000	19.999843
980.000000	20.008450
981.000000	20.017963
982.000000	20.026920
983.000000	20.037460
984.000000	20.048270
985.000000	20.059087
986.000000	20.071363
987.000000	20.084077
988.000000	20.097333
989.000000	20.111047
990.000000	20.124537
991.000000	20.136973
992.000000	20.148123
993.000000	20.159163
994.000000	20.169010
995.000000	20.176890
996.000000	20.183547
997.000000	20.190327
998.000000	20.195600
999.000000	20.199593
1000.000000	20.201257
1001.000000	20.201670
1002.000000	20.201630
1003.000000	20.200067
1004.000000	20.198687
1005.000000	20.198850
1006.000000	20.198973
1007.000000	20.197400
1008.000000	20.194830
1009.000000	20.193810
1010.000000	20.195150
1011.000000	20.196927
1012.000000	20.198817
1013.000000	20.201260
1014.000000	20.203540
1015.000000	20.204390
1016.000000	20.204523
1017.000000	20.206757
1018.000000	20.209367
1019.000000	20.210287
1020.000000	20.210873
1021.000000	20.212067
1022.000000	20.212977
1023.000000	20.212917
1024.000000	20.212107
1025.000000	20.212450
1026.000000	20.214487
1027.000000	20.217523
1028.000000	20.221733
1029.000000	20.226597
1030.000000	20.231980
1031.000000	20.239070
1032.000000	20.248813
1033.000000	20.260117
1034.000000	20.274167
1035.000000	20.290483
1036.000000	20.306640
1037.000000	20.321930
1038.000000	20.337253
1039.000000	20.353027
1040.000000	20.369013
1041.000000	20.384810
1042.000000	20.400490
1043.000000	20.416430
1044.000000	20.430720
1045.000000	20.443320
1046.000000	20.456233
1047.000000	20.469360
1048.000000	20.482920
1049.000000	20.497377
1050.000000	20.511830
1051.000000	20.524570
1052.000000	20.537467
1053.000000	20.552323
1054.000000	20.568677
1055.000000	20.585950
1056.000000	20.602223
1057.000000	20.619333
1058.000000	20.637027
1059.000000	20.654047
1060.000000	20.671197
1061.000000	20.689153
1062.000000	20.706877
1063.000000	20.721910
1064.000000	20.735007
1065.000000	20.747967
1066.000000	20.761930
1067.000000	20.774583
1068.000000	20.786783
1069.000000	20.799307
1070.000000	20.813173
1071.000000	20.826830
1072.000000	20.839480
1073.000000	20.853683
1074.000000	20.868397
1075.000000	20.880843
1076.000000	20.894097
1077.000000	20.908467
1078.000000	20.921590
1079.000000	20.933350
1080.000000	20.943390
1081.000000	20.954477
1082.000000	20.965867
1083.000000	20.975403
1084.000000	20.985140
1085.000000	20.996127
1086.000000	21.007257
1087.000000	21.017103
1088.000000	21.026250
1089.000000	21.036460
1090.000000	21.047427
1091.000000	21.057657
1092.000000	21.066980
1093.000000	21.076983
1094.000000	21.085763
1095.000000	21.095283
1096.000000	21.103167
1097.000000	21.111260
1098.000000	21.119220
1099.000000	21.128170
1100.000000	21.136713
1101.000000	21.145057
1102.000000	21.153167
1103.000000	21.161400
1104.000000	21.169050
1105.000000	21.178097
1106.000000	21.187090
1107.000000	21.196573
1108.000000	21.207090
1109.000000	21.215723
1110.000000	21.224403
1111.000000	21.233063
1112.000000	21.242527
1113.000000	21.251980
1114.000000	21.263013
1115.000000	21.272660
1116.000000	21.282933
1117.000000	21.291963
1118.000000	21.301263
1119.000000	21.311390
1120.000000	21.319867
1121.000000	21.327547
1122.000000	21.334320
1123.000000	21.341037
1124.000000	21.347957
1125.000000	21.354223
1126.000000	21.358887
1127.000000	21.363377
1128.000000	21.365790
1129.000000	21.367390
1130.000000	21.368957
1131.000000	21.367427
1132.000000	21.361987
1133.000000	21.351757
1134.000000	21.340800
1135.000000	21.330973
1136.000000	21.322760
1137.000000	21.311430
1138.000000	21.297517
1139.000000	21.280087
1140.000000	21.261780
1141.000000	21.247170
1142.000000	21.234123
1143.000000	21.222630
1144.000000	21.209927
1145.000000	21.194167
1146.000000	21.177417
1147.000000	21.162623
1148.000000	21.152913
1149.000000	21.143307
1150.000000	21.134283
1151.000000	21.123260
1152.000000	21.114093
1153.000000	21.105137
1154.000000	21.096167
1155.000000	21.085760
1156.000000	21.074337
1157.000000	21.060613
1158.000000	21.043280
1159.000000	21.025327
1160.000000	21.004243
1161.000000	20.980103
1162.000000	20.952987
1163.000000	20.923047
1164.000000	20.890763
1165.000000	20.856723
1166.000000	20.820043
1167.000000	20.783533
1168.000000	20.745823
1169.000000	20.708033
1170.000000	20.671210
1171.000000	20.637560
1172.000000	20.604050
