PE UV       SUBTECH     SPECTRUM    ASCII       PEDS        4.00        
   -1
BIOUCR0014-3.Sample.ASC
24/02/19
15:54:49.00
24/02/19
15:54:49.00
Vinicio Soto Monge
P. resplendens (sin datos)
250,000000
1
Lambda 1050
1050L1511233
PerkinElmer UV WinLab 6.3.2.0749 / 2.02.05 Lambda 900 UV/VIS/NIR, Aug  7 2015 09:38:08

0
0
3350/servo 860,8/2
0
0
UV/VIS
1
1
1
DoubleDePol,CommonBeamDepol,RBeamAtt,SBeamAtt,60mm sphere, WB InGaAs Detector
0
0
0
0
Program
Program
3350/servo 860,8/2
3350/0,2 860,8/0,2
3350/0,2 860,8/0,2
0
15.00
 
 
 
0
 
860,8
319,2
860,8
Front
100
on
S:100 R:100
0
0
0
0
 
0
 
 
 
0
 
 
0
0
0
0
0
 
 
 
 
0
0


0
0
#HDR
-1
-1
#GR
nm
%R
1.0
0.0
2500,000000
-1,000000
2251
8
23,844500
1,557500
#DATA

250.000000	nan
251.000000	nan
252.000000	nan
253.000000	nan
254.000000	nan
255.000000	nan
256.000000	nan
257.000000	nan
258.000000	nan
259.000000	2.123794
260.000000	2.119476
261.000000	2.117171
262.000000	2.111965
263.000000	2.108606
264.000000	2.106011
265.000000	2.102534
266.000000	2.097272
267.000000	2.090540
268.000000	2.082034
269.000000	2.080128
270.000000	2.073307
271.000000	2.069320
272.000000	2.067165
273.000000	2.060717
274.000000	2.053315
275.000000	2.048105
276.000000	2.041368
277.000000	2.037200
278.000000	2.035950
279.000000	2.031069
280.000000	2.029810
281.000000	2.025446
282.000000	2.021420
283.000000	2.022064
284.000000	2.019680
285.000000	2.018948
286.000000	2.020113
287.000000	2.018505
288.000000	2.016740
289.000000	2.014229
290.000000	2.012569
291.000000	2.010108
292.000000	2.009607
293.000000	2.004497
294.000000	2.000057
295.000000	1.996716
296.000000	1.993028
297.000000	1.987581
298.000000	1.981072
299.000000	1.977385
300.000000	1.974749
301.000000	1.970785
302.000000	1.964749
303.000000	1.959398
304.000000	1.958920
305.000000	1.957012
306.000000	1.957338
307.000000	1.957995
308.000000	1.960537
309.000000	1.962790
310.000000	1.961765
311.000000	1.962680
312.000000	1.961912
313.000000	1.963559
314.000000	1.964314
315.000000	1.964785
316.000000	1.964854
317.000000	2.000620
318.000000	2.035731
319.000000	2.064005
320.000000	2.095584
321.000000	2.129718
322.000000	2.160265
323.000000	2.184630
324.000000	2.211251
325.000000	2.222200
326.000000	2.244284
327.000000	2.227875
328.000000	2.209162
329.000000	2.186486
330.000000	2.169210
331.000000	2.145416
332.000000	2.131840
333.000000	2.118202
334.000000	2.098473
335.000000	2.095723
336.000000	2.080003
337.000000	2.072208
338.000000	2.067702
339.000000	2.071096
340.000000	2.068171
341.000000	2.065239
342.000000	2.059414
343.000000	2.056960
344.000000	2.062381
345.000000	2.057476
346.000000	2.055210
347.000000	2.049738
348.000000	2.045979
349.000000	2.044005
350.000000	2.037988
351.000000	2.035223
352.000000	2.026277
353.000000	2.019250
354.000000	2.010315
355.000000	2.012111
356.000000	2.007603
357.000000	1.999224
358.000000	1.991695
359.000000	1.982282
360.000000	1.978718
361.000000	1.974250
362.000000	1.972634
363.000000	1.969210
364.000000	1.966294
365.000000	1.960144
366.000000	1.956724
367.000000	1.956287
368.000000	1.947265
369.000000	1.939749
370.000000	1.930446
371.000000	1.925853
372.000000	1.916795
373.000000	1.903372
374.000000	1.890383
375.000000	1.875980
376.000000	1.864885
377.000000	1.846921
378.000000	1.834128
379.000000	1.821319
380.000000	1.808362
381.000000	1.792213
382.000000	1.783115
383.000000	1.780414
384.000000	1.775481
385.000000	1.772305
386.000000	1.767525
387.000000	1.771059
388.000000	1.775340
389.000000	1.780251
390.000000	1.785324
391.000000	1.791479
392.000000	1.797951
393.000000	1.804031
394.000000	1.810926
395.000000	1.819100
396.000000	1.828744
397.000000	1.839878
398.000000	1.852035
399.000000	1.865079
400.000000	1.879822
401.000000	1.896195
402.000000	1.914167
403.000000	1.933823
404.000000	1.955008
405.000000	1.978304
406.000000	2.003909
407.000000	2.030800
408.000000	2.059148
409.000000	2.089795
410.000000	2.122980
411.000000	2.157670
412.000000	2.193648
413.000000	2.231830
414.000000	2.271879
415.000000	2.313147
416.000000	2.355089
417.000000	2.398171
418.000000	2.442431
419.000000	2.487537
420.000000	2.532610
421.000000	2.578473
422.000000	2.625699
423.000000	2.673449
424.000000	2.720862
425.000000	2.767483
426.000000	2.814088
427.000000	2.861241
428.000000	2.908909
429.000000	2.956262
430.000000	3.003097
431.000000	3.049793
432.000000	3.095407
433.000000	3.139603
434.000000	3.183842
435.000000	3.228565
436.000000	3.272956
437.000000	3.316227
438.000000	3.358248
439.000000	3.399790
440.000000	3.441124
441.000000	3.480841
442.000000	3.519526
443.000000	3.557760
444.000000	3.594394
445.000000	3.629347
446.000000	3.662880
447.000000	3.695074
448.000000	3.725999
449.000000	3.754892
450.000000	3.781372
451.000000	3.805950
452.000000	3.828881
453.000000	3.850001
454.000000	3.869447
455.000000	3.886977
456.000000	3.902431
457.000000	3.916677
458.000000	3.929697
459.000000	3.942691
460.000000	3.956071
461.000000	3.970387
462.000000	3.986176
463.000000	4.003687
464.000000	4.024029
465.000000	4.047969
466.000000	4.076307
467.000000	4.109588
468.000000	4.148291
469.000000	4.191985
470.000000	4.241610
471.000000	4.297157
472.000000	4.358425
473.000000	4.425005
474.000000	4.496363
475.000000	4.571956
476.000000	4.650822
477.000000	4.731652
478.000000	4.813851
479.000000	4.896445
480.000000	4.977553
481.000000	5.055659
482.000000	5.130515
483.000000	5.202793
484.000000	5.272851
485.000000	5.341093
486.000000	5.407483
487.000000	5.472372
488.000000	5.536375
489.000000	5.600326
490.000000	5.665653
491.000000	5.734186
492.000000	5.806223
493.000000	5.882025
494.000000	5.962786
495.000000	6.048654
496.000000	6.141466
497.000000	6.241734
498.000000	6.350660
499.000000	6.469718
500.000000	6.600088
501.000000	6.742089
502.000000	6.896163
503.000000	7.063380
504.000000	7.242847
505.000000	7.434665
506.000000	7.637598
507.000000	7.851286
508.000000	8.073888
509.000000	8.303952
510.000000	8.539409
511.000000	8.780096
512.000000	9.025554
513.000000	9.273415
514.000000	9.521892
515.000000	9.769618
516.000000	10.016782
517.000000	10.262648
518.000000	10.506404
519.000000	10.749046
520.000000	10.989310
521.000000	11.226378
522.000000	11.459343
523.000000	11.688659
524.000000	11.915016
525.000000	12.138372
526.000000	12.357762
527.000000	12.574053
528.000000	12.787892
529.000000	12.998010
530.000000	13.205942
531.000000	13.410928
532.000000	13.613521
533.000000	13.814134
534.000000	14.012229
535.000000	14.207437
536.000000	14.401655
537.000000	14.593069
538.000000	14.782213
539.000000	14.968025
540.000000	15.150239
541.000000	15.328588
542.000000	15.502680
543.000000	15.672137
544.000000	15.837068
545.000000	15.997241
546.000000	16.150857
547.000000	16.299689
548.000000	16.441555
549.000000	16.578866
550.000000	16.710166
551.000000	16.837988
552.000000	16.962066
553.000000	17.080782
554.000000	17.195404
555.000000	17.307961
556.000000	17.418134
557.000000	17.524761
558.000000	17.630761
559.000000	17.732585
560.000000	17.789872
561.000000	17.837760
562.000000	17.881221
563.000000	17.920400
564.000000	17.955923
565.000000	17.984689
566.000000	18.006734
567.000000	18.024527
568.000000	18.034998
569.000000	18.040635
570.000000	18.083057
571.000000	18.125980
572.000000	18.164789
573.000000	18.200077
574.000000	18.231319
575.000000	18.261459
576.000000	18.291996
577.000000	18.321127
578.000000	18.350992
579.000000	18.380690
580.000000	18.410721
581.000000	18.440127
582.000000	18.469460
583.000000	18.498488
584.000000	18.525405
585.000000	18.549095
586.000000	18.566914
587.000000	18.578044
588.000000	18.581190
589.000000	18.577232
590.000000	18.566124
591.000000	18.547965
592.000000	18.522874
593.000000	18.491357
594.000000	18.455086
595.000000	18.413814
596.000000	18.368218
597.000000	18.320175
598.000000	18.272156
599.000000	18.220063
600.000000	18.165524
601.000000	18.106596
602.000000	18.042069
603.000000	17.971010
604.000000	17.890248
605.000000	17.800475
606.000000	17.700598
607.000000	17.591291
608.000000	17.471104
609.000000	17.340854
610.000000	17.200116
611.000000	17.050809
612.000000	16.893167
613.000000	16.729561
614.000000	16.560556
615.000000	16.387053
616.000000	16.210232
617.000000	16.028448
618.000000	15.840474
619.000000	15.649208
620.000000	15.451177
621.000000	15.246277
622.000000	15.033536
623.000000	14.812998
624.000000	14.586320
625.000000	14.354091
626.000000	14.118598
627.000000	13.880913
628.000000	13.645580
629.000000	13.417445
630.000000	13.199470
631.000000	12.995988
632.000000	12.811574
633.000000	12.647568
634.000000	12.508183
635.000000	12.394295
636.000000	12.306575
637.000000	12.247515
638.000000	12.215495
639.000000	12.208372
640.000000	12.228256
641.000000	12.272680
642.000000	12.339093
643.000000	12.427810
644.000000	12.535849
645.000000	12.664521
646.000000	12.812384
647.000000	12.977080
648.000000	13.155587
649.000000	13.349541
650.000000	13.556287
651.000000	13.773673
652.000000	14.000626
653.000000	14.232888
654.000000	14.470678
655.000000	14.707590
656.000000	14.940828
657.000000	15.169046
658.000000	15.393089
659.000000	15.605760
660.000000	15.805705
661.000000	15.995359
662.000000	16.173046
663.000000	16.340624
664.000000	16.496640
665.000000	16.643676
666.000000	16.783352
667.000000	16.915644
668.000000	17.041566
669.000000	17.164857
670.000000	17.285178
671.000000	17.402010
672.000000	17.517438
673.000000	17.629262
674.000000	17.737293
675.000000	17.840412
676.000000	17.938116
677.000000	18.031288
678.000000	18.118620
679.000000	18.197777
680.000000	18.271753
681.000000	18.337114
682.000000	18.393893
683.000000	18.445804
684.000000	18.493784
685.000000	18.537810
686.000000	18.578060
687.000000	18.614310
688.000000	18.650625
689.000000	18.685015
690.000000	18.716039
691.000000	18.746010
692.000000	18.773918
693.000000	18.798458
694.000000	18.819299
695.000000	18.836129
696.000000	18.848355
697.000000	18.856043
698.000000	18.857828
699.000000	18.855654
700.000000	18.850050
701.000000	18.841708
702.000000	18.832639
703.000000	18.822197
704.000000	18.811326
705.000000	18.802902
706.000000	18.800670
707.000000	18.803794
708.000000	18.809561
709.000000	18.821570
710.000000	18.841404
711.000000	18.866676
712.000000	18.897029
713.000000	18.935892
714.000000	18.982404
715.000000	19.035184
716.000000	19.092477
717.000000	19.154721
718.000000	19.223606
719.000000	19.298190
720.000000	19.377686
721.000000	19.465564
722.000000	19.560534
723.000000	19.660299
724.000000	19.766424
725.000000	19.878751
726.000000	19.995537
727.000000	20.119711
728.000000	20.248409
729.000000	20.379807
730.000000	20.513792
731.000000	20.645880
732.000000	20.774991
733.000000	20.902300
734.000000	21.025074
735.000000	21.141423
736.000000	21.252900
737.000000	21.356140
738.000000	21.450696
739.000000	21.537558
740.000000	21.616282
741.000000	21.688562
742.000000	21.755808
743.000000	21.815919
744.000000	21.869227
745.000000	21.917120
746.000000	21.959363
747.000000	21.996424
748.000000	22.028584
749.000000	22.054687
750.000000	22.075708
751.000000	22.093295
752.000000	22.105286
753.000000	22.110029
754.000000	22.110064
755.000000	22.106474
756.000000	22.100439
757.000000	22.090833
758.000000	22.079397
759.000000	22.067384
760.000000	22.052798
761.000000	22.038609
762.000000	22.024900
763.000000	22.013309
764.000000	22.004619
765.000000	21.998269
766.000000	21.991292
767.000000	21.981939
768.000000	21.972253
769.000000	21.963491
770.000000	21.956002
771.000000	21.946237
772.000000	21.934033
773.000000	21.919938
774.000000	21.902462
775.000000	21.881963
776.000000	21.859459
777.000000	21.838878
778.000000	21.818990
779.000000	21.796134
780.000000	21.770681
781.000000	21.743117
782.000000	21.714846
783.000000	21.686220
784.000000	21.651756
785.000000	21.613994
786.000000	21.575967
787.000000	21.533465
788.000000	21.484206
789.000000	21.435023
790.000000	21.385187
791.000000	21.331162
792.000000	21.277288
793.000000	21.223583
794.000000	21.171940
795.000000	21.119761
796.000000	21.066387
797.000000	21.017147
798.000000	20.972841
799.000000	20.928452
800.000000	20.884808
801.000000	20.845196
802.000000	20.805569
803.000000	20.765406
804.000000	20.728075
805.000000	20.689980
806.000000	20.654755
807.000000	20.620292
808.000000	20.586946
809.000000	20.553278
810.000000	20.521203
811.000000	20.489120
812.000000	20.459003
813.000000	20.427444
814.000000	20.392517
815.000000	20.358003
816.000000	20.317767
817.000000	20.275316
818.000000	20.230535
819.000000	20.183974
820.000000	20.130589
821.000000	20.071170
822.000000	20.008043
823.000000	19.938764
824.000000	19.867600
825.000000	19.798366
826.000000	19.728367
827.000000	19.652892
828.000000	19.571184
829.000000	19.488502
830.000000	19.407623
831.000000	19.324103
832.000000	19.239666
833.000000	19.162903
834.000000	19.087498
835.000000	19.006708
836.000000	18.929351
837.000000	18.853800
838.000000	18.778429
839.000000	18.703882
840.000000	18.633345
841.000000	18.573967
842.000000	18.519115
843.000000	18.460401
844.000000	18.400775
845.000000	18.349137
846.000000	18.290502
847.000000	18.239527
848.000000	18.186926
849.000000	18.142284
850.000000	18.105028
851.000000	18.053971
852.000000	18.011213
853.000000	17.981384
854.000000	17.964235
855.000000	17.936753
856.000000	17.930981
857.000000	17.931582
858.000000	17.995397
859.000000	18.044885
860.000000	18.090002
861.000000	18.150870
862.000000	18.207907
863.000000	18.260140
864.000000	18.308000
865.000000	18.368345
866.000000	18.419293
867.000000	18.462190
868.000000	18.454290
869.000000	18.458293
870.000000	18.461970
871.000000	18.463897
872.000000	18.462303
873.000000	18.460157
874.000000	18.458077
875.000000	18.456843
876.000000	18.453640
877.000000	18.452633
878.000000	18.452383
879.000000	18.452803
880.000000	18.455920
881.000000	18.460960
882.000000	18.467727
883.000000	18.476137
884.000000	18.485570
885.000000	18.495027
886.000000	18.507683
887.000000	18.521090
888.000000	18.536657
889.000000	18.553303
890.000000	18.568587
891.000000	18.585733
892.000000	18.603203
893.000000	18.621057
894.000000	18.641700
895.000000	18.663400
896.000000	18.685143
897.000000	18.707147
898.000000	18.728237
899.000000	18.752633
900.000000	18.777807
901.000000	18.804367
902.000000	18.833443
903.000000	18.862730
904.000000	18.888930
905.000000	18.916367
906.000000	18.947087
907.000000	18.977747
908.000000	19.011510
909.000000	19.041250
910.000000	19.072663
911.000000	19.101187
912.000000	19.130830
913.000000	19.162447
914.000000	19.192810
915.000000	19.222530
916.000000	19.248007
917.000000	19.271397
918.000000	19.292070
919.000000	19.314160
920.000000	19.334897
921.000000	19.353570
922.000000	19.367427
923.000000	19.378707
924.000000	19.389727
925.000000	19.396893
926.000000	19.402993
927.000000	19.407193
928.000000	19.407417
929.000000	19.405410
930.000000	19.399840
931.000000	19.393480
932.000000	19.385143
933.000000	19.374990
934.000000	19.364630
935.000000	19.354207
936.000000	19.343197
937.000000	19.333660
938.000000	19.324490
939.000000	19.311510
940.000000	19.298390
941.000000	19.283433
942.000000	19.269717
943.000000	19.254657
944.000000	19.237683
945.000000	19.220190
946.000000	19.201253
947.000000	19.180883
948.000000	19.161293
949.000000	19.142937
950.000000	19.123993
951.000000	19.106273
952.000000	19.087573
953.000000	19.068230
954.000000	19.051553
955.000000	19.035437
956.000000	19.018087
957.000000	19.001200
958.000000	18.983323
959.000000	18.966853
960.000000	18.950197
961.000000	18.932953
962.000000	18.916230
963.000000	18.900187
964.000000	18.881707
965.000000	18.861600
966.000000	18.843430
967.000000	18.825863
968.000000	18.806423
969.000000	18.786140
970.000000	18.767333
971.000000	18.749417
972.000000	18.731113
973.000000	18.711480
974.000000	18.692110
975.000000	18.674223
976.000000	18.656543
977.000000	18.637393
978.000000	18.620260
979.000000	18.604973
980.000000	18.588327
981.000000	18.570247
982.000000	18.553700
983.000000	18.538890
984.000000	18.524170
985.000000	18.507977
986.000000	18.491367
987.000000	18.475297
988.000000	18.459187
989.000000	18.440670
990.000000	18.422910
991.000000	18.406680
992.000000	18.390557
993.000000	18.373087
994.000000	18.355690
995.000000	18.339950
996.000000	18.325120
997.000000	18.311113
998.000000	18.297290
999.000000	18.284723
1000.000000	18.272177
1001.000000	18.260207
1002.000000	18.248167
1003.000000	18.238170
1004.000000	18.229673
1005.000000	18.220770
1006.000000	18.211307
1007.000000	18.200313
1008.000000	18.188900
1009.000000	18.179397
1010.000000	18.171200
1011.000000	18.164177
1012.000000	18.157373
1013.000000	18.150360
1014.000000	18.143993
1015.000000	18.139113
1016.000000	18.135287
1017.000000	18.134337
1018.000000	18.134867
1019.000000	18.135470
1020.000000	18.136217
1021.000000	18.137200
1022.000000	18.138960
1023.000000	18.141657
1024.000000	18.145503
1025.000000	18.149763
1026.000000	18.154830
1027.000000	18.161247
1028.000000	18.168160
1029.000000	18.175623
1030.000000	18.184293
1031.000000	18.192577
1032.000000	18.200277
1033.000000	18.208150
1034.000000	18.215020
1035.000000	18.222567
1036.000000	18.230077
1037.000000	18.236727
1038.000000	18.243697
1039.000000	18.250033
1040.000000	18.255503
1041.000000	18.261503
1042.000000	18.268713
1043.000000	18.275710
1044.000000	18.282253
1045.000000	18.288587
1046.000000	18.294860
1047.000000	18.300813
1048.000000	18.306303
1049.000000	18.311783
1050.000000	18.317930
1051.000000	18.325260
1052.000000	18.331963
1053.000000	18.338783
1054.000000	18.346923
1055.000000	18.354173
1056.000000	18.360783
1057.000000	18.368777
1058.000000	18.376843
1059.000000	18.386653
1060.000000	18.395797
1061.000000	18.403663
1062.000000	18.412067
1063.000000	18.420913
1064.000000	18.430300
1065.000000	18.440403
1066.000000	18.452703
1067.000000	18.464910
1068.000000	18.477997
1069.000000	18.491047
1070.000000	18.505143
1071.000000	18.520567
1072.000000	18.536867
1073.000000	18.552867
1074.000000	18.568050
1075.000000	18.583927
1076.000000	18.599130
1077.000000	18.615087
1078.000000	18.630823
1079.000000	18.644480
1080.000000	18.657483
1081.000000	18.670510
1082.000000	18.682027
1083.000000	18.693590
1084.000000	18.705450
1085.000000	18.716733
1086.000000	18.727827
1087.000000	18.738137
1088.000000	18.748973
1089.000000	18.760743
1090.000000	18.772240
1091.000000	18.782393
1092.000000	18.793327
1093.000000	18.804073
1094.000000	18.814120
1095.000000	18.823483
1096.000000	18.831870
1097.000000	18.839550
1098.000000	18.847373
1099.000000	18.853010
1100.000000	18.857820
1101.000000	18.863493
1102.000000	18.868820
1103.000000	18.874293
1104.000000	18.880160
1105.000000	18.886937
1106.000000	18.893577
1107.000000	18.900827
1108.000000	18.907403
1109.000000	18.914807
1110.000000	18.922893
1111.000000	18.930430
1112.000000	18.937517
1113.000000	18.945173
1114.000000	18.951213
1115.000000	18.955880
1116.000000	18.961783
1117.000000	18.965727
1118.000000	18.969903
1119.000000	18.974633
1120.000000	18.979340
1121.000000	18.984197
1122.000000	18.989460
1123.000000	18.994433
1124.000000	18.999833
1125.000000	19.004857
1126.000000	19.007840
1127.000000	19.012173
1128.000000	19.014717
1129.000000	19.018457
1130.000000	19.021873
1131.000000	19.021337
1132.000000	19.016687
1133.000000	19.007597
1134.000000	18.998663
1135.000000	18.994473
1136.000000	18.991163
1137.000000	18.982113
1138.000000	18.971553
1139.000000	18.958340
1140.000000	18.943807
1141.000000	18.931120
1142.000000	18.920480
1143.000000	18.911220
1144.000000	18.900567
1145.000000	18.885580
1146.000000	18.870187
1147.000000	18.859193
1148.000000	18.847567
1149.000000	18.836280
1150.000000	18.825597
1151.000000	18.814387
1152.000000	18.804337
1153.000000	18.794403
1154.000000	18.784483
1155.000000	18.772933
1156.000000	18.759723
1157.000000	18.742513
1158.000000	18.724837
1159.000000	18.705217
1160.000000	18.681740
1161.000000	18.655510
1162.000000	18.626360
1163.000000	18.594993
1164.000000	18.561210
1165.000000	18.526067
1166.000000	18.490963
1167.000000	18.457760
1168.000000	18.424727
1169.000000	18.391950
1170.000000	18.361817
1171.000000	18.334983
1172.000000	18.309420
1173.000000	18.285560
