PE UV       SUBTECH     SPECTRUM    ASCII       PEDS        4.00        
   -1
BIOUCR0003-3.Sample.ASC
24/02/19
11:51:08.00
24/02/19
11:51:08.00
Vinicio Soto Monge
P. cupreomarginata (sin datos) Monteverde(dudoso) 
250,000000
1
Lambda 1050
1050L1511233
PerkinElmer UV WinLab 6.3.2.0749 / 2.02.05 Lambda 900 UV/VIS/NIR, Aug  7 2015 09:38:08

0
0
3350/servo 860,8/2
0
0
UV/VIS
1
1
1
DoubleDePol,CommonBeamDepol,RBeamAtt,SBeamAtt,60mm sphere, WB InGaAs Detector
0
0
0
0
Program
Program
3350/servo 860,8/2
3350/0,2 860,8/0,2
3350/0,2 860,8/0,2
0
15.00
 
 
 
0
 
860,8
319,2
860,8
Front
100
on
S:100 R:100
0
0
0
0
 
0
 
 
 
0
 
 
0
0
0
0
0
 
 
 
 
0
0


0
0
#HDR
-1
-1
#GR
nm
%R
1.0
0.0
2500,000000
-1,000000
2251
8
21,834900
1,499300
#DATA

250.000000	nan
251.000000	nan
252.000000	nan
253.000000	nan
254.000000	nan
255.000000	nan
256.000000	nan
257.000000	nan
258.000000	nan
259.000000	2.024426
260.000000	2.019867
261.000000	2.015677
262.000000	2.012006
263.000000	2.006889
264.000000	2.000910
265.000000	1.996206
266.000000	1.990931
267.000000	1.986180
268.000000	1.981234
269.000000	1.976287
270.000000	1.971424
271.000000	1.964731
272.000000	1.958390
273.000000	1.952887
274.000000	1.948276
275.000000	1.941901
276.000000	1.937704
277.000000	1.933151
278.000000	1.929613
279.000000	1.926289
280.000000	1.923304
281.000000	1.921611
282.000000	1.920175
283.000000	1.918183
284.000000	1.915940
285.000000	1.915965
286.000000	1.914401
287.000000	1.913270
288.000000	1.909882
289.000000	1.906541
290.000000	1.902599
291.000000	1.899797
292.000000	1.895386
293.000000	1.891507
294.000000	1.888135
295.000000	1.885531
296.000000	1.882156
297.000000	1.879246
298.000000	1.876933
299.000000	1.875061
300.000000	1.873241
301.000000	1.870600
302.000000	1.868757
303.000000	1.868511
304.000000	1.867507
305.000000	1.863697
306.000000	1.859556
307.000000	1.857630
308.000000	1.856627
309.000000	1.854106
310.000000	1.852766
311.000000	1.851914
312.000000	1.849804
313.000000	1.845247
314.000000	1.841650
315.000000	1.840762
316.000000	1.842407
317.000000	1.849526
318.000000	1.856869
319.000000	1.861403
320.000000	1.866760
321.000000	1.871935
322.000000	1.880411
323.000000	1.887512
324.000000	1.893119
325.000000	1.898402
326.000000	1.901264
327.000000	1.897672
328.000000	1.890488
329.000000	1.886600
330.000000	1.879593
331.000000	1.873237
332.000000	1.868535
333.000000	1.861896
334.000000	1.856052
335.000000	1.852123
336.000000	1.846979
337.000000	1.839890
338.000000	1.839426
339.000000	1.837257
340.000000	1.839114
341.000000	1.837472
342.000000	1.828030
343.000000	1.826287
344.000000	1.826640
345.000000	1.823156
346.000000	1.821120
347.000000	1.818364
348.000000	1.810859
349.000000	1.808319
350.000000	1.803512
351.000000	1.801218
352.000000	1.801492
353.000000	1.799231
354.000000	1.794704
355.000000	1.790932
356.000000	1.788208
357.000000	1.787135
358.000000	1.787635
359.000000	1.785736
360.000000	1.783665
361.000000	1.783440
362.000000	1.784386
363.000000	1.780324
364.000000	1.778142
365.000000	1.776868
366.000000	1.778934
367.000000	1.777248
368.000000	1.775737
369.000000	1.773445
370.000000	1.772417
371.000000	1.770542
372.000000	1.766561
373.000000	1.767439
374.000000	1.765228
375.000000	1.763332
376.000000	1.752020
377.000000	1.730718
378.000000	1.710526
379.000000	1.691034
380.000000	1.670729
381.000000	1.650223
382.000000	1.632018
383.000000	1.614380
384.000000	1.598527
385.000000	1.582048
386.000000	1.572448
387.000000	1.576631
388.000000	1.581796
389.000000	1.586957
390.000000	1.592395
391.000000	1.598651
392.000000	1.606521
393.000000	1.614139
394.000000	1.622155
395.000000	1.631877
396.000000	1.642792
397.000000	1.654517
398.000000	1.667179
399.000000	1.681248
400.000000	1.697450
401.000000	1.715246
402.000000	1.734488
403.000000	1.756220
404.000000	1.780236
405.000000	1.806259
406.000000	1.833632
407.000000	1.863379
408.000000	1.895368
409.000000	1.929624
410.000000	1.966015
411.000000	2.004459
412.000000	2.044954
413.000000	2.087762
414.000000	2.132880
415.000000	2.179398
416.000000	2.228016
417.000000	2.278698
418.000000	2.330852
419.000000	2.384122
420.000000	2.438523
421.000000	2.494460
422.000000	2.551706
423.000000	2.609735
424.000000	2.667994
425.000000	2.727074
426.000000	2.786750
427.000000	2.846214
428.000000	2.904786
429.000000	2.962760
430.000000	3.020513
431.000000	3.077451
432.000000	3.133693
433.000000	3.189290
434.000000	3.244637
435.000000	3.299125
436.000000	3.352578
437.000000	3.404851
438.000000	3.456735
439.000000	3.508701
440.000000	3.559477
441.000000	3.608798
442.000000	3.656627
443.000000	3.702621
444.000000	3.746376
445.000000	3.788280
446.000000	3.828525
447.000000	3.867128
448.000000	3.903965
449.000000	3.938445
450.000000	3.970821
451.000000	4.001339
452.000000	4.030057
453.000000	4.057041
454.000000	4.081827
455.000000	4.104282
456.000000	4.124462
457.000000	4.142003
458.000000	4.156596
459.000000	4.168799
460.000000	4.179144
461.000000	4.187306
462.000000	4.193273
463.000000	4.197220
464.000000	4.200058
465.000000	4.202211
466.000000	4.203360
467.000000	4.204627
468.000000	4.207098
469.000000	4.210840
470.000000	4.215348
471.000000	4.221653
472.000000	4.230672
473.000000	4.243459
474.000000	4.260125
475.000000	4.280563
476.000000	4.305697
477.000000	4.336137
478.000000	4.372099
479.000000	4.413661
480.000000	4.461541
481.000000	4.515375
482.000000	4.574662
483.000000	4.639939
484.000000	4.712053
485.000000	4.791287
486.000000	4.877211
487.000000	4.968137
488.000000	5.062263
489.000000	5.158494
490.000000	5.256612
491.000000	5.355961
492.000000	5.455035
493.000000	5.552318
494.000000	5.646210
495.000000	5.736385
496.000000	5.822430
497.000000	5.904438
498.000000	5.983651
499.000000	6.060985
500.000000	6.136138
501.000000	6.209857
502.000000	6.283739
503.000000	6.358576
504.000000	6.434859
505.000000	6.512512
506.000000	6.592787
507.000000	6.676739
508.000000	6.764372
509.000000	6.856355
510.000000	6.953492
511.000000	7.055783
512.000000	7.163468
513.000000	7.276827
514.000000	7.395767
515.000000	7.520461
516.000000	7.650475
517.000000	7.785508
518.000000	7.925628
519.000000	8.070828
520.000000	8.221148
521.000000	8.376712
522.000000	8.537125
523.000000	8.701482
524.000000	8.870977
525.000000	9.045552
526.000000	9.224654
527.000000	9.407227
528.000000	9.592176
529.000000	9.779009
530.000000	9.966893
531.000000	10.156885
532.000000	10.348776
533.000000	10.543283
534.000000	10.739898
535.000000	10.938317
536.000000	11.138839
537.000000	11.341645
538.000000	11.546635
539.000000	11.754024
540.000000	11.964894
541.000000	12.177518
542.000000	12.390142
543.000000	12.601132
544.000000	12.809672
545.000000	13.015873
546.000000	13.216673
547.000000	13.411872
548.000000	13.600671
549.000000	13.781683
550.000000	13.955837
551.000000	14.123244
552.000000	14.284666
553.000000	14.440636
554.000000	14.592387
555.000000	14.739094
556.000000	14.881381
557.000000	15.021164
558.000000	15.159109
559.000000	15.295561
560.000000	15.390170
561.000000	15.473986
562.000000	15.554373
563.000000	15.630005
564.000000	15.699731
565.000000	15.763779
566.000000	15.821302
567.000000	15.870380
568.000000	15.912117
569.000000	15.945339
570.000000	16.007895
571.000000	16.071065
572.000000	16.127137
573.000000	16.177819
574.000000	16.224471
575.000000	16.267248
576.000000	16.308289
577.000000	16.348723
578.000000	16.387005
579.000000	16.424259
580.000000	16.460792
581.000000	16.495625
582.000000	16.527206
583.000000	16.557604
584.000000	16.584185
585.000000	16.607469
586.000000	16.625647
587.000000	16.637714
588.000000	16.643286
589.000000	16.639757
590.000000	16.627596
591.000000	16.604914
592.000000	16.574073
593.000000	16.531461
594.000000	16.479586
595.000000	16.420420
596.000000	16.356513
597.000000	16.287928
598.000000	16.216794
599.000000	16.146423
600.000000	16.076077
601.000000	16.007694
602.000000	15.940193
603.000000	15.874710
604.000000	15.811192
605.000000	15.746422
606.000000	15.681950
607.000000	15.618036
608.000000	15.551761
609.000000	15.485491
610.000000	15.419162
611.000000	15.351294
612.000000	15.282507
613.000000	15.213646
614.000000	15.142675
615.000000	15.071141
616.000000	14.996368
617.000000	14.919392
618.000000	14.841515
619.000000	14.760594
620.000000	14.676576
621.000000	14.587425
622.000000	14.493333
623.000000	14.394070
624.000000	14.290500
625.000000	14.180856
626.000000	14.066875
627.000000	13.948625
628.000000	13.829449
629.000000	13.708433
630.000000	13.589034
631.000000	13.475927
632.000000	13.371533
633.000000	13.278656
634.000000	13.199779
635.000000	13.138998
636.000000	13.098037
637.000000	13.077837
638.000000	13.078251
639.000000	13.099897
640.000000	13.141693
641.000000	13.201796
642.000000	13.276990
643.000000	13.366498
644.000000	13.466920
645.000000	13.574971
646.000000	13.686288
647.000000	13.799494
648.000000	13.911609
649.000000	14.021808
650.000000	14.128621
651.000000	14.230734
652.000000	14.328889
653.000000	14.420894
654.000000	14.508692
655.000000	14.591352
656.000000	14.669065
657.000000	14.742251
658.000000	14.812867
659.000000	14.881165
660.000000	14.945782
661.000000	15.007844
662.000000	15.068309
663.000000	15.126022
664.000000	15.179023
665.000000	15.229164
666.000000	15.280982
667.000000	15.334117
668.000000	15.386995
669.000000	15.442201
670.000000	15.502594
671.000000	15.568377
672.000000	15.639370
673.000000	15.717494
674.000000	15.805185
675.000000	15.902174
676.000000	16.005213
677.000000	16.114760
678.000000	16.233116
679.000000	16.356220
680.000000	16.482150
681.000000	16.608899
682.000000	16.735162
683.000000	16.859464
684.000000	16.979482
685.000000	17.092485
686.000000	17.198448
687.000000	17.294926
688.000000	17.378726
689.000000	17.452654
690.000000	17.515515
691.000000	17.566937
692.000000	17.609168
693.000000	17.642606
694.000000	17.666859
695.000000	17.683989
696.000000	17.694991
697.000000	17.702733
698.000000	17.708878
699.000000	17.714217
700.000000	17.720006
701.000000	17.729174
702.000000	17.742329
703.000000	17.758927
704.000000	17.781327
705.000000	17.813042
706.000000	17.852382
707.000000	17.900572
708.000000	17.962224
709.000000	18.034245
710.000000	18.118124
711.000000	18.213825
712.000000	18.320968
713.000000	18.440929
714.000000	18.573733
715.000000	18.715990
716.000000	18.869424
717.000000	19.032814
718.000000	19.201363
719.000000	19.374382
720.000000	19.551678
721.000000	19.730345
722.000000	19.907763
723.000000	20.084583
724.000000	20.259474
725.000000	20.431106
726.000000	20.596493
727.000000	20.753604
728.000000	20.903102
729.000000	21.044681
730.000000	21.175933
731.000000	21.299149
732.000000	21.414659
733.000000	21.519580
734.000000	21.613906
735.000000	21.699578
736.000000	21.778842
737.000000	21.850753
738.000000	21.913625
739.000000	21.970004
740.000000	22.020455
741.000000	22.065894
742.000000	22.107907
743.000000	22.145583
744.000000	22.179899
745.000000	22.211059
746.000000	22.241240
747.000000	22.273287
748.000000	22.303875
749.000000	22.332141
750.000000	22.360294
751.000000	22.388024
752.000000	22.415692
753.000000	22.443297
754.000000	22.470057
755.000000	22.494047
756.000000	22.513663
757.000000	22.528817
758.000000	22.543955
759.000000	22.560627
760.000000	22.578010
761.000000	22.596380
762.000000	22.612746
763.000000	22.626956
764.000000	22.643580
765.000000	22.664282
766.000000	22.686122
767.000000	22.708092
768.000000	22.728382
769.000000	22.747139
770.000000	22.762649
771.000000	22.774176
772.000000	22.784445
773.000000	22.793853
774.000000	22.795728
775.000000	22.793038
776.000000	22.791651
777.000000	22.787564
778.000000	22.781284
779.000000	22.773451
780.000000	22.763719
781.000000	22.752242
782.000000	22.739216
783.000000	22.723990
784.000000	22.710630
785.000000	22.695980
786.000000	22.674290
787.000000	22.649567
788.000000	22.623837
789.000000	22.598613
790.000000	22.574918
791.000000	22.548798
792.000000	22.520471
793.000000	22.490528
794.000000	22.458582
795.000000	22.425040
796.000000	22.391397
797.000000	22.358740
798.000000	22.327459
799.000000	22.293742
800.000000	22.255604
801.000000	22.218945
802.000000	22.182374
803.000000	22.148873
804.000000	22.114657
805.000000	22.076221
806.000000	22.038716
807.000000	22.002304
808.000000	21.973512
809.000000	21.941062
810.000000	21.906667
811.000000	21.873224
812.000000	21.839547
813.000000	21.802418
814.000000	21.766123
815.000000	21.732150
816.000000	21.693574
817.000000	21.657375
818.000000	21.608219
819.000000	21.562705
820.000000	21.519984
821.000000	21.471767
822.000000	21.418507
823.000000	21.363386
824.000000	21.307761
825.000000	21.252400
826.000000	21.196871
827.000000	21.133942
828.000000	21.069591
829.000000	20.996595
830.000000	20.921605
831.000000	20.847767
832.000000	20.767580
833.000000	20.684969
834.000000	20.597010
835.000000	20.504254
836.000000	20.409718
837.000000	20.315137
838.000000	20.216310
839.000000	20.118741
840.000000	20.016381
841.000000	19.912428
842.000000	19.808985
843.000000	19.701302
844.000000	19.591246
845.000000	19.488543
846.000000	19.391332
847.000000	19.291367
848.000000	19.191905
849.000000	19.093673
850.000000	19.007796
851.000000	18.917752
852.000000	18.825210
853.000000	18.755719
854.000000	18.684358
855.000000	18.596171
856.000000	18.525824
857.000000	18.459141
858.000000	18.451425
859.000000	18.446986
860.000000	18.438269
861.000000	18.440719
862.000000	18.459302
863.000000	18.469510
864.000000	18.493108
865.000000	18.534861
866.000000	18.562597
867.000000	18.596788
868.000000	18.583510
869.000000	18.574853
870.000000	18.568600
871.000000	18.561830
872.000000	18.554963
873.000000	18.548080
874.000000	18.540067
875.000000	18.534760
876.000000	18.530677
877.000000	18.527800
878.000000	18.527517
879.000000	18.529407
880.000000	18.533483
881.000000	18.541990
882.000000	18.553980
883.000000	18.566613
884.000000	18.582693
885.000000	18.599647
886.000000	18.617997
887.000000	18.636013
888.000000	18.656730
889.000000	18.680260
890.000000	18.705247
891.000000	18.729563
892.000000	18.753220
893.000000	18.778637
894.000000	18.805230
895.000000	18.833140
896.000000	18.861733
897.000000	18.893883
898.000000	18.927030
899.000000	18.960160
900.000000	18.995747
901.000000	19.035313
902.000000	19.075540
903.000000	19.118553
904.000000	19.163867
905.000000	19.208900
906.000000	19.257897
907.000000	19.306337
908.000000	19.353713
909.000000	19.403663
910.000000	19.451267
911.000000	19.496097
912.000000	19.541780
913.000000	19.589363
914.000000	19.635357
915.000000	19.681243
916.000000	19.724483
917.000000	19.766650
918.000000	19.808700
919.000000	19.847307
920.000000	19.886987
921.000000	19.927220
922.000000	19.968000
923.000000	20.004950
924.000000	20.039940
925.000000	20.072740
926.000000	20.105030
927.000000	20.136640
928.000000	20.165683
929.000000	20.193593
930.000000	20.218987
931.000000	20.242200
932.000000	20.261713
933.000000	20.281190
934.000000	20.302830
935.000000	20.325070
936.000000	20.345543
937.000000	20.367187
938.000000	20.390153
939.000000	20.412777
940.000000	20.435453
941.000000	20.455670
942.000000	20.475463
943.000000	20.495997
944.000000	20.514517
945.000000	20.534533
946.000000	20.554897
947.000000	20.574223
948.000000	20.593510
949.000000	20.613020
950.000000	20.632320
951.000000	20.654623
952.000000	20.679423
953.000000	20.701767
954.000000	20.723463
955.000000	20.743567
956.000000	20.763540
957.000000	20.783580
958.000000	20.802413
959.000000	20.819843
960.000000	20.838063
961.000000	20.852997
962.000000	20.866480
963.000000	20.878890
964.000000	20.891217
965.000000	20.902240
966.000000	20.912437
967.000000	20.920127
968.000000	20.927117
969.000000	20.934560
970.000000	20.941087
971.000000	20.947233
972.000000	20.952860
973.000000	20.957070
974.000000	20.960353
975.000000	20.965153
976.000000	20.968690
977.000000	20.972913
978.000000	20.977957
979.000000	20.982047
980.000000	20.983387
981.000000	20.985330
982.000000	20.987577
983.000000	20.991763
984.000000	20.994567
985.000000	20.995533
986.000000	20.998033
987.000000	21.000830
988.000000	21.001907
989.000000	21.003033
990.000000	21.006207
991.000000	21.010453
992.000000	21.013723
993.000000	21.015163
994.000000	21.018010
995.000000	21.021350
996.000000	21.024887
997.000000	21.028190
998.000000	21.032277
999.000000	21.037587
1000.000000	21.042037
1001.000000	21.046250
1002.000000	21.050883
1003.000000	21.056760
1004.000000	21.061627
1005.000000	21.065547
1006.000000	21.067960
1007.000000	21.069370
1008.000000	21.070160
1009.000000	21.070133
1010.000000	21.070747
1011.000000	21.070353
1012.000000	21.068803
1013.000000	21.066140
1014.000000	21.063437
1015.000000	21.061257
1016.000000	21.059513
1017.000000	21.058187
1018.000000	21.057270
1019.000000	21.056920
1020.000000	21.056123
1021.000000	21.055643
1022.000000	21.055570
1023.000000	21.055633
1024.000000	21.058017
1025.000000	21.060833
1026.000000	21.063073
1027.000000	21.067110
1028.000000	21.071723
1029.000000	21.075543
1030.000000	21.079543
1031.000000	21.085423
1032.000000	21.091263
1033.000000	21.096343
1034.000000	21.100697
1035.000000	21.104957
1036.000000	21.110223
1037.000000	21.114783
1038.000000	21.118833
1039.000000	21.123157
1040.000000	21.128863
1041.000000	21.133970
1042.000000	21.138580
1043.000000	21.143650
1044.000000	21.149487
1045.000000	21.156213
1046.000000	21.162170
1047.000000	21.167510
1048.000000	21.173593
1049.000000	21.179837
1050.000000	21.185117
1051.000000	21.189793
1052.000000	21.196447
1053.000000	21.204003
1054.000000	21.209843
1055.000000	21.214197
1056.000000	21.218587
1057.000000	21.224187
1058.000000	21.229553
1059.000000	21.234447
1060.000000	21.239280
1061.000000	21.243977
1062.000000	21.248670
1063.000000	21.254630
1064.000000	21.261637
1065.000000	21.268593
1066.000000	21.276130
1067.000000	21.283063
1068.000000	21.290053
1069.000000	21.298990
1070.000000	21.309407
1071.000000	21.319617
1072.000000	21.329830
1073.000000	21.338593
1074.000000	21.346807
1075.000000	21.356167
1076.000000	21.367013
1077.000000	21.377870
1078.000000	21.387797
1079.000000	21.397383
1080.000000	21.405737
1081.000000	21.413590
1082.000000	21.420383
1083.000000	21.427530
1084.000000	21.434440
1085.000000	21.441217
1086.000000	21.447657
1087.000000	21.453893
1088.000000	21.460193
1089.000000	21.465463
1090.000000	21.471450
1091.000000	21.478193
1092.000000	21.484647
1093.000000	21.490800
1094.000000	21.496343
1095.000000	21.501270
1096.000000	21.505100
1097.000000	21.507480
1098.000000	21.509153
1099.000000	21.511347
1100.000000	21.513113
1101.000000	21.513393
1102.000000	21.513940
1103.000000	21.514070
1104.000000	21.513930
1105.000000	21.515920
1106.000000	21.517037
1107.000000	21.519433
1108.000000	21.521743
1109.000000	21.523090
1110.000000	21.523687
1111.000000	21.525780
1112.000000	21.527760
1113.000000	21.528510
1114.000000	21.528797
1115.000000	21.526603
1116.000000	21.524263
1117.000000	21.521280
1118.000000	21.519313
1119.000000	21.516680
1120.000000	21.513440
1121.000000	21.509350
1122.000000	21.505153
1123.000000	21.502407
1124.000000	21.499353
1125.000000	21.494300
1126.000000	21.487790
1127.000000	21.479613
1128.000000	21.469887
1129.000000	21.459170
1130.000000	21.446467
1131.000000	21.428267
1132.000000	21.402463
1133.000000	21.372520
1134.000000	21.343563
1135.000000	21.316513
1136.000000	21.286793
1137.000000	21.252477
1138.000000	21.215463
1139.000000	21.177397
1140.000000	21.138263
1141.000000	21.101417
1142.000000	21.068113
1143.000000	21.034857
1144.000000	21.001070
1145.000000	20.965197
1146.000000	20.932550
1147.000000	20.902420
1148.000000	20.875513
1149.000000	20.847983
1150.000000	20.820420
1151.000000	20.794187
1152.000000	20.770010
1153.000000	20.746583
1154.000000	20.721840
1155.000000	20.696697
1156.000000	20.667440
1157.000000	20.638230
1158.000000	20.604237
1159.000000	20.567387
1160.000000	20.528203
1161.000000	20.485613
1162.000000	20.437967
1163.000000	20.388197
1164.000000	20.334607
1165.000000	20.278220
1166.000000	20.221083
1167.000000	20.162957
1168.000000	20.104543
1169.000000	20.048650
1170.000000	19.993800
1171.000000	19.941500
1172.000000	19.893527
1173.000000	19.847893
