PE UV       SUBTECH     SPECTRUM    ASCII       PEDS        4.00        
   -1
BIOUCR0007-3.Sample.ASC
24/02/19
13:42:23.00
24/02/19
13:42:23.00
Vinicio Soto Monge
P. cupreomarginata (sin datos) Monteverde(dudoso) Filtro Der: Se ve menos cafe. Mas cafe en el centro del elitro izq
250,000000
1
Lambda 1050
1050L1511233
PerkinElmer UV WinLab 6.3.2.0749 / 2.02.05 Lambda 900 UV/VIS/NIR, Aug  7 2015 09:38:08

0
0
3350/servo 860,8/2
0
0
UV/VIS
1
1
1
DoubleDePol,CommonBeamDepol,RBeamAtt,SBeamAtt,60mm sphere, WB InGaAs Detector
0
0
0
0
Program
Program
3350/servo 860,8/2
3350/0,2 860,8/0,2
3350/0,2 860,8/0,2
0
15.00
 
 
 
0
 
860,8
319,2
860,8
Front
100
on
S:100 R:100
0
0
0
0
 
0
 
 
 
0
 
 
0
0
0
0
0
 
 
 
 
0
0


0
0
#HDR
-1
-1
#GR
nm
%R
1.0
0.0
2500,000000
-1,000000
2251
8
21,030000
1,623900
#DATA

250.000000	nan
251.000000	nan
252.000000	nan
253.000000	nan
254.000000	nan
255.000000	nan
256.000000	nan
257.000000	nan
258.000000	nan
259.000000	2.015901
260.000000	2.011679
261.000000	2.007209
262.000000	2.001965
263.000000	1.996274
264.000000	1.991470
265.000000	1.987986
266.000000	1.983271
267.000000	1.977110
268.000000	1.970600
269.000000	1.964077
270.000000	1.956143
271.000000	1.950085
272.000000	1.944754
273.000000	1.941992
274.000000	1.938779
275.000000	1.936705
276.000000	1.931864
277.000000	1.927408
278.000000	1.927201
279.000000	1.926346
280.000000	1.925290
281.000000	1.922397
282.000000	1.921109
283.000000	1.918876
284.000000	1.915860
285.000000	1.910165
286.000000	1.907571
287.000000	1.906246
288.000000	1.902548
289.000000	1.898296
290.000000	1.895283
291.000000	1.895048
292.000000	1.893484
293.000000	1.891197
294.000000	1.889304
295.000000	1.887387
296.000000	1.886390
297.000000	1.884397
298.000000	1.882495
299.000000	1.879465
300.000000	1.880448
301.000000	1.878159
302.000000	1.877016
303.000000	1.875140
304.000000	1.873475
305.000000	1.874147
306.000000	1.870692
307.000000	1.868728
308.000000	1.867322
309.000000	1.866631
310.000000	1.863988
311.000000	1.859662
312.000000	1.856379
313.000000	1.854011
314.000000	1.851576
315.000000	1.849046
316.000000	1.853156
317.000000	1.874142
318.000000	1.897243
319.000000	1.913027
320.000000	1.937284
321.000000	1.957469
322.000000	1.968736
323.000000	1.992467
324.000000	2.014230
325.000000	2.024803
326.000000	2.029191
327.000000	2.014956
328.000000	1.998694
329.000000	1.987222
330.000000	1.963186
331.000000	1.957319
332.000000	1.957514
333.000000	1.941426
334.000000	1.922539
335.000000	1.917391
336.000000	1.912077
337.000000	1.911179
338.000000	1.910349
339.000000	1.910716
340.000000	1.914643
341.000000	1.905720
342.000000	1.897243
343.000000	1.893400
344.000000	1.895764
345.000000	1.893399
346.000000	1.892381
347.000000	1.889571
348.000000	1.889912
349.000000	1.890076
350.000000	1.887277
351.000000	1.888920
352.000000	1.886816
353.000000	1.884994
354.000000	1.881845
355.000000	1.877663
356.000000	1.876745
357.000000	1.873910
358.000000	1.866982
359.000000	1.862654
360.000000	1.863036
361.000000	1.858185
362.000000	1.859052
363.000000	1.857568
364.000000	1.858724
365.000000	1.862338
366.000000	1.857515
367.000000	1.855389
368.000000	1.855199
369.000000	1.853203
370.000000	1.848749
371.000000	1.847266
372.000000	1.845392
373.000000	1.840881
374.000000	1.831083
375.000000	1.825894
376.000000	1.824198
377.000000	1.808152
378.000000	1.791408
379.000000	1.777441
380.000000	1.765592
381.000000	1.752377
382.000000	1.739441
383.000000	1.731630
384.000000	1.728370
385.000000	1.721209
386.000000	1.717400
387.000000	1.727001
388.000000	1.737937
389.000000	1.749077
390.000000	1.760844
391.000000	1.774503
392.000000	1.789385
393.000000	1.805351
394.000000	1.822775
395.000000	1.841780
396.000000	1.863352
397.000000	1.887317
398.000000	1.912960
399.000000	1.939941
400.000000	1.969192
401.000000	2.001001
402.000000	2.035485
403.000000	2.071403
404.000000	2.109501
405.000000	2.150864
406.000000	2.194415
407.000000	2.239735
408.000000	2.287292
409.000000	2.337696
410.000000	2.390503
411.000000	2.444588
412.000000	2.500124
413.000000	2.559052
414.000000	2.620076
415.000000	2.681903
416.000000	2.745274
417.000000	2.810259
418.000000	2.876805
419.000000	2.945106
420.000000	3.014001
421.000000	3.084139
422.000000	3.155445
423.000000	3.227360
424.000000	3.299522
425.000000	3.371839
426.000000	3.444244
427.000000	3.517371
428.000000	3.590331
429.000000	3.662487
430.000000	3.734225
431.000000	3.805928
432.000000	3.877696
433.000000	3.948307
434.000000	4.018189
435.000000	4.087969
436.000000	4.157229
437.000000	4.224997
438.000000	4.292082
439.000000	4.358425
440.000000	4.423642
441.000000	4.487885
442.000000	4.550484
443.000000	4.611338
444.000000	4.669898
445.000000	4.726264
446.000000	4.780693
447.000000	4.833299
448.000000	4.882852
449.000000	4.929535
450.000000	4.973952
451.000000	5.014940
452.000000	5.052751
453.000000	5.087739
454.000000	5.120575
455.000000	5.151283
456.000000	5.178666
457.000000	5.203612
458.000000	5.227198
459.000000	5.249552
460.000000	5.271148
461.000000	5.292430
462.000000	5.313583
463.000000	5.335883
464.000000	5.360206
465.000000	5.385879
466.000000	5.414091
467.000000	5.445324
468.000000	5.479978
469.000000	5.518226
470.000000	5.560037
471.000000	5.605792
472.000000	5.655308
473.000000	5.708696
474.000000	5.765372
475.000000	5.825553
476.000000	5.889309
477.000000	5.956372
478.000000	6.026331
479.000000	6.098115
480.000000	6.170682
481.000000	6.242752
482.000000	6.314887
483.000000	6.388115
484.000000	6.462791
485.000000	6.538974
486.000000	6.616511
487.000000	6.695390
488.000000	6.774932
489.000000	6.855807
490.000000	6.938572
491.000000	7.025173
492.000000	7.114801
493.000000	7.204978
494.000000	7.294940
495.000000	7.384534
496.000000	7.474500
497.000000	7.564457
498.000000	7.654802
499.000000	7.745845
500.000000	7.837788
501.000000	7.929668
502.000000	8.021929
503.000000	8.115822
504.000000	8.212348
505.000000	8.310479
506.000000	8.408693
507.000000	8.507216
508.000000	8.606587
509.000000	8.706121
510.000000	8.805284
511.000000	8.904750
512.000000	9.004245
513.000000	9.102653
514.000000	9.199010
515.000000	9.294209
516.000000	9.389178
517.000000	9.484379
518.000000	9.579195
519.000000	9.674027
520.000000	9.770184
521.000000	9.868236
522.000000	9.968828
523.000000	10.073066
524.000000	10.181136
525.000000	10.294734
526.000000	10.415542
527.000000	10.543546
528.000000	10.679707
529.000000	10.826014
530.000000	10.983254
531.000000	11.150879
532.000000	11.330412
533.000000	11.523244
534.000000	11.730612
535.000000	11.953589
536.000000	12.191505
537.000000	12.444786
538.000000	12.715630
539.000000	13.003258
540.000000	13.307255
541.000000	13.628534
542.000000	13.964430
543.000000	14.314255
544.000000	14.675796
545.000000	15.046159
546.000000	15.422199
547.000000	15.801766
548.000000	16.179793
549.000000	16.553369
550.000000	16.919064
551.000000	17.272236
552.000000	17.611800
553.000000	17.934320
554.000000	18.239442
555.000000	18.524103
556.000000	18.788502
557.000000	19.031086
558.000000	19.252401
559.000000	19.454917
560.000000	19.590772
561.000000	19.702039
562.000000	19.795842
563.000000	19.873027
564.000000	19.934918
565.000000	19.983597
566.000000	20.018212
567.000000	20.042741
568.000000	20.057940
569.000000	20.061095
570.000000	20.102529
571.000000	20.143429
572.000000	20.176987
573.000000	20.205286
574.000000	20.226659
575.000000	20.242772
576.000000	20.256873
577.000000	20.267340
578.000000	20.275155
579.000000	20.279716
580.000000	20.283044
581.000000	20.283961
582.000000	20.285717
583.000000	20.284737
584.000000	20.281893
585.000000	20.279303
586.000000	20.272696
587.000000	20.262927
588.000000	20.248491
589.000000	20.232674
590.000000	20.212857
591.000000	20.188618
592.000000	20.159331
593.000000	20.125035
594.000000	20.087983
595.000000	20.043596
596.000000	19.995063
597.000000	19.942362
598.000000	19.884905
599.000000	19.822428
600.000000	19.756725
601.000000	19.685968
602.000000	19.610461
603.000000	19.532802
604.000000	19.448763
605.000000	19.361568
606.000000	19.271757
607.000000	19.175442
608.000000	19.074823
609.000000	18.968445
610.000000	18.853784
611.000000	18.733721
612.000000	18.605750
613.000000	18.467168
614.000000	18.320753
615.000000	18.165775
616.000000	17.999730
617.000000	17.827481
618.000000	17.644882
619.000000	17.454298
620.000000	17.254898
621.000000	17.047198
622.000000	16.831389
623.000000	16.610106
624.000000	16.382588
625.000000	16.149651
626.000000	15.911382
627.000000	15.669281
628.000000	15.427226
629.000000	15.183387
630.000000	14.941514
631.000000	14.703954
632.000000	14.471625
633.000000	14.247179
634.000000	14.033570
635.000000	13.832080
636.000000	13.647241
637.000000	13.476476
638.000000	13.324513
639.000000	13.191453
640.000000	13.078012
641.000000	12.985680
642.000000	12.914732
643.000000	12.864711
644.000000	12.835046
645.000000	12.824523
646.000000	12.830280
647.000000	12.852233
648.000000	12.886444
649.000000	12.934247
650.000000	12.992426
651.000000	13.057893
652.000000	13.127927
653.000000	13.200931
654.000000	13.274350
655.000000	13.344834
656.000000	13.414378
657.000000	13.482020
658.000000	13.546495
659.000000	13.604523
660.000000	13.658129
661.000000	13.704501
662.000000	13.744791
663.000000	13.778830
664.000000	13.807523
665.000000	13.831959
666.000000	13.849668
667.000000	13.861260
668.000000	13.865437
669.000000	13.864377
670.000000	13.858541
671.000000	13.848048
672.000000	13.833448
673.000000	13.815837
674.000000	13.795060
675.000000	13.771118
676.000000	13.744750
677.000000	13.717517
678.000000	13.691865
679.000000	13.668754
680.000000	13.643734
681.000000	13.621730
682.000000	13.602691
683.000000	13.585569
684.000000	13.571673
685.000000	13.562579
686.000000	13.558141
687.000000	13.558416
688.000000	13.562742
689.000000	13.570724
690.000000	13.586516
691.000000	13.606861
692.000000	13.633469
693.000000	13.665623
694.000000	13.702490
695.000000	13.744276
696.000000	13.791986
697.000000	13.843689
698.000000	13.899604
699.000000	13.959267
700.000000	14.020056
701.000000	14.082686
702.000000	14.147748
703.000000	14.214637
704.000000	14.282298
705.000000	14.349555
706.000000	14.416296
707.000000	14.483043
708.000000	14.548625
709.000000	14.613703
710.000000	14.677487
711.000000	14.739982
712.000000	14.797534
713.000000	14.851107
714.000000	14.902332
715.000000	14.951654
716.000000	14.997381
717.000000	15.039115
718.000000	15.077625
719.000000	15.112512
720.000000	15.145351
721.000000	15.175472
722.000000	15.202514
723.000000	15.227038
724.000000	15.249742
725.000000	15.269361
726.000000	15.286810
727.000000	15.301450
728.000000	15.314358
729.000000	15.325038
730.000000	15.333718
731.000000	15.341832
732.000000	15.351295
733.000000	15.362512
734.000000	15.371880
735.000000	15.380232
736.000000	15.389231
737.000000	15.400390
738.000000	15.411562
739.000000	15.424014
740.000000	15.438432
741.000000	15.453627
742.000000	15.469970
743.000000	15.484940
744.000000	15.502582
745.000000	15.525142
746.000000	15.549504
747.000000	15.576024
748.000000	15.605623
749.000000	15.636921
750.000000	15.669373
751.000000	15.704391
752.000000	15.741050
753.000000	15.778980
754.000000	15.818480
755.000000	15.858971
756.000000	15.900970
757.000000	15.943151
758.000000	15.984902
759.000000	16.025801
760.000000	16.068425
761.000000	16.113726
762.000000	16.159395
763.000000	16.204893
764.000000	16.250086
765.000000	16.295587
766.000000	16.341053
767.000000	16.384473
768.000000	16.427727
769.000000	16.472115
770.000000	16.516486
771.000000	16.559150
772.000000	16.600144
773.000000	16.642192
774.000000	16.682960
775.000000	16.721568
776.000000	16.760094
777.000000	16.800919
778.000000	16.843041
779.000000	16.886389
780.000000	16.926177
781.000000	16.962935
782.000000	17.002424
783.000000	17.043476
784.000000	17.084885
785.000000	17.127587
786.000000	17.171394
787.000000	17.213050
788.000000	17.256419
789.000000	17.298074
790.000000	17.342714
791.000000	17.389628
792.000000	17.436271
793.000000	17.482548
794.000000	17.528883
795.000000	17.574751
796.000000	17.617539
797.000000	17.661298
798.000000	17.702846
799.000000	17.743973
800.000000	17.785691
801.000000	17.829085
802.000000	17.872811
803.000000	17.918420
804.000000	17.964026
805.000000	18.008632
806.000000	18.054780
807.000000	18.097461
808.000000	18.143241
809.000000	18.198029
810.000000	18.248954
811.000000	18.298655
812.000000	18.345001
813.000000	18.390256
814.000000	18.432480
815.000000	18.475980
816.000000	18.522874
817.000000	18.571005
818.000000	18.617555
819.000000	18.655396
820.000000	18.694270
821.000000	18.731545
822.000000	18.768642
823.000000	18.799444
824.000000	18.837683
825.000000	18.871073
826.000000	18.902586
827.000000	18.940485
828.000000	18.971875
829.000000	19.002831
830.000000	19.031854
831.000000	19.060380
832.000000	19.089514
833.000000	19.120994
834.000000	19.144991
835.000000	19.177436
836.000000	19.197812
837.000000	19.212912
838.000000	19.233155
839.000000	19.256237
840.000000	19.276377
841.000000	19.293230
842.000000	19.313225
843.000000	19.325244
844.000000	19.340732
845.000000	19.348493
846.000000	19.371182
847.000000	19.386408
848.000000	19.389014
849.000000	19.401677
850.000000	19.419820
851.000000	19.430239
852.000000	19.426785
853.000000	19.426754
854.000000	19.433200
855.000000	19.437916
856.000000	19.422029
857.000000	19.427585
858.000000	19.521794
859.000000	19.561983
860.000000	19.599691
861.000000	19.645853
862.000000	19.701818
863.000000	19.765171
864.000000	19.822152
865.000000	19.882161
866.000000	19.956547
867.000000	20.016022
868.000000	19.995943
869.000000	20.015833
870.000000	20.034933
871.000000	20.054703
872.000000	20.072477
873.000000	20.086703
874.000000	20.098080
875.000000	20.107407
876.000000	20.114600
877.000000	20.121043
878.000000	20.128320
879.000000	20.134553
880.000000	20.142097
881.000000	20.148173
882.000000	20.154590
883.000000	20.160970
884.000000	20.167763
885.000000	20.175473
886.000000	20.184717
887.000000	20.192963
888.000000	20.199337
889.000000	20.205397
890.000000	20.211053
891.000000	20.214803
892.000000	20.219770
893.000000	20.225327
894.000000	20.228463
895.000000	20.232927
896.000000	20.236490
897.000000	20.241870
898.000000	20.246560
899.000000	20.252437
900.000000	20.257933
901.000000	20.267483
902.000000	20.275443
903.000000	20.282333
904.000000	20.292157
905.000000	20.300397
906.000000	20.310323
907.000000	20.318447
908.000000	20.327793
909.000000	20.337553
910.000000	20.348717
911.000000	20.358607
912.000000	20.370677
913.000000	20.380373
914.000000	20.390923
915.000000	20.401550
916.000000	20.410263
917.000000	20.421110
918.000000	20.432260
919.000000	20.440970
920.000000	20.449013
921.000000	20.457317
922.000000	20.463650
923.000000	20.472253
924.000000	20.478770
925.000000	20.485337
926.000000	20.488353
927.000000	20.488787
928.000000	20.490563
929.000000	20.493360
930.000000	20.494247
931.000000	20.492643
932.000000	20.490533
933.000000	20.487780
934.000000	20.484893
935.000000	20.481620
936.000000	20.482917
937.000000	20.484423
938.000000	20.484540
939.000000	20.482570
940.000000	20.480777
941.000000	20.480730
942.000000	20.477827
943.000000	20.474780
944.000000	20.471153
945.000000	20.465843
946.000000	20.460267
947.000000	20.455137
948.000000	20.448547
949.000000	20.444680
950.000000	20.441913
951.000000	20.437513
952.000000	20.436200
953.000000	20.436513
954.000000	20.435830
955.000000	20.436273
956.000000	20.434417
957.000000	20.431413
958.000000	20.430740
959.000000	20.429987
960.000000	20.428637
961.000000	20.427893
962.000000	20.425880
963.000000	20.424223
964.000000	20.424563
965.000000	20.426667
966.000000	20.429477
967.000000	20.432703
968.000000	20.434700
969.000000	20.434590
970.000000	20.435320
971.000000	20.437773
972.000000	20.441240
973.000000	20.444647
974.000000	20.447637
975.000000	20.448177
976.000000	20.448383
977.000000	20.451263
978.000000	20.454593
979.000000	20.459427
980.000000	20.464127
981.000000	20.467763
982.000000	20.472887
983.000000	20.477110
984.000000	20.481133
985.000000	20.486287
986.000000	20.492890
987.000000	20.497593
988.000000	20.502273
989.000000	20.506950
990.000000	20.512240
991.000000	20.517367
992.000000	20.521317
993.000000	20.525573
994.000000	20.529817
995.000000	20.533330
996.000000	20.535500
997.000000	20.537403
998.000000	20.538690
999.000000	20.540020
1000.000000	20.541107
1001.000000	20.542620
1002.000000	20.544037
1003.000000	20.545543
1004.000000	20.546283
1005.000000	20.547433
1006.000000	20.549257
1007.000000	20.551337
1008.000000	20.554177
1009.000000	20.556220
1010.000000	20.557957
1011.000000	20.560233
1012.000000	20.563410
1013.000000	20.565973
1014.000000	20.568480
1015.000000	20.570980
1016.000000	20.573807
1017.000000	20.576943
1018.000000	20.579663
1019.000000	20.582630
1020.000000	20.585053
1021.000000	20.587280
1022.000000	20.589750
1023.000000	20.594117
1024.000000	20.600713
1025.000000	20.608433
1026.000000	20.616240
1027.000000	20.623957
1028.000000	20.632533
1029.000000	20.642970
1030.000000	20.654440
1031.000000	20.665503
1032.000000	20.677087
1033.000000	20.688430
1034.000000	20.698800
1035.000000	20.709430
1036.000000	20.720093
1037.000000	20.732077
1038.000000	20.743497
1039.000000	20.753737
1040.000000	20.764673
1041.000000	20.775930
1042.000000	20.785793
1043.000000	20.794797
1044.000000	20.805410
1045.000000	20.815897
1046.000000	20.826473
1047.000000	20.836810
1048.000000	20.848107
1049.000000	20.860930
1050.000000	20.873020
1051.000000	20.884710
1052.000000	20.896513
1053.000000	20.908330
1054.000000	20.919900
1055.000000	20.931077
1056.000000	20.941767
1057.000000	20.952717
1058.000000	20.962937
1059.000000	20.970897
1060.000000	20.978510
1061.000000	20.986810
1062.000000	20.996137
1063.000000	21.004737
1064.000000	21.011907
1065.000000	21.019760
1066.000000	21.027977
1067.000000	21.034537
1068.000000	21.041030
1069.000000	21.049127
1070.000000	21.057400
1071.000000	21.064920
1072.000000	21.071407
1073.000000	21.079543
1074.000000	21.089167
1075.000000	21.097133
1076.000000	21.104857
1077.000000	21.112837
1078.000000	21.120060
1079.000000	21.127193
1080.000000	21.133913
1081.000000	21.142820
1082.000000	21.151520
1083.000000	21.157980
1084.000000	21.162773
1085.000000	21.167600
1086.000000	21.173403
1087.000000	21.179220
1088.000000	21.185240
1089.000000	21.190140
1090.000000	21.195117
1091.000000	21.198387
1092.000000	21.200793
1093.000000	21.202130
1094.000000	21.203337
1095.000000	21.205903
1096.000000	21.208520
1097.000000	21.211700
1098.000000	21.215517
1099.000000	21.218587
1100.000000	21.220583
1101.000000	21.221630
1102.000000	21.224210
1103.000000	21.229753
1104.000000	21.235227
1105.000000	21.239387
1106.000000	21.241480
1107.000000	21.243473
1108.000000	21.245587
1109.000000	21.248130
1110.000000	21.251667
1111.000000	21.255473
1112.000000	21.258047
1113.000000	21.259260
1114.000000	21.259207
1115.000000	21.258387
1116.000000	21.260087
1117.000000	21.262030
1118.000000	21.263667
1119.000000	21.264433
1120.000000	21.264160
1121.000000	21.262517
1122.000000	21.261120
1123.000000	21.261140
1124.000000	21.262203
1125.000000	21.262593
1126.000000	21.260183
1127.000000	21.256633
1128.000000	21.251560
1129.000000	21.247433
1130.000000	21.242400
1131.000000	21.236083
1132.000000	21.224367
1133.000000	21.206137
1134.000000	21.187783
1135.000000	21.172010
1136.000000	21.158767
1137.000000	21.143470
1138.000000	21.124863
1139.000000	21.102613
1140.000000	21.080520
1141.000000	21.059740
1142.000000	21.041617
1143.000000	21.023997
1144.000000	21.006430
1145.000000	20.987807
1146.000000	20.966490
1147.000000	20.946253
1148.000000	20.929123
1149.000000	20.913433
1150.000000	20.898247
1151.000000	20.882403
1152.000000	20.867593
1153.000000	20.857463
1154.000000	20.845043
1155.000000	20.828367
1156.000000	20.809773
1157.000000	20.790763
1158.000000	20.768443
1159.000000	20.744450
1160.000000	20.719467
1161.000000	20.691023
1162.000000	20.659457
1163.000000	20.623420
1164.000000	20.586040
1165.000000	20.548283
1166.000000	20.510200
1167.000000	20.469497
1168.000000	20.430100
1169.000000	20.390993
1170.000000	20.350423
