PE UV       SUBTECH     SPECTRUM    ASCII       PEDS        4.00        
   -1
BIOUCR0018-3.Sample.ASC
24/02/19
16:47:26.00
24/02/19
16:47:26.00
Vinicio Soto Monge
P. resplendens (sin datos)
250,000000
1
Lambda 1050
1050L1511233
PerkinElmer UV WinLab 6.3.2.0749 / 2.02.05 Lambda 900 UV/VIS/NIR, Aug  7 2015 09:38:08

0
0
3350/servo 860,8/2
0
0
UV/VIS
1
1
1
DoubleDePol,CommonBeamDepol,RBeamAtt,SBeamAtt,60mm sphere, WB InGaAs Detector
0
0
0
0
Program
Program
3350/servo 860,8/2
3350/0,2 860,8/0,2
3350/0,2 860,8/0,2
0
15.00
 
 
 
0
 
860,8
319,2
860,8
Front
100
on
S:100 R:100
0
0
0
0
 
0
 
 
 
0
 
 
0
0
0
0
0
 
 
 
 
0
0


0
0
#HDR
-1
-1
#GR
nm
%R
1.0
0.0
2500,000000
-1,000000
2251
8
19,551000
1,501700
#DATA

250.000000	nan
251.000000	nan
252.000000	nan
253.000000	nan
254.000000	nan
255.000000	nan
256.000000	nan
257.000000	nan
258.000000	nan
259.000000	1.976943
260.000000	1.973541
261.000000	1.973749
262.000000	1.973215
263.000000	1.969571
264.000000	1.967550
265.000000	1.961808
266.000000	1.959623
267.000000	1.954479
268.000000	1.953088
269.000000	1.953509
270.000000	1.951270
271.000000	1.947603
272.000000	1.940859
273.000000	1.938893
274.000000	1.938038
275.000000	1.936185
276.000000	1.933107
277.000000	1.929210
278.000000	1.926257
279.000000	1.923072
280.000000	1.919584
281.000000	1.918474
282.000000	1.916981
283.000000	1.914157
284.000000	1.911208
285.000000	1.910207
286.000000	1.908866
287.000000	1.907551
288.000000	1.902292
289.000000	1.899607
290.000000	1.899287
291.000000	1.898919
292.000000	1.897791
293.000000	1.899467
294.000000	1.898243
295.000000	1.896335
296.000000	1.895948
297.000000	1.897147
298.000000	1.901171
299.000000	1.901400
300.000000	1.898998
301.000000	1.895914
302.000000	1.892744
303.000000	1.888864
304.000000	1.888481
305.000000	1.886874
306.000000	1.887182
307.000000	1.885079
308.000000	1.882502
309.000000	1.881668
310.000000	1.882890
311.000000	1.884250
312.000000	1.887714
313.000000	1.892692
314.000000	1.891259
315.000000	1.893726
316.000000	1.897832
317.000000	1.930262
318.000000	1.974871
319.000000	2.010785
320.000000	2.043440
321.000000	2.073260
322.000000	2.114036
323.000000	2.138786
324.000000	2.163948
325.000000	2.196526
326.000000	2.210994
327.000000	2.193981
328.000000	2.167529
329.000000	2.150923
330.000000	2.138902
331.000000	2.123820
332.000000	2.098356
333.000000	2.081259
334.000000	2.074814
335.000000	2.051606
336.000000	2.048815
337.000000	2.047908
338.000000	2.037315
339.000000	2.028911
340.000000	2.026817
341.000000	2.028247
342.000000	2.019907
343.000000	2.012998
344.000000	1.999455
345.000000	1.995496
346.000000	1.985773
347.000000	1.984012
348.000000	1.985392
349.000000	1.981509
350.000000	1.974019
351.000000	1.961674
352.000000	1.960819
353.000000	1.966755
354.000000	1.969043
355.000000	1.970055
356.000000	1.971463
357.000000	1.968136
358.000000	1.970104
359.000000	1.968774
360.000000	1.965639
361.000000	1.967767
362.000000	1.968579
363.000000	1.965422
364.000000	1.968674
365.000000	1.966677
366.000000	1.959196
367.000000	1.949712
368.000000	1.939401
369.000000	1.940707
370.000000	1.938327
371.000000	1.931653
372.000000	1.923534
373.000000	1.918095
374.000000	1.906432
375.000000	1.895941
376.000000	1.894872
377.000000	1.884401
378.000000	1.872844
379.000000	1.855311
380.000000	1.839507
381.000000	1.829134
382.000000	1.820992
383.000000	1.811511
384.000000	1.806329
385.000000	1.804814
386.000000	1.799563
387.000000	1.806307
388.000000	1.813029
389.000000	1.820805
390.000000	1.829281
391.000000	1.838134
392.000000	1.847181
393.000000	1.856587
394.000000	1.867560
395.000000	1.879398
396.000000	1.891350
397.000000	1.904516
398.000000	1.919125
399.000000	1.934596
400.000000	1.951210
401.000000	1.969677
402.000000	1.989609
403.000000	2.011100
404.000000	2.034140
405.000000	2.059596
406.000000	2.087347
407.000000	2.116801
408.000000	2.148411
409.000000	2.181789
410.000000	2.217496
411.000000	2.255099
412.000000	2.294622
413.000000	2.336905
414.000000	2.381531
415.000000	2.428289
416.000000	2.477157
417.000000	2.527780
418.000000	2.580065
419.000000	2.634400
420.000000	2.689870
421.000000	2.746194
422.000000	2.803836
423.000000	2.862251
424.000000	2.921498
425.000000	2.980973
426.000000	3.040466
427.000000	3.100748
428.000000	3.160503
429.000000	3.219903
430.000000	3.279886
431.000000	3.340002
432.000000	3.399149
433.000000	3.457038
434.000000	3.514886
435.000000	3.572596
436.000000	3.629187
437.000000	3.685098
438.000000	3.741107
439.000000	3.796522
440.000000	3.851094
441.000000	3.904713
442.000000	3.957797
443.000000	4.010298
444.000000	4.061056
445.000000	4.110396
446.000000	4.159271
447.000000	4.207008
448.000000	4.253373
449.000000	4.298467
450.000000	4.341644
451.000000	4.383297
452.000000	4.423618
453.000000	4.462891
454.000000	4.500180
455.000000	4.535400
456.000000	4.569133
457.000000	4.600641
458.000000	4.629521
459.000000	4.656547
460.000000	4.681805
461.000000	4.705179
462.000000	4.726233
463.000000	4.744967
464.000000	4.762975
465.000000	4.779988
466.000000	4.794650
467.000000	4.808093
468.000000	4.821721
469.000000	4.835193
470.000000	4.848878
471.000000	4.863300
472.000000	4.879390
473.000000	4.897663
474.000000	4.918456
475.000000	4.942595
476.000000	4.970961
477.000000	5.004136
478.000000	5.042142
479.000000	5.085717
480.000000	5.134203
481.000000	5.187192
482.000000	5.244455
483.000000	5.306959
484.000000	5.375241
485.000000	5.448921
486.000000	5.527966
487.000000	5.611647
488.000000	5.699163
489.000000	5.789356
490.000000	5.882624
491.000000	5.979190
492.000000	6.079295
493.000000	6.180351
494.000000	6.280934
495.000000	6.381971
496.000000	6.482466
497.000000	6.582016
498.000000	6.682332
499.000000	6.783299
500.000000	6.885734
501.000000	6.990083
502.000000	7.095529
503.000000	7.204593
504.000000	7.317235
505.000000	7.433278
506.000000	7.553976
507.000000	7.680202
508.000000	7.810305
509.000000	7.945687
510.000000	8.086615
511.000000	8.232618
512.000000	8.384313
513.000000	8.540464
514.000000	8.701143
515.000000	8.866214
516.000000	9.034548
517.000000	9.205660
518.000000	9.379562
519.000000	9.554331
520.000000	9.729121
521.000000	9.904066
522.000000	10.078434
523.000000	10.252478
524.000000	10.425420
525.000000	10.596420
526.000000	10.765811
527.000000	10.933889
528.000000	11.100573
529.000000	11.267151
530.000000	11.433339
531.000000	11.598431
532.000000	11.762472
533.000000	11.925881
534.000000	12.089995
535.000000	12.253149
536.000000	12.415240
537.000000	12.575638
538.000000	12.734565
539.000000	12.890455
540.000000	13.042844
541.000000	13.193087
542.000000	13.340885
543.000000	13.484174
544.000000	13.622880
545.000000	13.757026
546.000000	13.885683
547.000000	14.010859
548.000000	14.132258
549.000000	14.251034
550.000000	14.366346
551.000000	14.478059
552.000000	14.586244
553.000000	14.690994
554.000000	14.793765
555.000000	14.894015
556.000000	14.992540
557.000000	15.087122
558.000000	15.178366
559.000000	15.266249
560.000000	15.311837
561.000000	15.347818
562.000000	15.379913
563.000000	15.407689
564.000000	15.429335
565.000000	15.446173
566.000000	15.458018
567.000000	15.464454
568.000000	15.465783
569.000000	15.462587
570.000000	15.493286
571.000000	15.525279
572.000000	15.552584
573.000000	15.578222
574.000000	15.599542
575.000000	15.617170
576.000000	15.631458
577.000000	15.643994
578.000000	15.653387
579.000000	15.658178
580.000000	15.659635
581.000000	15.657864
582.000000	15.653466
583.000000	15.642297
584.000000	15.627933
585.000000	15.611041
586.000000	15.589632
587.000000	15.563705
588.000000	15.531552
589.000000	15.495032
590.000000	15.454032
591.000000	15.405889
592.000000	15.352062
593.000000	15.294063
594.000000	15.231347
595.000000	15.161982
596.000000	15.088099
597.000000	15.008343
598.000000	14.926132
599.000000	14.839255
600.000000	14.749316
601.000000	14.658188
602.000000	14.563391
603.000000	14.468489
604.000000	14.373882
605.000000	14.279105
606.000000	14.185409
607.000000	14.095255
608.000000	14.007584
609.000000	13.922419
610.000000	13.840515
611.000000	13.760506
612.000000	13.686817
613.000000	13.613878
614.000000	13.542437
615.000000	13.473075
616.000000	13.407440
617.000000	13.342858
618.000000	13.279301
619.000000	13.218691
620.000000	13.159182
621.000000	13.103638
622.000000	13.048715
623.000000	12.998197
624.000000	12.949707
625.000000	12.905760
626.000000	12.864202
627.000000	12.828578
628.000000	12.798076
629.000000	12.772843
630.000000	12.752696
631.000000	12.738424
632.000000	12.729350
633.000000	12.726542
634.000000	12.730836
635.000000	12.741456
636.000000	12.760000
637.000000	12.782331
638.000000	12.810334
639.000000	12.844561
640.000000	12.886425
641.000000	12.934722
642.000000	12.988194
643.000000	13.045840
644.000000	13.106446
645.000000	13.170511
646.000000	13.235863
647.000000	13.304049
648.000000	13.373734
649.000000	13.443245
650.000000	13.509106
651.000000	13.569051
652.000000	13.627196
653.000000	13.681238
654.000000	13.732414
655.000000	13.778806
656.000000	13.819353
657.000000	13.853834
658.000000	13.882096
659.000000	13.903872
660.000000	13.921507
661.000000	13.936265
662.000000	13.946050
663.000000	13.953923
664.000000	13.959515
665.000000	13.963831
666.000000	13.968651
667.000000	13.974864
668.000000	13.982915
669.000000	13.993666
670.000000	14.009601
671.000000	14.032233
672.000000	14.060723
673.000000	14.095436
674.000000	14.136515
675.000000	14.185041
676.000000	14.240446
677.000000	14.301615
678.000000	14.369499
679.000000	14.445235
680.000000	14.525547
681.000000	14.609870
682.000000	14.697575
683.000000	14.787429
684.000000	14.880247
685.000000	14.974403
686.000000	15.071091
687.000000	15.168904
688.000000	15.266681
689.000000	15.363672
690.000000	15.460594
691.000000	15.556834
692.000000	15.653152
693.000000	15.748294
694.000000	15.841328
695.000000	15.932528
696.000000	16.021885
697.000000	16.110582
698.000000	16.196623
699.000000	16.280411
700.000000	16.362813
701.000000	16.443154
702.000000	16.523130
703.000000	16.603707
704.000000	16.685986
705.000000	16.770024
706.000000	16.854501
707.000000	16.940022
708.000000	17.030606
709.000000	17.125754
710.000000	17.225549
711.000000	17.329052
712.000000	17.436235
713.000000	17.546602
714.000000	17.661769
715.000000	17.780898
716.000000	17.901358
717.000000	18.024817
718.000000	18.150715
719.000000	18.276353
720.000000	18.400598
721.000000	18.524809
722.000000	18.649309
723.000000	18.772180
724.000000	18.889515
725.000000	19.004008
726.000000	19.119141
727.000000	19.231998
728.000000	19.341879
729.000000	19.450218
730.000000	19.556681
731.000000	19.659806
732.000000	19.757098
733.000000	19.853332
734.000000	19.948567
735.000000	20.040263
736.000000	20.126904
737.000000	20.210494
738.000000	20.289794
739.000000	20.364107
740.000000	20.436992
741.000000	20.508153
742.000000	20.577505
743.000000	20.643343
744.000000	20.705790
745.000000	20.764815
746.000000	20.822390
747.000000	20.877777
748.000000	20.931104
749.000000	20.983139
750.000000	21.030801
751.000000	21.076554
752.000000	21.121282
753.000000	21.163797
754.000000	21.203447
755.000000	21.243030
756.000000	21.282565
757.000000	21.319117
758.000000	21.353256
759.000000	21.385399
760.000000	21.417880
761.000000	21.450748
762.000000	21.481682
763.000000	21.507669
764.000000	21.535884
765.000000	21.563918
766.000000	21.586573
767.000000	21.608762
768.000000	21.633048
769.000000	21.660888
770.000000	21.686313
771.000000	21.707375
772.000000	21.730145
773.000000	21.756601
774.000000	21.782830
775.000000	21.806119
776.000000	21.832634
777.000000	21.862211
778.000000	21.890039
779.000000	21.912754
780.000000	21.938236
781.000000	21.967157
782.000000	21.992309
783.000000	22.015636
784.000000	22.040295
785.000000	22.063619
786.000000	22.082399
787.000000	22.101851
788.000000	22.123048
789.000000	22.145129
790.000000	22.162190
791.000000	22.179391
792.000000	22.195984
793.000000	22.214743
794.000000	22.224829
795.000000	22.238242
796.000000	22.252092
797.000000	22.259034
798.000000	22.262812
799.000000	22.262362
800.000000	22.259575
801.000000	22.248900
802.000000	22.238915
803.000000	22.222989
804.000000	22.205810
805.000000	22.182499
806.000000	22.156589
807.000000	22.128024
808.000000	22.101867
809.000000	22.079671
810.000000	22.052325
811.000000	22.020239
812.000000	21.987126
813.000000	21.950507
814.000000	21.911136
815.000000	21.865725
816.000000	21.819332
817.000000	21.767140
818.000000	21.702269
819.000000	21.629010
820.000000	21.560215
821.000000	21.490800
822.000000	21.412490
823.000000	21.332176
824.000000	21.248748
825.000000	21.164370
826.000000	21.079486
827.000000	20.993441
828.000000	20.909291
829.000000	20.823564
830.000000	20.731920
831.000000	20.635224
832.000000	20.534986
833.000000	20.438778
834.000000	20.346943
835.000000	20.250826
836.000000	20.155334
837.000000	20.058725
838.000000	19.960697
839.000000	19.866706
840.000000	19.770026
841.000000	19.681657
842.000000	19.601740
843.000000	19.521871
844.000000	19.437970
845.000000	19.367625
846.000000	19.291430
847.000000	19.214348
848.000000	19.142698
849.000000	19.075394
850.000000	19.014299
851.000000	18.934359
852.000000	18.853052
853.000000	18.767808
854.000000	18.697211
855.000000	18.626440
856.000000	18.567492
857.000000	18.538319
858.000000	18.635664
859.000000	18.651923
860.000000	18.673791
861.000000	18.719609
862.000000	18.771379
863.000000	18.831457
864.000000	18.886632
865.000000	18.941926
866.000000	18.995255
867.000000	19.029847
868.000000	18.940280
869.000000	18.929030
870.000000	18.916923
871.000000	18.903720
872.000000	18.886893
873.000000	18.868913
874.000000	18.849337
875.000000	18.828613
876.000000	18.807600
877.000000	18.785880
878.000000	18.764590
879.000000	18.745443
880.000000	18.726693
881.000000	18.709750
882.000000	18.693900
883.000000	18.679543
884.000000	18.667660
885.000000	18.655773
886.000000	18.646363
887.000000	18.638757
888.000000	18.631477
889.000000	18.625637
890.000000	18.619863
891.000000	18.614410
892.000000	18.610080
893.000000	18.607370
894.000000	18.603733
895.000000	18.603150
896.000000	18.600683
897.000000	18.601383
898.000000	18.601427
899.000000	18.600637
900.000000	18.602293
901.000000	18.603803
902.000000	18.607163
903.000000	18.611077
904.000000	18.614023
905.000000	18.616793
906.000000	18.621077
907.000000	18.624413
908.000000	18.629657
909.000000	18.635787
910.000000	18.641310
911.000000	18.646520
912.000000	18.653480
913.000000	18.658120
914.000000	18.664383
915.000000	18.671287
916.000000	18.676577
917.000000	18.679023
918.000000	18.679213
919.000000	18.679743
920.000000	18.681717
921.000000	18.683080
922.000000	18.682653
923.000000	18.680467
924.000000	18.677200
925.000000	18.672737
926.000000	18.668017
927.000000	18.662840
928.000000	18.658877
929.000000	18.652997
930.000000	18.642637
931.000000	18.633453
932.000000	18.623087
933.000000	18.614827
934.000000	18.606713
935.000000	18.599947
936.000000	18.593737
937.000000	18.589053
938.000000	18.583623
939.000000	18.580027
940.000000	18.577807
941.000000	18.572607
942.000000	18.567217
943.000000	18.560437
944.000000	18.553710
945.000000	18.544870
946.000000	18.536050
947.000000	18.526380
948.000000	18.517530
949.000000	18.508680
950.000000	18.500687
951.000000	18.494397
952.000000	18.489007
953.000000	18.483450
954.000000	18.476767
955.000000	18.471277
956.000000	18.465370
957.000000	18.459590
958.000000	18.452743
959.000000	18.445030
960.000000	18.436970
961.000000	18.428130
962.000000	18.419557
963.000000	18.411293
964.000000	18.402547
965.000000	18.393560
966.000000	18.384000
967.000000	18.375523
968.000000	18.368313
969.000000	18.360637
970.000000	18.352927
971.000000	18.346757
972.000000	18.338967
973.000000	18.330067
974.000000	18.323677
975.000000	18.317553
976.000000	18.312357
977.000000	18.306740
978.000000	18.300103
979.000000	18.294340
980.000000	18.287987
981.000000	18.280563
982.000000	18.274690
983.000000	18.270470
984.000000	18.265133
985.000000	18.260343
986.000000	18.255817
987.000000	18.251777
988.000000	18.247743
989.000000	18.242160
990.000000	18.237773
991.000000	18.235323
992.000000	18.232727
993.000000	18.230137
994.000000	18.227737
995.000000	18.224160
996.000000	18.221203
997.000000	18.219000
998.000000	18.216957
999.000000	18.216023
1000.000000	18.214017
1001.000000	18.211040
1002.000000	18.208330
1003.000000	18.206437
1004.000000	18.205803
1005.000000	18.205123
1006.000000	18.203820
1007.000000	18.201500
1008.000000	18.199913
1009.000000	18.198613
1010.000000	18.197080
1011.000000	18.196100
1012.000000	18.194963
1013.000000	18.193533
1014.000000	18.192273
1015.000000	18.191797
1016.000000	18.192050
1017.000000	18.193300
1018.000000	18.194227
1019.000000	18.196250
1020.000000	18.200147
1021.000000	18.203440
1022.000000	18.207063
1023.000000	18.210853
1024.000000	18.215413
1025.000000	18.219987
1026.000000	18.223580
1027.000000	18.227310
1028.000000	18.231943
1029.000000	18.235510
1030.000000	18.238583
1031.000000	18.243417
1032.000000	18.248577
1033.000000	18.253720
1034.000000	18.258637
1035.000000	18.263220
1036.000000	18.268220
1037.000000	18.273820
1038.000000	18.279517
1039.000000	18.285060
1040.000000	18.290650
1041.000000	18.296247
1042.000000	18.302577
1043.000000	18.308647
1044.000000	18.314263
1045.000000	18.321327
1046.000000	18.328650
1047.000000	18.335097
1048.000000	18.341760
1049.000000	18.349563
1050.000000	18.358180
1051.000000	18.366083
1052.000000	18.372760
1053.000000	18.380673
1054.000000	18.389073
1055.000000	18.397340
1056.000000	18.406150
1057.000000	18.414850
1058.000000	18.423103
1059.000000	18.431913
1060.000000	18.440593
1061.000000	18.449293
1062.000000	18.459780
1063.000000	18.469917
1064.000000	18.478843
1065.000000	18.487413
1066.000000	18.495630
1067.000000	18.504363
1068.000000	18.513927
1069.000000	18.522870
1070.000000	18.532647
1071.000000	18.542937
1072.000000	18.552383
1073.000000	18.561660
1074.000000	18.572800
1075.000000	18.583577
1076.000000	18.593787
1077.000000	18.604163
1078.000000	18.614583
1079.000000	18.624430
1080.000000	18.632783
1081.000000	18.640700
1082.000000	18.649227
1083.000000	18.658297
1084.000000	18.666500
1085.000000	18.673513
1086.000000	18.680657
1087.000000	18.688463
1088.000000	18.695013
1089.000000	18.701170
1090.000000	18.707893
1091.000000	18.715290
1092.000000	18.722560
1093.000000	18.729297
1094.000000	18.734580
1095.000000	18.740350
1096.000000	18.746427
1097.000000	18.751520
1098.000000	18.757767
1099.000000	18.764543
1100.000000	18.769867
1101.000000	18.774600
1102.000000	18.779500
1103.000000	18.782770
1104.000000	18.788323
1105.000000	18.794630
1106.000000	18.800943
1107.000000	18.806467
1108.000000	18.810487
1109.000000	18.814383
1110.000000	18.818460
1111.000000	18.822317
1112.000000	18.824910
1113.000000	18.828607
1114.000000	18.830187
1115.000000	18.830840
1116.000000	18.831000
1117.000000	18.830110
1118.000000	18.831400
1119.000000	18.833320
1120.000000	18.834090
1121.000000	18.832930
1122.000000	18.830860
1123.000000	18.829003
1124.000000	18.826817
1125.000000	18.823677
1126.000000	18.819580
1127.000000	18.816737
1128.000000	18.810627
1129.000000	18.802633
1130.000000	18.794563
1131.000000	18.784970
1132.000000	18.771677
1133.000000	18.753940
1134.000000	18.737537
1135.000000	18.722980
1136.000000	18.707947
1137.000000	18.690083
1138.000000	18.668517
1139.000000	18.646407
1140.000000	18.622950
1141.000000	18.600973
1142.000000	18.581570
1143.000000	18.563170
1144.000000	18.544060
1145.000000	18.522963
1146.000000	18.503707
1147.000000	18.486587
1148.000000	18.473290
1149.000000	18.459870
1150.000000	18.448227
1151.000000	18.435247
1152.000000	18.424473
1153.000000	18.414203
1154.000000	18.402087
1155.000000	18.388980
1156.000000	18.373483
1157.000000	18.354207
1158.000000	18.334537
1159.000000	18.312490
1160.000000	18.287447
1161.000000	18.261323
1162.000000	18.228967
1163.000000	18.196377
1164.000000	18.160667
1165.000000	18.124193
1166.000000	18.086100
1167.000000	18.049443
1168.000000	18.010870
1169.000000	17.972793
1170.000000	17.934580
1171.000000	17.897823
1172.000000	17.865690
1173.000000	17.834660
1174.000000	17.805240
