PE UV       SUBTECH     SPECTRUM    ASCII       PEDS        4.00        
   -1
BIOUCR0021-3.Sample.ASC
24/02/20
13:22:47.00
24/02/20
13:22:47.00
Vinicio Soto Monge
P. resplendens 18 de Mayo de 1985 R.W. Volcan, Panama
250,000000
1
Lambda 1050
1050L1511233
PerkinElmer UV WinLab 6.3.2.0749 / 2.02.05 Lambda 900 UV/VIS/NIR, Aug  7 2015 09:38:08

0
0
3350/servo 860,8/2
0
0
UV/VIS
1
1
1
DoubleDePol,CommonBeamDepol,RBeamAtt,SBeamAtt,60mm sphere, WB InGaAs Detector
0
0
0
0
Program
Program
3350/servo 860,8/2
3350/0,2 860,8/0,2
3350/0,2 860,8/0,2
0
15.00
 
 
 
0
 
860,8
319,2
860,8
Front
100
on
S:100 R:100
0
0
0
0
 
0
 
 
 
0
 
 
0
0
0
0
0
 
 
 
 
0
0


0
0
#HDR
-1
-1
#GR
nm
%R
1.0
0.0
2500,000000
-1,000000
2251
8
21,849200
1,512300
#DATA

250.000000	nan
251.000000	nan
252.000000	nan
253.000000	nan
254.000000	nan
255.000000	nan
256.000000	nan
257.000000	nan
258.000000	nan
259.000000	2.025192
260.000000	2.023210
261.000000	2.021498
262.000000	2.015794
263.000000	2.011172
264.000000	2.005249
265.000000	1.999172
266.000000	1.992829
267.000000	1.985123
268.000000	1.977345
269.000000	1.970942
270.000000	1.967622
271.000000	1.962129
272.000000	1.958706
273.000000	1.950184
274.000000	1.945494
275.000000	1.943444
276.000000	1.941960
277.000000	1.939043
278.000000	1.934856
279.000000	1.935223
280.000000	1.933083
281.000000	1.931951
282.000000	1.928193
283.000000	1.927102
284.000000	1.922623
285.000000	1.921479
286.000000	1.918743
287.000000	1.918513
288.000000	1.917540
289.000000	1.913419
290.000000	1.910169
291.000000	1.909237
292.000000	1.909474
293.000000	1.911943
294.000000	1.907782
295.000000	1.905716
296.000000	1.904121
297.000000	1.900545
298.000000	1.897123
299.000000	1.895403
300.000000	1.894036
301.000000	1.889912
302.000000	1.889968
303.000000	1.889147
304.000000	1.894403
305.000000	1.894426
306.000000	1.896564
307.000000	1.901512
308.000000	1.905511
309.000000	1.905554
310.000000	1.902528
311.000000	1.903982
312.000000	1.900748
313.000000	1.895993
314.000000	1.893531
315.000000	1.890348
316.000000	1.891440
317.000000	1.913902
318.000000	1.966292
319.000000	2.007176
320.000000	2.050233
321.000000	2.089484
322.000000	2.151043
323.000000	2.204805
324.000000	2.239464
325.000000	2.278746
326.000000	2.305257
327.000000	2.297592
328.000000	2.263184
329.000000	2.254610
330.000000	2.245826
331.000000	2.229414
332.000000	2.190419
333.000000	2.169964
334.000000	2.150435
335.000000	2.118261
336.000000	2.106619
337.000000	2.106076
338.000000	2.103263
339.000000	2.090995
340.000000	2.074019
341.000000	2.052843
342.000000	2.040461
343.000000	2.018204
344.000000	2.018283
345.000000	2.028320
346.000000	2.021895
347.000000	2.015156
348.000000	2.007849
349.000000	1.998137
350.000000	1.994608
351.000000	2.004960
352.000000	2.008535
353.000000	2.009170
354.000000	1.993033
355.000000	1.982456
356.000000	1.981348
357.000000	1.982148
358.000000	1.979560
359.000000	1.979144
360.000000	1.977383
361.000000	1.978465
362.000000	1.973287
363.000000	1.969482
364.000000	1.974625
365.000000	1.973439
366.000000	1.961739
367.000000	1.947578
368.000000	1.942704
369.000000	1.934671
370.000000	1.920986
371.000000	1.898574
372.000000	1.885860
373.000000	1.867145
374.000000	1.851852
375.000000	1.841364
376.000000	1.847960
377.000000	1.838521
378.000000	1.824621
379.000000	1.812620
380.000000	1.808687
381.000000	1.808360
382.000000	1.804503
383.000000	1.809164
384.000000	1.813491
385.000000	1.813258
386.000000	1.801071
387.000000	1.806414
388.000000	1.812060
389.000000	1.817301
390.000000	1.822028
391.000000	1.827671
392.000000	1.835097
393.000000	1.842629
394.000000	1.850337
395.000000	1.858165
396.000000	1.866876
397.000000	1.876011
398.000000	1.885526
399.000000	1.895797
400.000000	1.906891
401.000000	1.918329
402.000000	1.930321
403.000000	1.943098
404.000000	1.957140
405.000000	1.972394
406.000000	1.988564
407.000000	2.006337
408.000000	2.025829
409.000000	2.046797
410.000000	2.069845
411.000000	2.094683
412.000000	2.121410
413.000000	2.151334
414.000000	2.183826
415.000000	2.218482
416.000000	2.255817
417.000000	2.296679
418.000000	2.341046
419.000000	2.388416
420.000000	2.438787
421.000000	2.493364
422.000000	2.551803
423.000000	2.613239
424.000000	2.677997
425.000000	2.746419
426.000000	2.818877
427.000000	2.894742
428.000000	2.973392
429.000000	3.054978
430.000000	3.139751
431.000000	3.226699
432.000000	3.314931
433.000000	3.404634
434.000000	3.495888
435.000000	3.587891
436.000000	3.680330
437.000000	3.772392
438.000000	3.864111
439.000000	3.956076
440.000000	4.047517
441.000000	4.136752
442.000000	4.224267
443.000000	4.310933
444.000000	4.396063
445.000000	4.479449
446.000000	4.561014
447.000000	4.641029
448.000000	4.719626
449.000000	4.795455
450.000000	4.868998
451.000000	4.942127
452.000000	5.014081
453.000000	5.083501
454.000000	5.150790
455.000000	5.217056
456.000000	5.281773
457.000000	5.344864
458.000000	5.406648
459.000000	5.467755
460.000000	5.528128
461.000000	5.586415
462.000000	5.643530
463.000000	5.699793
464.000000	5.755665
465.000000	5.810143
466.000000	5.863024
467.000000	5.914959
468.000000	5.965063
469.000000	6.012736
470.000000	6.057911
471.000000	6.101260
472.000000	6.142469
473.000000	6.180935
474.000000	6.216803
475.000000	6.250081
476.000000	6.280928
477.000000	6.308392
478.000000	6.332984
479.000000	6.355717
480.000000	6.374826
481.000000	6.389392
482.000000	6.399052
483.000000	6.405203
484.000000	6.409248
485.000000	6.412258
486.000000	6.415307
487.000000	6.418206
488.000000	6.420814
489.000000	6.423256
490.000000	6.428167
491.000000	6.437100
492.000000	6.450690
493.000000	6.469215
494.000000	6.491813
495.000000	6.518512
496.000000	6.550103
497.000000	6.588974
498.000000	6.636383
499.000000	6.694280
500.000000	6.762991
501.000000	6.843311
502.000000	6.936175
503.000000	7.041487
504.000000	7.158914
505.000000	7.288049
506.000000	7.427398
507.000000	7.575826
508.000000	7.732175
509.000000	7.892055
510.000000	8.054496
511.000000	8.217988
512.000000	8.380758
513.000000	8.542241
514.000000	8.701164
515.000000	8.855632
516.000000	9.005656
517.000000	9.152565
518.000000	9.295320
519.000000	9.435976
520.000000	9.573987
521.000000	9.709680
522.000000	9.843293
523.000000	9.975215
524.000000	10.106392
525.000000	10.238314
526.000000	10.371213
527.000000	10.503705
528.000000	10.636982
529.000000	10.772154
530.000000	10.910705
531.000000	11.053004
532.000000	11.200945
533.000000	11.354971
534.000000	11.514998
535.000000	11.680632
536.000000	11.851684
537.000000	12.027900
538.000000	12.207658
539.000000	12.389579
540.000000	12.572144
541.000000	12.754529
542.000000	12.935528
543.000000	13.112121
544.000000	13.283624
545.000000	13.450064
546.000000	13.611117
547.000000	13.765378
548.000000	13.915005
549.000000	14.059514
550.000000	14.200414
551.000000	14.337639
552.000000	14.470750
553.000000	14.600810
554.000000	14.727557
555.000000	14.850067
556.000000	14.969225
557.000000	15.085245
558.000000	15.197802
559.000000	15.306536
560.000000	15.372407
561.000000	15.429407
562.000000	15.479578
563.000000	15.523080
564.000000	15.560177
565.000000	15.590562
566.000000	15.615661
567.000000	15.635069
568.000000	15.648868
569.000000	15.659805
570.000000	15.704320
571.000000	15.750740
572.000000	15.794292
573.000000	15.837333
574.000000	15.880539
575.000000	15.923195
576.000000	15.963119
577.000000	16.002818
578.000000	16.042042
579.000000	16.080257
580.000000	16.117368
581.000000	16.152533
582.000000	16.186468
583.000000	16.216876
584.000000	16.242757
585.000000	16.265285
586.000000	16.284595
587.000000	16.297786
588.000000	16.304158
589.000000	16.302998
590.000000	16.294145
591.000000	16.279140
592.000000	16.258312
593.000000	16.233307
594.000000	16.205122
595.000000	16.172599
596.000000	16.136026
597.000000	16.098025
598.000000	16.059536
599.000000	16.019387
600.000000	15.978787
601.000000	15.935666
602.000000	15.894909
603.000000	15.852139
604.000000	15.808697
605.000000	15.764185
606.000000	15.720032
607.000000	15.674929
608.000000	15.627044
609.000000	15.576602
610.000000	15.524232
611.000000	15.467241
612.000000	15.403812
613.000000	15.337310
614.000000	15.266268
615.000000	15.193624
616.000000	15.117654
617.000000	15.041049
618.000000	14.964067
619.000000	14.887891
620.000000	14.811709
621.000000	14.735232
622.000000	14.658753
623.000000	14.581876
624.000000	14.502728
625.000000	14.422573
626.000000	14.339935
627.000000	14.254693
628.000000	14.169416
629.000000	14.083930
630.000000	13.998712
631.000000	13.918808
632.000000	13.844753
633.000000	13.778893
634.000000	13.724787
635.000000	13.682032
636.000000	13.655089
637.000000	13.644083
638.000000	13.646788
639.000000	13.665113
640.000000	13.698560
641.000000	13.744398
642.000000	13.800273
643.000000	13.864669
644.000000	13.935563
645.000000	14.009827
646.000000	14.084143
647.000000	14.154900
648.000000	14.224583
649.000000	14.288333
650.000000	14.348574
651.000000	14.404549
652.000000	14.457178
653.000000	14.506809
654.000000	14.553476
655.000000	14.599693
656.000000	14.646326
657.000000	14.695199
658.000000	14.744882
659.000000	14.798275
660.000000	14.852294
661.000000	14.909699
662.000000	14.969098
663.000000	15.028539
664.000000	15.087784
665.000000	15.147241
666.000000	15.206697
667.000000	15.264454
668.000000	15.323366
669.000000	15.384165
670.000000	15.447170
671.000000	15.511777
672.000000	15.579406
673.000000	15.651649
674.000000	15.730976
675.000000	15.817247
676.000000	15.910507
677.000000	16.011088
678.000000	16.116706
679.000000	16.226055
680.000000	16.340365
681.000000	16.455907
682.000000	16.570216
683.000000	16.685004
684.000000	16.796142
685.000000	16.902194
686.000000	17.003836
687.000000	17.100355
688.000000	17.189710
689.000000	17.271761
690.000000	17.345796
691.000000	17.416000
692.000000	17.481288
693.000000	17.541286
694.000000	17.599090
695.000000	17.656650
696.000000	17.712796
697.000000	17.767398
698.000000	17.823802
699.000000	17.882319
700.000000	17.943829
701.000000	18.005561
702.000000	18.072918
703.000000	18.145277
704.000000	18.221581
705.000000	18.299215
706.000000	18.378723
707.000000	18.462367
708.000000	18.550029
709.000000	18.642522
710.000000	18.736951
711.000000	18.836012
712.000000	18.938675
713.000000	19.042692
714.000000	19.149300
715.000000	19.259144
716.000000	19.371653
717.000000	19.487354
718.000000	19.604502
719.000000	19.721659
720.000000	19.839765
721.000000	19.957268
722.000000	20.073580
723.000000	20.188979
724.000000	20.300990
725.000000	20.412074
726.000000	20.520827
727.000000	20.621936
728.000000	20.716209
729.000000	20.805098
730.000000	20.889618
731.000000	20.967327
732.000000	21.038545
733.000000	21.104698
734.000000	21.163487
735.000000	21.216009
736.000000	21.262637
737.000000	21.306364
738.000000	21.347413
739.000000	21.384302
740.000000	21.420790
741.000000	21.457302
742.000000	21.490913
743.000000	21.522156
744.000000	21.555329
745.000000	21.587161
746.000000	21.617396
747.000000	21.648755
748.000000	21.679403
749.000000	21.708229
750.000000	21.731238
751.000000	21.750905
752.000000	21.769890
753.000000	21.788186
754.000000	21.805694
755.000000	21.819998
756.000000	21.831414
757.000000	21.840391
758.000000	21.847029
759.000000	21.851637
760.000000	21.856586
761.000000	21.863082
762.000000	21.868842
763.000000	21.870112
764.000000	21.868021
765.000000	21.867970
766.000000	21.870752
767.000000	21.873068
768.000000	21.875278
769.000000	21.880176
770.000000	21.884128
771.000000	21.884629
772.000000	21.884009
773.000000	21.887967
774.000000	21.893262
775.000000	21.893926
776.000000	21.894822
777.000000	21.898187
778.000000	21.900648
779.000000	21.902292
780.000000	21.903931
781.000000	21.906146
782.000000	21.907214
783.000000	21.905750
784.000000	21.901851
785.000000	21.901348
786.000000	21.903635
787.000000	21.904873
788.000000	21.905438
789.000000	21.903157
790.000000	21.899134
791.000000	21.896157
792.000000	21.897050
793.000000	21.899080
794.000000	21.895227
795.000000	21.886814
796.000000	21.869423
797.000000	21.848691
798.000000	21.828454
799.000000	21.803928
800.000000	21.776144
801.000000	21.746692
802.000000	21.708956
803.000000	21.667261
804.000000	21.627888
805.000000	21.586116
806.000000	21.544112
807.000000	21.501025
808.000000	21.458984
809.000000	21.419930
810.000000	21.378100
811.000000	21.327908
812.000000	21.276893
813.000000	21.222156
814.000000	21.165397
815.000000	21.105101
816.000000	21.041504
817.000000	20.969495
818.000000	20.894178
819.000000	20.813197
820.000000	20.735894
821.000000	20.662362
822.000000	20.586620
823.000000	20.512557
824.000000	20.444126
825.000000	20.377453
826.000000	20.311838
827.000000	20.247785
828.000000	20.183048
829.000000	20.120438
830.000000	20.054840
831.000000	19.990788
832.000000	19.927270
833.000000	19.857972
834.000000	19.780455
835.000000	19.706291
836.000000	19.632522
837.000000	19.570727
838.000000	19.491484
839.000000	19.418264
840.000000	19.344815
841.000000	19.261758
842.000000	19.190866
843.000000	19.122410
844.000000	19.061301
845.000000	18.990341
846.000000	18.902932
847.000000	18.812299
848.000000	18.735167
849.000000	18.657742
850.000000	18.575248
851.000000	18.509637
852.000000	18.411433
853.000000	18.322670
854.000000	18.229452
855.000000	18.127054
856.000000	18.060708
857.000000	18.038094
858.000000	18.136948
859.000000	18.165439
860.000000	18.204788
861.000000	18.240115
862.000000	18.304711
863.000000	18.368925
864.000000	18.441280
865.000000	18.537807
866.000000	18.620321
867.000000	18.656961
868.000000	18.579557
869.000000	18.572663
870.000000	18.568547
871.000000	18.564207
872.000000	18.557660
873.000000	18.549210
874.000000	18.537950
875.000000	18.525267
876.000000	18.513323
877.000000	18.503483
878.000000	18.492413
879.000000	18.482090
880.000000	18.471587
881.000000	18.459990
882.000000	18.450347
883.000000	18.440823
884.000000	18.432200
885.000000	18.422833
886.000000	18.411557
887.000000	18.400350
888.000000	18.390690
889.000000	18.379367
890.000000	18.365330
891.000000	18.354320
892.000000	18.342950
893.000000	18.332217
894.000000	18.320640
895.000000	18.308617
896.000000	18.299797
897.000000	18.290427
898.000000	18.281237
899.000000	18.276653
900.000000	18.274173
901.000000	18.271290
902.000000	18.268007
903.000000	18.265100
904.000000	18.265980
905.000000	18.270383
906.000000	18.274803
907.000000	18.281197
908.000000	18.288420
909.000000	18.294897
910.000000	18.302573
911.000000	18.310357
912.000000	18.319303
913.000000	18.328453
914.000000	18.337053
915.000000	18.345043
916.000000	18.351410
917.000000	18.359410
918.000000	18.366760
919.000000	18.371583
920.000000	18.375087
921.000000	18.379637
922.000000	18.383287
923.000000	18.387280
924.000000	18.388510
925.000000	18.388823
926.000000	18.388857
927.000000	18.384870
928.000000	18.381093
929.000000	18.375180
930.000000	18.369910
931.000000	18.360390
932.000000	18.350557
933.000000	18.340023
934.000000	18.329837
935.000000	18.318380
936.000000	18.306523
937.000000	18.295287
938.000000	18.281780
939.000000	18.268210
940.000000	18.252227
941.000000	18.236847
942.000000	18.221770
943.000000	18.204610
944.000000	18.187440
945.000000	18.171590
946.000000	18.155243
947.000000	18.140370
948.000000	18.127537
949.000000	18.116613
950.000000	18.108053
951.000000	18.100800
952.000000	18.093433
953.000000	18.088797
954.000000	18.084057
955.000000	18.079467
956.000000	18.075677
957.000000	18.071037
958.000000	18.065523
959.000000	18.060417
960.000000	18.054213
961.000000	18.047527
962.000000	18.042347
963.000000	18.035713
964.000000	18.030200
965.000000	18.024327
966.000000	18.018033
967.000000	18.011117
968.000000	18.005077
969.000000	17.999503
970.000000	17.993133
971.000000	17.988140
972.000000	17.982563
973.000000	17.976320
974.000000	17.968477
975.000000	17.959583
976.000000	17.951197
977.000000	17.941920
978.000000	17.930860
979.000000	17.917593
980.000000	17.905043
981.000000	17.891027
982.000000	17.875583
983.000000	17.860060
984.000000	17.844580
985.000000	17.829497
986.000000	17.813380
987.000000	17.798507
988.000000	17.785220
989.000000	17.773187
990.000000	17.759857
991.000000	17.747760
992.000000	17.737493
993.000000	17.727427
994.000000	17.718480
995.000000	17.709580
996.000000	17.702150
997.000000	17.694843
998.000000	17.686767
999.000000	17.679270
1000.000000	17.674267
1001.000000	17.670017
1002.000000	17.662847
1003.000000	17.656163
1004.000000	17.649513
1005.000000	17.641713
1006.000000	17.633897
1007.000000	17.626440
1008.000000	17.619393
1009.000000	17.612507
1010.000000	17.604310
1011.000000	17.594767
1012.000000	17.587727
1013.000000	17.583003
1014.000000	17.577630
1015.000000	17.572117
1016.000000	17.567273
1017.000000	17.562863
1018.000000	17.558463
1019.000000	17.554143
1020.000000	17.550660
1021.000000	17.548297
1022.000000	17.546207
1023.000000	17.542703
1024.000000	17.540067
1025.000000	17.540327
1026.000000	17.539780
1027.000000	17.539580
1028.000000	17.540490
1029.000000	17.541713
1030.000000	17.542647
1031.000000	17.544117
1032.000000	17.546467
1033.000000	17.549113
1034.000000	17.551800
1035.000000	17.554247
1036.000000	17.558180
1037.000000	17.562023
1038.000000	17.564713
1039.000000	17.568317
1040.000000	17.573137
1041.000000	17.577877
1042.000000	17.581620
1043.000000	17.585333
1044.000000	17.589257
1045.000000	17.592753
1046.000000	17.596133
1047.000000	17.600320
1048.000000	17.605177
1049.000000	17.610003
1050.000000	17.614750
1051.000000	17.619693
1052.000000	17.625093
1053.000000	17.630617
1054.000000	17.636520
1055.000000	17.642937
1056.000000	17.648443
1057.000000	17.654277
1058.000000	17.661037
1059.000000	17.667797
1060.000000	17.675350
1061.000000	17.683490
1062.000000	17.691950
1063.000000	17.701510
1064.000000	17.710877
1065.000000	17.720230
1066.000000	17.731390
1067.000000	17.742293
1068.000000	17.752993
1069.000000	17.764057
1070.000000	17.775537
1071.000000	17.787487
1072.000000	17.799383
1073.000000	17.811550
1074.000000	17.824123
1075.000000	17.837150
1076.000000	17.849757
1077.000000	17.861873
1078.000000	17.875470
1079.000000	17.888797
1080.000000	17.900507
1081.000000	17.912063
1082.000000	17.923087
1083.000000	17.933933
1084.000000	17.945083
1085.000000	17.956117
1086.000000	17.966880
1087.000000	17.977327
1088.000000	17.986710
1089.000000	17.996140
1090.000000	18.006510
1091.000000	18.016263
1092.000000	18.027253
1093.000000	18.037963
1094.000000	18.047577
1095.000000	18.055977
1096.000000	18.064767
1097.000000	18.075000
1098.000000	18.084950
1099.000000	18.095250
1100.000000	18.104797
1101.000000	18.114303
1102.000000	18.122783
1103.000000	18.130950
1104.000000	18.140863
1105.000000	18.151293
1106.000000	18.160757
1107.000000	18.169777
1108.000000	18.177653
1109.000000	18.184950
1110.000000	18.192513
1111.000000	18.199080
1112.000000	18.205653
1113.000000	18.211437
1114.000000	18.214080
1115.000000	18.217103
1116.000000	18.220810
1117.000000	18.223840
1118.000000	18.226700
1119.000000	18.230047
1120.000000	18.233050
1121.000000	18.235997
1122.000000	18.236687
1123.000000	18.237950
1124.000000	18.239583
1125.000000	18.240510
1126.000000	18.238517
1127.000000	18.236287
1128.000000	18.232640
1129.000000	18.229597
1130.000000	18.225250
1131.000000	18.218707
1132.000000	18.210417
1133.000000	18.198257
1134.000000	18.187190
1135.000000	18.176623
1136.000000	18.171190
1137.000000	18.161917
1138.000000	18.151487
1139.000000	18.137693
1140.000000	18.124583
1141.000000	18.113097
1142.000000	18.103287
1143.000000	18.095333
1144.000000	18.088530
1145.000000	18.081690
1146.000000	18.071927
1147.000000	18.066320
1148.000000	18.062393
1149.000000	18.059660
1150.000000	18.056127
1151.000000	18.053013
1152.000000	18.050320
1153.000000	18.048260
1154.000000	18.043810
1155.000000	18.036697
1156.000000	18.026873
1157.000000	18.014970
1158.000000	18.001943
1159.000000	17.985623
1160.000000	17.968577
1161.000000	17.947557
1162.000000	17.923243
1163.000000	17.896783
1164.000000	17.868223
1165.000000	17.838087
1166.000000	17.806437
1167.000000	17.774303
1168.000000	17.740707
1169.000000	17.706827
1170.000000	17.672750
1171.000000	17.640773
1172.000000	17.611067
1173.000000	17.583000
