PE UV       SUBTECH     SPECTRUM    ASCII       PEDS        4.00        
   -1
BIOUCR0029-3.Sample.ASC
24/02/20
15:11:54.00
24/02/20
15:11:54.00
Vinicio Soto Monge
P. resplendens June 12 2007 Monteverde, CR
250,000000
1
Lambda 1050
1050L1511233
PerkinElmer UV WinLab 6.3.2.0749 / 2.02.05 Lambda 900 UV/VIS/NIR, Aug  7 2015 09:38:08

0
0
3350/servo 860,8/2
0
0
UV/VIS
1
1
1
DoubleDePol,CommonBeamDepol,RBeamAtt,SBeamAtt,60mm sphere, WB InGaAs Detector
0
0
0
0
Program
Program
3350/servo 860,8/2
3350/0,2 860,8/0,2
3350/0,2 860,8/0,2
0
15.00
 
 
 
0
 
860,8
319,2
860,8
Front
100
on
S:100 R:100
0
0
0
0
 
0
 
 
 
0
 
 
0
0
0
0
0
 
 
 
 
0
0


0
0
#HDR
-1
-1
#GR
nm
%R
1.0
0.0
2500,000000
-1,000000
2251
8
22,947500
1,915300
#DATA

250.000000	nan
251.000000	nan
252.000000	nan
253.000000	nan
254.000000	nan
255.000000	nan
256.000000	nan
257.000000	nan
258.000000	nan
259.000000	2.116477
260.000000	2.111749
261.000000	2.108644
262.000000	2.105481
263.000000	2.101790
264.000000	2.098547
265.000000	2.092527
266.000000	2.089588
267.000000	2.085000
268.000000	2.078981
269.000000	2.076744
270.000000	2.072780
271.000000	2.068816
272.000000	2.066711
273.000000	2.061235
274.000000	2.053462
275.000000	2.052554
276.000000	2.047935
277.000000	2.045373
278.000000	2.043604
279.000000	2.040862
280.000000	2.040914
281.000000	2.036395
282.000000	2.034342
283.000000	2.033940
284.000000	2.033264
285.000000	2.032525
286.000000	2.029624
287.000000	2.026395
288.000000	2.026451
289.000000	2.024168
290.000000	2.020035
291.000000	2.017164
292.000000	2.013696
293.000000	2.011331
294.000000	2.008540
295.000000	2.006226
296.000000	2.005519
297.000000	2.003079
298.000000	1.995130
299.000000	1.991925
300.000000	1.987473
301.000000	1.986539
302.000000	1.984503
303.000000	1.981333
304.000000	1.981913
305.000000	1.978653
306.000000	1.974743
307.000000	1.973492
308.000000	1.974417
309.000000	1.973459
310.000000	1.971600
311.000000	1.968453
312.000000	1.965088
313.000000	1.960245
314.000000	1.956751
315.000000	1.953782
316.000000	1.953580
317.000000	1.976562
318.000000	2.014286
319.000000	2.042106
320.000000	2.072408
321.000000	2.094010
322.000000	2.111696
323.000000	2.122830
324.000000	2.132684
325.000000	2.149652
326.000000	2.153833
327.000000	2.141318
328.000000	2.109742
329.000000	2.092310
330.000000	2.077598
331.000000	2.071051
332.000000	2.070631
333.000000	2.074561
334.000000	2.074705
335.000000	2.071655
336.000000	2.079597
337.000000	2.077730
338.000000	2.084952
339.000000	2.079099
340.000000	2.068590
341.000000	2.050392
342.000000	2.039574
343.000000	2.034831
344.000000	2.029191
345.000000	2.019473
346.000000	2.012345
347.000000	2.006419
348.000000	1.997784
349.000000	1.996870
350.000000	1.996114
351.000000	2.001469
352.000000	1.999734
353.000000	1.998025
354.000000	2.003996
355.000000	2.003262
356.000000	2.002028
357.000000	2.001542
358.000000	2.004064
359.000000	2.010347
360.000000	2.016862
361.000000	2.025541
362.000000	2.029826
363.000000	2.031528
364.000000	2.031986
365.000000	2.037801
366.000000	2.043778
367.000000	2.053629
368.000000	2.058125
369.000000	2.057795
370.000000	2.064028
371.000000	2.066540
372.000000	2.070762
373.000000	2.078352
374.000000	2.082868
375.000000	2.091427
376.000000	2.102207
377.000000	2.097143
378.000000	2.095531
379.000000	2.098790
380.000000	2.100180
381.000000	2.109265
382.000000	2.121945
383.000000	2.135438
384.000000	2.154390
385.000000	2.177166
386.000000	2.202141
387.000000	2.244877
388.000000	2.291322
389.000000	2.341435
390.000000	2.394531
391.000000	2.450875
392.000000	2.511519
393.000000	2.575934
394.000000	2.643294
395.000000	2.713854
396.000000	2.787496
397.000000	2.864095
398.000000	2.942881
399.000000	3.024389
400.000000	3.108464
401.000000	3.194170
402.000000	3.281395
403.000000	3.369890
404.000000	3.459613
405.000000	3.549549
406.000000	3.639663
407.000000	3.730624
408.000000	3.821796
409.000000	3.912039
410.000000	4.002147
411.000000	4.091712
412.000000	4.180232
413.000000	4.267459
414.000000	4.353642
415.000000	4.438776
416.000000	4.522888
417.000000	4.605352
418.000000	4.686167
419.000000	4.765335
420.000000	4.842363
421.000000	4.917544
422.000000	4.990741
423.000000	5.062661
424.000000	5.132152
425.000000	5.199152
426.000000	5.264022
427.000000	5.325795
428.000000	5.384662
429.000000	5.441226
430.000000	5.494332
431.000000	5.543602
432.000000	5.589102
433.000000	5.630165
434.000000	5.667022
435.000000	5.698335
436.000000	5.724490
437.000000	5.745357
438.000000	5.760844
439.000000	5.770125
440.000000	5.771486
441.000000	5.765918
442.000000	5.754004
443.000000	5.735234
444.000000	5.710369
445.000000	5.680963
446.000000	5.647116
447.000000	5.609802
448.000000	5.569764
449.000000	5.528834
450.000000	5.490007
451.000000	5.453527
452.000000	5.421182
453.000000	5.395659
454.000000	5.379015
455.000000	5.372833
456.000000	5.378528
457.000000	5.398433
458.000000	5.433554
459.000000	5.484717
460.000000	5.553210
461.000000	5.639273
462.000000	5.742484
463.000000	5.861954
464.000000	5.995998
465.000000	6.143299
466.000000	6.300871
467.000000	6.465709
468.000000	6.636267
469.000000	6.809853
470.000000	6.983713
471.000000	7.155658
472.000000	7.322139
473.000000	7.480442
474.000000	7.629515
475.000000	7.767985
476.000000	7.895375
477.000000	8.010946
478.000000	8.114071
479.000000	8.204070
480.000000	8.279020
481.000000	8.337979
482.000000	8.382894
483.000000	8.417167
484.000000	8.442930
485.000000	8.462032
486.000000	8.476305
487.000000	8.487911
488.000000	8.498640
489.000000	8.510735
490.000000	8.528052
491.000000	8.554050
492.000000	8.590931
493.000000	8.638652
494.000000	8.697477
495.000000	8.768622
496.000000	8.853391
497.000000	8.952431
498.000000	9.065108
499.000000	9.191923
500.000000	9.334684
501.000000	9.493795
502.000000	9.668537
503.000000	9.857710
504.000000	10.062117
505.000000	10.280389
506.000000	10.512178
507.000000	10.757465
508.000000	11.017662
509.000000	11.292734
510.000000	11.581200
511.000000	11.882385
512.000000	12.194136
513.000000	12.516802
514.000000	12.847177
515.000000	13.185281
516.000000	13.528505
517.000000	13.875155
518.000000	14.222689
519.000000	14.569148
520.000000	14.912952
521.000000	15.252242
522.000000	15.588093
523.000000	15.920618
524.000000	16.249471
525.000000	16.571031
526.000000	16.886419
527.000000	17.195062
528.000000	17.497255
529.000000	17.792366
530.000000	18.080018
531.000000	18.361675
532.000000	18.635596
533.000000	18.899028
534.000000	19.152627
535.000000	19.399460
536.000000	19.638198
537.000000	19.869327
538.000000	20.092638
539.000000	20.307594
540.000000	20.513744
541.000000	20.711512
542.000000	20.899407
543.000000	21.078080
544.000000	21.247281
545.000000	21.405481
546.000000	21.553701
547.000000	21.690666
548.000000	21.818584
549.000000	21.935216
550.000000	22.041798
551.000000	22.137701
552.000000	22.227099
553.000000	22.309631
554.000000	22.386033
555.000000	22.457807
556.000000	22.526503
557.000000	22.594089
558.000000	22.655718
559.000000	22.716721
560.000000	22.720661
561.000000	22.715452
562.000000	22.704850
563.000000	22.691602
564.000000	22.675283
565.000000	22.654608
566.000000	22.626077
567.000000	22.590167
568.000000	22.549471
569.000000	22.500183
570.000000	22.498324
571.000000	22.496178
572.000000	22.487984
573.000000	22.470555
574.000000	22.446772
575.000000	22.418210
576.000000	22.388191
577.000000	22.357137
578.000000	22.325388
579.000000	22.295589
580.000000	22.268124
581.000000	22.244372
582.000000	22.222985
583.000000	22.206017
584.000000	22.189298
585.000000	22.172657
586.000000	22.151879
587.000000	22.124427
588.000000	22.088939
589.000000	22.041422
590.000000	21.982771
591.000000	21.909982
592.000000	21.826385
593.000000	21.731119
594.000000	21.626555
595.000000	21.513761
596.000000	21.397756
597.000000	21.280994
598.000000	21.165949
599.000000	21.058673
600.000000	20.957941
601.000000	20.863514
602.000000	20.774123
603.000000	20.689186
604.000000	20.605843
605.000000	20.520297
606.000000	20.429521
607.000000	20.330612
608.000000	20.220741
609.000000	20.096337
610.000000	19.954576
611.000000	19.797262
612.000000	19.623263
613.000000	19.434169
614.000000	19.231972
615.000000	19.019685
616.000000	18.798557
617.000000	18.572375
618.000000	18.343305
619.000000	18.112545
620.000000	17.880926
621.000000	17.646987
622.000000	17.409826
623.000000	17.168482
624.000000	16.922156
625.000000	16.669376
626.000000	16.407725
627.000000	16.135011
628.000000	15.853424
629.000000	15.563448
630.000000	15.271497
631.000000	14.978615
632.000000	14.692522
633.000000	14.417188
634.000000	14.160081
635.000000	13.926580
636.000000	13.725713
637.000000	13.562591
638.000000	13.441071
639.000000	13.364970
640.000000	13.333550
641.000000	13.351124
642.000000	13.416023
643.000000	13.523299
644.000000	13.669172
645.000000	13.849604
646.000000	14.057715
647.000000	14.288192
648.000000	14.533511
649.000000	14.791433
650.000000	15.058565
651.000000	15.328472
652.000000	15.597388
653.000000	15.868050
654.000000	16.134829
655.000000	16.397641
656.000000	16.655332
657.000000	16.908636
658.000000	17.158154
659.000000	17.400485
660.000000	17.633828
661.000000	17.860731
662.000000	18.078896
663.000000	18.286605
664.000000	18.484745
665.000000	18.670468
666.000000	18.841734
667.000000	18.998692
668.000000	19.139934
669.000000	19.267538
670.000000	19.381893
671.000000	19.482686
672.000000	19.572181
673.000000	19.651892
674.000000	19.723795
675.000000	19.788955
676.000000	19.851156
677.000000	19.909667
678.000000	19.967945
679.000000	20.026950
680.000000	20.087513
681.000000	20.148852
682.000000	20.210477
683.000000	20.273750
684.000000	20.337507
685.000000	20.403140
686.000000	20.469862
687.000000	20.536857
688.000000	20.603999
689.000000	20.670791
690.000000	20.737053
691.000000	20.801664
692.000000	20.865873
693.000000	20.927503
694.000000	20.988269
695.000000	21.046774
696.000000	21.104526
697.000000	21.161907
698.000000	21.217683
699.000000	21.270833
700.000000	21.317225
701.000000	21.362055
702.000000	21.405397
703.000000	21.446844
704.000000	21.484416
705.000000	21.520298
706.000000	21.552731
707.000000	21.583215
708.000000	21.614401
709.000000	21.645153
710.000000	21.680470
711.000000	21.718723
712.000000	21.758635
713.000000	21.801305
714.000000	21.848184
715.000000	21.898084
716.000000	21.956011
717.000000	22.018861
718.000000	22.081071
719.000000	22.147781
720.000000	22.222144
721.000000	22.297926
722.000000	22.371325
723.000000	22.442932
724.000000	22.511920
725.000000	22.575646
726.000000	22.627520
727.000000	22.670808
728.000000	22.706821
729.000000	22.731459
730.000000	22.739104
731.000000	22.732838
732.000000	22.717957
733.000000	22.694505
734.000000	22.661937
735.000000	22.621358
736.000000	22.576953
737.000000	22.530354
738.000000	22.482874
739.000000	22.434685
740.000000	22.388116
741.000000	22.346856
742.000000	22.310574
743.000000	22.276557
744.000000	22.247386
745.000000	22.226930
746.000000	22.214577
747.000000	22.206433
748.000000	22.201612
749.000000	22.200761
750.000000	22.207924
751.000000	22.220933
752.000000	22.237022
753.000000	22.258537
754.000000	22.283275
755.000000	22.309383
756.000000	22.336593
757.000000	22.365547
758.000000	22.398301
759.000000	22.431991
760.000000	22.460780
761.000000	22.484823
762.000000	22.503931
763.000000	22.514374
764.000000	22.515016
765.000000	22.504689
766.000000	22.480814
767.000000	22.443035
768.000000	22.390417
769.000000	22.326146
770.000000	22.251459
771.000000	22.162420
772.000000	22.064520
773.000000	21.962104
774.000000	21.854652
775.000000	21.745028
776.000000	21.638261
777.000000	21.535636
778.000000	21.437673
779.000000	21.343899
780.000000	21.256382
781.000000	21.178355
782.000000	21.109913
783.000000	21.048063
784.000000	20.994787
785.000000	20.951391
786.000000	20.914469
787.000000	20.882575
788.000000	20.856478
789.000000	20.833454
790.000000	20.815509
791.000000	20.799831
792.000000	20.782893
793.000000	20.765284
794.000000	20.746601
795.000000	20.724163
796.000000	20.695636
797.000000	20.657996
798.000000	20.610537
799.000000	20.556226
800.000000	20.491560
801.000000	20.421612
802.000000	20.341685
803.000000	20.249623
804.000000	20.148722
805.000000	20.039490
806.000000	19.920541
807.000000	19.801756
808.000000	19.691828
809.000000	19.581425
810.000000	19.472121
811.000000	19.369317
812.000000	19.271421
813.000000	19.184784
814.000000	19.105190
815.000000	19.032259
816.000000	18.968728
817.000000	18.911579
818.000000	18.853838
819.000000	18.806932
820.000000	18.766580
821.000000	18.722397
822.000000	18.684650
823.000000	18.650059
824.000000	18.625763
825.000000	18.606546
826.000000	18.598517
827.000000	18.598056
828.000000	18.603787
829.000000	18.601843
830.000000	18.602110
831.000000	18.604125
832.000000	18.614422
833.000000	18.629441
834.000000	18.639066
835.000000	18.647717
836.000000	18.647738
837.000000	18.642384
838.000000	18.636714
839.000000	18.635362
840.000000	18.630115
841.000000	18.629095
842.000000	18.611173
843.000000	18.587160
844.000000	18.560840
845.000000	18.539370
846.000000	18.515780
847.000000	18.485821
848.000000	18.449679
849.000000	18.406308
850.000000	18.376588
851.000000	18.332660
852.000000	18.294339
853.000000	18.253667
854.000000	18.210726
855.000000	18.146178
856.000000	18.084836
857.000000	18.035070
858.000000	18.015033
859.000000	18.015482
860.000000	18.005507
861.000000	18.007977
862.000000	18.018265
863.000000	18.037185
864.000000	18.065465
865.000000	18.113638
866.000000	18.166378
867.000000	18.217141
868.000000	18.241573
869.000000	18.256843
870.000000	18.272613
871.000000	18.288300
872.000000	18.300570
873.000000	18.309213
874.000000	18.312830
875.000000	18.314673
876.000000	18.316303
877.000000	18.316730
878.000000	18.315517
879.000000	18.311307
880.000000	18.306990
881.000000	18.302280
882.000000	18.296920
883.000000	18.289967
884.000000	18.283143
885.000000	18.276243
886.000000	18.267437
887.000000	18.256870
888.000000	18.245690
889.000000	18.232543
890.000000	18.218623
891.000000	18.204700
892.000000	18.190897
893.000000	18.177483
894.000000	18.163553
895.000000	18.148700
896.000000	18.134093
897.000000	18.118610
898.000000	18.104590
899.000000	18.091130
900.000000	18.078767
901.000000	18.068960
902.000000	18.059103
903.000000	18.046733
904.000000	18.035313
905.000000	18.024457
906.000000	18.012980
907.000000	18.004873
908.000000	17.995657
909.000000	17.987230
910.000000	17.976817
911.000000	17.965277
912.000000	17.954050
913.000000	17.945180
914.000000	17.933457
915.000000	17.923137
916.000000	17.910630
917.000000	17.896190
918.000000	17.879807
919.000000	17.863313
920.000000	17.847113
921.000000	17.829313
922.000000	17.809900
923.000000	17.788300
924.000000	17.768557
925.000000	17.745987
926.000000	17.725667
927.000000	17.705060
928.000000	17.684710
929.000000	17.666260
930.000000	17.646607
931.000000	17.627003
932.000000	17.609147
933.000000	17.594943
934.000000	17.582897
935.000000	17.574717
936.000000	17.566770
937.000000	17.561520
938.000000	17.558260
939.000000	17.555827
940.000000	17.554030
941.000000	17.552647
942.000000	17.550683
943.000000	17.549453
944.000000	17.548503
945.000000	17.546833
946.000000	17.544527
947.000000	17.542050
948.000000	17.540707
949.000000	17.538897
950.000000	17.540183
951.000000	17.541307
952.000000	17.542563
953.000000	17.542397
954.000000	17.542047
955.000000	17.540267
956.000000	17.538613
957.000000	17.535053
958.000000	17.530057
959.000000	17.523520
960.000000	17.515910
961.000000	17.508043
962.000000	17.499667
963.000000	17.490307
964.000000	17.481093
965.000000	17.473403
966.000000	17.465747
967.000000	17.458013
968.000000	17.452150
969.000000	17.448780
970.000000	17.445270
971.000000	17.444547
972.000000	17.444840
973.000000	17.448490
974.000000	17.453207
975.000000	17.457653
976.000000	17.465297
977.000000	17.475713
978.000000	17.487043
979.000000	17.499897
980.000000	17.514053
981.000000	17.529053
982.000000	17.547230
983.000000	17.564387
984.000000	17.581657
985.000000	17.601243
986.000000	17.620937
987.000000	17.640413
988.000000	17.660090
989.000000	17.680623
990.000000	17.702810
991.000000	17.724847
992.000000	17.745483
993.000000	17.766493
994.000000	17.789023
995.000000	17.810743
996.000000	17.831683
997.000000	17.852270
998.000000	17.873793
999.000000	17.894233
1000.000000	17.911863
1001.000000	17.928420
1002.000000	17.944670
1003.000000	17.960583
1004.000000	17.973480
1005.000000	17.985443
1006.000000	17.997220
1007.000000	18.008243
1008.000000	18.017373
1009.000000	18.025827
1010.000000	18.034820
1011.000000	18.043113
1012.000000	18.050880
1013.000000	18.058957
1014.000000	18.068113
1015.000000	18.076720
1016.000000	18.085580
1017.000000	18.095070
1018.000000	18.104167
1019.000000	18.112800
1020.000000	18.123227
1021.000000	18.134627
1022.000000	18.145133
1023.000000	18.156260
1024.000000	18.167750
1025.000000	18.179130
1026.000000	18.190563
1027.000000	18.202890
1028.000000	18.216980
1029.000000	18.231863
1030.000000	18.245977
1031.000000	18.260720
1032.000000	18.276700
1033.000000	18.292527
1034.000000	18.309540
1035.000000	18.327357
1036.000000	18.344617
1037.000000	18.361827
1038.000000	18.379140
1039.000000	18.396610
1040.000000	18.414397
1041.000000	18.432377
1042.000000	18.451327
1043.000000	18.470310
1044.000000	18.488880
1045.000000	18.509190
1046.000000	18.530660
1047.000000	18.551150
1048.000000	18.570723
1049.000000	18.589847
1050.000000	18.609403
1051.000000	18.629617
1052.000000	18.649737
1053.000000	18.670703
1054.000000	18.691393
1055.000000	18.710743
1056.000000	18.730523
1057.000000	18.751350
1058.000000	18.771903
1059.000000	18.793147
1060.000000	18.814143
1061.000000	18.834923
1062.000000	18.855073
1063.000000	18.874173
1064.000000	18.893503
1065.000000	18.912550
1066.000000	18.930863
1067.000000	18.949463
1068.000000	18.969710
1069.000000	18.989500
1070.000000	19.009420
1071.000000	19.029487
1072.000000	19.049887
1073.000000	19.070717
1074.000000	19.090943
1075.000000	19.110620
1076.000000	19.130123
1077.000000	19.149493
1078.000000	19.167587
1079.000000	19.184823
1080.000000	19.201970
1081.000000	19.218653
1082.000000	19.235387
1083.000000	19.251520
1084.000000	19.266510
1085.000000	19.282083
1086.000000	19.297733
1087.000000	19.311610
1088.000000	19.325253
1089.000000	19.339423
1090.000000	19.352610
1091.000000	19.365290
1092.000000	19.377340
1093.000000	19.388743
1094.000000	19.400757
1095.000000	19.412787
1096.000000	19.423917
1097.000000	19.435253
1098.000000	19.445863
1099.000000	19.456963
1100.000000	19.467087
1101.000000	19.476620
1102.000000	19.486993
1103.000000	19.497750
1104.000000	19.508097
1105.000000	19.518153
1106.000000	19.527777
1107.000000	19.537883
1108.000000	19.549410
1109.000000	19.559943
1110.000000	19.570860
1111.000000	19.581387
1112.000000	19.589893
1113.000000	19.598407
1114.000000	19.607347
1115.000000	19.615103
1116.000000	19.623567
1117.000000	19.632097
1118.000000	19.639227
1119.000000	19.646067
1120.000000	19.652250
1121.000000	19.658110
1122.000000	19.664763
1123.000000	19.671253
1124.000000	19.675997
1125.000000	19.681100
1126.000000	19.684530
1127.000000	19.686773
1128.000000	19.687453
1129.000000	19.688563
1130.000000	19.688890
1131.000000	19.686083
1132.000000	19.681007
1133.000000	19.671937
1134.000000	19.663060
1135.000000	19.654593
1136.000000	19.647130
1137.000000	19.635097
1138.000000	19.621517
1139.000000	19.604427
1140.000000	19.585583
1141.000000	19.568880
1142.000000	19.553007
1143.000000	19.537040
1144.000000	19.520553
1145.000000	19.503797
1146.000000	19.484873
1147.000000	19.469183
1148.000000	19.455493
1149.000000	19.443950
1150.000000	19.432637
1151.000000	19.421510
1152.000000	19.410423
1153.000000	19.400580
1154.000000	19.391387
1155.000000	19.378810
1156.000000	19.366653
1157.000000	19.351440
1158.000000	19.335320
1159.000000	19.316703
1160.000000	19.296910
1161.000000	19.274533
1162.000000	19.247817
1163.000000	19.219517
1164.000000	19.187847
1165.000000	19.157167
1166.000000	19.121683
1167.000000	19.088220
1168.000000	19.053447
1169.000000	19.016333
1170.000000	18.982073
1171.000000	18.949047
1172.000000	18.918767
