PE UV       SUBTECH     SPECTRUM    ASCII       PEDS        4.00        
   -1
BIOUCR0015-3.Sample.ASC
24/02/19
16:09:51.00
24/02/19
16:09:51.00
Vinicio Soto Monge
P. resplendens (sin datos)
250,000000
1
Lambda 1050
1050L1511233
PerkinElmer UV WinLab 6.3.2.0749 / 2.02.05 Lambda 900 UV/VIS/NIR, Aug  7 2015 09:38:08

0
0
3350/servo 860,8/2
0
0
UV/VIS
1
1
1
DoubleDePol,CommonBeamDepol,RBeamAtt,SBeamAtt,60mm sphere, WB InGaAs Detector
0
0
0
0
Program
Program
3350/servo 860,8/2
3350/0,2 860,8/0,2
3350/0,2 860,8/0,2
0
15.00
 
 
 
0
 
860,8
319,2
860,8
Front
100
on
S:100 R:100
0
0
0
0
 
0
 
 
 
0
 
 
0
0
0
0
0
 
 
 
 
0
0


0
0
#HDR
-1
-1
#GR
nm
%R
1.0
0.0
2500,000000
-1,000000
2251
8
25,126700
1,700500
#DATA

250.000000	nan
251.000000	nan
252.000000	nan
253.000000	nan
254.000000	nan
255.000000	nan
256.000000	nan
257.000000	nan
258.000000	nan
259.000000	2.121299
260.000000	2.115541
261.000000	2.111078
262.000000	2.106760
263.000000	2.102959
264.000000	2.100795
265.000000	2.097683
266.000000	2.093654
267.000000	2.088553
268.000000	2.082750
269.000000	2.077875
270.000000	2.072523
271.000000	2.067379
272.000000	2.062669
273.000000	2.056358
274.000000	2.048665
275.000000	2.044839
276.000000	2.039895
277.000000	2.036102
278.000000	2.033802
279.000000	2.031342
280.000000	2.031842
281.000000	2.030543
282.000000	2.029759
283.000000	2.030862
284.000000	2.033417
285.000000	2.031775
286.000000	2.031406
287.000000	2.031303
288.000000	2.029610
289.000000	2.029997
290.000000	2.027258
291.000000	2.024949
292.000000	2.021976
293.000000	2.014722
294.000000	2.012391
295.000000	2.007884
296.000000	2.002376
297.000000	2.000681
298.000000	1.996834
299.000000	1.991731
300.000000	1.988730
301.000000	1.989363
302.000000	1.987749
303.000000	1.989582
304.000000	1.984530
305.000000	1.988933
306.000000	1.990144
307.000000	1.989241
308.000000	1.989028
309.000000	1.986373
310.000000	1.986478
311.000000	1.980119
312.000000	1.978476
313.000000	1.973226
314.000000	1.972561
315.000000	1.968375
316.000000	1.972238
317.000000	2.022946
318.000000	2.054298
319.000000	2.091249
320.000000	2.125949
321.000000	2.152665
322.000000	2.181570
323.000000	2.212805
324.000000	2.243099
325.000000	2.276670
326.000000	2.287055
327.000000	2.249797
328.000000	2.232420
329.000000	2.196137
330.000000	2.177930
331.000000	2.164756
332.000000	2.139254
333.000000	2.115592
334.000000	2.096421
335.000000	2.067188
336.000000	2.055796
337.000000	2.051468
338.000000	2.049936
339.000000	2.052118
340.000000	2.036258
341.000000	2.030289
342.000000	2.031529
343.000000	2.031787
344.000000	2.029155
345.000000	2.029594
346.000000	2.027811
347.000000	2.021086
348.000000	2.011581
349.000000	2.010288
350.000000	2.008429
351.000000	2.001599
352.000000	1.994341
353.000000	1.992329
354.000000	1.990695
355.000000	1.985460
356.000000	1.982292
357.000000	1.978180
358.000000	1.973213
359.000000	1.970079
360.000000	1.968606
361.000000	1.965363
362.000000	1.965841
363.000000	1.955727
364.000000	1.942020
365.000000	1.941153
366.000000	1.938140
367.000000	1.925919
368.000000	1.918427
369.000000	1.909290
370.000000	1.899169
371.000000	1.890405
372.000000	1.874071
373.000000	1.862414
374.000000	1.845140
375.000000	1.824286
376.000000	1.813897
377.000000	1.799516
378.000000	1.781997
379.000000	1.766909
380.000000	1.751395
381.000000	1.739382
382.000000	1.732493
383.000000	1.725933
384.000000	1.726950
385.000000	1.723823
386.000000	1.714224
387.000000	1.716498
388.000000	1.719150
389.000000	1.723149
390.000000	1.727125
391.000000	1.730018
392.000000	1.734323
393.000000	1.739398
394.000000	1.744141
395.000000	1.749736
396.000000	1.755360
397.000000	1.761848
398.000000	1.768868
399.000000	1.776668
400.000000	1.785652
401.000000	1.796112
402.000000	1.806914
403.000000	1.819361
404.000000	1.833421
405.000000	1.849160
406.000000	1.866729
407.000000	1.886675
408.000000	1.908918
409.000000	1.933251
410.000000	1.959519
411.000000	1.988810
412.000000	2.021560
413.000000	2.056499
414.000000	2.093903
415.000000	2.134441
416.000000	2.178340
417.000000	2.224704
418.000000	2.273776
419.000000	2.325954
420.000000	2.381371
421.000000	2.439052
422.000000	2.498787
423.000000	2.561236
424.000000	2.626214
425.000000	2.692848
426.000000	2.760887
427.000000	2.830693
428.000000	2.902311
429.000000	2.975491
430.000000	3.049023
431.000000	3.122602
432.000000	3.197259
433.000000	3.272357
434.000000	3.347017
435.000000	3.421688
436.000000	3.496136
437.000000	3.569990
438.000000	3.643011
439.000000	3.714875
440.000000	3.786360
441.000000	3.857434
442.000000	3.926962
443.000000	3.995420
444.000000	4.062579
445.000000	4.128934
446.000000	4.194704
447.000000	4.258869
448.000000	4.321627
449.000000	4.383544
450.000000	4.444528
451.000000	4.504094
452.000000	4.562764
453.000000	4.620210
454.000000	4.676745
455.000000	4.732340
456.000000	4.786600
457.000000	4.840049
458.000000	4.892236
459.000000	4.943093
460.000000	4.992666
461.000000	5.040285
462.000000	5.086352
463.000000	5.130859
464.000000	5.173629
465.000000	5.213967
466.000000	5.251814
467.000000	5.287764
468.000000	5.320709
469.000000	5.349971
470.000000	5.375424
471.000000	5.397439
472.000000	5.415039
473.000000	5.428168
474.000000	5.436776
475.000000	5.440460
476.000000	5.439612
477.000000	5.433944
478.000000	5.424365
479.000000	5.411675
480.000000	5.395922
481.000000	5.376703
482.000000	5.355163
483.000000	5.333337
484.000000	5.313280
485.000000	5.296453
486.000000	5.283872
487.000000	5.277116
488.000000	5.278163
489.000000	5.288135
490.000000	5.308596
491.000000	5.342187
492.000000	5.390330
493.000000	5.452539
494.000000	5.529135
495.000000	5.620176
496.000000	5.726830
497.000000	5.848667
498.000000	5.984640
499.000000	6.134488
500.000000	6.297676
501.000000	6.474317
502.000000	6.661829
503.000000	6.860298
504.000000	7.066969
505.000000	7.281114
506.000000	7.500267
507.000000	7.723255
508.000000	7.948073
509.000000	8.173755
510.000000	8.399467
511.000000	8.622853
512.000000	8.844838
513.000000	9.063220
514.000000	9.278875
515.000000	9.491433
516.000000	9.701665
517.000000	9.909324
518.000000	10.116273
519.000000	10.322701
520.000000	10.528682
521.000000	10.734936
522.000000	10.942190
523.000000	11.151614
524.000000	11.363847
525.000000	11.578396
526.000000	11.794668
527.000000	12.012805
528.000000	12.232028
529.000000	12.453095
530.000000	12.674271
531.000000	12.896670
532.000000	13.118756
533.000000	13.338762
534.000000	13.556147
535.000000	13.771113
536.000000	13.984204
537.000000	14.194838
538.000000	14.403221
539.000000	14.607644
540.000000	14.809501
541.000000	15.008123
542.000000	15.203701
543.000000	15.396894
544.000000	15.586256
545.000000	15.772938
546.000000	15.954825
547.000000	16.132843
548.000000	16.305660
549.000000	16.474100
550.000000	16.636218
551.000000	16.792303
552.000000	16.942369
553.000000	17.084279
554.000000	17.219565
555.000000	17.347765
556.000000	17.468523
557.000000	17.581958
558.000000	17.689386
559.000000	17.791875
560.000000	17.844455
561.000000	17.884658
562.000000	17.919435
563.000000	17.951363
564.000000	17.979667
565.000000	18.001622
566.000000	18.020060
567.000000	18.034548
568.000000	18.045015
569.000000	18.050040
570.000000	18.096505
571.000000	18.145602
572.000000	18.188849
573.000000	18.226453
574.000000	18.259663
575.000000	18.289005
576.000000	18.313115
577.000000	18.332001
578.000000	18.344394
579.000000	18.349865
580.000000	18.348425
581.000000	18.339974
582.000000	18.325411
583.000000	18.304127
584.000000	18.276369
585.000000	18.242881
586.000000	18.202642
587.000000	18.155829
588.000000	18.104718
589.000000	18.050141
590.000000	17.990623
591.000000	17.927669
592.000000	17.862106
593.000000	17.792180
594.000000	17.719283
595.000000	17.644518
596.000000	17.568296
597.000000	17.489891
598.000000	17.408087
599.000000	17.321679
600.000000	17.231763
601.000000	17.137822
602.000000	17.037817
603.000000	16.934749
604.000000	16.824610
605.000000	16.706324
606.000000	16.581645
607.000000	16.450326
608.000000	16.313136
609.000000	16.170918
610.000000	16.023901
611.000000	15.873716
612.000000	15.721432
613.000000	15.567791
614.000000	15.415658
615.000000	15.268979
616.000000	15.128016
617.000000	14.996280
618.000000	14.874135
619.000000	14.763872
620.000000	14.667537
621.000000	14.584330
622.000000	14.516992
623.000000	14.467534
624.000000	14.432708
625.000000	14.412531
626.000000	14.406216
627.000000	14.412675
628.000000	14.430717
629.000000	14.458201
630.000000	14.495389
631.000000	14.540832
632.000000	14.592258
633.000000	14.645030
634.000000	14.701606
635.000000	14.758466
636.000000	14.815730
637.000000	14.869867
638.000000	14.922785
639.000000	14.974492
640.000000	15.021271
641.000000	15.063682
642.000000	15.101689
643.000000	15.135280
644.000000	15.163825
645.000000	15.188356
646.000000	15.208240
647.000000	15.225954
648.000000	15.239474
649.000000	15.250249
650.000000	15.260624
651.000000	15.271340
652.000000	15.282821
653.000000	15.298303
654.000000	15.317329
655.000000	15.341782
656.000000	15.373154
657.000000	15.412301
658.000000	15.462976
659.000000	15.524356
660.000000	15.597032
661.000000	15.678651
662.000000	15.772474
663.000000	15.875791
664.000000	15.989708
665.000000	16.111506
666.000000	16.241136
667.000000	16.375602
668.000000	16.512852
669.000000	16.651196
670.000000	16.786551
671.000000	16.921132
672.000000	17.051053
673.000000	17.176076
674.000000	17.296902
675.000000	17.409198
676.000000	17.513113
677.000000	17.611331
678.000000	17.702761
679.000000	17.786757
680.000000	17.864083
681.000000	17.935372
682.000000	18.002554
683.000000	18.066785
684.000000	18.125458
685.000000	18.184127
686.000000	18.243060
687.000000	18.303168
688.000000	18.364217
689.000000	18.428241
690.000000	18.499472
691.000000	18.579599
692.000000	18.666374
693.000000	18.760838
694.000000	18.868175
695.000000	18.988514
696.000000	19.120041
697.000000	19.262526
698.000000	19.416907
699.000000	19.583312
700.000000	19.759867
701.000000	19.944028
702.000000	20.137312
703.000000	20.336038
704.000000	20.539381
705.000000	20.743589
706.000000	20.947657
707.000000	21.150593
708.000000	21.349469
709.000000	21.543225
710.000000	21.730272
711.000000	21.908397
712.000000	22.076881
713.000000	22.237296
714.000000	22.385085
715.000000	22.524486
716.000000	22.654235
717.000000	22.773283
718.000000	22.884500
719.000000	22.986946
720.000000	23.079763
721.000000	23.166678
722.000000	23.245898
723.000000	23.318806
724.000000	23.388115
725.000000	23.453310
726.000000	23.516763
727.000000	23.576021
728.000000	23.632063
729.000000	23.687074
730.000000	23.742333
731.000000	23.794146
732.000000	23.844854
733.000000	23.894812
734.000000	23.942474
735.000000	23.988125
736.000000	24.030947
737.000000	24.073665
738.000000	24.115561
739.000000	24.154624
740.000000	24.192551
741.000000	24.230033
742.000000	24.268625
743.000000	24.305316
744.000000	24.338334
745.000000	24.370110
746.000000	24.400375
747.000000	24.429748
748.000000	24.458527
749.000000	24.487208
750.000000	24.513268
751.000000	24.537745
752.000000	24.558148
753.000000	24.579664
754.000000	24.605134
755.000000	24.626110
756.000000	24.644822
757.000000	24.661957
758.000000	24.675977
759.000000	24.688555
760.000000	24.700215
761.000000	24.711513
762.000000	24.725134
763.000000	24.735196
764.000000	24.740684
765.000000	24.749272
766.000000	24.761134
767.000000	24.772626
768.000000	24.782790
769.000000	24.791040
770.000000	24.798058
771.000000	24.802671
772.000000	24.806414
773.000000	24.810849
774.000000	24.814255
775.000000	24.816367
776.000000	24.815602
777.000000	24.812577
778.000000	24.810819
779.000000	24.809570
780.000000	24.810721
781.000000	24.810400
782.000000	24.805699
783.000000	24.800978
784.000000	24.796941
785.000000	24.791398
786.000000	24.783802
787.000000	24.776515
788.000000	24.767799
789.000000	24.753556
790.000000	24.731039
791.000000	24.706832
792.000000	24.680851
793.000000	24.652295
794.000000	24.621517
795.000000	24.586253
796.000000	24.545210
797.000000	24.499050
798.000000	24.442571
799.000000	24.385192
800.000000	24.326225
801.000000	24.260164
802.000000	24.193747
803.000000	24.121676
804.000000	24.038789
805.000000	23.950965
806.000000	23.857101
807.000000	23.757508
808.000000	23.660455
809.000000	23.559788
810.000000	23.455084
811.000000	23.346660
812.000000	23.231402
813.000000	23.105864
814.000000	22.979439
815.000000	22.846112
816.000000	22.710160
817.000000	22.574776
818.000000	22.429427
819.000000	22.276501
820.000000	22.119428
821.000000	21.963697
822.000000	21.802463
823.000000	21.645199
824.000000	21.484367
825.000000	21.324664
826.000000	21.168804
827.000000	21.010778
828.000000	20.852035
829.000000	20.699708
830.000000	20.550785
831.000000	20.401971
832.000000	20.258664
833.000000	20.114177
834.000000	19.974900
835.000000	19.839817
836.000000	19.708686
837.000000	19.580162
838.000000	19.461052
839.000000	19.341914
840.000000	19.233115
841.000000	19.126906
842.000000	19.018402
843.000000	18.916814
844.000000	18.835418
845.000000	18.755933
846.000000	18.676636
847.000000	18.606620
848.000000	18.539744
849.000000	18.481862
850.000000	18.429083
851.000000	18.377324
852.000000	18.338335
853.000000	18.287705
854.000000	18.230467
855.000000	18.168288
856.000000	18.131863
857.000000	18.091918
858.000000	18.100745
859.000000	18.109029
860.000000	18.112839
861.000000	18.127706
862.000000	18.146949
863.000000	18.189891
864.000000	18.232925
865.000000	18.293092
866.000000	18.338734
867.000000	18.391530
868.000000	18.401793
869.000000	18.415653
870.000000	18.431010
871.000000	18.446620
872.000000	18.459060
873.000000	18.468383
874.000000	18.477103
875.000000	18.485080
876.000000	18.489550
877.000000	18.492523
878.000000	18.495300
879.000000	18.498370
880.000000	18.501970
881.000000	18.506560
882.000000	18.511240
883.000000	18.515210
884.000000	18.519253
885.000000	18.524213
886.000000	18.529103
887.000000	18.533000
888.000000	18.538870
889.000000	18.543607
890.000000	18.549837
891.000000	18.555670
892.000000	18.562460
893.000000	18.569050
894.000000	18.574863
895.000000	18.579587
896.000000	18.585927
897.000000	18.593473
898.000000	18.601633
899.000000	18.610960
900.000000	18.620327
901.000000	18.630220
902.000000	18.638953
903.000000	18.649150
904.000000	18.660930
905.000000	18.674287
906.000000	18.687320
907.000000	18.699580
908.000000	18.711903
909.000000	18.723183
910.000000	18.734743
911.000000	18.743350
912.000000	18.751210
913.000000	18.758180
914.000000	18.766437
915.000000	18.773313
916.000000	18.778050
917.000000	18.784017
918.000000	18.787177
919.000000	18.789523
920.000000	18.790123
921.000000	18.791003
922.000000	18.792583
923.000000	18.792710
924.000000	18.789477
925.000000	18.784857
926.000000	18.779630
927.000000	18.773653
928.000000	18.768657
929.000000	18.761063
930.000000	18.753443
931.000000	18.745553
932.000000	18.735433
933.000000	18.728617
934.000000	18.724017
935.000000	18.718990
936.000000	18.713823
937.000000	18.707890
938.000000	18.701283
939.000000	18.698197
940.000000	18.692237
941.000000	18.684713
942.000000	18.679693
943.000000	18.671483
944.000000	18.661360
945.000000	18.650637
946.000000	18.640933
947.000000	18.631280
948.000000	18.621743
949.000000	18.611780
950.000000	18.604930
951.000000	18.598530
952.000000	18.590777
953.000000	18.583380
954.000000	18.576473
955.000000	18.569530
956.000000	18.562690
957.000000	18.557627
958.000000	18.552163
959.000000	18.545990
960.000000	18.538753
961.000000	18.531700
962.000000	18.525477
963.000000	18.518590
964.000000	18.512793
965.000000	18.506797
966.000000	18.500293
967.000000	18.492060
968.000000	18.484533
969.000000	18.477087
970.000000	18.470553
971.000000	18.466610
972.000000	18.462400
973.000000	18.457620
974.000000	18.451840
975.000000	18.447403
976.000000	18.444623
977.000000	18.441297
978.000000	18.438167
979.000000	18.436970
980.000000	18.436917
981.000000	18.435513
982.000000	18.434090
983.000000	18.433707
984.000000	18.433950
985.000000	18.433887
986.000000	18.432393
987.000000	18.432227
988.000000	18.433517
989.000000	18.433513
990.000000	18.433293
991.000000	18.432997
992.000000	18.432937
993.000000	18.434050
994.000000	18.434517
995.000000	18.434460
996.000000	18.435827
997.000000	18.438530
998.000000	18.440687
999.000000	18.442500
1000.000000	18.443813
1001.000000	18.445933
1002.000000	18.448863
1003.000000	18.451680
1004.000000	18.454043
1005.000000	18.456223
1006.000000	18.459227
1007.000000	18.461497
1008.000000	18.462570
1009.000000	18.464263
1010.000000	18.466200
1011.000000	18.468530
1012.000000	18.470807
1013.000000	18.472750
1014.000000	18.475930
1015.000000	18.481513
1016.000000	18.487690
1017.000000	18.493847
1018.000000	18.500600
1019.000000	18.507460
1020.000000	18.513877
1021.000000	18.521123
1022.000000	18.529280
1023.000000	18.538443
1024.000000	18.548183
1025.000000	18.557070
1026.000000	18.565950
1027.000000	18.575170
1028.000000	18.585317
1029.000000	18.596223
1030.000000	18.607670
1031.000000	18.619587
1032.000000	18.631033
1033.000000	18.642107
1034.000000	18.654013
1035.000000	18.666493
1036.000000	18.678170
1037.000000	18.690487
1038.000000	18.703910
1039.000000	18.717563
1040.000000	18.731303
1041.000000	18.744577
1042.000000	18.757790
1043.000000	18.771787
1044.000000	18.785427
1045.000000	18.798403
1046.000000	18.811790
1047.000000	18.824107
1048.000000	18.834097
1049.000000	18.844487
1050.000000	18.855583
1051.000000	18.865933
1052.000000	18.876777
1053.000000	18.888093
1054.000000	18.899587
1055.000000	18.912133
1056.000000	18.925407
1057.000000	18.939153
1058.000000	18.954043
1059.000000	18.968617
1060.000000	18.983470
1061.000000	18.998847
1062.000000	19.014307
1063.000000	19.030797
1064.000000	19.046727
1065.000000	19.061823
1066.000000	19.077610
1067.000000	19.093657
1068.000000	19.110700
1069.000000	19.128350
1070.000000	19.146437
1071.000000	19.167080
1072.000000	19.188293
1073.000000	19.207680
1074.000000	19.227910
1075.000000	19.248780
1076.000000	19.269100
1077.000000	19.289593
1078.000000	19.309003
1079.000000	19.329360
1080.000000	19.349080
1081.000000	19.365380
1082.000000	19.381253
1083.000000	19.397423
1084.000000	19.412927
1085.000000	19.429533
1086.000000	19.445283
1087.000000	19.459857
1088.000000	19.475280
1089.000000	19.489240
1090.000000	19.502380
1091.000000	19.516597
1092.000000	19.530737
1093.000000	19.544260
1094.000000	19.557520
1095.000000	19.568740
1096.000000	19.579603
1097.000000	19.591807
1098.000000	19.603453
1099.000000	19.614730
1100.000000	19.626357
1101.000000	19.637417
1102.000000	19.647770
1103.000000	19.658037
1104.000000	19.667587
1105.000000	19.677210
1106.000000	19.688550
1107.000000	19.699337
1108.000000	19.709677
1109.000000	19.719600
1110.000000	19.729027
1111.000000	19.737900
1112.000000	19.745277
1113.000000	19.751617
1114.000000	19.758910
1115.000000	19.766207
1116.000000	19.772920
1117.000000	19.779143
1118.000000	19.786143
1119.000000	19.792397
1120.000000	19.798940
1121.000000	19.806463
1122.000000	19.814500
1123.000000	19.824993
1124.000000	19.833147
1125.000000	19.840250
1126.000000	19.844817
1127.000000	19.849183
1128.000000	19.850313
1129.000000	19.852843
1130.000000	19.853630
1131.000000	19.849887
1132.000000	19.842987
1133.000000	19.829717
1134.000000	19.817027
1135.000000	19.805427
1136.000000	19.794590
1137.000000	19.779103
1138.000000	19.761440
1139.000000	19.740000
1140.000000	19.715867
1141.000000	19.694263
1142.000000	19.673490
1143.000000	19.654133
1144.000000	19.633447
1145.000000	19.612157
1146.000000	19.589867
1147.000000	19.569747
1148.000000	19.550920
1149.000000	19.533167
1150.000000	19.518137
1151.000000	19.502180
1152.000000	19.486943
1153.000000	19.473370
1154.000000	19.460377
1155.000000	19.445317
1156.000000	19.428017
1157.000000	19.408603
1158.000000	19.388277
1159.000000	19.364710
1160.000000	19.338960
1161.000000	19.308760
1162.000000	19.276593
1163.000000	19.241640
1164.000000	19.203090
1165.000000	19.162533
1166.000000	19.120740
1167.000000	19.078880
1168.000000	19.036017
1169.000000	18.994390
1170.000000	18.952817
1171.000000	18.915730
1172.000000	18.879997
1173.000000	18.845337
1174.000000	18.813843
