PE UV       SUBTECH     SPECTRUM    ASCII       PEDS        4.00        
   -1
BIOUCR0023-3.Sample.ASC
24/02/20
13:49:08.00
24/02/20
13:49:08.00
Vinicio Soto Monge
P. resplendens 18 de Mayo de 1985 R.W. Volcan, Panama centro cafe bajo filtro izq. Plateado bajo Filtro derecho.
250,000000
1
Lambda 1050
1050L1511233
PerkinElmer UV WinLab 6.3.2.0749 / 2.02.05 Lambda 900 UV/VIS/NIR, Aug  7 2015 09:38:08

0
0
3350/servo 860,8/2
0
0
UV/VIS
1
1
1
DoubleDePol,CommonBeamDepol,RBeamAtt,SBeamAtt,60mm sphere, WB InGaAs Detector
0
0
0
0
Program
Program
3350/servo 860,8/2
3350/0,2 860,8/0,2
3350/0,2 860,8/0,2
0
15.00
 
 
 
0
 
860,8
319,2
860,8
Front
100
on
S:100 R:100
0
0
0
0
 
0
 
 
 
0
 
 
0
0
0
0
0
 
 
 
 
0
0


0
0
#HDR
-1
-1
#GR
nm
%R
1.0
0.0
2500,000000
-1,000000
2251
8
16,599800
1,469800
#DATA

250.000000	nan
251.000000	nan
252.000000	nan
253.000000	nan
254.000000	nan
255.000000	nan
256.000000	nan
257.000000	nan
258.000000	nan
259.000000	2.084923
260.000000	2.081724
261.000000	2.074294
262.000000	2.069608
263.000000	2.065968
264.000000	2.059030
265.000000	2.053334
266.000000	2.045146
267.000000	2.036169
268.000000	2.027438
269.000000	2.022743
270.000000	2.018663
271.000000	2.014645
272.000000	2.007223
273.000000	1.998766
274.000000	1.995415
275.000000	1.995816
276.000000	1.993979
277.000000	1.990022
278.000000	1.988947
279.000000	1.984730
280.000000	1.980578
281.000000	1.978636
282.000000	1.973829
283.000000	1.973155
284.000000	1.968657
285.000000	1.961898
286.000000	1.959281
287.000000	1.957787
288.000000	1.956246
289.000000	1.953597
290.000000	1.951564
291.000000	1.945874
292.000000	1.946040
293.000000	1.941743
294.000000	1.941874
295.000000	1.939446
296.000000	1.937052
297.000000	1.933157
298.000000	1.929241
299.000000	1.927366
300.000000	1.924680
301.000000	1.924840
302.000000	1.922424
303.000000	1.922053
304.000000	1.921977
305.000000	1.919712
306.000000	1.915547
307.000000	1.915433
308.000000	1.914090
309.000000	1.912786
310.000000	1.911437
311.000000	1.914528
312.000000	1.914823
313.000000	1.914786
314.000000	1.910257
315.000000	1.909054
316.000000	1.916884
317.000000	1.973964
318.000000	2.018008
319.000000	2.046473
320.000000	2.059953
321.000000	2.083252
322.000000	2.104360
323.000000	2.134770
324.000000	2.170982
325.000000	2.203453
326.000000	2.223929
327.000000	2.184358
328.000000	2.153885
329.000000	2.136889
330.000000	2.138161
331.000000	2.126962
332.000000	2.121638
333.000000	2.094410
334.000000	2.071120
335.000000	2.054791
336.000000	2.038061
337.000000	2.033242
338.000000	2.032082
339.000000	2.037183
340.000000	2.033191
341.000000	2.023676
342.000000	2.016863
343.000000	2.024659
344.000000	2.026900
345.000000	2.026221
346.000000	2.026975
347.000000	2.023455
348.000000	2.014474
349.000000	2.005356
350.000000	2.001958
351.000000	2.001937
352.000000	1.999582
353.000000	1.995126
354.000000	1.989832
355.000000	1.984937
356.000000	1.976319
357.000000	1.973395
358.000000	1.973755
359.000000	1.967500
360.000000	1.962516
361.000000	1.961064
362.000000	1.954922
363.000000	1.949482
364.000000	1.945853
365.000000	1.942680
366.000000	1.945278
367.000000	1.942723
368.000000	1.939829
369.000000	1.940539
370.000000	1.934992
371.000000	1.934116
372.000000	1.930182
373.000000	1.920121
374.000000	1.908514
375.000000	1.893694
376.000000	1.882589
377.000000	1.863138
378.000000	1.847340
379.000000	1.830430
380.000000	1.817521
381.000000	1.799134
382.000000	1.787866
383.000000	1.781720
384.000000	1.775215
385.000000	1.771555
386.000000	1.764566
387.000000	1.767912
388.000000	1.770748
389.000000	1.773178
390.000000	1.775690
391.000000	1.778710
392.000000	1.782447
393.000000	1.786318
394.000000	1.789614
395.000000	1.792604
396.000000	1.796382
397.000000	1.800927
398.000000	1.805092
399.000000	1.809759
400.000000	1.815413
401.000000	1.821228
402.000000	1.826564
403.000000	1.832178
404.000000	1.839076
405.000000	1.847431
406.000000	1.856203
407.000000	1.865876
408.000000	1.877244
409.000000	1.889683
410.000000	1.903041
411.000000	1.917800
412.000000	1.935006
413.000000	1.954410
414.000000	1.975800
415.000000	2.000056
416.000000	2.027583
417.000000	2.057543
418.000000	2.090437
419.000000	2.127069
420.000000	2.167704
421.000000	2.212724
422.000000	2.262088
423.000000	2.316052
424.000000	2.373963
425.000000	2.435966
426.000000	2.502835
427.000000	2.574744
428.000000	2.651368
429.000000	2.732741
430.000000	2.818692
431.000000	2.909193
432.000000	3.003419
433.000000	3.101348
434.000000	3.203777
435.000000	3.309476
436.000000	3.417625
437.000000	3.528091
438.000000	3.640535
439.000000	3.754534
440.000000	3.870001
441.000000	3.985956
442.000000	4.102104
443.000000	4.217950
444.000000	4.332424
445.000000	4.446300
446.000000	4.559713
447.000000	4.672020
448.000000	4.783156
449.000000	4.892767
450.000000	5.000747
451.000000	5.107223
452.000000	5.211739
453.000000	5.314374
454.000000	5.415612
455.000000	5.514260
456.000000	5.609536
457.000000	5.702682
458.000000	5.793855
459.000000	5.882879
460.000000	5.969221
461.000000	6.052713
462.000000	6.134558
463.000000	6.214189
464.000000	6.291663
465.000000	6.367334
466.000000	6.441284
467.000000	6.512377
468.000000	6.580774
469.000000	6.646352
470.000000	6.709989
471.000000	6.771403
472.000000	6.829423
473.000000	6.884384
474.000000	6.935513
475.000000	6.982784
476.000000	7.026904
477.000000	7.068904
478.000000	7.108476
479.000000	7.144902
480.000000	7.175156
481.000000	7.199439
482.000000	7.218501
483.000000	7.235623
484.000000	7.253030
485.000000	7.270961
486.000000	7.289533
487.000000	7.308089
488.000000	7.327057
489.000000	7.348596
490.000000	7.375858
491.000000	7.409462
492.000000	7.449594
493.000000	7.494199
494.000000	7.542045
495.000000	7.593268
496.000000	7.648458
497.000000	7.707730
498.000000	7.771922
499.000000	7.841182
500.000000	7.915051
501.000000	7.993259
502.000000	8.076711
503.000000	8.163938
504.000000	8.255815
505.000000	8.352265
506.000000	8.452085
507.000000	8.556674
508.000000	8.665176
509.000000	8.776015
510.000000	8.889821
511.000000	9.005262
512.000000	9.120830
513.000000	9.237419
514.000000	9.352521
515.000000	9.466124
516.000000	9.577938
517.000000	9.687565
518.000000	9.794468
519.000000	9.899552
520.000000	10.002943
521.000000	10.106969
522.000000	10.212486
523.000000	10.319739
524.000000	10.431597
525.000000	10.548555
526.000000	10.673503
527.000000	10.805850
528.000000	10.948209
529.000000	11.102916
530.000000	11.270200
531.000000	11.451349
532.000000	11.647375
533.000000	11.857699
534.000000	12.082491
535.000000	12.321614
536.000000	12.574189
537.000000	12.840614
538.000000	13.119353
539.000000	13.407508
540.000000	13.702612
541.000000	14.002964
542.000000	14.307255
543.000000	14.614573
544.000000	14.922084
545.000000	15.228925
546.000000	15.531179
547.000000	15.827814
548.000000	16.116432
549.000000	16.394829
550.000000	16.664579
551.000000	16.922697
552.000000	17.166493
553.000000	17.395090
554.000000	17.609547
555.000000	17.808309
556.000000	17.992215
557.000000	18.159057
558.000000	18.310376
559.000000	18.447221
560.000000	18.525913
561.000000	18.582691
562.000000	18.626850
563.000000	18.660471
564.000000	18.683129
565.000000	18.695832
566.000000	18.701581
567.000000	18.702179
568.000000	18.696608
569.000000	18.687267
570.000000	18.716149
571.000000	18.750798
572.000000	18.782364
573.000000	18.809813
574.000000	18.833508
575.000000	18.852575
576.000000	18.866010
577.000000	18.872995
578.000000	18.876708
579.000000	18.874910
580.000000	18.867854
581.000000	18.853722
582.000000	18.833614
583.000000	18.808336
584.000000	18.777979
585.000000	18.744081
586.000000	18.707126
587.000000	18.667420
588.000000	18.623459
589.000000	18.578651
590.000000	18.532998
591.000000	18.485875
592.000000	18.440541
593.000000	18.396460
594.000000	18.354552
595.000000	18.312733
596.000000	18.272728
597.000000	18.235334
598.000000	18.201365
599.000000	18.166153
600.000000	18.132241
601.000000	18.098957
602.000000	18.064099
603.000000	18.027840
604.000000	17.987849
605.000000	17.944787
606.000000	17.896072
607.000000	17.840489
608.000000	17.774147
609.000000	17.698081
610.000000	17.611469
611.000000	17.516127
612.000000	17.410639
613.000000	17.294684
614.000000	17.169879
615.000000	17.037730
616.000000	16.898458
617.000000	16.752783
618.000000	16.604671
619.000000	16.452939
620.000000	16.298628
621.000000	16.141119
622.000000	15.981097
623.000000	15.819689
624.000000	15.654915
625.000000	15.486714
626.000000	15.314104
627.000000	15.139438
628.000000	14.958299
629.000000	14.773931
630.000000	14.585744
631.000000	14.392377
632.000000	14.194755
633.000000	13.994057
634.000000	13.791878
635.000000	13.589592
636.000000	13.389626
637.000000	13.191715
638.000000	13.000399
639.000000	12.815871
640.000000	12.638384
641.000000	12.471767
642.000000	12.317539
643.000000	12.175263
644.000000	12.046892
645.000000	11.933533
646.000000	11.834352
647.000000	11.750377
648.000000	11.682658
649.000000	11.632265
650.000000	11.600736
651.000000	11.587075
652.000000	11.590351
653.000000	11.610745
654.000000	11.648242
655.000000	11.702335
656.000000	11.771793
657.000000	11.855815
658.000000	11.950488
659.000000	12.053172
660.000000	12.160157
661.000000	12.269944
662.000000	12.382403
663.000000	12.495020
664.000000	12.603784
665.000000	12.707139
666.000000	12.803617
667.000000	12.893805
668.000000	12.977178
669.000000	13.054718
670.000000	13.126502
671.000000	13.192631
672.000000	13.252841
673.000000	13.308849
674.000000	13.361123
675.000000	13.410550
676.000000	13.458811
677.000000	13.503506
678.000000	13.545946
679.000000	13.585989
680.000000	13.625556
681.000000	13.663110
682.000000	13.696636
683.000000	13.726031
684.000000	13.752711
685.000000	13.773834
686.000000	13.790805
687.000000	13.803435
688.000000	13.813144
689.000000	13.817480
690.000000	13.815546
691.000000	13.811226
692.000000	13.806324
693.000000	13.800752
694.000000	13.793713
695.000000	13.788694
696.000000	13.785951
697.000000	13.785210
698.000000	13.787758
699.000000	13.795983
700.000000	13.810490
701.000000	13.827864
702.000000	13.848312
703.000000	13.871216
704.000000	13.897621
705.000000	13.927361
706.000000	13.957831
707.000000	13.990909
708.000000	14.023488
709.000000	14.054301
710.000000	14.082736
711.000000	14.109325
712.000000	14.134754
713.000000	14.160277
714.000000	14.184643
715.000000	14.208539
716.000000	14.233274
717.000000	14.255670
718.000000	14.278359
719.000000	14.302275
720.000000	14.327511
721.000000	14.356422
722.000000	14.386771
723.000000	14.417769
724.000000	14.450567
725.000000	14.483637
726.000000	14.518118
727.000000	14.553620
728.000000	14.589619
729.000000	14.627019
730.000000	14.663587
731.000000	14.697824
732.000000	14.731308
733.000000	14.762358
734.000000	14.791854
735.000000	14.820850
736.000000	14.846111
737.000000	14.870315
738.000000	14.892176
739.000000	14.911549
740.000000	14.931548
741.000000	14.951168
742.000000	14.969725
743.000000	14.989948
744.000000	15.009715
745.000000	15.028560
746.000000	15.047600
747.000000	15.065657
748.000000	15.085917
749.000000	15.105960
750.000000	15.124003
751.000000	15.140604
752.000000	15.156380
753.000000	15.169393
754.000000	15.182509
755.000000	15.195059
756.000000	15.207160
757.000000	15.219857
758.000000	15.228089
759.000000	15.233429
760.000000	15.238708
761.000000	15.247388
762.000000	15.256169
763.000000	15.264858
764.000000	15.274357
765.000000	15.284073
766.000000	15.296151
767.000000	15.308975
768.000000	15.323007
769.000000	15.341135
770.000000	15.359465
771.000000	15.376596
772.000000	15.392246
773.000000	15.406416
774.000000	15.421106
775.000000	15.435074
776.000000	15.445848
777.000000	15.452917
778.000000	15.459394
779.000000	15.465686
780.000000	15.470339
781.000000	15.473569
782.000000	15.477469
783.000000	15.481064
784.000000	15.484103
785.000000	15.488084
786.000000	15.494286
787.000000	15.505358
788.000000	15.516061
789.000000	15.527493
790.000000	15.541560
791.000000	15.557871
792.000000	15.576724
793.000000	15.597675
794.000000	15.616488
795.000000	15.637405
796.000000	15.658251
797.000000	15.677445
798.000000	15.700415
799.000000	15.721181
800.000000	15.742835
801.000000	15.765445
802.000000	15.789788
803.000000	15.818895
804.000000	15.851696
805.000000	15.882588
806.000000	15.914461
807.000000	15.950295
808.000000	15.990021
809.000000	16.037941
810.000000	16.088779
811.000000	16.139966
812.000000	16.191131
813.000000	16.242178
814.000000	16.293883
815.000000	16.345560
816.000000	16.395051
817.000000	16.441216
818.000000	16.484280
819.000000	16.521257
820.000000	16.554795
821.000000	16.585838
822.000000	16.612830
823.000000	16.639535
824.000000	16.663724
825.000000	16.683993
826.000000	16.707027
827.000000	16.729400
828.000000	16.752441
829.000000	16.769674
830.000000	16.792091
831.000000	16.816988
832.000000	16.840989
833.000000	16.858825
834.000000	16.884534
835.000000	16.906169
836.000000	16.921195
837.000000	16.929625
838.000000	16.937810
839.000000	16.946554
840.000000	16.950215
841.000000	16.948526
842.000000	16.945968
843.000000	16.941769
844.000000	16.928084
845.000000	16.916050
846.000000	16.910564
847.000000	16.906960
848.000000	16.899898
849.000000	16.893992
850.000000	16.894487
851.000000	16.894397
852.000000	16.882560
853.000000	16.885113
854.000000	16.885946
855.000000	16.881059
856.000000	16.869728
857.000000	16.872730
858.000000	16.939646
859.000000	16.978705
860.000000	17.009010
861.000000	17.043908
862.000000	17.096046
863.000000	17.145816
864.000000	17.202193
865.000000	17.274470
866.000000	17.354863
867.000000	17.427635
868.000000	17.439900
869.000000	17.482843
870.000000	17.528150
871.000000	17.571750
872.000000	17.611310
873.000000	17.643117
874.000000	17.671653
875.000000	17.692950
876.000000	17.708907
877.000000	17.721710
878.000000	17.728913
879.000000	17.735297
880.000000	17.737350
881.000000	17.737140
882.000000	17.736090
883.000000	17.733973
884.000000	17.729570
885.000000	17.723750
886.000000	17.717503
887.000000	17.710657
888.000000	17.703057
889.000000	17.696090
890.000000	17.689047
891.000000	17.681690
892.000000	17.674153
893.000000	17.666393
894.000000	17.657330
895.000000	17.648827
896.000000	17.639063
897.000000	17.629707
898.000000	17.621803
899.000000	17.609377
900.000000	17.598127
901.000000	17.588167
902.000000	17.578733
903.000000	17.566850
904.000000	17.555383
905.000000	17.542923
906.000000	17.532290
907.000000	17.519953
908.000000	17.508293
909.000000	17.496343
910.000000	17.482800
911.000000	17.465700
912.000000	17.449253
913.000000	17.432167
914.000000	17.413557
915.000000	17.397703
916.000000	17.378040
917.000000	17.355587
918.000000	17.331960
919.000000	17.308080
920.000000	17.282820
921.000000	17.257513
922.000000	17.228187
923.000000	17.197687
924.000000	17.165517
925.000000	17.131423
926.000000	17.096457
927.000000	17.059567
928.000000	17.019680
929.000000	16.979083
930.000000	16.937897
931.000000	16.895130
932.000000	16.852680
933.000000	16.811920
934.000000	16.773423
935.000000	16.732607
936.000000	16.692787
937.000000	16.655830
938.000000	16.618517
939.000000	16.581190
940.000000	16.542717
941.000000	16.505023
942.000000	16.465573
943.000000	16.425197
944.000000	16.383147
945.000000	16.343420
946.000000	16.303690
947.000000	16.264700
948.000000	16.227340
949.000000	16.191773
950.000000	16.158977
951.000000	16.126803
952.000000	16.096543
953.000000	16.067057
954.000000	16.040150
955.000000	16.011877
956.000000	15.985930
957.000000	15.960100
958.000000	15.933217
959.000000	15.906630
960.000000	15.880650
961.000000	15.855510
962.000000	15.833003
963.000000	15.811313
964.000000	15.788847
965.000000	15.768423
966.000000	15.745997
967.000000	15.725607
968.000000	15.706030
969.000000	15.686677
970.000000	15.668390
971.000000	15.650613
972.000000	15.632040
973.000000	15.614167
974.000000	15.596310
975.000000	15.578847
976.000000	15.562537
977.000000	15.546367
978.000000	15.533187
979.000000	15.521433
980.000000	15.509033
981.000000	15.496537
982.000000	15.484210
983.000000	15.473433
984.000000	15.464260
985.000000	15.454747
986.000000	15.445597
987.000000	15.435710
988.000000	15.424833
989.000000	15.413100
990.000000	15.401973
991.000000	15.392223
992.000000	15.383280
993.000000	15.373967
994.000000	15.363987
995.000000	15.354193
996.000000	15.344640
997.000000	15.335033
998.000000	15.325913
999.000000	15.317923
1000.000000	15.310773
1001.000000	15.304303
1002.000000	15.298030
1003.000000	15.291323
1004.000000	15.285210
1005.000000	15.279463
1006.000000	15.274233
1007.000000	15.270570
1008.000000	15.267783
1009.000000	15.264980
1010.000000	15.261847
1011.000000	15.257913
1012.000000	15.254153
1013.000000	15.250740
1014.000000	15.247163
1015.000000	15.244397
1016.000000	15.243287
1017.000000	15.242620
1018.000000	15.241847
1019.000000	15.240743
1020.000000	15.240827
1021.000000	15.241937
1022.000000	15.243273
1023.000000	15.246343
1024.000000	15.250077
1025.000000	15.254833
1026.000000	15.259820
1027.000000	15.264570
1028.000000	15.270003
1029.000000	15.276343
1030.000000	15.282097
1031.000000	15.288643
1032.000000	15.296533
1033.000000	15.303983
1034.000000	15.312557
1035.000000	15.321617
1036.000000	15.330733
1037.000000	15.340210
1038.000000	15.349640
1039.000000	15.358987
1040.000000	15.369023
1041.000000	15.379100
1042.000000	15.388850
1043.000000	15.399317
1044.000000	15.409360
1045.000000	15.418633
1046.000000	15.428500
1047.000000	15.438730
1048.000000	15.449053
1049.000000	15.460283
1050.000000	15.471503
1051.000000	15.482497
1052.000000	15.493903
1053.000000	15.505167
1054.000000	15.516913
1055.000000	15.528823
1056.000000	15.539580
1057.000000	15.550010
1058.000000	15.561620
1059.000000	15.572760
1060.000000	15.583793
1061.000000	15.594383
1062.000000	15.604580
1063.000000	15.615140
1064.000000	15.625907
1065.000000	15.635967
1066.000000	15.645727
1067.000000	15.655250
1068.000000	15.664517
1069.000000	15.673920
1070.000000	15.683253
1071.000000	15.694967
1072.000000	15.706800
1073.000000	15.717110
1074.000000	15.726573
1075.000000	15.737160
1076.000000	15.747663
1077.000000	15.758430
1078.000000	15.768363
1079.000000	15.778043
1080.000000	15.787440
1081.000000	15.795293
1082.000000	15.802087
1083.000000	15.809593
1084.000000	15.816753
1085.000000	15.824023
1086.000000	15.831007
1087.000000	15.837850
1088.000000	15.845797
1089.000000	15.852927
1090.000000	15.859437
1091.000000	15.865293
1092.000000	15.872553
1093.000000	15.879327
1094.000000	15.886607
1095.000000	15.892160
1096.000000	15.898573
1097.000000	15.904533
1098.000000	15.908700
1099.000000	15.912763
1100.000000	15.918087
1101.000000	15.924253
1102.000000	15.929740
1103.000000	15.934563
1104.000000	15.939500
1105.000000	15.945813
1106.000000	15.950607
1107.000000	15.955677
1108.000000	15.961780
1109.000000	15.966773
1110.000000	15.971777
1111.000000	15.976247
1112.000000	15.980697
1113.000000	15.985377
1114.000000	15.989507
1115.000000	15.992783
1116.000000	15.996663
1117.000000	16.001640
1118.000000	16.007813
1119.000000	16.014460
1120.000000	16.020123
1121.000000	16.025257
1122.000000	16.031777
1123.000000	16.039303
1124.000000	16.047547
1125.000000	16.052880
1126.000000	16.058750
1127.000000	16.062263
1128.000000	16.063853
1129.000000	16.065580
1130.000000	16.068087
1131.000000	16.068413
1132.000000	16.065100
1133.000000	16.057233
1134.000000	16.048800
1135.000000	16.046160
1136.000000	16.046843
1137.000000	16.045350
1138.000000	16.039870
1139.000000	16.032820
1140.000000	16.024273
1141.000000	16.017883
1142.000000	16.012433
1143.000000	16.010007
1144.000000	16.006683
1145.000000	15.999463
1146.000000	15.989190
1147.000000	15.981867
1148.000000	15.976760
1149.000000	15.973417
1150.000000	15.970567
1151.000000	15.966913
1152.000000	15.962870
1153.000000	15.959827
1154.000000	15.957837
1155.000000	15.955827
1156.000000	15.950163
1157.000000	15.944140
1158.000000	15.937583
1159.000000	15.930320
1160.000000	15.921493
1161.000000	15.911130
1162.000000	15.899267
1163.000000	15.884843
1164.000000	15.866897
1165.000000	15.846363
1166.000000	15.826480
1167.000000	15.805737
1168.000000	15.784107
1169.000000	15.763203
1170.000000	15.741797
