PE UV       SUBTECH     SPECTRUM    ASCII       PEDS        4.00        
   -1
BIOUCR0026-3.Sample.ASC
24/02/20
14:28:19.00
24/02/20
14:28:19.00
Vinicio Soto Monge
P. resplendens 18 de Mayo de 1985 R.W. Volcan, Panama Centro cafe bajo fIltro izq. 
250,000000
1
Lambda 1050
1050L1511233
PerkinElmer UV WinLab 6.3.2.0749 / 2.02.05 Lambda 900 UV/VIS/NIR, Aug  7 2015 09:38:08

0
0
3350/servo 860,8/2
0
0
UV/VIS
1
1
1
DoubleDePol,CommonBeamDepol,RBeamAtt,SBeamAtt,60mm sphere, WB InGaAs Detector
0
0
0
0
Program
Program
3350/servo 860,8/2
3350/0,2 860,8/0,2
3350/0,2 860,8/0,2
0
15.00
 
 
 
0
 
860,8
319,2
860,8
Front
100
on
S:100 R:100
0
0
0
0
 
0
 
 
 
0
 
 
0
0
0
0
0
 
 
 
 
0
0


0
0
#HDR
-1
-1
#GR
nm
%R
1.0
0.0
2500,000000
-1,000000
2251
8
21,642600
1,531600
#DATA

250.000000	nan
251.000000	nan
252.000000	nan
253.000000	nan
254.000000	nan
255.000000	nan
256.000000	nan
257.000000	nan
258.000000	nan
259.000000	2.287576
260.000000	2.282423
261.000000	2.275153
262.000000	2.269153
263.000000	2.266067
264.000000	2.260890
265.000000	2.255211
266.000000	2.246835
267.000000	2.242602
268.000000	2.233963
269.000000	2.224332
270.000000	2.214929
271.000000	2.206361
272.000000	2.199796
273.000000	2.194167
274.000000	2.188248
275.000000	2.182751
276.000000	2.180672
277.000000	2.175214
278.000000	2.172570
279.000000	2.170172
280.000000	2.169091
281.000000	2.167043
282.000000	2.164206
283.000000	2.159441
284.000000	2.152023
285.000000	2.147739
286.000000	2.142061
287.000000	2.136559
288.000000	2.130843
289.000000	2.127068
290.000000	2.121029
291.000000	2.115023
292.000000	2.109715
293.000000	2.102751
294.000000	2.102115
295.000000	2.096840
296.000000	2.092993
297.000000	2.090390
298.000000	2.086854
299.000000	2.084444
300.000000	2.080209
301.000000	2.075802
302.000000	2.073514
303.000000	2.070042
304.000000	2.064735
305.000000	2.062748
306.000000	2.061840
307.000000	2.057301
308.000000	2.055366
309.000000	2.048082
310.000000	2.044867
311.000000	2.044865
312.000000	2.041722
313.000000	2.041564
314.000000	2.037462
315.000000	2.032953
316.000000	2.032919
317.000000	2.062150
318.000000	2.080395
319.000000	2.102650
320.000000	2.119331
321.000000	2.130987
322.000000	2.153901
323.000000	2.161833
324.000000	2.169816
325.000000	2.186307
326.000000	2.195032
327.000000	2.178540
328.000000	2.177100
329.000000	2.166407
330.000000	2.158152
331.000000	2.150191
332.000000	2.129514
333.000000	2.122441
334.000000	2.126565
335.000000	2.115722
336.000000	2.102814
337.000000	2.092656
338.000000	2.080341
339.000000	2.077542
340.000000	2.069248
341.000000	2.059160
342.000000	2.054257
343.000000	2.051809
344.000000	2.033727
345.000000	2.026925
346.000000	2.019897
347.000000	2.012544
348.000000	2.001912
349.000000	1.990958
350.000000	1.985050
351.000000	1.988206
352.000000	1.984995
353.000000	1.981503
354.000000	1.988688
355.000000	1.988571
356.000000	1.989547
357.000000	1.991739
358.000000	1.994409
359.000000	1.995388
360.000000	1.996964
361.000000	1.988649
362.000000	1.984479
363.000000	1.982108
364.000000	1.975542
365.000000	1.969032
366.000000	1.967453
367.000000	1.958771
368.000000	1.948442
369.000000	1.935381
370.000000	1.919265
371.000000	1.911721
372.000000	1.901132
373.000000	1.888728
374.000000	1.871721
375.000000	1.854090
376.000000	1.846784
377.000000	1.827489
378.000000	1.810703
379.000000	1.796821
380.000000	1.788707
381.000000	1.777592
382.000000	1.769081
383.000000	1.760779
384.000000	1.759385
385.000000	1.760690
386.000000	1.751286
387.000000	1.757777
388.000000	1.764638
389.000000	1.771866
390.000000	1.779571
391.000000	1.788298
392.000000	1.797736
393.000000	1.807889
394.000000	1.818774
395.000000	1.831099
396.000000	1.844142
397.000000	1.857927
398.000000	1.873732
399.000000	1.891235
400.000000	1.910444
401.000000	1.931162
402.000000	1.953674
403.000000	1.978558
404.000000	2.006862
405.000000	2.037368
406.000000	2.069687
407.000000	2.104074
408.000000	2.140794
409.000000	2.180443
410.000000	2.222701
411.000000	2.267616
412.000000	2.315113
413.000000	2.364917
414.000000	2.417121
415.000000	2.471635
416.000000	2.529098
417.000000	2.589000
418.000000	2.651383
419.000000	2.716003
420.000000	2.782808
421.000000	2.851779
422.000000	2.922656
423.000000	2.995230
424.000000	3.069206
425.000000	3.145087
426.000000	3.222568
427.000000	3.301664
428.000000	3.382133
429.000000	3.463489
430.000000	3.545576
431.000000	3.628568
432.000000	3.712572
433.000000	3.796718
434.000000	3.881178
435.000000	3.965985
436.000000	4.050876
437.000000	4.135541
438.000000	4.219451
439.000000	4.303117
440.000000	4.386182
441.000000	4.468288
442.000000	4.549677
443.000000	4.630662
444.000000	4.710057
445.000000	4.788066
446.000000	4.865231
447.000000	4.941111
448.000000	5.015802
449.000000	5.088679
450.000000	5.159061
451.000000	5.227701
452.000000	5.293577
453.000000	5.355864
454.000000	5.414723
455.000000	5.469605
456.000000	5.520697
457.000000	5.567782
458.000000	5.610406
459.000000	5.648783
460.000000	5.683333
461.000000	5.713127
462.000000	5.738201
463.000000	5.759344
464.000000	5.777076
465.000000	5.790397
466.000000	5.798285
467.000000	5.801616
468.000000	5.800961
469.000000	5.796342
470.000000	5.788240
471.000000	5.777196
472.000000	5.763826
473.000000	5.748564
474.000000	5.731868
475.000000	5.715355
476.000000	5.700167
477.000000	5.687384
478.000000	5.677674
479.000000	5.671616
480.000000	5.669223
481.000000	5.670154
482.000000	5.675617
483.000000	5.687395
484.000000	5.707232
485.000000	5.735627
486.000000	5.773332
487.000000	5.819848
488.000000	5.874993
489.000000	5.939052
490.000000	6.011948
491.000000	6.094359
492.000000	6.185385
493.000000	6.282921
494.000000	6.385392
495.000000	6.492050
496.000000	6.600114
497.000000	6.709138
498.000000	6.818512
499.000000	6.926908
500.000000	7.033804
501.000000	7.138962
502.000000	7.240976
503.000000	7.339830
504.000000	7.434990
505.000000	7.525609
506.000000	7.611955
507.000000	7.691854
508.000000	7.765450
509.000000	7.832872
510.000000	7.894037
511.000000	7.949011
512.000000	7.997666
513.000000	8.039626
514.000000	8.074627
515.000000	8.102765
516.000000	8.124967
517.000000	8.142551
518.000000	8.156813
519.000000	8.169231
520.000000	8.180373
521.000000	8.190186
522.000000	8.201130
523.000000	8.214447
524.000000	8.231702
525.000000	8.255093
526.000000	8.284574
527.000000	8.323165
528.000000	8.370927
529.000000	8.428252
530.000000	8.496640
531.000000	8.577787
532.000000	8.671947
533.000000	8.780034
534.000000	8.902237
535.000000	9.037506
536.000000	9.187511
537.000000	9.349927
538.000000	9.525217
539.000000	9.712095
540.000000	9.909643
541.000000	10.117544
542.000000	10.334221
543.000000	10.558220
544.000000	10.787239
545.000000	11.021204
546.000000	11.257791
547.000000	11.496263
548.000000	11.734296
549.000000	11.970757
550.000000	12.205475
551.000000	12.434572
552.000000	12.657627
553.000000	12.873506
554.000000	13.083516
555.000000	13.285415
556.000000	13.479462
557.000000	13.664384
558.000000	13.840488
559.000000	14.008322
560.000000	14.128110
561.000000	14.234754
562.000000	14.331641
563.000000	14.419438
564.000000	14.499158
565.000000	14.571725
566.000000	14.637974
567.000000	14.698662
568.000000	14.755024
569.000000	14.807581
570.000000	14.894732
571.000000	14.982824
572.000000	15.069436
573.000000	15.155066
574.000000	15.236856
575.000000	15.314392
576.000000	15.387955
577.000000	15.459403
578.000000	15.526499
579.000000	15.588851
580.000000	15.648166
581.000000	15.705087
582.000000	15.758535
583.000000	15.808393
584.000000	15.855849
585.000000	15.903270
586.000000	15.949320
587.000000	15.994203
588.000000	16.039306
589.000000	16.084521
590.000000	16.127483
591.000000	16.168170
592.000000	16.207334
593.000000	16.242621
594.000000	16.273478
595.000000	16.296693
596.000000	16.314622
597.000000	16.323119
598.000000	16.322103
599.000000	16.310027
600.000000	16.291176
601.000000	16.262918
602.000000	16.226985
603.000000	16.185828
604.000000	16.138863
605.000000	16.091025
606.000000	16.038092
607.000000	15.986172
608.000000	15.934359
609.000000	15.885836
610.000000	15.839169
611.000000	15.798509
612.000000	15.761569
613.000000	15.728240
614.000000	15.700567
615.000000	15.674673
616.000000	15.652107
617.000000	15.630335
618.000000	15.608091
619.000000	15.585342
620.000000	15.559957
621.000000	15.529529
622.000000	15.492848
623.000000	15.448735
624.000000	15.397061
625.000000	15.336630
626.000000	15.267767
627.000000	15.188906
628.000000	15.102202
629.000000	15.006357
630.000000	14.901582
631.000000	14.788323
632.000000	14.669124
633.000000	14.545055
634.000000	14.414532
635.000000	14.282632
636.000000	14.149484
637.000000	14.018558
638.000000	13.890439
639.000000	13.764496
640.000000	13.643654
641.000000	13.528123
642.000000	13.419060
643.000000	13.318114
644.000000	13.226031
645.000000	13.141198
646.000000	13.065904
647.000000	12.997288
648.000000	12.935876
649.000000	12.883287
650.000000	12.838709
651.000000	12.802032
652.000000	12.772630
653.000000	12.749080
654.000000	12.732076
655.000000	12.720738
656.000000	12.712600
657.000000	12.710247
658.000000	12.712878
659.000000	12.720232
660.000000	12.730294
661.000000	12.744648
662.000000	12.764292
663.000000	12.788641
664.000000	12.815403
665.000000	12.846887
666.000000	12.884914
667.000000	12.925654
668.000000	12.971942
669.000000	13.021591
670.000000	13.076540
671.000000	13.136655
672.000000	13.200593
673.000000	13.269418
674.000000	13.342826
675.000000	13.418816
676.000000	13.498675
677.000000	13.581728
678.000000	13.665699
679.000000	13.751886
680.000000	13.837614
681.000000	13.923248
682.000000	14.006380
683.000000	14.086004
684.000000	14.163429
685.000000	14.237339
686.000000	14.305269
687.000000	14.367744
688.000000	14.425822
689.000000	14.479707
690.000000	14.529872
691.000000	14.573756
692.000000	14.613404
693.000000	14.648917
694.000000	14.680584
695.000000	14.708120
696.000000	14.731882
697.000000	14.754979
698.000000	14.775613
699.000000	14.793877
700.000000	14.810047
701.000000	14.826563
702.000000	14.842694
703.000000	14.859131
704.000000	14.876000
705.000000	14.895382
706.000000	14.916395
707.000000	14.938302
708.000000	14.960777
709.000000	14.985584
710.000000	15.011789
711.000000	15.036782
712.000000	15.063268
713.000000	15.090324
714.000000	15.117907
715.000000	15.143842
716.000000	15.170250
717.000000	15.197369
718.000000	15.224725
719.000000	15.249234
720.000000	15.274002
721.000000	15.300845
722.000000	15.326293
723.000000	15.351177
724.000000	15.376223
725.000000	15.402554
726.000000	15.428835
727.000000	15.454969
728.000000	15.480578
729.000000	15.505485
730.000000	15.530573
731.000000	15.555338
732.000000	15.580895
733.000000	15.606074
734.000000	15.630452
735.000000	15.655982
736.000000	15.683327
737.000000	15.711637
738.000000	15.740622
739.000000	15.772494
740.000000	15.805151
741.000000	15.837928
742.000000	15.870609
743.000000	15.902576
744.000000	15.933487
745.000000	15.960849
746.000000	15.984848
747.000000	16.006451
748.000000	16.026921
749.000000	16.046018
750.000000	16.061485
751.000000	16.074321
752.000000	16.086156
753.000000	16.098463
754.000000	16.110057
755.000000	16.123765
756.000000	16.137788
757.000000	16.149615
758.000000	16.161017
759.000000	16.171980
760.000000	16.184440
761.000000	16.199524
762.000000	16.213471
763.000000	16.225158
764.000000	16.236670
765.000000	16.246631
766.000000	16.257306
767.000000	16.270298
768.000000	16.283073
769.000000	16.293421
770.000000	16.303222
771.000000	16.312033
772.000000	16.322104
773.000000	16.334764
774.000000	16.348486
775.000000	16.362738
776.000000	16.375591
777.000000	16.387200
778.000000	16.399128
779.000000	16.413323
780.000000	16.426362
781.000000	16.438378
782.000000	16.452298
783.000000	16.465730
784.000000	16.477615
785.000000	16.490125
786.000000	16.502642
787.000000	16.514499
788.000000	16.526627
789.000000	16.537782
790.000000	16.550260
791.000000	16.569189
792.000000	16.587783
793.000000	16.604277
794.000000	16.623601
795.000000	16.640924
796.000000	16.655377
797.000000	16.672997
798.000000	16.690548
799.000000	16.707464
800.000000	16.723621
801.000000	16.732856
802.000000	16.740157
803.000000	16.751616
804.000000	16.761857
805.000000	16.775919
806.000000	16.795916
807.000000	16.816083
808.000000	16.844378
809.000000	16.874971
810.000000	16.905640
811.000000	16.939331
812.000000	16.974106
813.000000	17.006819
814.000000	17.041605
815.000000	17.070867
816.000000	17.098243
817.000000	17.126847
818.000000	17.147987
819.000000	17.168430
820.000000	17.192097
821.000000	17.216287
822.000000	17.240520
823.000000	17.264962
824.000000	17.291506
825.000000	17.322430
826.000000	17.354363
827.000000	17.385879
828.000000	17.422096
829.000000	17.458491
830.000000	17.495006
831.000000	17.528732
832.000000	17.566283
833.000000	17.599769
834.000000	17.630385
835.000000	17.661219
836.000000	17.689560
837.000000	17.718234
838.000000	17.748286
839.000000	17.774800
840.000000	17.791501
841.000000	17.811196
842.000000	17.832668
843.000000	17.861263
844.000000	17.888107
845.000000	17.925345
846.000000	17.957829
847.000000	17.990396
848.000000	18.020465
849.000000	18.035122
850.000000	18.051881
851.000000	18.075351
852.000000	18.085651
853.000000	18.095896
854.000000	18.103578
855.000000	18.102961
856.000000	18.111206
857.000000	18.162094
858.000000	18.225009
859.000000	18.323290
860.000000	18.429665
861.000000	18.527882
862.000000	18.635257
863.000000	18.743800
864.000000	18.861330
865.000000	18.979302
866.000000	19.096423
867.000000	19.169958
868.000000	19.228623
869.000000	19.272847
870.000000	19.316267
871.000000	19.360370
872.000000	19.401773
873.000000	19.440373
874.000000	19.473303
875.000000	19.505500
876.000000	19.537020
877.000000	19.567760
878.000000	19.599153
879.000000	19.629427
880.000000	19.659693
881.000000	19.690047
882.000000	19.721907
883.000000	19.755980
884.000000	19.792080
885.000000	19.826117
886.000000	19.860347
887.000000	19.894900
888.000000	19.931063
889.000000	19.966890
890.000000	20.001927
891.000000	20.036937
892.000000	20.074770
893.000000	20.110620
894.000000	20.147350
895.000000	20.184107
896.000000	20.220210
897.000000	20.257750
898.000000	20.294173
899.000000	20.331540
900.000000	20.371750
901.000000	20.410643
902.000000	20.447840
903.000000	20.484320
904.000000	20.520227
905.000000	20.557777
906.000000	20.597423
907.000000	20.635940
908.000000	20.674743
909.000000	20.713827
910.000000	20.749630
911.000000	20.788893
912.000000	20.826617
913.000000	20.864750
914.000000	20.900933
915.000000	20.935930
916.000000	20.967803
917.000000	21.001003
918.000000	21.033223
919.000000	21.063513
920.000000	21.090953
921.000000	21.114553
922.000000	21.136350
923.000000	21.157570
924.000000	21.177623
925.000000	21.196373
926.000000	21.211800
927.000000	21.223493
928.000000	21.232083
929.000000	21.238173
930.000000	21.245423
931.000000	21.253417
932.000000	21.261143
933.000000	21.267223
934.000000	21.274220
935.000000	21.281150
936.000000	21.290303
937.000000	21.299883
938.000000	21.308377
939.000000	21.318223
940.000000	21.328207
941.000000	21.334557
942.000000	21.336940
943.000000	21.338593
944.000000	21.336737
945.000000	21.331523
946.000000	21.327083
947.000000	21.319963
948.000000	21.312920
949.000000	21.305627
950.000000	21.296897
951.000000	21.288170
952.000000	21.283663
953.000000	21.278140
954.000000	21.275367
955.000000	21.273123
956.000000	21.268057
957.000000	21.264280
958.000000	21.262200
959.000000	21.258933
960.000000	21.255197
961.000000	21.251447
962.000000	21.245670
963.000000	21.240860
964.000000	21.234253
965.000000	21.225660
966.000000	21.216117
967.000000	21.205333
968.000000	21.191967
969.000000	21.177163
970.000000	21.159900
971.000000	21.142113
972.000000	21.125133
973.000000	21.105993
974.000000	21.086360
975.000000	21.067267
976.000000	21.049720
977.000000	21.033280
978.000000	21.016300
979.000000	21.001140
980.000000	20.988567
981.000000	20.976110
982.000000	20.962747
983.000000	20.951117
984.000000	20.939813
985.000000	20.928447
986.000000	20.915643
987.000000	20.902203
988.000000	20.891050
989.000000	20.878603
990.000000	20.865957
991.000000	20.854107
992.000000	20.842407
993.000000	20.829600
994.000000	20.816257
995.000000	20.804120
996.000000	20.792763
997.000000	20.781433
998.000000	20.769917
999.000000	20.758707
1000.000000	20.749790
1001.000000	20.742063
1002.000000	20.734350
1003.000000	20.728987
1004.000000	20.724663
1005.000000	20.720593
1006.000000	20.717900
1007.000000	20.714877
1008.000000	20.711020
1009.000000	20.708467
1010.000000	20.705187
1011.000000	20.701600
1012.000000	20.697680
1013.000000	20.690953
1014.000000	20.683383
1015.000000	20.676423
1016.000000	20.669540
1017.000000	20.662870
1018.000000	20.655763
1019.000000	20.647940
1020.000000	20.638610
1021.000000	20.628467
1022.000000	20.620113
1023.000000	20.614097
1024.000000	20.608997
1025.000000	20.602867
1026.000000	20.597153
1027.000000	20.592090
1028.000000	20.587413
1029.000000	20.584270
1030.000000	20.582773
1031.000000	20.581050
1032.000000	20.578283
1033.000000	20.575027
1034.000000	20.571440
1035.000000	20.568230
1036.000000	20.563677
1037.000000	20.557860
1038.000000	20.552107
1039.000000	20.544427
1040.000000	20.535070
1041.000000	20.526260
1042.000000	20.517233
1043.000000	20.507523
1044.000000	20.497953
1045.000000	20.488643
1046.000000	20.479943
1047.000000	20.471117
1048.000000	20.463770
1049.000000	20.458740
1050.000000	20.454727
1051.000000	20.451883
1052.000000	20.449253
1053.000000	20.446653
1054.000000	20.445497
1055.000000	20.445527
1056.000000	20.446410
1057.000000	20.447617
1058.000000	20.448270
1059.000000	20.449153
1060.000000	20.450677
1061.000000	20.452227
1062.000000	20.454640
1063.000000	20.456550
1064.000000	20.458603
1065.000000	20.461097
1066.000000	20.464417
1067.000000	20.469530
1068.000000	20.475160
1069.000000	20.481550
1070.000000	20.488737
1071.000000	20.495400
1072.000000	20.502320
1073.000000	20.510327
1074.000000	20.518137
1075.000000	20.527030
1076.000000	20.536097
1077.000000	20.545020
1078.000000	20.553630
1079.000000	20.561547
1080.000000	20.570450
1081.000000	20.580567
1082.000000	20.590683
1083.000000	20.600997
1084.000000	20.611993
1085.000000	20.622853
1086.000000	20.633193
1087.000000	20.644397
1088.000000	20.655533
1089.000000	20.666997
1090.000000	20.677427
1091.000000	20.685957
1092.000000	20.694990
1093.000000	20.703747
1094.000000	20.710767
1095.000000	20.717440
1096.000000	20.723090
1097.000000	20.727320
1098.000000	20.732133
1099.000000	20.735513
1100.000000	20.736880
1101.000000	20.739903
1102.000000	20.741810
1103.000000	20.744963
1104.000000	20.749217
1105.000000	20.752407
1106.000000	20.755910
1107.000000	20.759147
1108.000000	20.762837
1109.000000	20.767293
1110.000000	20.771613
1111.000000	20.774023
1112.000000	20.776037
1113.000000	20.775843
1114.000000	20.776127
1115.000000	20.776587
1116.000000	20.777137
1117.000000	20.778440
1118.000000	20.777400
1119.000000	20.775237
1120.000000	20.772760
1121.000000	20.770940
1122.000000	20.769433
1123.000000	20.768677
1124.000000	20.766507
1125.000000	20.762483
1126.000000	20.755937
1127.000000	20.747713
1128.000000	20.738767
1129.000000	20.729987
1130.000000	20.721773
1131.000000	20.710013
1132.000000	20.694550
1133.000000	20.674077
1134.000000	20.652320
1135.000000	20.633363
1136.000000	20.616397
1137.000000	20.598133
1138.000000	20.576403
1139.000000	20.551730
1140.000000	20.525280
1141.000000	20.499047
1142.000000	20.473697
1143.000000	20.450857
1144.000000	20.428197
1145.000000	20.402320
1146.000000	20.376390
1147.000000	20.351857
1148.000000	20.331107
1149.000000	20.310837
1150.000000	20.291767
1151.000000	20.274730
1152.000000	20.257397
1153.000000	20.241433
1154.000000	20.225550
1155.000000	20.209303
1156.000000	20.189613
1157.000000	20.168953
1158.000000	20.146020
1159.000000	20.122297
1160.000000	20.094923
1161.000000	20.064040
1162.000000	20.031170
1163.000000	19.996793
1164.000000	19.959343
1165.000000	19.918837
1166.000000	19.877953
1167.000000	19.836217
1168.000000	19.792490
1169.000000	19.748887
1170.000000	19.708250
1171.000000	19.669767
1172.000000	19.632867
