PE UV       SUBTECH     SPECTRUM    ASCII       PEDS        4.00        
   -1
BIOUCR0012-3.Sample.ASC
24/02/19
15:16:59.00
24/02/19
15:16:59.00
Vinicio Soto Monge
P. chalcotea Costa Rica, Guanacaste, San Ramon 29 Abril 1978
250,000000
1
Lambda 1050
1050L1511233
PerkinElmer UV WinLab 6.3.2.0749 / 2.02.05 Lambda 900 UV/VIS/NIR, Aug  7 2015 09:38:08

0
0
3350/servo 860,8/2
0
0
UV/VIS
1
1
1
DoubleDePol,CommonBeamDepol,RBeamAtt,SBeamAtt,60mm sphere, WB InGaAs Detector
0
0
0
0
Program
Program
3350/servo 860,8/2
3350/0,2 860,8/0,2
3350/0,2 860,8/0,2
0
15.00
 
 
 
0
 
860,8
319,2
860,8
Front
100
on
S:100 R:100
0
0
0
0
 
0
 
 
 
0
 
 
0
0
0
0
0
 
 
 
 
0
0


0
0
#HDR
-1
-1
#GR
nm
%R
1.0
0.0
2500,000000
-1,000000
2251
8
20,097600
1,684100
#DATA

250.000000	nan
251.000000	nan
252.000000	nan
253.000000	nan
254.000000	nan
255.000000	nan
256.000000	nan
257.000000	nan
258.000000	nan
259.000000	2.223671
260.000000	2.220071
261.000000	2.217462
262.000000	2.212355
263.000000	2.207178
264.000000	2.201052
265.000000	2.195778
266.000000	2.190164
267.000000	2.184858
268.000000	2.179509
269.000000	2.174151
270.000000	2.169392
271.000000	2.163870
272.000000	2.158144
273.000000	2.153298
274.000000	2.149313
275.000000	2.145123
276.000000	2.141270
277.000000	2.136001
278.000000	2.133312
279.000000	2.131340
280.000000	2.126720
281.000000	2.121907
282.000000	2.118680
283.000000	2.117406
284.000000	2.115112
285.000000	2.113297
286.000000	2.111549
287.000000	2.108465
288.000000	2.105645
289.000000	2.101066
290.000000	2.097675
291.000000	2.094365
292.000000	2.092473
293.000000	2.087122
294.000000	2.082824
295.000000	2.079067
296.000000	2.075980
297.000000	2.072516
298.000000	2.067274
299.000000	2.063433
300.000000	2.060792
301.000000	2.059086
302.000000	2.054963
303.000000	2.052687
304.000000	2.050031
305.000000	2.047218
306.000000	2.042929
307.000000	2.041692
308.000000	2.041079
309.000000	2.040266
310.000000	2.038108
311.000000	2.034479
312.000000	2.032322
313.000000	2.031824
314.000000	2.030136
315.000000	2.027773
316.000000	2.026115
317.000000	2.028792
318.000000	2.042941
319.000000	2.052126
320.000000	2.056678
321.000000	2.060311
322.000000	2.059402
323.000000	2.063979
324.000000	2.063915
325.000000	2.073770
326.000000	2.080706
327.000000	2.082722
328.000000	2.069936
329.000000	2.062941
330.000000	2.054753
331.000000	2.049604
332.000000	2.047696
333.000000	2.041032
334.000000	2.042047
335.000000	2.030559
336.000000	2.021627
337.000000	2.014291
338.000000	2.014042
339.000000	2.012211
340.000000	2.013677
341.000000	2.014384
342.000000	2.015608
343.000000	2.017878
344.000000	2.012630
345.000000	2.011847
346.000000	2.013677
347.000000	2.011504
348.000000	2.005771
349.000000	2.001349
350.000000	2.000929
351.000000	2.000427
352.000000	1.995716
353.000000	1.989841
354.000000	1.994129
355.000000	1.993725
356.000000	1.990065
357.000000	1.988234
358.000000	1.985324
359.000000	1.984006
360.000000	1.980023
361.000000	1.974892
362.000000	1.974767
363.000000	1.973494
364.000000	1.964280
365.000000	1.960322
366.000000	1.957568
367.000000	1.954244
368.000000	1.950945
369.000000	1.949033
370.000000	1.947296
371.000000	1.943047
372.000000	1.939951
373.000000	1.934166
374.000000	1.930442
375.000000	1.923852
376.000000	1.912705
377.000000	1.890302
378.000000	1.868618
379.000000	1.843225
380.000000	1.818724
381.000000	1.798570
382.000000	1.776090
383.000000	1.755626
384.000000	1.736178
385.000000	1.717778
386.000000	1.704348
387.000000	1.703952
388.000000	1.703162
389.000000	1.701913
390.000000	1.701774
391.000000	1.700711
392.000000	1.700036
393.000000	1.700076
394.000000	1.699643
395.000000	1.698753
396.000000	1.697765
397.000000	1.696551
398.000000	1.695924
399.000000	1.695266
400.000000	1.694048
401.000000	1.693012
402.000000	1.692208
403.000000	1.691447
404.000000	1.690401
405.000000	1.689902
406.000000	1.689009
407.000000	1.688274
408.000000	1.686628
409.000000	1.685043
410.000000	1.684237
411.000000	1.683711
412.000000	1.682734
413.000000	1.681359
414.000000	1.680486
415.000000	1.679922
416.000000	1.679265
417.000000	1.678474
418.000000	1.678469
419.000000	1.678822
420.000000	1.678754
421.000000	1.678130
422.000000	1.677773
423.000000	1.677753
424.000000	1.677571
425.000000	1.676971
426.000000	1.676773
427.000000	1.676785
428.000000	1.676504
429.000000	1.675848
430.000000	1.675014
431.000000	1.674557
432.000000	1.674293
433.000000	1.674246
434.000000	1.674192
435.000000	1.674378
436.000000	1.674706
437.000000	1.675305
438.000000	1.675916
439.000000	1.676496
440.000000	1.677278
441.000000	1.678286
442.000000	1.678828
443.000000	1.679098
444.000000	1.679837
445.000000	1.680803
446.000000	1.681565
447.000000	1.682318
448.000000	1.683147
449.000000	1.684384
450.000000	1.685835
451.000000	1.686980
452.000000	1.688591
453.000000	1.690871
454.000000	1.692903
455.000000	1.694925
456.000000	1.697226
457.000000	1.699643
458.000000	1.702507
459.000000	1.705703
460.000000	1.709121
461.000000	1.712823
462.000000	1.716958
463.000000	1.721159
464.000000	1.725710
465.000000	1.731110
466.000000	1.737197
467.000000	1.744034
468.000000	1.751274
469.000000	1.759093
470.000000	1.768184
471.000000	1.778306
472.000000	1.789187
473.000000	1.801408
474.000000	1.814956
475.000000	1.829525
476.000000	1.844968
477.000000	1.861630
478.000000	1.879910
479.000000	1.899759
480.000000	1.920444
481.000000	1.941826
482.000000	1.964571
483.000000	1.989220
484.000000	2.017133
485.000000	2.049088
486.000000	2.086076
487.000000	2.129287
488.000000	2.180660
489.000000	2.241129
490.000000	2.313002
491.000000	2.398697
492.000000	2.498822
493.000000	2.613987
494.000000	2.744526
495.000000	2.890191
496.000000	3.050434
497.000000	3.223909
498.000000	3.409342
499.000000	3.605830
500.000000	3.811305
501.000000	4.023770
502.000000	4.240346
503.000000	4.458846
504.000000	4.677551
505.000000	4.895418
506.000000	5.109992
507.000000	5.321229
508.000000	5.526823
509.000000	5.725594
510.000000	5.916802
511.000000	6.099143
512.000000	6.273117
513.000000	6.438884
514.000000	6.595232
515.000000	6.741883
516.000000	6.879759
517.000000	7.007471
518.000000	7.125461
519.000000	7.234437
520.000000	7.334295
521.000000	7.425860
522.000000	7.509510
523.000000	7.584641
524.000000	7.651746
525.000000	7.709892
526.000000	7.759729
527.000000	7.800676
528.000000	7.832690
529.000000	7.854262
530.000000	7.864051
531.000000	7.860499
532.000000	7.841375
533.000000	7.804082
534.000000	7.746022
535.000000	7.665299
536.000000	7.559546
537.000000	7.426619
538.000000	7.264996
539.000000	7.073974
540.000000	6.855110
541.000000	6.609686
542.000000	6.343175
543.000000	6.062347
544.000000	5.774839
545.000000	5.489526
546.000000	5.215501
547.000000	4.962137
548.000000	4.737552
549.000000	4.547741
550.000000	4.396606
551.000000	4.286645
552.000000	4.214959
553.000000	4.177524
554.000000	4.168027
555.000000	4.178245
556.000000	4.199867
557.000000	4.224055
558.000000	4.242731
559.000000	4.250237
560.000000	4.232240
561.000000	4.195392
562.000000	4.141035
563.000000	4.071096
564.000000	3.990167
565.000000	3.903294
566.000000	3.815028
567.000000	3.731983
568.000000	3.658734
569.000000	3.600294
570.000000	3.569113
571.000000	3.557866
572.000000	3.565799
573.000000	3.591413
574.000000	3.631274
575.000000	3.680975
576.000000	3.737616
577.000000	3.794459
578.000000	3.847976
579.000000	3.893093
580.000000	3.925901
581.000000	3.943287
582.000000	3.943515
583.000000	3.927213
584.000000	3.895028
585.000000	3.849060
586.000000	3.790680
587.000000	3.724803
588.000000	3.654102
589.000000	3.582809
590.000000	3.515859
591.000000	3.456779
592.000000	3.408053
593.000000	3.371177
594.000000	3.347821
595.000000	3.338456
596.000000	3.342413
597.000000	3.358209
598.000000	3.383961
599.000000	3.418032
600.000000	3.456710
601.000000	3.496997
602.000000	3.536726
603.000000	3.573168
604.000000	3.604250
605.000000	3.627554
606.000000	3.642378
607.000000	3.649178
608.000000	3.647693
609.000000	3.637870
610.000000	3.620518
611.000000	3.597785
612.000000	3.572271
613.000000	3.545073
614.000000	3.517546
615.000000	3.493091
616.000000	3.473243
617.000000	3.458966
618.000000	3.450552
619.000000	3.449109
620.000000	3.455586
621.000000	3.469082
622.000000	3.488484
623.000000	3.513050
624.000000	3.541871
625.000000	3.572931
626.000000	3.604468
627.000000	3.634756
628.000000	3.663978
629.000000	3.689794
630.000000	3.711438
631.000000	3.727831
632.000000	3.739306
633.000000	3.746263
634.000000	3.749485
635.000000	3.749914
636.000000	3.748068
637.000000	3.745469
638.000000	3.742586
639.000000	3.741393
640.000000	3.743641
641.000000	3.749666
642.000000	3.759993
643.000000	3.775247
644.000000	3.795040
645.000000	3.819255
646.000000	3.848045
647.000000	3.880076
648.000000	3.914750
649.000000	3.951111
650.000000	3.986589
651.000000	4.022239
652.000000	4.055833
653.000000	4.086975
654.000000	4.115515
655.000000	4.140814
656.000000	4.163073
657.000000	4.182176
658.000000	4.197107
659.000000	4.209625
660.000000	4.221761
661.000000	4.232964
662.000000	4.244050
663.000000	4.255552
664.000000	4.267947
665.000000	4.282333
666.000000	4.299170
667.000000	4.318551
668.000000	4.342510
669.000000	4.369512
670.000000	4.398469
671.000000	4.430210
672.000000	4.465389
673.000000	4.502638
674.000000	4.540995
675.000000	4.579900
676.000000	4.618802
677.000000	4.657679
678.000000	4.695498
679.000000	4.732161
680.000000	4.767331
681.000000	4.800081
682.000000	4.829988
683.000000	4.858461
684.000000	4.885326
685.000000	4.910565
686.000000	4.934333
687.000000	4.956016
688.000000	4.977291
689.000000	4.998504
690.000000	5.019820
691.000000	5.042262
692.000000	5.066005
693.000000	5.090757
694.000000	5.117630
695.000000	5.146764
696.000000	5.177657
697.000000	5.211105
698.000000	5.246405
699.000000	5.282290
700.000000	5.319429
701.000000	5.357623
702.000000	5.396697
703.000000	5.435433
704.000000	5.473173
705.000000	5.510376
706.000000	5.548040
707.000000	5.585870
708.000000	5.621987
709.000000	5.657097
710.000000	5.691920
711.000000	5.726064
712.000000	5.759350
713.000000	5.791830
714.000000	5.824084
715.000000	5.855908
716.000000	5.886349
717.000000	5.915656
718.000000	5.946198
719.000000	5.978118
720.000000	6.010047
721.000000	6.042608
722.000000	6.075978
723.000000	6.110041
724.000000	6.145882
725.000000	6.182950
726.000000	6.222144
727.000000	6.262146
728.000000	6.303317
729.000000	6.345938
730.000000	6.388849
731.000000	6.432160
732.000000	6.476089
733.000000	6.521117
734.000000	6.566046
735.000000	6.611429
736.000000	6.657229
737.000000	6.703092
738.000000	6.747742
739.000000	6.791640
740.000000	6.836229
741.000000	6.880722
742.000000	6.924662
743.000000	6.967693
744.000000	7.010131
745.000000	7.052291
746.000000	7.093310
747.000000	7.133990
748.000000	7.175111
749.000000	7.215698
750.000000	7.254912
751.000000	7.293710
752.000000	7.333385
753.000000	7.375152
754.000000	7.417476
755.000000	7.458718
756.000000	7.500640
757.000000	7.544336
758.000000	7.587899
759.000000	7.631896
760.000000	7.678135
761.000000	7.726113
762.000000	7.773846
763.000000	7.820042
764.000000	7.866657
765.000000	7.914603
766.000000	7.962880
767.000000	8.011175
768.000000	8.059387
769.000000	8.108188
770.000000	8.156034
771.000000	8.202708
772.000000	8.248412
773.000000	8.293916
774.000000	8.338656
775.000000	8.383365
776.000000	8.428192
777.000000	8.471800
778.000000	8.515759
779.000000	8.558558
780.000000	8.601721
781.000000	8.643159
782.000000	8.685206
783.000000	8.728792
784.000000	8.772835
785.000000	8.815548
786.000000	8.857891
787.000000	8.900963
788.000000	8.946190
789.000000	8.992684
790.000000	9.039084
791.000000	9.086081
792.000000	9.133081
793.000000	9.182039
794.000000	9.230256
795.000000	9.280286
796.000000	9.331583
797.000000	9.383946
798.000000	9.435962
799.000000	9.488710
800.000000	9.541991
801.000000	9.598752
802.000000	9.656720
803.000000	9.716832
804.000000	9.778144
805.000000	9.839867
806.000000	9.900716
807.000000	9.959330
808.000000	10.021512
809.000000	10.084202
810.000000	10.147295
811.000000	10.211428
812.000000	10.275467
813.000000	10.335165
814.000000	10.398400
815.000000	10.461292
816.000000	10.524938
817.000000	10.590853
818.000000	10.654451
819.000000	10.719092
820.000000	10.783489
821.000000	10.846196
822.000000	10.910880
823.000000	10.979004
824.000000	11.042633
825.000000	11.105913
826.000000	11.172666
827.000000	11.237837
828.000000	11.304040
829.000000	11.367165
830.000000	11.430877
831.000000	11.499172
832.000000	11.565473
833.000000	11.631178
834.000000	11.700452
835.000000	11.767646
836.000000	11.835283
837.000000	11.909313
838.000000	11.976533
839.000000	12.051401
840.000000	12.126304
841.000000	12.196733
842.000000	12.266356
843.000000	12.333221
844.000000	12.402061
845.000000	12.481411
846.000000	12.554187
847.000000	12.613602
848.000000	12.688576
849.000000	12.759723
850.000000	12.823838
851.000000	12.891641
852.000000	12.968049
853.000000	13.038115
854.000000	13.114310
855.000000	13.168733
856.000000	13.231101
857.000000	13.300996
858.000000	13.400162
859.000000	13.471846
860.000000	13.550326
861.000000	13.626138
862.000000	13.695912
863.000000	13.774282
864.000000	13.845276
865.000000	13.931053
866.000000	14.012754
867.000000	14.097511
868.000000	14.141447
869.000000	14.210980
870.000000	14.280880
871.000000	14.351420
872.000000	14.420443
873.000000	14.488647
874.000000	14.554283
875.000000	14.620533
876.000000	14.685807
877.000000	14.748993
878.000000	14.815180
879.000000	14.881783
880.000000	14.949380
881.000000	15.014580
882.000000	15.079577
883.000000	15.145727
884.000000	15.214270
885.000000	15.281777
886.000000	15.350213
887.000000	15.419270
888.000000	15.486110
889.000000	15.553047
890.000000	15.620410
891.000000	15.687140
892.000000	15.754197
893.000000	15.820487
894.000000	15.885070
895.000000	15.950487
896.000000	16.015190
897.000000	16.078493
898.000000	16.142843
899.000000	16.207117
900.000000	16.270567
901.000000	16.335343
902.000000	16.398620
903.000000	16.459720
904.000000	16.524013
905.000000	16.587533
906.000000	16.650827
907.000000	16.714740
908.000000	16.775360
909.000000	16.834057
910.000000	16.895117
911.000000	16.956063
912.000000	17.018417
913.000000	17.078383
914.000000	17.134683
915.000000	17.189890
916.000000	17.243017
917.000000	17.297220
918.000000	17.352197
919.000000	17.405907
920.000000	17.454790
921.000000	17.500467
922.000000	17.545037
923.000000	17.592087
924.000000	17.636793
925.000000	17.679300
926.000000	17.722280
927.000000	17.763357
928.000000	17.801370
929.000000	17.838087
930.000000	17.873980
931.000000	17.910730
932.000000	17.946620
933.000000	17.980210
934.000000	18.014953
935.000000	18.049010
936.000000	18.083537
937.000000	18.116633
938.000000	18.150107
939.000000	18.183490
940.000000	18.215190
941.000000	18.245583
942.000000	18.272487
943.000000	18.299953
944.000000	18.325847
945.000000	18.350580
946.000000	18.373140
947.000000	18.396217
948.000000	18.418513
949.000000	18.441223
950.000000	18.464240
951.000000	18.486120
952.000000	18.509643
953.000000	18.532387
954.000000	18.555043
955.000000	18.577977
956.000000	18.598923
957.000000	18.620140
958.000000	18.640907
959.000000	18.661530
960.000000	18.683573
961.000000	18.706637
962.000000	18.728130
963.000000	18.749930
964.000000	18.770230
965.000000	18.790460
966.000000	18.811957
967.000000	18.830150
968.000000	18.849017
969.000000	18.869040
970.000000	18.886300
971.000000	18.902053
972.000000	18.918827
973.000000	18.934950
974.000000	18.952757
975.000000	18.969947
976.000000	18.986110
977.000000	19.003073
978.000000	19.018997
979.000000	19.032800
980.000000	19.046983
981.000000	19.062093
982.000000	19.077637
983.000000	19.091880
984.000000	19.102960
985.000000	19.114900
986.000000	19.127590
987.000000	19.139543
988.000000	19.151743
989.000000	19.164620
990.000000	19.176620
991.000000	19.187663
992.000000	19.198237
993.000000	19.210723
994.000000	19.224137
995.000000	19.236740
996.000000	19.247950
997.000000	19.259063
998.000000	19.270670
999.000000	19.281777
1000.000000	19.293837
1001.000000	19.304823
1002.000000	19.315633
1003.000000	19.325753
1004.000000	19.335163
1005.000000	19.345203
1006.000000	19.356133
1007.000000	19.367127
1008.000000	19.378830
1009.000000	19.389350
1010.000000	19.398957
1011.000000	19.408787
1012.000000	19.418967
1013.000000	19.428847
1014.000000	19.439620
1015.000000	19.450693
1016.000000	19.460697
1017.000000	19.470370
1018.000000	19.478603
1019.000000	19.488273
1020.000000	19.499347
1021.000000	19.510447
1022.000000	19.520863
1023.000000	19.531457
1024.000000	19.543450
1025.000000	19.555113
1026.000000	19.566557
1027.000000	19.578993
1028.000000	19.592813
1029.000000	19.607637
1030.000000	19.622147
1031.000000	19.636773
1032.000000	19.651953
1033.000000	19.666953
1034.000000	19.680480
1035.000000	19.694500
1036.000000	19.709463
1037.000000	19.724820
1038.000000	19.739293
1039.000000	19.751313
1040.000000	19.763493
1041.000000	19.777360
1042.000000	19.791820
1043.000000	19.806200
1044.000000	19.820543
1045.000000	19.834627
1046.000000	19.848993
1047.000000	19.863363
1048.000000	19.877493
1049.000000	19.892457
1050.000000	19.907200
1051.000000	19.921480
1052.000000	19.935367
1053.000000	19.949913
1054.000000	19.964420
1055.000000	19.979523
1056.000000	19.994623
1057.000000	20.008617
1058.000000	20.024007
1059.000000	20.040003
1060.000000	20.056480
1061.000000	20.073783
1062.000000	20.090923
1063.000000	20.105360
1064.000000	20.119470
1065.000000	20.133600
1066.000000	20.147010
1067.000000	20.162640
1068.000000	20.178143
1069.000000	20.193347
1070.000000	20.208850
1071.000000	20.223007
1072.000000	20.237293
1073.000000	20.253823
1074.000000	20.270237
1075.000000	20.286690
1076.000000	20.304543
1077.000000	20.321233
1078.000000	20.337330
1079.000000	20.353413
1080.000000	20.368447
1081.000000	20.383357
1082.000000	20.398423
1083.000000	20.411967
1084.000000	20.426240
1085.000000	20.438840
1086.000000	20.451327
1087.000000	20.464757
1088.000000	20.476760
1089.000000	20.488340
1090.000000	20.500687
1091.000000	20.513573
1092.000000	20.525413
1093.000000	20.537517
1094.000000	20.549220
1095.000000	20.562620
1096.000000	20.575377
1097.000000	20.585370
1098.000000	20.597013
1099.000000	20.608073
1100.000000	20.616980
1101.000000	20.625403
1102.000000	20.634403
1103.000000	20.644347
1104.000000	20.654657
1105.000000	20.663470
1106.000000	20.671630
1107.000000	20.679160
1108.000000	20.686090
1109.000000	20.693660
1110.000000	20.701470
1111.000000	20.708810
1112.000000	20.714500
1113.000000	20.719753
1114.000000	20.725183
1115.000000	20.730553
1116.000000	20.734297
1117.000000	20.738900
1118.000000	20.743063
1119.000000	20.746613
1120.000000	20.749907
1121.000000	20.753257
1122.000000	20.758050
1123.000000	20.762940
1124.000000	20.765890
1125.000000	20.768423
1126.000000	20.770900
1127.000000	20.771553
1128.000000	20.770727
1129.000000	20.770373
1130.000000	20.766980
1131.000000	20.760237
1132.000000	20.747793
1133.000000	20.731003
1134.000000	20.714280
1135.000000	20.699513
1136.000000	20.685503
1137.000000	20.668950
1138.000000	20.649117
1139.000000	20.624930
1140.000000	20.602490
1141.000000	20.581877
1142.000000	20.564453
1143.000000	20.547587
1144.000000	20.529247
1145.000000	20.509073
1146.000000	20.489520
1147.000000	20.472590
1148.000000	20.458667
1149.000000	20.446080
1150.000000	20.434607
1151.000000	20.423083
1152.000000	20.410467
1153.000000	20.400373
1154.000000	20.392213
1155.000000	20.380017
1156.000000	20.365293
1157.000000	20.348930
1158.000000	20.331057
1159.000000	20.310853
1160.000000	20.288490
1161.000000	20.262347
1162.000000	20.236677
1163.000000	20.206553
1164.000000	20.172343
1165.000000	20.138023
1166.000000	20.101950
1167.000000	20.066020
1168.000000	20.028310
1169.000000	19.992147
1170.000000	19.955217
1171.000000	19.921847
1172.000000	19.887423
1173.000000	19.854833
1174.000000	19.824507
1175.000000	19.795437
1176.000000	19.769693
1177.000000	19.745150
1178.000000	19.722747
1179.000000	19.702130
1180.000000	19.682827
1181.000000	19.663170
1182.000000	19.645583
1183.000000	19.629130
1184.000000	19.612947
1185.000000	19.599333
