PE UV       SUBTECH     SPECTRUM    ASCII       PEDS        4.00        
   -1
BIOUCR0005-3.Sample.ASC
24/02/19
12:33:52.00
24/02/19
12:33:52.00
Vinicio Soto Monge
P. cupreomarginata (sin datos) Monteverde(dudoso)
250,000000
1
Lambda 1050
1050L1511233
PerkinElmer UV WinLab 6.3.2.0749 / 2.02.05 Lambda 900 UV/VIS/NIR, Aug  7 2015 09:38:08

0
0
3350/servo 860,8/2
0
0
UV/VIS
1
1
1
DoubleDePol,CommonBeamDepol,RBeamAtt,SBeamAtt,60mm sphere, WB InGaAs Detector
0
0
0
0
Program
Program
3350/servo 860,8/2
3350/0,2 860,8/0,2
3350/0,2 860,8/0,2
0
15.00
 
 
 
0
 
860,8
319,2
860,8
Front
100
on
S:100 R:100
0
0
0
0
 
0
 
 
 
0
 
 
0
0
0
0
0
 
 
 
 
0
0


0
0
#HDR
-1
-1
#GR
nm
%R
1.0
0.0
2500,000000
-1,000000
2251
8
24,464900
1,688200
#DATA

250.000000	nan
251.000000	nan
252.000000	nan
253.000000	nan
254.000000	nan
255.000000	nan
256.000000	nan
257.000000	nan
258.000000	nan
259.000000	2.171747
260.000000	2.164560
261.000000	2.158247
262.000000	2.152446
263.000000	2.146863
264.000000	2.141763
265.000000	2.134683
266.000000	2.128688
267.000000	2.123852
268.000000	2.118261
269.000000	2.112110
270.000000	2.107850
271.000000	2.102052
272.000000	2.097652
273.000000	2.093695
274.000000	2.087572
275.000000	2.082786
276.000000	2.078986
277.000000	2.074657
278.000000	2.070212
279.000000	2.066534
280.000000	2.062400
281.000000	2.060532
282.000000	2.057595
283.000000	2.053691
284.000000	2.051500
285.000000	2.048799
286.000000	2.045988
287.000000	2.043557
288.000000	2.041240
289.000000	2.037433
290.000000	2.035433
291.000000	2.031516
292.000000	2.027792
293.000000	2.024153
294.000000	2.020009
295.000000	2.018877
296.000000	2.015919
297.000000	2.012786
298.000000	2.008031
299.000000	2.005359
300.000000	2.002350
301.000000	1.999756
302.000000	1.996760
303.000000	1.993682
304.000000	1.991018
305.000000	1.987912
306.000000	1.984303
307.000000	1.980769
308.000000	1.978210
309.000000	1.975834
310.000000	1.972855
311.000000	1.971067
312.000000	1.967727
313.000000	1.964611
314.000000	1.962811
315.000000	1.959873
316.000000	1.957457
317.000000	1.957835
318.000000	1.966451
319.000000	1.971909
320.000000	1.978332
321.000000	1.984899
322.000000	1.991326
323.000000	1.996240
324.000000	1.999055
325.000000	2.005734
326.000000	2.011741
327.000000	2.010318
328.000000	2.001232
329.000000	1.991479
330.000000	1.985551
331.000000	1.979384
332.000000	1.971674
333.000000	1.967140
334.000000	1.959352
335.000000	1.951720
336.000000	1.947268
337.000000	1.944835
338.000000	1.941883
339.000000	1.941862
340.000000	1.939477
341.000000	1.933533
342.000000	1.931795
343.000000	1.929134
344.000000	1.931086
345.000000	1.924437
346.000000	1.917751
347.000000	1.917129
348.000000	1.917731
349.000000	1.915070
350.000000	1.909954
351.000000	1.908008
352.000000	1.907413
353.000000	1.904369
354.000000	1.899841
355.000000	1.900436
356.000000	1.898807
357.000000	1.896225
358.000000	1.888788
359.000000	1.885169
360.000000	1.883582
361.000000	1.881418
362.000000	1.876371
363.000000	1.873325
364.000000	1.869601
365.000000	1.867524
366.000000	1.865948
367.000000	1.863632
368.000000	1.866212
369.000000	1.866366
370.000000	1.864473
371.000000	1.861921
372.000000	1.861415
373.000000	1.858028
374.000000	1.854963
375.000000	1.851523
376.000000	1.844783
377.000000	1.823460
378.000000	1.801132
379.000000	1.781226
380.000000	1.761948
381.000000	1.744401
382.000000	1.727053
383.000000	1.714046
384.000000	1.702700
385.000000	1.691230
386.000000	1.684157
387.000000	1.691671
388.000000	1.699508
389.000000	1.709384
390.000000	1.720935
391.000000	1.733721
392.000000	1.746509
393.000000	1.760308
394.000000	1.775927
395.000000	1.793127
396.000000	1.811832
397.000000	1.832042
398.000000	1.853920
399.000000	1.876028
400.000000	1.899237
401.000000	1.924002
402.000000	1.950505
403.000000	1.978637
404.000000	2.008615
405.000000	2.039247
406.000000	2.070159
407.000000	2.102404
408.000000	2.136328
409.000000	2.171927
410.000000	2.208383
411.000000	2.245745
412.000000	2.284429
413.000000	2.323438
414.000000	2.362004
415.000000	2.401888
416.000000	2.443196
417.000000	2.485356
418.000000	2.527612
419.000000	2.569817
420.000000	2.612267
421.000000	2.655061
422.000000	2.697666
423.000000	2.740089
424.000000	2.782849
425.000000	2.825377
426.000000	2.867203
427.000000	2.908182
428.000000	2.948855
429.000000	2.988687
430.000000	3.027907
431.000000	3.065806
432.000000	3.102091
433.000000	3.137460
434.000000	3.171759
435.000000	3.204077
436.000000	3.234797
437.000000	3.264005
438.000000	3.290896
439.000000	3.315866
440.000000	3.338526
441.000000	3.359076
442.000000	3.378027
443.000000	3.394662
444.000000	3.408592
445.000000	3.421289
446.000000	3.432794
447.000000	3.442350
448.000000	3.450086
449.000000	3.457164
450.000000	3.464584
451.000000	3.472029
452.000000	3.479802
453.000000	3.488771
454.000000	3.499709
455.000000	3.512926
456.000000	3.528703
457.000000	3.548080
458.000000	3.572251
459.000000	3.601064
460.000000	3.634531
461.000000	3.673803
462.000000	3.718423
463.000000	3.769185
464.000000	3.826495
465.000000	3.889032
466.000000	3.956548
467.000000	4.029307
468.000000	4.106284
469.000000	4.186286
470.000000	4.268316
471.000000	4.351800
472.000000	4.436898
473.000000	4.521839
474.000000	4.605399
475.000000	4.687680
476.000000	4.768522
477.000000	4.847179
478.000000	4.923933
479.000000	4.998983
480.000000	5.072126
481.000000	5.142912
482.000000	5.211528
483.000000	5.279285
484.000000	5.347900
485.000000	5.418680
486.000000	5.491857
487.000000	5.568196
488.000000	5.647919
489.000000	5.731583
490.000000	5.819812
491.000000	5.914291
492.000000	6.014663
493.000000	6.120038
494.000000	6.230499
495.000000	6.344953
496.000000	6.463048
497.000000	6.584510
498.000000	6.710145
499.000000	6.839887
500.000000	6.973901
501.000000	7.111907
502.000000	7.253226
503.000000	7.398552
504.000000	7.547706
505.000000	7.700737
506.000000	7.859020
507.000000	8.021752
508.000000	8.187725
509.000000	8.357560
510.000000	8.530701
511.000000	8.706308
512.000000	8.885168
513.000000	9.066765
514.000000	9.250628
515.000000	9.436889
516.000000	9.623076
517.000000	9.810296
518.000000	9.997938
519.000000	10.186131
520.000000	10.374590
521.000000	10.562836
522.000000	10.751060
523.000000	10.940062
524.000000	11.128705
525.000000	11.316642
526.000000	11.504846
527.000000	11.692072
528.000000	11.877792
529.000000	12.061274
530.000000	12.243636
531.000000	12.423647
532.000000	12.601349
533.000000	12.775284
534.000000	12.944771
535.000000	13.109896
536.000000	13.270619
537.000000	13.427429
538.000000	13.579937
539.000000	13.728170
540.000000	13.871195
541.000000	14.008970
542.000000	14.142122
543.000000	14.270408
544.000000	14.394639
545.000000	14.515064
546.000000	14.630592
547.000000	14.741116
548.000000	14.847365
549.000000	14.949223
550.000000	15.046379
551.000000	15.140081
552.000000	15.228653
553.000000	15.313970
554.000000	15.394934
555.000000	15.469614
556.000000	15.541107
557.000000	15.609645
558.000000	15.674528
559.000000	15.734220
560.000000	15.747802
561.000000	15.750891
562.000000	15.748147
563.000000	15.740404
564.000000	15.727031
565.000000	15.710168
566.000000	15.688284
567.000000	15.662282
568.000000	15.631789
569.000000	15.598180
570.000000	15.602956
571.000000	15.609366
572.000000	15.614134
573.000000	15.614800
574.000000	15.615592
575.000000	15.615305
576.000000	15.613238
577.000000	15.608748
578.000000	15.601500
579.000000	15.591835
580.000000	15.578645
581.000000	15.560469
582.000000	15.535895
583.000000	15.504668
584.000000	15.462983
585.000000	15.410263
586.000000	15.346814
587.000000	15.272864
588.000000	15.191952
589.000000	15.100790
590.000000	15.000136
591.000000	14.892907
592.000000	14.779242
593.000000	14.660666
594.000000	14.539859
595.000000	14.418145
596.000000	14.295879
597.000000	14.172717
598.000000	14.049016
599.000000	13.925690
600.000000	13.804891
601.000000	13.685312
602.000000	13.566764
603.000000	13.449664
604.000000	13.333353
605.000000	13.219255
606.000000	13.106256
607.000000	12.995121
608.000000	12.885642
609.000000	12.781124
610.000000	12.681211
611.000000	12.587986
612.000000	12.502666
613.000000	12.427383
614.000000	12.363992
615.000000	12.311044
616.000000	12.270459
617.000000	12.243712
618.000000	12.229329
619.000000	12.226700
620.000000	12.236748
621.000000	12.259971
622.000000	12.293895
623.000000	12.339444
624.000000	12.393846
625.000000	12.456980
626.000000	12.529637
627.000000	12.611146
628.000000	12.701552
629.000000	12.799960
630.000000	12.904723
631.000000	13.015417
632.000000	13.133640
633.000000	13.255908
634.000000	13.382239
635.000000	13.512565
636.000000	13.643562
637.000000	13.772516
638.000000	13.899481
639.000000	14.023510
640.000000	14.142916
641.000000	14.255283
642.000000	14.360386
643.000000	14.456582
644.000000	14.541902
645.000000	14.615796
646.000000	14.679448
647.000000	14.733232
648.000000	14.777900
649.000000	14.811432
650.000000	14.834424
651.000000	14.847033
652.000000	14.850379
653.000000	14.847413
654.000000	14.837851
655.000000	14.823859
656.000000	14.806587
657.000000	14.787469
658.000000	14.765164
659.000000	14.744406
660.000000	14.727030
661.000000	14.714025
662.000000	14.706882
663.000000	14.705145
664.000000	14.710319
665.000000	14.722649
666.000000	14.743381
667.000000	14.770825
668.000000	14.807257
669.000000	14.851903
670.000000	14.905050
671.000000	14.966045
672.000000	15.032897
673.000000	15.104215
674.000000	15.182412
675.000000	15.267668
676.000000	15.356561
677.000000	15.448862
678.000000	15.541858
679.000000	15.634824
680.000000	15.726243
681.000000	15.817444
682.000000	15.907835
683.000000	15.997170
684.000000	16.081853
685.000000	16.160993
686.000000	16.235085
687.000000	16.303441
688.000000	16.369045
689.000000	16.432441
690.000000	16.493721
691.000000	16.550976
692.000000	16.604680
693.000000	16.656584
694.000000	16.709035
695.000000	16.762658
696.000000	16.819973
697.000000	16.883145
698.000000	16.949081
699.000000	17.020956
700.000000	17.098766
701.000000	17.185124
702.000000	17.282041
703.000000	17.388298
704.000000	17.505096
705.000000	17.632231
706.000000	17.767346
707.000000	17.911574
708.000000	18.065430
709.000000	18.226533
710.000000	18.393896
711.000000	18.565573
712.000000	18.740685
713.000000	18.919467
714.000000	19.099117
715.000000	19.277786
716.000000	19.455964
717.000000	19.630951
718.000000	19.803637
719.000000	19.970777
720.000000	20.133072
721.000000	20.291102
722.000000	20.442946
723.000000	20.586909
724.000000	20.724462
725.000000	20.855573
726.000000	20.980205
727.000000	21.098161
728.000000	21.208564
729.000000	21.314423
730.000000	21.413934
731.000000	21.506229
732.000000	21.594367
733.000000	21.679943
734.000000	21.760949
735.000000	21.839371
736.000000	21.913021
737.000000	21.984760
738.000000	22.054820
739.000000	22.122009
740.000000	22.186516
741.000000	22.249188
742.000000	22.309568
743.000000	22.366768
744.000000	22.421642
745.000000	22.473496
746.000000	22.525600
747.000000	22.576192
748.000000	22.624492
749.000000	22.669736
750.000000	22.715271
751.000000	22.760828
752.000000	22.806041
753.000000	22.849888
754.000000	22.890878
755.000000	22.930990
756.000000	22.968006
757.000000	22.999863
758.000000	23.030776
759.000000	23.062365
760.000000	23.092042
761.000000	23.117686
762.000000	23.138631
763.000000	23.158182
764.000000	23.180004
765.000000	23.199660
766.000000	23.218622
767.000000	23.240734
768.000000	23.263061
769.000000	23.283114
770.000000	23.301922
771.000000	23.320114
772.000000	23.336177
773.000000	23.351192
774.000000	23.363209
775.000000	23.373076
776.000000	23.383365
777.000000	23.389470
778.000000	23.389543
779.000000	23.388614
780.000000	23.386610
781.000000	23.381670
782.000000	23.376928
783.000000	23.370670
784.000000	23.361526
785.000000	23.353741
786.000000	23.345354
787.000000	23.335454
788.000000	23.329756
789.000000	23.319360
790.000000	23.306609
791.000000	23.293831
792.000000	23.284134
793.000000	23.272399
794.000000	23.259197
795.000000	23.240430
796.000000	23.216251
797.000000	23.192202
798.000000	23.165169
799.000000	23.137939
800.000000	23.108249
801.000000	23.076784
802.000000	23.039821
803.000000	23.003711
804.000000	22.968620
805.000000	22.931728
806.000000	22.895658
807.000000	22.858831
808.000000	22.821679
809.000000	22.785700
810.000000	22.750004
811.000000	22.713721
812.000000	22.673744
813.000000	22.628255
814.000000	22.578215
815.000000	22.526761
816.000000	22.470089
817.000000	22.409551
818.000000	22.342946
819.000000	22.270660
820.000000	22.192398
821.000000	22.109610
822.000000	22.023214
823.000000	21.937880
824.000000	21.847591
825.000000	21.756515
826.000000	21.669017
827.000000	21.569625
828.000000	21.461319
829.000000	21.349021
830.000000	21.238286
831.000000	21.124204
832.000000	21.008085
833.000000	20.881992
834.000000	20.753188
835.000000	20.627825
836.000000	20.488469
837.000000	20.354762
838.000000	20.224574
839.000000	20.095602
840.000000	19.964450
841.000000	19.833148
842.000000	19.700070
843.000000	19.574135
844.000000	19.454914
845.000000	19.333253
846.000000	19.217818
847.000000	19.107440
848.000000	19.000362
849.000000	18.901904
850.000000	18.806424
851.000000	18.705348
852.000000	18.628949
853.000000	18.542318
854.000000	18.455603
855.000000	18.376438
856.000000	18.310833
857.000000	18.256685
858.000000	18.304779
859.000000	18.304574
860.000000	18.310632
861.000000	18.336889
862.000000	18.357197
863.000000	18.400238
864.000000	18.453348
865.000000	18.507504
866.000000	18.562801
867.000000	18.615770
868.000000	18.577000
869.000000	18.588880
870.000000	18.602167
871.000000	18.612863
872.000000	18.619290
873.000000	18.621760
874.000000	18.621110
875.000000	18.619187
876.000000	18.614220
877.000000	18.608347
878.000000	18.601787
879.000000	18.592947
880.000000	18.583370
881.000000	18.574977
882.000000	18.566043
883.000000	18.554770
884.000000	18.544937
885.000000	18.534693
886.000000	18.523393
887.000000	18.512463
888.000000	18.499190
889.000000	18.488720
890.000000	18.477353
891.000000	18.465847
892.000000	18.454393
893.000000	18.444303
894.000000	18.433280
895.000000	18.421993
896.000000	18.412913
897.000000	18.401777
898.000000	18.392457
899.000000	18.382057
900.000000	18.372117
901.000000	18.362630
902.000000	18.353433
903.000000	18.345473
904.000000	18.334383
905.000000	18.324483
906.000000	18.313283
907.000000	18.301800
908.000000	18.292250
909.000000	18.283660
910.000000	18.276220
911.000000	18.266450
912.000000	18.257187
913.000000	18.247693
914.000000	18.241997
915.000000	18.233843
916.000000	18.226200
917.000000	18.219830
918.000000	18.209277
919.000000	18.198527
920.000000	18.187433
921.000000	18.176090
922.000000	18.162217
923.000000	18.146127
924.000000	18.129147
925.000000	18.112657
926.000000	18.093613
927.000000	18.074027
928.000000	18.055160
929.000000	18.034747
930.000000	18.013723
931.000000	17.993760
932.000000	17.972840
933.000000	17.954283
934.000000	17.936117
935.000000	17.920233
936.000000	17.906490
937.000000	17.892253
938.000000	17.877520
939.000000	17.862270
940.000000	17.847393
941.000000	17.830963
942.000000	17.817093
943.000000	17.801753
944.000000	17.786220
945.000000	17.770343
946.000000	17.754017
947.000000	17.738093
948.000000	17.725203
949.000000	17.716593
950.000000	17.708763
951.000000	17.702963
952.000000	17.697657
953.000000	17.692957
954.000000	17.688673
955.000000	17.683960
956.000000	17.680237
957.000000	17.677650
958.000000	17.674617
959.000000	17.669853
960.000000	17.664053
961.000000	17.658530
962.000000	17.653733
963.000000	17.648567
964.000000	17.644147
965.000000	17.641167
966.000000	17.638477
967.000000	17.636007
968.000000	17.633277
969.000000	17.630940
970.000000	17.629843
971.000000	17.629647
972.000000	17.630070
973.000000	17.630620
974.000000	17.631130
975.000000	17.632280
976.000000	17.633580
977.000000	17.635173
978.000000	17.639547
979.000000	17.642927
980.000000	17.645183
981.000000	17.648140
982.000000	17.651380
983.000000	17.656550
984.000000	17.661987
985.000000	17.665560
986.000000	17.670340
987.000000	17.676670
988.000000	17.681593
989.000000	17.688190
990.000000	17.697697
991.000000	17.707900
992.000000	17.717553
993.000000	17.727930
994.000000	17.738383
995.000000	17.749327
996.000000	17.760077
997.000000	17.769867
998.000000	17.780500
999.000000	17.792853
1000.000000	17.803593
1001.000000	17.814183
1002.000000	17.825493
1003.000000	17.835827
1004.000000	17.846597
1005.000000	17.858627
1006.000000	17.871480
1007.000000	17.885530
1008.000000	17.899237
1009.000000	17.910937
1010.000000	17.924640
1011.000000	17.939017
1012.000000	17.953117
1013.000000	17.967763
1014.000000	17.982523
1015.000000	17.998170
1016.000000	18.014707
1017.000000	18.029880
1018.000000	18.044677
1019.000000	18.060233
1020.000000	18.074943
1021.000000	18.090420
1022.000000	18.107183
1023.000000	18.125377
1024.000000	18.144623
1025.000000	18.163237
1026.000000	18.181593
1027.000000	18.201467
1028.000000	18.222643
1029.000000	18.243640
1030.000000	18.263630
1031.000000	18.283093
1032.000000	18.302980
1033.000000	18.322653
1034.000000	18.342303
1035.000000	18.362290
1036.000000	18.382160
1037.000000	18.400923
1038.000000	18.419777
1039.000000	18.439870
1040.000000	18.461067
1041.000000	18.482167
1042.000000	18.501410
1043.000000	18.519663
1044.000000	18.538857
1045.000000	18.557793
1046.000000	18.575620
1047.000000	18.594413
1048.000000	18.612887
1049.000000	18.629553
1050.000000	18.645997
1051.000000	18.662357
1052.000000	18.679797
1053.000000	18.698703
1054.000000	18.716987
1055.000000	18.735523
1056.000000	18.755927
1057.000000	18.776410
1058.000000	18.796637
1059.000000	18.817660
1060.000000	18.838833
1061.000000	18.859817
1062.000000	18.880803
1063.000000	18.900733
1064.000000	18.919773
1065.000000	18.937377
1066.000000	18.953240
1067.000000	18.969897
1068.000000	18.988097
1069.000000	19.006853
1070.000000	19.025487
1071.000000	19.044793
1072.000000	19.064257
1073.000000	19.084167
1074.000000	19.104103
1075.000000	19.124350
1076.000000	19.144997
1077.000000	19.165210
1078.000000	19.183777
1079.000000	19.201843
1080.000000	19.219563
1081.000000	19.235897
1082.000000	19.251293
1083.000000	19.266520
1084.000000	19.282150
1085.000000	19.297923
1086.000000	19.312833
1087.000000	19.327407
1088.000000	19.341930
1089.000000	19.356543
1090.000000	19.370393
1091.000000	19.384383
1092.000000	19.398830
1093.000000	19.412837
1094.000000	19.425703
1095.000000	19.438733
1096.000000	19.451233
1097.000000	19.463250
1098.000000	19.474577
1099.000000	19.485777
1100.000000	19.496030
1101.000000	19.507003
1102.000000	19.517607
1103.000000	19.527943
1104.000000	19.539717
1105.000000	19.550733
1106.000000	19.561593
1107.000000	19.571283
1108.000000	19.581060
1109.000000	19.589417
1110.000000	19.598967
1111.000000	19.608890
1112.000000	19.617410
1113.000000	19.624593
1114.000000	19.630227
1115.000000	19.636423
1116.000000	19.643050
1117.000000	19.650283
1118.000000	19.656473
1119.000000	19.661590
1120.000000	19.666660
1121.000000	19.668653
1122.000000	19.671097
1123.000000	19.672537
1124.000000	19.672843
1125.000000	19.671200
1126.000000	19.667840
1127.000000	19.661473
1128.000000	19.654547
1129.000000	19.646117
1130.000000	19.635583
1131.000000	19.622967
1132.000000	19.604457
1133.000000	19.583910
1134.000000	19.563017
1135.000000	19.542197
1136.000000	19.519073
1137.000000	19.494263
1138.000000	19.464647
1139.000000	19.434313
1140.000000	19.403823
1141.000000	19.373517
1142.000000	19.346580
1143.000000	19.320143
1144.000000	19.293370
1145.000000	19.265460
1146.000000	19.239650
1147.000000	19.217030
1148.000000	19.198107
1149.000000	19.180130
1150.000000	19.161417
1151.000000	19.145137
1152.000000	19.128690
1153.000000	19.113283
1154.000000	19.097323
1155.000000	19.080327
1156.000000	19.059590
1157.000000	19.035350
1158.000000	19.009030
1159.000000	18.981910
1160.000000	18.951907
1161.000000	18.918027
1162.000000	18.881767
1163.000000	18.841397
1164.000000	18.796677
1165.000000	18.750537
1166.000000	18.704323
1167.000000	18.658473
1168.000000	18.611513
1169.000000	18.562210
1170.000000	18.514493
1171.000000	18.467973
1172.000000	18.423773
1173.000000	18.382740
