PE UV       SUBTECH     SPECTRUM    ASCII       PEDS        4.00        
   -1
BIOUCR0019-3.Sample.ASC
24/02/19
17:19:57.00
24/02/19
17:19:57.00
Vinicio Soto Monge
P. resplendens (sin datos)
250,000000
1
Lambda 1050
1050L1511233
PerkinElmer UV WinLab 6.3.2.0749 / 2.02.05 Lambda 900 UV/VIS/NIR, Aug  7 2015 09:38:08

0
0
3350/servo 860,8/2
0
0
UV/VIS
1
1
1
DoubleDePol,CommonBeamDepol,RBeamAtt,SBeamAtt,60mm sphere, WB InGaAs Detector
0
0
0
0
Program
Program
3350/servo 860,8/2
3350/0,2 860,8/0,2
3350/0,2 860,8/0,2
0
15.00
 
 
 
0
 
860,8
319,2
860,8
Front
100
on
S:100 R:100
0
0
0
0
 
0
 
 
 
0
 
 
0
0
0
0
0
 
 
 
 
0
0


0
0
#HDR
-1
-1
#GR
nm
%R
1.0
0.0
2500,000000
-1,000000
2251
8
20,496700
1,629300
#DATA

250.000000	nan
251.000000	nan
252.000000	nan
253.000000	nan
254.000000	nan
255.000000	nan
256.000000	nan
257.000000	nan
258.000000	nan
259.000000	1.936170
260.000000	1.934789
261.000000	1.934096
262.000000	1.929612
263.000000	1.924944
264.000000	1.921328
265.000000	1.921437
266.000000	1.919697
267.000000	1.913601
268.000000	1.910486
269.000000	1.910539
270.000000	1.905100
271.000000	1.899170
272.000000	1.896757
273.000000	1.895198
274.000000	1.893472
275.000000	1.888185
276.000000	1.883316
277.000000	1.881870
278.000000	1.876508
279.000000	1.871907
280.000000	1.870305
281.000000	1.868378
282.000000	1.863914
283.000000	1.860450
284.000000	1.857023
285.000000	1.854505
286.000000	1.852288
287.000000	1.852927
288.000000	1.857971
289.000000	1.855501
290.000000	1.851757
291.000000	1.849938
292.000000	1.849602
293.000000	1.847001
294.000000	1.844393
295.000000	1.841319
296.000000	1.839965
297.000000	1.836222
298.000000	1.831426
299.000000	1.829082
300.000000	1.829728
301.000000	1.825692
302.000000	1.823838
303.000000	1.820152
304.000000	1.817658
305.000000	1.817909
306.000000	1.813539
307.000000	1.811169
308.000000	1.807357
309.000000	1.806992
310.000000	1.805702
311.000000	1.807258
312.000000	1.808105
313.000000	1.812402
314.000000	1.812800
315.000000	1.808428
316.000000	1.812253
317.000000	1.865604
318.000000	1.923546
319.000000	1.980814
320.000000	2.007339
321.000000	2.035375
322.000000	2.060984
323.000000	2.095831
324.000000	2.119403
325.000000	2.145468
326.000000	2.174407
327.000000	2.137279
328.000000	2.090962
329.000000	2.053171
330.000000	2.046036
331.000000	2.040501
332.000000	2.042821
333.000000	2.016012
334.000000	1.995209
335.000000	1.988027
336.000000	1.971920
337.000000	1.974183
338.000000	1.971033
339.000000	1.963426
340.000000	1.953321
341.000000	1.933034
342.000000	1.908222
343.000000	1.897041
344.000000	1.892637
345.000000	1.879990
346.000000	1.865919
347.000000	1.856262
348.000000	1.858262
349.000000	1.851376
350.000000	1.848564
351.000000	1.845932
352.000000	1.845343
353.000000	1.847130
354.000000	1.852550
355.000000	1.848956
356.000000	1.845565
357.000000	1.839270
358.000000	1.834463
359.000000	1.833890
360.000000	1.827680
361.000000	1.829080
362.000000	1.824384
363.000000	1.819284
364.000000	1.814890
365.000000	1.814374
366.000000	1.814319
367.000000	1.808419
368.000000	1.796406
369.000000	1.785296
370.000000	1.774589
371.000000	1.765710
372.000000	1.753753
373.000000	1.741984
374.000000	1.721962
375.000000	1.705562
376.000000	1.703237
377.000000	1.689286
378.000000	1.678589
379.000000	1.667897
380.000000	1.660665
381.000000	1.652041
382.000000	1.649284
383.000000	1.650525
384.000000	1.658146
385.000000	1.663349
386.000000	1.657384
387.000000	1.666035
388.000000	1.675927
389.000000	1.687379
390.000000	1.699950
391.000000	1.713760
392.000000	1.728361
393.000000	1.744994
394.000000	1.763818
395.000000	1.784194
396.000000	1.806547
397.000000	1.830382
398.000000	1.856693
399.000000	1.885125
400.000000	1.916044
401.000000	1.949476
402.000000	1.985785
403.000000	2.024304
404.000000	2.064766
405.000000	2.108071
406.000000	2.153678
407.000000	2.202153
408.000000	2.252678
409.000000	2.304854
410.000000	2.359354
411.000000	2.415364
412.000000	2.472190
413.000000	2.529732
414.000000	2.588955
415.000000	2.648735
416.000000	2.709019
417.000000	2.769061
418.000000	2.829757
419.000000	2.891352
420.000000	2.952717
421.000000	3.013638
422.000000	3.074138
423.000000	3.134484
424.000000	3.194144
425.000000	3.253040
426.000000	3.311238
427.000000	3.368951
428.000000	3.425220
429.000000	3.479456
430.000000	3.531655
431.000000	3.582824
432.000000	3.632800
433.000000	3.680677
434.000000	3.726383
435.000000	3.770196
436.000000	3.812050
437.000000	3.851782
438.000000	3.889273
439.000000	3.924863
440.000000	3.958527
441.000000	3.989493
442.000000	4.017992
443.000000	4.044493
444.000000	4.068893
445.000000	4.091411
446.000000	4.112936
447.000000	4.132948
448.000000	4.152104
449.000000	4.171035
450.000000	4.190231
451.000000	4.210995
452.000000	4.233485
453.000000	4.257890
454.000000	4.285208
455.000000	4.316403
456.000000	4.351045
457.000000	4.390068
458.000000	4.433681
459.000000	4.481432
460.000000	4.534050
461.000000	4.591140
462.000000	4.652134
463.000000	4.716943
464.000000	4.785601
465.000000	4.856187
466.000000	4.928308
467.000000	5.001448
468.000000	5.074444
469.000000	5.146730
470.000000	5.217476
471.000000	5.286073
472.000000	5.352256
473.000000	5.415814
474.000000	5.475431
475.000000	5.532059
476.000000	5.585435
477.000000	5.636064
478.000000	5.684720
479.000000	5.731794
480.000000	5.776100
481.000000	5.817776
482.000000	5.858128
483.000000	5.898582
484.000000	5.941812
485.000000	5.988243
486.000000	6.038416
487.000000	6.092483
488.000000	6.150768
489.000000	6.212191
490.000000	6.278394
491.000000	6.349876
492.000000	6.426177
493.000000	6.505384
494.000000	6.585893
495.000000	6.666259
496.000000	6.746431
497.000000	6.826065
498.000000	6.904794
499.000000	6.982849
500.000000	7.059688
501.000000	7.135545
502.000000	7.209337
503.000000	7.282567
504.000000	7.355293
505.000000	7.428009
506.000000	7.500097
507.000000	7.572227
508.000000	7.644734
509.000000	7.719582
510.000000	7.796617
511.000000	7.875980
512.000000	7.958991
513.000000	8.045057
514.000000	8.133797
515.000000	8.226711
516.000000	8.325887
517.000000	8.430721
518.000000	8.541979
519.000000	8.658412
520.000000	8.781176
521.000000	8.910965
522.000000	9.048500
523.000000	9.193095
524.000000	9.344958
525.000000	9.503938
526.000000	9.668452
527.000000	9.838543
528.000000	10.013396
529.000000	10.193942
530.000000	10.379924
531.000000	10.570259
532.000000	10.764148
533.000000	10.962696
534.000000	11.166310
535.000000	11.374093
536.000000	11.586242
537.000000	11.801973
538.000000	12.021114
539.000000	12.242975
540.000000	12.464850
541.000000	12.686667
542.000000	12.907789
543.000000	13.126430
544.000000	13.341206
545.000000	13.550658
546.000000	13.754863
547.000000	13.953451
548.000000	14.145918
549.000000	14.331541
550.000000	14.511690
551.000000	14.687594
552.000000	14.858672
553.000000	15.025670
554.000000	15.189392
555.000000	15.350089
556.000000	15.508526
557.000000	15.664026
558.000000	15.816186
559.000000	15.962565
560.000000	16.067167
561.000000	16.159725
562.000000	16.245725
563.000000	16.325232
564.000000	16.396858
565.000000	16.461107
566.000000	16.517004
567.000000	16.564647
568.000000	16.605566
569.000000	16.643055
570.000000	16.713568
571.000000	16.786126
572.000000	16.855173
573.000000	16.921076
574.000000	16.986159
575.000000	17.049276
576.000000	17.111288
577.000000	17.173085
578.000000	17.234122
579.000000	17.293054
580.000000	17.349553
581.000000	17.402700
582.000000	17.455233
583.000000	17.505219
584.000000	17.550891
585.000000	17.593738
586.000000	17.633454
587.000000	17.670946
588.000000	17.704409
589.000000	17.734887
590.000000	17.764310
591.000000	17.790356
592.000000	17.811810
593.000000	17.831867
594.000000	17.849790
595.000000	17.865835
596.000000	17.879645
597.000000	17.890129
598.000000	17.898678
599.000000	17.903499
600.000000	17.902050
601.000000	17.899181
602.000000	17.895005
603.000000	17.888880
604.000000	17.879924
605.000000	17.868193
606.000000	17.853386
607.000000	17.835979
608.000000	17.816346
609.000000	17.794706
610.000000	17.772585
611.000000	17.746356
612.000000	17.715071
613.000000	17.677622
614.000000	17.635775
615.000000	17.590330
616.000000	17.539294
617.000000	17.484040
618.000000	17.422107
619.000000	17.358073
620.000000	17.290547
621.000000	17.220658
622.000000	17.148960
623.000000	17.074959
624.000000	16.998462
625.000000	16.919041
626.000000	16.838531
627.000000	16.755143
628.000000	16.671729
629.000000	16.582739
630.000000	16.490008
631.000000	16.393656
632.000000	16.291107
633.000000	16.183784
634.000000	16.069672
635.000000	15.948585
636.000000	15.820327
637.000000	15.685127
638.000000	15.541967
639.000000	15.390853
640.000000	15.230702
641.000000	15.062533
642.000000	14.887667
643.000000	14.705180
644.000000	14.518155
645.000000	14.328198
646.000000	14.135907
647.000000	13.943086
648.000000	13.751413
649.000000	13.566631
650.000000	13.390388
651.000000	13.224794
652.000000	13.073104
653.000000	12.938260
654.000000	12.823855
655.000000	12.728350
656.000000	12.655249
657.000000	12.605733
658.000000	12.581440
659.000000	12.578917
660.000000	12.600894
661.000000	12.644671
662.000000	12.711635
663.000000	12.799125
664.000000	12.903996
665.000000	13.027382
666.000000	13.163994
667.000000	13.314510
668.000000	13.475667
669.000000	13.648476
670.000000	13.828340
671.000000	14.016313
672.000000	14.208280
673.000000	14.401860
674.000000	14.596629
675.000000	14.791324
676.000000	14.985029
677.000000	15.174194
678.000000	15.358377
679.000000	15.536235
680.000000	15.707644
681.000000	15.870386
682.000000	16.024022
683.000000	16.170778
684.000000	16.309260
685.000000	16.439821
686.000000	16.563404
687.000000	16.679044
688.000000	16.787952
689.000000	16.891540
690.000000	16.989301
691.000000	17.082922
692.000000	17.171334
693.000000	17.253836
694.000000	17.331890
695.000000	17.404140
696.000000	17.471921
697.000000	17.534891
698.000000	17.593314
699.000000	17.643146
700.000000	17.688097
701.000000	17.727023
702.000000	17.760367
703.000000	17.789263
704.000000	17.812545
705.000000	17.831876
706.000000	17.848464
707.000000	17.863240
708.000000	17.874819
709.000000	17.885752
710.000000	17.894671
711.000000	17.900910
712.000000	17.906653
713.000000	17.911729
714.000000	17.916194
715.000000	17.919693
716.000000	17.919991
717.000000	17.918941
718.000000	17.917231
719.000000	17.916480
720.000000	17.914701
721.000000	17.915218
722.000000	17.918148
723.000000	17.922962
724.000000	17.930207
725.000000	17.940081
726.000000	17.953465
727.000000	17.971251
728.000000	17.992549
729.000000	18.015541
730.000000	18.042146
731.000000	18.071367
732.000000	18.102841
733.000000	18.136500
734.000000	18.171323
735.000000	18.207495
736.000000	18.247109
737.000000	18.286272
738.000000	18.326771
739.000000	18.369653
740.000000	18.413455
741.000000	18.458522
742.000000	18.504134
743.000000	18.550477
744.000000	18.599058
745.000000	18.647516
746.000000	18.694819
747.000000	18.743120
748.000000	18.790703
749.000000	18.838313
750.000000	18.886375
751.000000	18.931901
752.000000	18.975745
753.000000	19.018505
754.000000	19.058841
755.000000	19.098336
756.000000	19.137761
757.000000	19.175868
758.000000	19.211428
759.000000	19.244001
760.000000	19.274818
761.000000	19.304529
762.000000	19.330033
763.000000	19.350351
764.000000	19.368171
765.000000	19.385112
766.000000	19.397682
767.000000	19.402320
768.000000	19.402069
769.000000	19.397822
770.000000	19.388215
771.000000	19.374253
772.000000	19.359146
773.000000	19.344330
774.000000	19.324254
775.000000	19.296710
776.000000	19.265542
777.000000	19.237319
778.000000	19.208238
779.000000	19.177761
780.000000	19.147462
781.000000	19.113511
782.000000	19.078101
783.000000	19.039803
784.000000	19.001008
785.000000	18.963856
786.000000	18.930599
787.000000	18.893785
788.000000	18.855322
789.000000	18.821278
790.000000	18.786724
791.000000	18.757052
792.000000	18.730796
793.000000	18.705120
794.000000	18.680914
795.000000	18.659152
796.000000	18.635024
797.000000	18.615244
798.000000	18.601709
799.000000	18.583733
800.000000	18.565863
801.000000	18.546941
802.000000	18.524244
803.000000	18.502620
804.000000	18.481676
805.000000	18.462354
806.000000	18.442270
807.000000	18.421516
808.000000	18.403970
809.000000	18.390391
810.000000	18.373330
811.000000	18.358971
812.000000	18.347593
813.000000	18.338098
814.000000	18.327199
815.000000	18.311814
816.000000	18.298729
817.000000	18.288966
818.000000	18.270398
819.000000	18.247355
820.000000	18.234819
821.000000	18.214611
822.000000	18.190799
823.000000	18.166115
824.000000	18.144083
825.000000	18.123186
826.000000	18.100433
827.000000	18.070099
828.000000	18.041296
829.000000	18.013760
830.000000	17.977843
831.000000	17.942281
832.000000	17.908397
833.000000	17.866968
834.000000	17.823364
835.000000	17.778802
836.000000	17.726571
837.000000	17.672561
838.000000	17.623152
839.000000	17.562960
840.000000	17.496295
841.000000	17.431718
842.000000	17.355209
843.000000	17.286483
844.000000	17.202616
845.000000	17.125791
846.000000	17.049806
847.000000	16.976402
848.000000	16.886343
849.000000	16.810391
850.000000	16.732884
851.000000	16.663186
852.000000	16.595733
853.000000	16.536224
854.000000	16.490167
855.000000	16.407198
856.000000	16.346092
857.000000	16.331502
858.000000	16.376682
859.000000	16.412668
860.000000	16.459465
861.000000	16.499849
862.000000	16.550638
863.000000	16.594349
864.000000	16.642736
865.000000	16.723806
866.000000	16.790063
867.000000	16.811606
868.000000	16.786663
869.000000	16.768090
870.000000	16.747007
871.000000	16.725620
872.000000	16.704270
873.000000	16.678937
874.000000	16.652740
875.000000	16.624210
876.000000	16.594233
877.000000	16.563777
878.000000	16.531947
879.000000	16.500040
880.000000	16.468057
881.000000	16.436103
882.000000	16.403190
883.000000	16.370557
884.000000	16.336657
885.000000	16.302613
886.000000	16.269457
887.000000	16.235623
888.000000	16.201607
889.000000	16.168300
890.000000	16.135783
891.000000	16.102783
892.000000	16.069107
893.000000	16.036003
894.000000	16.001503
895.000000	15.968470
896.000000	15.935660
897.000000	15.904917
898.000000	15.877950
899.000000	15.849820
900.000000	15.822773
901.000000	15.798587
902.000000	15.776110
903.000000	15.756273
904.000000	15.740533
905.000000	15.726863
906.000000	15.715033
907.000000	15.707190
908.000000	15.698887
909.000000	15.695023
910.000000	15.691850
911.000000	15.690607
912.000000	15.690953
913.000000	15.692083
914.000000	15.696260
915.000000	15.702097
916.000000	15.710707
917.000000	15.716193
918.000000	15.722220
919.000000	15.728507
920.000000	15.738687
921.000000	15.749057
922.000000	15.760387
923.000000	15.771757
924.000000	15.780240
925.000000	15.784943
926.000000	15.788490
927.000000	15.793877
928.000000	15.799163
929.000000	15.798347
930.000000	15.795543
931.000000	15.791927
932.000000	15.785597
933.000000	15.778557
934.000000	15.773493
935.000000	15.771277
936.000000	15.767430
937.000000	15.760463
938.000000	15.755523
939.000000	15.753277
940.000000	15.749520
941.000000	15.741640
942.000000	15.734203
943.000000	15.725900
944.000000	15.716093
945.000000	15.706443
946.000000	15.695710
947.000000	15.686657
948.000000	15.677503
949.000000	15.670600
950.000000	15.664107
951.000000	15.661270
952.000000	15.660570
953.000000	15.661220
954.000000	15.663320
955.000000	15.667513
956.000000	15.673350
957.000000	15.681663
958.000000	15.688910
959.000000	15.697063
960.000000	15.708437
961.000000	15.721657
962.000000	15.734790
963.000000	15.749980
964.000000	15.765803
965.000000	15.781263
966.000000	15.797930
967.000000	15.814707
968.000000	15.834507
969.000000	15.853767
970.000000	15.871207
971.000000	15.888773
972.000000	15.907780
973.000000	15.927080
974.000000	15.945553
975.000000	15.963383
976.000000	15.981457
977.000000	16.000543
978.000000	16.017763
979.000000	16.036577
980.000000	16.055300
981.000000	16.073873
982.000000	16.092183
983.000000	16.110973
984.000000	16.129870
985.000000	16.148113
986.000000	16.165973
987.000000	16.183843
988.000000	16.202210
989.000000	16.219867
990.000000	16.237230
991.000000	16.253907
992.000000	16.269817
993.000000	16.284237
994.000000	16.297667
995.000000	16.311433
996.000000	16.325360
997.000000	16.337193
998.000000	16.347857
999.000000	16.357813
1000.000000	16.369303
1001.000000	16.381073
1002.000000	16.391723
1003.000000	16.402400
1004.000000	16.413900
1005.000000	16.424790
1006.000000	16.436483
1007.000000	16.449243
1008.000000	16.461460
1009.000000	16.473490
1010.000000	16.484253
1011.000000	16.494490
1012.000000	16.505900
1013.000000	16.518203
1014.000000	16.530447
1015.000000	16.542777
1016.000000	16.554450
1017.000000	16.566353
1018.000000	16.579560
1019.000000	16.593030
1020.000000	16.607373
1021.000000	16.622903
1022.000000	16.639777
1023.000000	16.655793
1024.000000	16.672183
1025.000000	16.690113
1026.000000	16.708750
1027.000000	16.727557
1028.000000	16.746617
1029.000000	16.766230
1030.000000	16.786167
1031.000000	16.806950
1032.000000	16.828010
1033.000000	16.849597
1034.000000	16.871193
1035.000000	16.892493
1036.000000	16.913423
1037.000000	16.934857
1038.000000	16.957433
1039.000000	16.980670
1040.000000	17.003710
1041.000000	17.026580
1042.000000	17.048700
1043.000000	17.070327
1044.000000	17.092063
1045.000000	17.113247
1046.000000	17.133463
1047.000000	17.152417
1048.000000	17.169647
1049.000000	17.185820
1050.000000	17.202140
1051.000000	17.217557
1052.000000	17.232443
1053.000000	17.247850
1054.000000	17.262890
1055.000000	17.278393
1056.000000	17.295167
1057.000000	17.311507
1058.000000	17.327000
1059.000000	17.342647
1060.000000	17.357180
1061.000000	17.371297
1062.000000	17.385280
1063.000000	17.397700
1064.000000	17.409807
1065.000000	17.420570
1066.000000	17.429537
1067.000000	17.439350
1068.000000	17.450803
1069.000000	17.462820
1070.000000	17.476530
1071.000000	17.490707
1072.000000	17.503247
1073.000000	17.516450
1074.000000	17.530000
1075.000000	17.543797
1076.000000	17.559307
1077.000000	17.574550
1078.000000	17.589983
1079.000000	17.604577
1080.000000	17.618073
1081.000000	17.631513
1082.000000	17.646370
1083.000000	17.661017
1084.000000	17.675327
1085.000000	17.689173
1086.000000	17.703727
1087.000000	17.717463
1088.000000	17.730403
1089.000000	17.743873
1090.000000	17.757080
1091.000000	17.769820
1092.000000	17.782833
1093.000000	17.796570
1094.000000	17.809263
1095.000000	17.822527
1096.000000	17.835213
1097.000000	17.848010
1098.000000	17.859430
1099.000000	17.869937
1100.000000	17.880000
1101.000000	17.891350
1102.000000	17.902840
1103.000000	17.913660
1104.000000	17.925200
1105.000000	17.936523
1106.000000	17.946563
1107.000000	17.955703
1108.000000	17.966380
1109.000000	17.976133
1110.000000	17.985490
1111.000000	17.993327
1112.000000	18.000137
1113.000000	18.006510
1114.000000	18.010733
1115.000000	18.015533
1116.000000	18.020533
1117.000000	18.026930
1118.000000	18.032057
1119.000000	18.037347
1120.000000	18.041380
1121.000000	18.044937
1122.000000	18.048587
1123.000000	18.052640
1124.000000	18.058720
1125.000000	18.061637
1126.000000	18.063357
1127.000000	18.063213
1128.000000	18.062980
1129.000000	18.062157
1130.000000	18.061287
1131.000000	18.057607
1132.000000	18.050040
1133.000000	18.036827
1134.000000	18.023907
1135.000000	18.015073
1136.000000	18.009197
1137.000000	17.999883
1138.000000	17.987237
1139.000000	17.973300
1140.000000	17.957330
1141.000000	17.943657
1142.000000	17.931610
1143.000000	17.922537
1144.000000	17.911277
1145.000000	17.898050
1146.000000	17.881550
1147.000000	17.868707
1148.000000	17.857180
1149.000000	17.845857
1150.000000	17.837110
1151.000000	17.827353
1152.000000	17.817977
1153.000000	17.809270
1154.000000	17.799997
1155.000000	17.788797
1156.000000	17.776103
1157.000000	17.761420
1158.000000	17.744697
1159.000000	17.727017
1160.000000	17.707180
1161.000000	17.685763
1162.000000	17.661797
1163.000000	17.635580
1164.000000	17.608487
1165.000000	17.579983
1166.000000	17.550417
1167.000000	17.520230
1168.000000	17.490460
1169.000000	17.460297
1170.000000	17.430950
1171.000000	17.402703
1172.000000	17.377357
1173.000000	17.354640
1174.000000	17.333000
