PE UV       SUBTECH     SPECTRUM    ASCII       PEDS        4.00        
   -1
BIOUCR0028-3.Sample.ASC
24/02/20
14:55:38.00
24/02/20
14:55:38.00
Vinicio Soto Monge
P. resplendens 18 de Mayo de 1985 R.W. Volcan, Panama
250,000000
1
Lambda 1050
1050L1511233
PerkinElmer UV WinLab 6.3.2.0749 / 2.02.05 Lambda 900 UV/VIS/NIR, Aug  7 2015 09:38:08

0
0
3350/servo 860,8/2
0
0
UV/VIS
1
1
1
DoubleDePol,CommonBeamDepol,RBeamAtt,SBeamAtt,60mm sphere, WB InGaAs Detector
0
0
0
0
Program
Program
3350/servo 860,8/2
3350/0,2 860,8/0,2
3350/0,2 860,8/0,2
0
15.00
 
 
 
0
 
860,8
319,2
860,8
Front
100
on
S:100 R:100
0
0
0
0
 
0
 
 
 
0
 
 
0
0
0
0
0
 
 
 
 
0
0


0
0
#HDR
-1
-1
#GR
nm
%R
1.0
0.0
2500,000000
-1,000000
2251
8
22,424700
1,665500
#DATA

250.000000	nan
251.000000	nan
252.000000	nan
253.000000	nan
254.000000	nan
255.000000	nan
256.000000	nan
257.000000	nan
258.000000	nan
259.000000	2.043962
260.000000	2.041969
261.000000	2.037649
262.000000	2.034830
263.000000	2.029047
264.000000	2.023950
265.000000	2.020578
266.000000	2.015107
267.000000	2.009516
268.000000	2.006128
269.000000	2.007822
270.000000	2.003781
271.000000	2.000136
272.000000	1.996505
273.000000	2.000962
274.000000	1.998511
275.000000	1.995790
276.000000	1.993679
277.000000	1.990781
278.000000	1.986609
279.000000	1.977966
280.000000	1.975095
281.000000	1.973866
282.000000	1.970554
283.000000	1.963201
284.000000	1.962281
285.000000	1.959202
286.000000	1.957769
287.000000	1.957123
288.000000	1.953979
289.000000	1.952407
290.000000	1.950289
291.000000	1.948882
292.000000	1.947855
293.000000	1.946067
294.000000	1.941224
295.000000	1.939196
296.000000	1.936249
297.000000	1.934755
298.000000	1.933175
299.000000	1.932795
300.000000	1.929203
301.000000	1.927054
302.000000	1.925813
303.000000	1.923906
304.000000	1.924770
305.000000	1.925974
306.000000	1.926724
307.000000	1.925222
308.000000	1.927968
309.000000	1.927143
310.000000	1.930376
311.000000	1.931275
312.000000	1.931107
313.000000	1.933384
314.000000	1.932265
315.000000	1.930258
316.000000	1.931819
317.000000	1.940938
318.000000	1.951165
319.000000	1.961945
320.000000	1.963509
321.000000	1.969046
322.000000	1.975964
323.000000	1.982629
324.000000	1.987311
325.000000	1.992061
326.000000	2.000978
327.000000	1.993564
328.000000	1.983962
329.000000	1.980745
330.000000	1.978855
331.000000	1.978218
332.000000	1.978328
333.000000	1.972475
334.000000	1.972389
335.000000	1.972023
336.000000	1.966785
337.000000	1.970875
338.000000	1.969182
339.000000	1.962078
340.000000	1.965958
341.000000	1.963738
342.000000	1.962050
343.000000	1.963985
344.000000	1.963596
345.000000	1.962715
346.000000	1.961608
347.000000	1.959446
348.000000	1.962293
349.000000	1.965438
350.000000	1.962032
351.000000	1.960004
352.000000	1.957144
353.000000	1.954167
354.000000	1.952355
355.000000	1.950654
356.000000	1.947578
357.000000	1.947215
358.000000	1.946818
359.000000	1.944013
360.000000	1.945925
361.000000	1.947706
362.000000	1.949136
363.000000	1.949632
364.000000	1.948904
365.000000	1.948020
366.000000	1.947387
367.000000	1.945446
368.000000	1.944199
369.000000	1.944030
370.000000	1.941812
371.000000	1.941186
372.000000	1.939332
373.000000	1.937202
374.000000	1.934861
375.000000	1.935489
376.000000	1.928993
377.000000	1.909732
378.000000	1.890177
379.000000	1.871809
380.000000	1.853510
381.000000	1.834590
382.000000	1.817429
383.000000	1.803366
384.000000	1.791783
385.000000	1.778246
386.000000	1.772340
387.000000	1.780665
388.000000	1.790148
389.000000	1.800472
390.000000	1.812061
391.000000	1.825035
392.000000	1.839344
393.000000	1.854590
394.000000	1.870652
395.000000	1.888203
396.000000	1.907119
397.000000	1.927373
398.000000	1.949028
399.000000	1.972653
400.000000	1.997753
401.000000	2.024578
402.000000	2.053366
403.000000	2.083680
404.000000	2.116814
405.000000	2.152526
406.000000	2.189968
407.000000	2.229654
408.000000	2.271570
409.000000	2.315090
410.000000	2.360459
411.000000	2.407320
412.000000	2.456092
413.000000	2.506982
414.000000	2.559166
415.000000	2.612890
416.000000	2.668750
417.000000	2.726053
418.000000	2.784410
419.000000	2.843795
420.000000	2.904285
421.000000	2.965767
422.000000	3.028014
423.000000	3.090753
424.000000	3.153670
425.000000	3.216250
426.000000	3.278219
427.000000	3.339737
428.000000	3.400947
429.000000	3.461938
430.000000	3.522322
431.000000	3.581705
432.000000	3.640036
433.000000	3.696990
434.000000	3.753114
435.000000	3.808109
436.000000	3.861486
437.000000	3.913487
438.000000	3.963738
439.000000	4.012367
440.000000	4.059277
441.000000	4.104143
442.000000	4.146798
443.000000	4.187142
444.000000	4.224826
445.000000	4.260372
446.000000	4.293885
447.000000	4.325167
448.000000	4.354418
449.000000	4.380865
450.000000	4.404314
451.000000	4.425726
452.000000	4.444887
453.000000	4.461248
454.000000	4.475731
455.000000	4.488187
456.000000	4.498101
457.000000	4.505943
458.000000	4.511922
459.000000	4.516537
460.000000	4.520314
461.000000	4.523311
462.000000	4.525799
463.000000	4.528576
464.000000	4.531187
465.000000	4.534685
466.000000	4.540022
467.000000	4.547149
468.000000	4.556975
469.000000	4.570240
470.000000	4.587002
471.000000	4.607425
472.000000	4.632255
473.000000	4.662498
474.000000	4.698776
475.000000	4.740341
476.000000	4.788118
477.000000	4.842517
478.000000	4.902808
479.000000	4.968421
480.000000	5.039193
481.000000	5.114717
482.000000	5.194569
483.000000	5.279497
484.000000	5.370684
485.000000	5.467995
486.000000	5.570305
487.000000	5.677428
488.000000	5.788991
489.000000	5.904807
490.000000	6.024726
491.000000	6.148816
492.000000	6.277379
493.000000	6.409206
494.000000	6.542156
495.000000	6.676019
496.000000	6.811473
497.000000	6.947369
498.000000	7.084204
499.000000	7.222890
500.000000	7.363533
501.000000	7.505765
502.000000	7.648862
503.000000	7.794509
504.000000	7.942315
505.000000	8.092533
506.000000	8.244829
507.000000	8.399960
508.000000	8.557665
509.000000	8.717781
510.000000	8.881378
511.000000	9.048753
512.000000	9.219473
513.000000	9.392341
514.000000	9.568040
515.000000	9.745231
516.000000	9.923988
517.000000	10.103835
518.000000	10.284379
519.000000	10.465030
520.000000	10.645458
521.000000	10.824712
522.000000	11.002788
523.000000	11.179145
524.000000	11.353950
525.000000	11.528214
526.000000	11.701616
527.000000	11.873390
528.000000	12.043327
529.000000	12.212503
530.000000	12.379152
531.000000	12.543827
532.000000	12.707258
533.000000	12.868960
534.000000	13.027859
535.000000	13.184403
536.000000	13.337235
537.000000	13.487034
538.000000	13.633213
539.000000	13.774899
540.000000	13.913024
541.000000	14.046987
542.000000	14.176528
543.000000	14.301295
544.000000	14.422793
545.000000	14.539283
546.000000	14.651924
547.000000	14.761050
548.000000	14.865758
549.000000	14.967565
550.000000	15.065131
551.000000	15.159818
552.000000	15.251846
553.000000	15.341495
554.000000	15.427660
555.000000	15.511164
556.000000	15.591678
557.000000	15.669317
558.000000	15.744465
559.000000	15.815355
560.000000	15.841962
561.000000	15.859050
562.000000	15.869450
563.000000	15.874779
564.000000	15.875091
565.000000	15.870728
566.000000	15.860824
567.000000	15.845161
568.000000	15.824004
569.000000	15.796357
570.000000	15.802965
571.000000	15.808741
572.000000	15.810177
573.000000	15.805442
574.000000	15.796018
575.000000	15.781947
576.000000	15.763842
577.000000	15.741449
578.000000	15.715728
579.000000	15.686889
580.000000	15.655994
581.000000	15.623480
582.000000	15.586665
583.000000	15.547203
584.000000	15.503028
585.000000	15.454372
586.000000	15.402285
587.000000	15.345560
588.000000	15.286168
589.000000	15.222783
590.000000	15.156316
591.000000	15.084586
592.000000	15.008960
593.000000	14.928271
594.000000	14.843747
595.000000	14.753660
596.000000	14.659665
597.000000	14.564059
598.000000	14.464262
599.000000	14.361727
600.000000	14.257114
601.000000	14.151443
602.000000	14.047739
603.000000	13.944643
604.000000	13.843762
605.000000	13.746271
606.000000	13.652871
607.000000	13.562232
608.000000	13.476280
609.000000	13.396397
610.000000	13.321320
611.000000	13.252091
612.000000	13.189459
613.000000	13.132997
614.000000	13.082439
615.000000	13.037837
616.000000	12.996774
617.000000	12.960563
618.000000	12.929543
619.000000	12.900814
620.000000	12.874769
621.000000	12.853313
622.000000	12.838138
623.000000	12.825684
624.000000	12.814279
625.000000	12.804947
626.000000	12.794916
627.000000	12.788734
628.000000	12.782281
629.000000	12.778603
630.000000	12.776760
631.000000	12.776078
632.000000	12.773443
633.000000	12.775812
634.000000	12.782220
635.000000	12.793269
636.000000	12.812277
637.000000	12.833715
638.000000	12.859412
639.000000	12.889569
640.000000	12.923692
641.000000	12.959342
642.000000	12.997002
643.000000	13.035287
644.000000	13.074728
645.000000	13.114169
646.000000	13.152588
647.000000	13.188363
648.000000	13.224125
649.000000	13.257666
650.000000	13.289960
651.000000	13.321746
652.000000	13.352011
653.000000	13.380253
654.000000	13.407331
655.000000	13.431951
656.000000	13.455249
657.000000	13.480163
658.000000	13.503779
659.000000	13.528739
660.000000	13.555075
661.000000	13.582690
662.000000	13.610565
663.000000	13.640953
664.000000	13.675245
665.000000	13.717768
666.000000	13.763606
667.000000	13.813089
668.000000	13.866353
669.000000	13.921961
670.000000	13.980504
671.000000	14.043330
672.000000	14.112089
673.000000	14.184296
674.000000	14.258607
675.000000	14.331222
676.000000	14.406664
677.000000	14.485228
678.000000	14.568635
679.000000	14.657785
680.000000	14.754756
681.000000	14.852703
682.000000	14.952304
683.000000	15.054787
684.000000	15.158411
685.000000	15.263852
686.000000	15.369629
687.000000	15.474101
688.000000	15.575205
689.000000	15.673247
690.000000	15.765735
691.000000	15.859066
692.000000	15.952287
693.000000	16.043382
694.000000	16.133691
695.000000	16.222739
696.000000	16.312684
697.000000	16.404343
698.000000	16.498087
699.000000	16.594348
700.000000	16.693016
701.000000	16.793515
702.000000	16.895818
703.000000	17.001430
704.000000	17.109482
705.000000	17.221050
706.000000	17.336400
707.000000	17.453412
708.000000	17.573737
709.000000	17.696693
710.000000	17.822657
711.000000	17.951305
712.000000	18.082384
713.000000	18.214783
714.000000	18.349474
715.000000	18.486837
716.000000	18.623816
717.000000	18.762400
718.000000	18.901541
719.000000	19.040767
720.000000	19.178433
721.000000	19.315154
722.000000	19.451120
723.000000	19.583796
724.000000	19.713696
725.000000	19.838942
726.000000	19.961690
727.000000	20.084337
728.000000	20.204900
729.000000	20.320913
730.000000	20.433364
731.000000	20.540463
732.000000	20.643000
733.000000	20.742354
734.000000	20.839534
735.000000	20.935227
736.000000	21.028125
737.000000	21.115365
738.000000	21.198611
739.000000	21.280524
740.000000	21.359811
741.000000	21.436932
742.000000	21.510741
743.000000	21.583928
744.000000	21.653883
745.000000	21.721437
746.000000	21.786180
747.000000	21.847190
748.000000	21.905340
749.000000	21.956776
750.000000	22.005390
751.000000	22.057859
752.000000	22.112347
753.000000	22.163533
754.000000	22.210857
755.000000	22.254027
756.000000	22.295278
757.000000	22.335354
758.000000	22.375521
759.000000	22.416610
760.000000	22.453234
761.000000	22.482453
762.000000	22.507258
763.000000	22.530092
764.000000	22.553814
765.000000	22.574860
766.000000	22.590486
767.000000	22.600514
768.000000	22.605055
769.000000	22.608560
770.000000	22.614019
771.000000	22.615990
772.000000	22.611135
773.000000	22.605488
774.000000	22.595960
775.000000	22.586934
776.000000	22.581727
777.000000	22.579695
778.000000	22.581022
779.000000	22.579070
780.000000	22.572142
781.000000	22.565247
782.000000	22.565857
783.000000	22.567993
784.000000	22.570898
785.000000	22.575810
786.000000	22.579046
787.000000	22.580302
788.000000	22.577723
789.000000	22.581264
790.000000	22.588651
791.000000	22.596659
792.000000	22.603734
793.000000	22.607449
794.000000	22.609753
795.000000	22.611556
796.000000	22.613838
797.000000	22.616142
798.000000	22.619769
799.000000	22.623086
800.000000	22.621240
801.000000	22.615567
802.000000	22.606545
803.000000	22.597127
804.000000	22.587116
805.000000	22.573595
806.000000	22.556766
807.000000	22.535573
808.000000	22.517779
809.000000	22.493727
810.000000	22.469901
811.000000	22.444584
812.000000	22.409159
813.000000	22.370115
814.000000	22.323360
815.000000	22.273278
816.000000	22.219264
817.000000	22.162181
818.000000	22.092687
819.000000	22.014202
820.000000	21.929223
821.000000	21.838194
822.000000	21.743499
823.000000	21.642359
824.000000	21.542491
825.000000	21.433042
826.000000	21.321308
827.000000	21.205735
828.000000	21.086910
829.000000	20.966990
830.000000	20.849782
831.000000	20.734268
832.000000	20.614750
833.000000	20.499031
834.000000	20.382608
835.000000	20.270804
836.000000	20.156226
837.000000	20.047156
838.000000	19.942584
839.000000	19.835103
840.000000	19.727051
841.000000	19.625997
842.000000	19.534255
843.000000	19.439880
844.000000	19.350547
845.000000	19.265299
846.000000	19.179652
847.000000	19.100973
848.000000	19.021010
849.000000	18.956641
850.000000	18.896387
851.000000	18.831069
852.000000	18.772914
853.000000	18.717924
854.000000	18.664307
855.000000	18.617408
856.000000	18.574659
857.000000	18.526227
858.000000	18.463621
859.000000	18.461345
860.000000	18.463366
861.000000	18.474759
862.000000	18.489106
863.000000	18.514818
864.000000	18.544475
865.000000	18.578175
866.000000	18.622704
867.000000	18.673068
868.000000	18.748997
869.000000	18.768700
870.000000	18.790743
871.000000	18.813897
872.000000	18.837513
873.000000	18.861457
874.000000	18.885710
875.000000	18.910733
876.000000	18.936267
877.000000	18.963573
878.000000	18.992297
879.000000	19.022387
880.000000	19.055583
881.000000	19.088067
882.000000	19.122063
883.000000	19.157053
884.000000	19.195303
885.000000	19.232307
886.000000	19.269247
887.000000	19.308560
888.000000	19.347040
889.000000	19.383877
890.000000	19.417897
891.000000	19.453697
892.000000	19.491080
893.000000	19.527320
894.000000	19.559697
895.000000	19.591513
896.000000	19.622947
897.000000	19.653350
898.000000	19.683293
899.000000	19.714153
900.000000	19.745537
901.000000	19.778090
902.000000	19.809433
903.000000	19.837963
904.000000	19.867393
905.000000	19.895150
906.000000	19.923413
907.000000	19.953523
908.000000	19.984060
909.000000	20.013690
910.000000	20.041987
911.000000	20.066343
912.000000	20.087260
913.000000	20.109860
914.000000	20.133167
915.000000	20.155840
916.000000	20.176670
917.000000	20.193923
918.000000	20.212943
919.000000	20.230873
920.000000	20.246387
921.000000	20.262117
922.000000	20.279547
923.000000	20.295593
924.000000	20.309947
925.000000	20.324790
926.000000	20.338580
927.000000	20.352417
928.000000	20.360630
929.000000	20.368027
930.000000	20.377447
931.000000	20.385663
932.000000	20.391887
933.000000	20.397203
934.000000	20.404227
935.000000	20.411413
936.000000	20.418940
937.000000	20.425070
938.000000	20.432647
939.000000	20.438570
940.000000	20.444720
941.000000	20.450173
942.000000	20.454487
943.000000	20.457403
944.000000	20.456633
945.000000	20.455247
946.000000	20.454603
947.000000	20.454450
948.000000	20.453290
949.000000	20.452663
950.000000	20.450133
951.000000	20.448577
952.000000	20.449077
953.000000	20.448483
954.000000	20.449633
955.000000	20.449797
956.000000	20.446107
957.000000	20.443327
958.000000	20.440470
959.000000	20.435753
960.000000	20.432100
961.000000	20.427943
962.000000	20.422700
963.000000	20.418517
964.000000	20.413150
965.000000	20.406413
966.000000	20.402017
967.000000	20.395750
968.000000	20.390167
969.000000	20.384713
970.000000	20.377637
971.000000	20.370303
972.000000	20.363903
973.000000	20.357817
974.000000	20.351293
975.000000	20.344627
976.000000	20.339317
977.000000	20.332913
978.000000	20.326280
979.000000	20.320707
980.000000	20.316033
981.000000	20.312743
982.000000	20.307420
983.000000	20.302367
984.000000	20.298633
985.000000	20.295710
986.000000	20.290200
987.000000	20.284913
988.000000	20.279587
989.000000	20.272980
990.000000	20.266853
991.000000	20.259877
992.000000	20.252380
993.000000	20.244660
994.000000	20.237183
995.000000	20.229300
996.000000	20.220903
997.000000	20.212587
998.000000	20.204063
999.000000	20.195643
1000.000000	20.186867
1001.000000	20.178227
1002.000000	20.170237
1003.000000	20.161013
1004.000000	20.149357
1005.000000	20.139477
1006.000000	20.132577
1007.000000	20.125120
1008.000000	20.117233
1009.000000	20.109313
1010.000000	20.100357
1011.000000	20.091243
1012.000000	20.082660
1013.000000	20.074693
1014.000000	20.067803
1015.000000	20.059880
1016.000000	20.050463
1017.000000	20.042217
1018.000000	20.035310
1019.000000	20.029280
1020.000000	20.023507
1021.000000	20.017850
1022.000000	20.013333
1023.000000	20.009020
1024.000000	20.006000
1025.000000	20.002773
1026.000000	19.999170
1027.000000	19.997320
1028.000000	19.995693
1029.000000	19.993503
1030.000000	19.991953
1031.000000	19.990850
1032.000000	19.988950
1033.000000	19.988257
1034.000000	19.986990
1035.000000	19.985457
1036.000000	19.984760
1037.000000	19.982927
1038.000000	19.981150
1039.000000	19.980087
1040.000000	19.980360
1041.000000	19.980727
1042.000000	19.980120
1043.000000	19.978523
1044.000000	19.977487
1045.000000	19.977683
1046.000000	19.978263
1047.000000	19.978567
1048.000000	19.978420
1049.000000	19.978490
1050.000000	19.977463
1051.000000	19.976257
1052.000000	19.975873
1053.000000	19.976923
1054.000000	19.978463
1055.000000	19.980457
1056.000000	19.983373
1057.000000	19.987440
1058.000000	19.990620
1059.000000	19.994163
1060.000000	19.998160
1061.000000	20.001847
1062.000000	20.006110
1063.000000	20.010633
1064.000000	20.014563
1065.000000	20.017097
1066.000000	20.018723
1067.000000	20.019957
1068.000000	20.021703
1069.000000	20.024077
1070.000000	20.027877
1071.000000	20.033340
1072.000000	20.038993
1073.000000	20.044280
1074.000000	20.049483
1075.000000	20.055023
1076.000000	20.061123
1077.000000	20.067723
1078.000000	20.075810
1079.000000	20.083867
1080.000000	20.091237
1081.000000	20.097210
1082.000000	20.102863
1083.000000	20.108633
1084.000000	20.115063
1085.000000	20.121623
1086.000000	20.128623
1087.000000	20.134740
1088.000000	20.140167
1089.000000	20.144587
1090.000000	20.149317
1091.000000	20.154927
1092.000000	20.160010
1093.000000	20.164650
1094.000000	20.168997
1095.000000	20.174113
1096.000000	20.178943
1097.000000	20.183523
1098.000000	20.187587
1099.000000	20.193283
1100.000000	20.199180
1101.000000	20.204477
1102.000000	20.209500
1103.000000	20.213433
1104.000000	20.217593
1105.000000	20.221660
1106.000000	20.225293
1107.000000	20.229953
1108.000000	20.236283
1109.000000	20.240410
1110.000000	20.243853
1111.000000	20.247353
1112.000000	20.251717
1113.000000	20.257283
1114.000000	20.260703
1115.000000	20.263390
1116.000000	20.264317
1117.000000	20.264767
1118.000000	20.262657
1119.000000	20.260950
1120.000000	20.259180
1121.000000	20.256470
1122.000000	20.254033
1123.000000	20.251843
1124.000000	20.250763
1125.000000	20.248283
1126.000000	20.245503
1127.000000	20.242090
1128.000000	20.237313
1129.000000	20.232960
1130.000000	20.227103
1131.000000	20.217753
1132.000000	20.203050
1133.000000	20.183807
1134.000000	20.163003
1135.000000	20.145813
1136.000000	20.130537
1137.000000	20.109400
1138.000000	20.087150
1139.000000	20.062470
1140.000000	20.036383
1141.000000	20.013507
1142.000000	19.993793
1143.000000	19.976450
1144.000000	19.958990
1145.000000	19.938210
1146.000000	19.917280
1147.000000	19.903160
1148.000000	19.890063
1149.000000	19.877050
1150.000000	19.864273
1151.000000	19.852037
1152.000000	19.840260
1153.000000	19.828643
1154.000000	19.817093
1155.000000	19.803753
1156.000000	19.786907
1157.000000	19.765843
1158.000000	19.744237
1159.000000	19.721330
1160.000000	19.696583
1161.000000	19.668350
1162.000000	19.636833
1163.000000	19.602533
1164.000000	19.566647
1165.000000	19.530027
1166.000000	19.491807
1167.000000	19.453507
1168.000000	19.413987
1169.000000	19.374747
1170.000000	19.337180
1171.000000	19.300700
1172.000000	19.265547
