PE UV       SUBTECH     SPECTRUM    ASCII       PEDS        4.00        
   -1
BIOUCR0022-3.Sample.ASC
24/02/20
13:36:20.00
24/02/20
13:36:20.00
Vinicio Soto Monge
P. resplendens 18 de Mayo de 1985 R.W. Volcan, Panama
250,000000
1
Lambda 1050
1050L1511233
PerkinElmer UV WinLab 6.3.2.0749 / 2.02.05 Lambda 900 UV/VIS/NIR, Aug  7 2015 09:38:08

0
0
3350/servo 860,8/2
0
0
UV/VIS
1
1
1
DoubleDePol,CommonBeamDepol,RBeamAtt,SBeamAtt,60mm sphere, WB InGaAs Detector
0
0
0
0
Program
Program
3350/servo 860,8/2
3350/0,2 860,8/0,2
3350/0,2 860,8/0,2
0
15.00
 
 
 
0
 
860,8
319,2
860,8
Front
100
on
S:100 R:100
0
0
0
0
 
0
 
 
 
0
 
 
0
0
0
0
0
 
 
 
 
0
0


0
0
#HDR
-1
-1
#GR
nm
%R
1.0
0.0
2500,000000
-1,000000
2251
8
20,738200
1,664100
#DATA

250.000000	nan
251.000000	nan
252.000000	nan
253.000000	nan
254.000000	nan
255.000000	nan
256.000000	nan
257.000000	nan
258.000000	nan
259.000000	2.073574
260.000000	2.071409
261.000000	2.066780
262.000000	2.061122
263.000000	2.056904
264.000000	2.051274
265.000000	2.045076
266.000000	2.040894
267.000000	2.035442
268.000000	2.027682
269.000000	2.018485
270.000000	2.007530
271.000000	2.001554
272.000000	1.998854
273.000000	1.990672
274.000000	1.987519
275.000000	1.982919
276.000000	1.976367
277.000000	1.972751
278.000000	1.967618
279.000000	1.964060
280.000000	1.963259
281.000000	1.960118
282.000000	1.955398
283.000000	1.955728
284.000000	1.948305
285.000000	1.943124
286.000000	1.941599
287.000000	1.935503
288.000000	1.933392
289.000000	1.929661
290.000000	1.924536
291.000000	1.921557
292.000000	1.918043
293.000000	1.913531
294.000000	1.912503
295.000000	1.910489
296.000000	1.904243
297.000000	1.901412
298.000000	1.902228
299.000000	1.905604
300.000000	1.900433
301.000000	1.898788
302.000000	1.894658
303.000000	1.890391
304.000000	1.888430
305.000000	1.885023
306.000000	1.885289
307.000000	1.883593
308.000000	1.877047
309.000000	1.869236
310.000000	1.871102
311.000000	1.867895
312.000000	1.867822
313.000000	1.865183
314.000000	1.863300
315.000000	1.862167
316.000000	1.863786
317.000000	1.910464
318.000000	1.937264
319.000000	1.949576
320.000000	1.965952
321.000000	2.014110
322.000000	2.043215
323.000000	2.087419
324.000000	2.107114
325.000000	2.132998
326.000000	2.144064
327.000000	2.113896
328.000000	2.101031
329.000000	2.102735
330.000000	2.094341
331.000000	2.057975
332.000000	2.035734
333.000000	1.997184
334.000000	1.985955
335.000000	1.969984
336.000000	1.964053
337.000000	1.956280
338.000000	1.953847
339.000000	1.945346
340.000000	1.938111
341.000000	1.929680
342.000000	1.926436
343.000000	1.931706
344.000000	1.926701
345.000000	1.923900
346.000000	1.919817
347.000000	1.914935
348.000000	1.909508
349.000000	1.907178
350.000000	1.912732
351.000000	1.917491
352.000000	1.921727
353.000000	1.914724
354.000000	1.916475
355.000000	1.912571
356.000000	1.911957
357.000000	1.910791
358.000000	1.906994
359.000000	1.903475
360.000000	1.899163
361.000000	1.891675
362.000000	1.884532
363.000000	1.886801
364.000000	1.882399
365.000000	1.883214
366.000000	1.877077
367.000000	1.873865
368.000000	1.867121
369.000000	1.863641
370.000000	1.856845
371.000000	1.850057
372.000000	1.840252
373.000000	1.825258
374.000000	1.805823
375.000000	1.795051
376.000000	1.795565
377.000000	1.780665
378.000000	1.770304
379.000000	1.758763
380.000000	1.748432
381.000000	1.740979
382.000000	1.737183
383.000000	1.736605
384.000000	1.744865
385.000000	1.744463
386.000000	1.739727
387.000000	1.749546
388.000000	1.759913
389.000000	1.771189
390.000000	1.784380
391.000000	1.798571
392.000000	1.814223
393.000000	1.831429
394.000000	1.850051
395.000000	1.870331
396.000000	1.890982
397.000000	1.913755
398.000000	1.938491
399.000000	1.965336
400.000000	1.993474
401.000000	2.022738
402.000000	2.053342
403.000000	2.086278
404.000000	2.121017
405.000000	2.157076
406.000000	2.195270
407.000000	2.234815
408.000000	2.275799
409.000000	2.318537
410.000000	2.362527
411.000000	2.408934
412.000000	2.457007
413.000000	2.505652
414.000000	2.555276
415.000000	2.606435
416.000000	2.659189
417.000000	2.712791
418.000000	2.766961
419.000000	2.822163
420.000000	2.878083
421.000000	2.933917
422.000000	2.989594
423.000000	3.045518
424.000000	3.102770
425.000000	3.159331
426.000000	3.214572
427.000000	3.270645
428.000000	3.326602
429.000000	3.381178
430.000000	3.434751
431.000000	3.487922
432.000000	3.540881
433.000000	3.592661
434.000000	3.642443
435.000000	3.691374
436.000000	3.739341
437.000000	3.784781
438.000000	3.828650
439.000000	3.871617
440.000000	3.913228
441.000000	3.952928
442.000000	3.990437
443.000000	4.025749
444.000000	4.058559
445.000000	4.089241
446.000000	4.118747
447.000000	4.146445
448.000000	4.171591
449.000000	4.194889
450.000000	4.216260
451.000000	4.235374
452.000000	4.252689
453.000000	4.269536
454.000000	4.286449
455.000000	4.303115
456.000000	4.319491
457.000000	4.336405
458.000000	4.354857
459.000000	4.374448
460.000000	4.396704
461.000000	4.422531
462.000000	4.451776
463.000000	4.483905
464.000000	4.518906
465.000000	4.557667
466.000000	4.599980
467.000000	4.645975
468.000000	4.695484
469.000000	4.748307
470.000000	4.804000
471.000000	4.862161
472.000000	4.922740
473.000000	4.985427
474.000000	5.049842
475.000000	5.115500
476.000000	5.182342
477.000000	5.249984
478.000000	5.318243
479.000000	5.386727
480.000000	5.454133
481.000000	5.519259
482.000000	5.582470
483.000000	5.645313
484.000000	5.708905
485.000000	5.772857
486.000000	5.836421
487.000000	5.899772
488.000000	5.963815
489.000000	6.027960
490.000000	6.092308
491.000000	6.158390
492.000000	6.225685
493.000000	6.292887
494.000000	6.358930
495.000000	6.424891
496.000000	6.491306
497.000000	6.558041
498.000000	6.624221
499.000000	6.691310
500.000000	6.760045
501.000000	6.830210
502.000000	6.903441
503.000000	6.979564
504.000000	7.060061
505.000000	7.144182
506.000000	7.232147
507.000000	7.324260
508.000000	7.422600
509.000000	7.527487
510.000000	7.640424
511.000000	7.762546
512.000000	7.893210
513.000000	8.034121
514.000000	8.185066
515.000000	8.348038
516.000000	8.524058
517.000000	8.714870
518.000000	8.919853
519.000000	9.139404
520.000000	9.373492
521.000000	9.622932
522.000000	9.886704
523.000000	10.164455
524.000000	10.455570
525.000000	10.758553
526.000000	11.071860
527.000000	11.393268
528.000000	11.720085
529.000000	12.050562
530.000000	12.382160
531.000000	12.711768
532.000000	13.039133
533.000000	13.360965
534.000000	13.675695
535.000000	13.981587
536.000000	14.276909
537.000000	14.560100
538.000000	14.830281
539.000000	15.087588
540.000000	15.330655
541.000000	15.561407
542.000000	15.777878
543.000000	15.980919
544.000000	16.169881
545.000000	16.345555
546.000000	16.507978
547.000000	16.658743
548.000000	16.799630
549.000000	16.929461
550.000000	17.050051
551.000000	17.159443
552.000000	17.259498
553.000000	17.349849
554.000000	17.431902
555.000000	17.505677
556.000000	17.571675
557.000000	17.630839
558.000000	17.682517
559.000000	17.727642
560.000000	17.720404
561.000000	17.700866
562.000000	17.675702
563.000000	17.646271
564.000000	17.614288
565.000000	17.578578
566.000000	17.540992
567.000000	17.500138
568.000000	17.457693
569.000000	17.412833
570.000000	17.411506
571.000000	17.415101
572.000000	17.416004
573.000000	17.415641
574.000000	17.411241
575.000000	17.404718
576.000000	17.394191
577.000000	17.382159
578.000000	17.367466
579.000000	17.349633
580.000000	17.329651
581.000000	17.306756
582.000000	17.281864
583.000000	17.254217
584.000000	17.223097
585.000000	17.189180
586.000000	17.152220
587.000000	17.108924
588.000000	17.058958
589.000000	17.004338
590.000000	16.944816
591.000000	16.878336
592.000000	16.805240
593.000000	16.722058
594.000000	16.631257
595.000000	16.529972
596.000000	16.419536
597.000000	16.299388
598.000000	16.171708
599.000000	16.034450
600.000000	15.885638
601.000000	15.726105
602.000000	15.555110
603.000000	15.375265
604.000000	15.184317
605.000000	14.983606
606.000000	14.773158
607.000000	14.554096
608.000000	14.325869
609.000000	14.089795
610.000000	13.849197
611.000000	13.604930
612.000000	13.360513
613.000000	13.118279
614.000000	12.880589
615.000000	12.651753
616.000000	12.434452
617.000000	12.232762
618.000000	12.048222
619.000000	11.883964
620.000000	11.740447
621.000000	11.621818
622.000000	11.527002
623.000000	11.456158
624.000000	11.411161
625.000000	11.388876
626.000000	11.389013
627.000000	11.409345
628.000000	11.446895
629.000000	11.500173
630.000000	11.565603
631.000000	11.640316
632.000000	11.722738
633.000000	11.810222
634.000000	11.899441
635.000000	11.988640
636.000000	12.075315
637.000000	12.157455
638.000000	12.235000
639.000000	12.305061
640.000000	12.370386
641.000000	12.427300
642.000000	12.476613
643.000000	12.518374
644.000000	12.551060
645.000000	12.576151
646.000000	12.594669
647.000000	12.606416
648.000000	12.611606
649.000000	12.612357
650.000000	12.605466
651.000000	12.595160
652.000000	12.580287
653.000000	12.559908
654.000000	12.537127
655.000000	12.510775
656.000000	12.480187
657.000000	12.447607
658.000000	12.413252
659.000000	12.377746
660.000000	12.343034
661.000000	12.307610
662.000000	12.272938
663.000000	12.241366
664.000000	12.212860
665.000000	12.187898
666.000000	12.168074
667.000000	12.153669
668.000000	12.142948
669.000000	12.136725
670.000000	12.137435
671.000000	12.145053
672.000000	12.158812
673.000000	12.178743
674.000000	12.204708
675.000000	12.237172
676.000000	12.275001
677.000000	12.317117
678.000000	12.366801
679.000000	12.420937
680.000000	12.478364
681.000000	12.538671
682.000000	12.602779
683.000000	12.669544
684.000000	12.738029
685.000000	12.807721
686.000000	12.878823
687.000000	12.950669
688.000000	13.020920
689.000000	13.092839
690.000000	13.165073
691.000000	13.236280
692.000000	13.305290
693.000000	13.372411
694.000000	13.439103
695.000000	13.505452
696.000000	13.569958
697.000000	13.631185
698.000000	13.690444
699.000000	13.746871
700.000000	13.799425
701.000000	13.849363
702.000000	13.896512
703.000000	13.940619
704.000000	13.981656
705.000000	14.018696
706.000000	14.052776
707.000000	14.085656
708.000000	14.117591
709.000000	14.146657
710.000000	14.174491
711.000000	14.201616
712.000000	14.227711
713.000000	14.253055
714.000000	14.275197
715.000000	14.296694
716.000000	14.317150
717.000000	14.337357
718.000000	14.357385
719.000000	14.379585
720.000000	14.402432
721.000000	14.424926
722.000000	14.448963
723.000000	14.473598
724.000000	14.499789
725.000000	14.525626
726.000000	14.552262
727.000000	14.579402
728.000000	14.606745
729.000000	14.632297
730.000000	14.655791
731.000000	14.680673
732.000000	14.705755
733.000000	14.730943
734.000000	14.758049
735.000000	14.787398
736.000000	14.817230
737.000000	14.847159
738.000000	14.877728
739.000000	14.909641
740.000000	14.945064
741.000000	14.979988
742.000000	15.016000
743.000000	15.053580
744.000000	15.088363
745.000000	15.123560
746.000000	15.160838
747.000000	15.199325
748.000000	15.237677
749.000000	15.275140
750.000000	15.312628
751.000000	15.351747
752.000000	15.389819
753.000000	15.427742
754.000000	15.468600
755.000000	15.509739
756.000000	15.547935
757.000000	15.584968
758.000000	15.622692
759.000000	15.659968
760.000000	15.697145
761.000000	15.735397
762.000000	15.775452
763.000000	15.816233
764.000000	15.856057
765.000000	15.895764
766.000000	15.936571
767.000000	15.976723
768.000000	16.018217
769.000000	16.062971
770.000000	16.105580
771.000000	16.146592
772.000000	16.186878
773.000000	16.226444
774.000000	16.266115
775.000000	16.303451
776.000000	16.342492
777.000000	16.383341
778.000000	16.420454
779.000000	16.454473
780.000000	16.490521
781.000000	16.526721
782.000000	16.560606
783.000000	16.592395
784.000000	16.624123
785.000000	16.655962
786.000000	16.686627
787.000000	16.716982
788.000000	16.750025
789.000000	16.782241
790.000000	16.812793
791.000000	16.842503
792.000000	16.873173
793.000000	16.902969
794.000000	16.931907
795.000000	16.960529
796.000000	16.989143
797.000000	17.015549
798.000000	17.038721
799.000000	17.063848
800.000000	17.090675
801.000000	17.117972
802.000000	17.147266
803.000000	17.173837
804.000000	17.201416
805.000000	17.229983
806.000000	17.260715
807.000000	17.293351
808.000000	17.329492
809.000000	17.367670
810.000000	17.405299
811.000000	17.440022
812.000000	17.468241
813.000000	17.501210
814.000000	17.534467
815.000000	17.565730
816.000000	17.594552
817.000000	17.621450
818.000000	17.648129
819.000000	17.669342
820.000000	17.689398
821.000000	17.712648
822.000000	17.734962
823.000000	17.756787
824.000000	17.777007
825.000000	17.798743
826.000000	17.817591
827.000000	17.839405
828.000000	17.852558
829.000000	17.866247
830.000000	17.877724
831.000000	17.888673
832.000000	17.900731
833.000000	17.910150
834.000000	17.917162
835.000000	17.923281
836.000000	17.925588
837.000000	17.923894
838.000000	17.927888
839.000000	17.933293
840.000000	17.936415
841.000000	17.939485
842.000000	17.946259
843.000000	17.958166
844.000000	17.961813
845.000000	17.966430
846.000000	17.967459
847.000000	17.967219
848.000000	17.954873
849.000000	17.956578
850.000000	17.954488
851.000000	17.942584
852.000000	17.914569
853.000000	17.893906
854.000000	17.873947
855.000000	17.850907
856.000000	17.836005
857.000000	17.848659
858.000000	17.901076
859.000000	17.945297
860.000000	17.995135
861.000000	18.051705
862.000000	18.124727
863.000000	18.189687
864.000000	18.263844
865.000000	18.341934
866.000000	18.421992
867.000000	18.477239
868.000000	18.504490
869.000000	18.524273
870.000000	18.545460
871.000000	18.567080
872.000000	18.586800
873.000000	18.603383
874.000000	18.619033
875.000000	18.632657
876.000000	18.644620
877.000000	18.656503
878.000000	18.669860
879.000000	18.682520
880.000000	18.695367
881.000000	18.710943
882.000000	18.726307
883.000000	18.742323
884.000000	18.760827
885.000000	18.780100
886.000000	18.801210
887.000000	18.821870
888.000000	18.841627
889.000000	18.864443
890.000000	18.886033
891.000000	18.906523
892.000000	18.928097
893.000000	18.950037
894.000000	18.971150
895.000000	18.993993
896.000000	19.014833
897.000000	19.037640
898.000000	19.061170
899.000000	19.082323
900.000000	19.106027
901.000000	19.129473
902.000000	19.155523
903.000000	19.180873
904.000000	19.207327
905.000000	19.231363
906.000000	19.255547
907.000000	19.279577
908.000000	19.301373
909.000000	19.324477
910.000000	19.345833
911.000000	19.368923
912.000000	19.387377
913.000000	19.403877
914.000000	19.420873
915.000000	19.437643
916.000000	19.454327
917.000000	19.467730
918.000000	19.482787
919.000000	19.495553
920.000000	19.508700
921.000000	19.517917
922.000000	19.527653
923.000000	19.537580
924.000000	19.545207
925.000000	19.551297
926.000000	19.554080
927.000000	19.559050
928.000000	19.562067
929.000000	19.565407
930.000000	19.567730
931.000000	19.570147
932.000000	19.572197
933.000000	19.575090
934.000000	19.578500
935.000000	19.583263
936.000000	19.591670
937.000000	19.598373
938.000000	19.606370
939.000000	19.614293
940.000000	19.620037
941.000000	19.625200
942.000000	19.629910
943.000000	19.635137
944.000000	19.638803
945.000000	19.642137
946.000000	19.643853
947.000000	19.644863
948.000000	19.644657
949.000000	19.645563
950.000000	19.647387
951.000000	19.648727
952.000000	19.652750
953.000000	19.653890
954.000000	19.654433
955.000000	19.656287
956.000000	19.656317
957.000000	19.655693
958.000000	19.656117
959.000000	19.655543
960.000000	19.655937
961.000000	19.655880
962.000000	19.652630
963.000000	19.650393
964.000000	19.647120
965.000000	19.642270
966.000000	19.638157
967.000000	19.634830
968.000000	19.630627
969.000000	19.625433
970.000000	19.620560
971.000000	19.615837
972.000000	19.610487
973.000000	19.605187
974.000000	19.601433
975.000000	19.598180
976.000000	19.595503
977.000000	19.592463
978.000000	19.589407
979.000000	19.586893
980.000000	19.583483
981.000000	19.580883
982.000000	19.579667
983.000000	19.579440
984.000000	19.579463
985.000000	19.579270
986.000000	19.578873
987.000000	19.580920
988.000000	19.583687
989.000000	19.586740
990.000000	19.589893
991.000000	19.593473
992.000000	19.597970
993.000000	19.604167
994.000000	19.609903
995.000000	19.615640
996.000000	19.623217
997.000000	19.629477
998.000000	19.635787
999.000000	19.642553
1000.000000	19.649523
1001.000000	19.658337
1002.000000	19.667863
1003.000000	19.676030
1004.000000	19.685123
1005.000000	19.694420
1006.000000	19.702750
1007.000000	19.711307
1008.000000	19.719330
1009.000000	19.726903
1010.000000	19.734913
1011.000000	19.742390
1012.000000	19.750363
1013.000000	19.758967
1014.000000	19.766997
1015.000000	19.774900
1016.000000	19.783883
1017.000000	19.791857
1018.000000	19.799800
1019.000000	19.810513
1020.000000	19.821507
1021.000000	19.831873
1022.000000	19.841323
1023.000000	19.849967
1024.000000	19.860010
1025.000000	19.870210
1026.000000	19.878597
1027.000000	19.887040
1028.000000	19.895560
1029.000000	19.902093
1030.000000	19.909227
1031.000000	19.916910
1032.000000	19.923400
1033.000000	19.930280
1034.000000	19.937333
1035.000000	19.944573
1036.000000	19.952403
1037.000000	19.961187
1038.000000	19.970277
1039.000000	19.978733
1040.000000	19.986780
1041.000000	19.994473
1042.000000	20.003780
1043.000000	20.013960
1044.000000	20.022357
1045.000000	20.030020
1046.000000	20.038227
1047.000000	20.045840
1048.000000	20.053530
1049.000000	20.062473
1050.000000	20.071470
1051.000000	20.080210
1052.000000	20.088107
1053.000000	20.095127
1054.000000	20.101847
1055.000000	20.109170
1056.000000	20.116957
1057.000000	20.125967
1058.000000	20.136147
1059.000000	20.145447
1060.000000	20.153900
1061.000000	20.161847
1062.000000	20.170993
1063.000000	20.181417
1064.000000	20.192300
1065.000000	20.202030
1066.000000	20.212077
1067.000000	20.222360
1068.000000	20.232403
1069.000000	20.243773
1070.000000	20.255447
1071.000000	20.269457
1072.000000	20.283627
1073.000000	20.296350
1074.000000	20.309513
1075.000000	20.324523
1076.000000	20.338780
1077.000000	20.352777
1078.000000	20.365167
1079.000000	20.376330
1080.000000	20.388643
1081.000000	20.399963
1082.000000	20.410837
1083.000000	20.422360
1084.000000	20.435080
1085.000000	20.447203
1086.000000	20.459600
1087.000000	20.470563
1088.000000	20.482627
1089.000000	20.495287
1090.000000	20.507363
1091.000000	20.519330
1092.000000	20.530353
1093.000000	20.541477
1094.000000	20.550293
1095.000000	20.559510
1096.000000	20.568317
1097.000000	20.576667
1098.000000	20.585747
1099.000000	20.593743
1100.000000	20.599153
1101.000000	20.603950
1102.000000	20.610170
1103.000000	20.614237
1104.000000	20.619163
1105.000000	20.622737
1106.000000	20.625743
1107.000000	20.629193
1108.000000	20.631847
1109.000000	20.634873
1110.000000	20.638717
1111.000000	20.642847
1112.000000	20.644807
1113.000000	20.646197
1114.000000	20.646553
1115.000000	20.646720
1116.000000	20.647567
1117.000000	20.649710
1118.000000	20.650653
1119.000000	20.650213
1120.000000	20.649397
1121.000000	20.646713
1122.000000	20.644267
1123.000000	20.642987
1124.000000	20.642547
1125.000000	20.641410
1126.000000	20.638363
1127.000000	20.632357
1128.000000	20.625713
1129.000000	20.620767
1130.000000	20.614723
1131.000000	20.607127
1132.000000	20.596280
1133.000000	20.582053
1134.000000	20.566757
1135.000000	20.554677
1136.000000	20.545133
1137.000000	20.534907
1138.000000	20.520647
1139.000000	20.502737
1140.000000	20.483887
1141.000000	20.466910
1142.000000	20.451227
1143.000000	20.437173
1144.000000	20.422250
1145.000000	20.405683
1146.000000	20.387067
1147.000000	20.371087
1148.000000	20.357410
1149.000000	20.344767
1150.000000	20.333877
1151.000000	20.322550
1152.000000	20.312920
1153.000000	20.304247
1154.000000	20.296303
1155.000000	20.286600
1156.000000	20.274857
1157.000000	20.258867
1158.000000	20.243890
1159.000000	20.229477
1160.000000	20.213133
1161.000000	20.194097
1162.000000	20.172327
1163.000000	20.149570
1164.000000	20.122850
1165.000000	20.094110
1166.000000	20.066640
1167.000000	20.038740
1168.000000	20.010450
1169.000000	19.978687
1170.000000	19.947883
1171.000000	19.918893
1172.000000	19.892143
1173.000000	19.866313
