PE UV       SUBTECH     SPECTRUM    ASCII       PEDS        4.00        
   -1
BIOUCR0011-3.Sample.ASC
24/02/19
15:03:33.00
24/02/19
15:03:33.00
Vinicio Soto Monge
P. chalcotea  April 1981, Alajuela CR, Mario Posla
250,000000
1
Lambda 1050
1050L1511233
PerkinElmer UV WinLab 6.3.2.0749 / 2.02.05 Lambda 900 UV/VIS/NIR, Aug  7 2015 09:38:08

0
0
3350/servo 860,8/2
0
0
UV/VIS
1
1
1
DoubleDePol,CommonBeamDepol,RBeamAtt,SBeamAtt,60mm sphere, WB InGaAs Detector
0
0
0
0
Program
Program
3350/servo 860,8/2
3350/0,2 860,8/0,2
3350/0,2 860,8/0,2
0
15.00
 
 
 
0
 
860,8
319,2
860,8
Front
100
on
S:100 R:100
0
0
0
0
 
0
 
 
 
0
 
 
0
0
0
0
0
 
 
 
 
0
0


0
0
#HDR
-1
-1
#GR
nm
%R
1.0
0.0
2500,000000
-1,000000
2251
8
19,798900
1,494600
#DATA

250.000000	nan
251.000000	nan
252.000000	nan
253.000000	nan
254.000000	nan
255.000000	nan
256.000000	nan
257.000000	nan
258.000000	nan
259.000000	2.025019
260.000000	2.019147
261.000000	2.013795
262.000000	2.008861
263.000000	2.004664
264.000000	2.000430
265.000000	1.995026
266.000000	1.989423
267.000000	1.983169
268.000000	1.977755
269.000000	1.972299
270.000000	1.967862
271.000000	1.963548
272.000000	1.957492
273.000000	1.951751
274.000000	1.947631
275.000000	1.942785
276.000000	1.939082
277.000000	1.934504
278.000000	1.931240
279.000000	1.925813
280.000000	1.920955
281.000000	1.917418
282.000000	1.914311
283.000000	1.911935
284.000000	1.907959
285.000000	1.905099
286.000000	1.902791
287.000000	1.900665
288.000000	1.897038
289.000000	1.896427
290.000000	1.896285
291.000000	1.893231
292.000000	1.891487
293.000000	1.887811
294.000000	1.883395
295.000000	1.882236
296.000000	1.880834
297.000000	1.877966
298.000000	1.875006
299.000000	1.869028
300.000000	1.863943
301.000000	1.861532
302.000000	1.856611
303.000000	1.854053
304.000000	1.854199
305.000000	1.849775
306.000000	1.844770
307.000000	1.842585
308.000000	1.839798
309.000000	1.839872
310.000000	1.837571
311.000000	1.835258
312.000000	1.834356
313.000000	1.831448
314.000000	1.827303
315.000000	1.824637
316.000000	1.823045
317.000000	1.824557
318.000000	1.825323
319.000000	1.828196
320.000000	1.834025
321.000000	1.839678
322.000000	1.845316
323.000000	1.850473
324.000000	1.858852
325.000000	1.861824
326.000000	1.862724
327.000000	1.855670
328.000000	1.851369
329.000000	1.849913
330.000000	1.850989
331.000000	1.845911
332.000000	1.840354
333.000000	1.835716
334.000000	1.824113
335.000000	1.820806
336.000000	1.822486
337.000000	1.828698
338.000000	1.830443
339.000000	1.825996
340.000000	1.819772
341.000000	1.818292
342.000000	1.815930
343.000000	1.813741
344.000000	1.814811
345.000000	1.811613
346.000000	1.804089
347.000000	1.795708
348.000000	1.792055
349.000000	1.788238
350.000000	1.781077
351.000000	1.774885
352.000000	1.771049
353.000000	1.767440
354.000000	1.763984
355.000000	1.763848
356.000000	1.762271
357.000000	1.760690
358.000000	1.757238
359.000000	1.754608
360.000000	1.752462
361.000000	1.751032
362.000000	1.749969
363.000000	1.747052
364.000000	1.742211
365.000000	1.736518
366.000000	1.732563
367.000000	1.729147
368.000000	1.726256
369.000000	1.720343
370.000000	1.716825
371.000000	1.713719
372.000000	1.709463
373.000000	1.705814
374.000000	1.702802
375.000000	1.700763
376.000000	1.694405
377.000000	1.674212
378.000000	1.653651
379.000000	1.636007
380.000000	1.616494
381.000000	1.596242
382.000000	1.574910
383.000000	1.555423
384.000000	1.537869
385.000000	1.518217
386.000000	1.502357
387.000000	1.500445
388.000000	1.498902
389.000000	1.497645
390.000000	1.496684
391.000000	1.495059
392.000000	1.494335
393.000000	1.493466
394.000000	1.491891
395.000000	1.490451
396.000000	1.489466
397.000000	1.488650
398.000000	1.487951
399.000000	1.486724
400.000000	1.485319
401.000000	1.484363
402.000000	1.483318
403.000000	1.482248
404.000000	1.481244
405.000000	1.480405
406.000000	1.479860
407.000000	1.479142
408.000000	1.478089
409.000000	1.477249
410.000000	1.476537
411.000000	1.475608
412.000000	1.474467
413.000000	1.473565
414.000000	1.472736
415.000000	1.471826
416.000000	1.470680
417.000000	1.469609
418.000000	1.468718
419.000000	1.467593
420.000000	1.466273
421.000000	1.465187
422.000000	1.464355
423.000000	1.463305
424.000000	1.461863
425.000000	1.460330
426.000000	1.459194
427.000000	1.458017
428.000000	1.456698
429.000000	1.455741
430.000000	1.454763
431.000000	1.453598
432.000000	1.452448
433.000000	1.451452
434.000000	1.450895
435.000000	1.450161
436.000000	1.449294
437.000000	1.448689
438.000000	1.447991
439.000000	1.447118
440.000000	1.446213
441.000000	1.445621
442.000000	1.445120
443.000000	1.444470
444.000000	1.443800
445.000000	1.443074
446.000000	1.442234
447.000000	1.441452
448.000000	1.440910
449.000000	1.440366
450.000000	1.439769
451.000000	1.438809
452.000000	1.437930
453.000000	1.437370
454.000000	1.436761
455.000000	1.436530
456.000000	1.436344
457.000000	1.436098
458.000000	1.435760
459.000000	1.435309
460.000000	1.435301
461.000000	1.435540
462.000000	1.435694
463.000000	1.435827
464.000000	1.436043
465.000000	1.436219
466.000000	1.436636
467.000000	1.437338
468.000000	1.438178
469.000000	1.439394
470.000000	1.440457
471.000000	1.441625
472.000000	1.443003
473.000000	1.444398
474.000000	1.445988
475.000000	1.447728
476.000000	1.449442
477.000000	1.451280
478.000000	1.453660
479.000000	1.456522
480.000000	1.459803
481.000000	1.463300
482.000000	1.467527
483.000000	1.472931
484.000000	1.479729
485.000000	1.488245
486.000000	1.498797
487.000000	1.511474
488.000000	1.526181
489.000000	1.543667
490.000000	1.564453
491.000000	1.589041
492.000000	1.617712
493.000000	1.650269
494.000000	1.687472
495.000000	1.729825
496.000000	1.777511
497.000000	1.831154
498.000000	1.891433
499.000000	1.958541
500.000000	2.033314
501.000000	2.116087
502.000000	2.207035
503.000000	2.306941
504.000000	2.414918
505.000000	2.530839
506.000000	2.654573
507.000000	2.785613
508.000000	2.923127
509.000000	3.066332
510.000000	3.213872
511.000000	3.364694
512.000000	3.518256
513.000000	3.673246
514.000000	3.828941
515.000000	3.984712
516.000000	4.139350
517.000000	4.291966
518.000000	4.442535
519.000000	4.590888
520.000000	4.736654
521.000000	4.880531
522.000000	5.021488
523.000000	5.159659
524.000000	5.295360
525.000000	5.428367
526.000000	5.559229
527.000000	5.688045
528.000000	5.814247
529.000000	5.937932
530.000000	6.058619
531.000000	6.175364
532.000000	6.287963
533.000000	6.395195
534.000000	6.496204
535.000000	6.590134
536.000000	6.674631
537.000000	6.748135
538.000000	6.810034
539.000000	6.857472
540.000000	6.889112
541.000000	6.902038
542.000000	6.894236
543.000000	6.863913
544.000000	6.809105
545.000000	6.728557
546.000000	6.623879
547.000000	6.495649
548.000000	6.345685
549.000000	6.178178
550.000000	5.996611
551.000000	5.808366
552.000000	5.620036
553.000000	5.437668
554.000000	5.268661
555.000000	5.119366
556.000000	4.993194
557.000000	4.893942
558.000000	4.821165
559.000000	4.773513
560.000000	4.736735
561.000000	4.715143
562.000000	4.703734
563.000000	4.697121
564.000000	4.687695
565.000000	4.669942
566.000000	4.638942
567.000000	4.592519
568.000000	4.530011
569.000000	4.452022
570.000000	4.372764
571.000000	4.286287
572.000000	4.196788
573.000000	4.108904
574.000000	4.028938
575.000000	3.959665
576.000000	3.905875
577.000000	3.868380
578.000000	3.848230
579.000000	3.844787
580.000000	3.855615
581.000000	3.877107
582.000000	3.905026
583.000000	3.934947
584.000000	3.961391
585.000000	3.982139
586.000000	3.993464
587.000000	3.993842
588.000000	3.981993
589.000000	3.958287
590.000000	3.924646
591.000000	3.884079
592.000000	3.838432
593.000000	3.792228
594.000000	3.748693
595.000000	3.710330
596.000000	3.680003
597.000000	3.658420
598.000000	3.647401
599.000000	3.646321
600.000000	3.654503
601.000000	3.669212
602.000000	3.688833
603.000000	3.710679
604.000000	3.732201
605.000000	3.750202
606.000000	3.763524
607.000000	3.770767
608.000000	3.769955
609.000000	3.761457
610.000000	3.746400
611.000000	3.726298
612.000000	3.702256
613.000000	3.676319
614.000000	3.650910
615.000000	3.628529
616.000000	3.610148
617.000000	3.597632
618.000000	3.592046
619.000000	3.593961
620.000000	3.602113
621.000000	3.616399
622.000000	3.636186
623.000000	3.658994
624.000000	3.683705
625.000000	3.708680
626.000000	3.731318
627.000000	3.751071
628.000000	3.767354
629.000000	3.778283
630.000000	3.784414
631.000000	3.784863
632.000000	3.780837
633.000000	3.772990
634.000000	3.762245
635.000000	3.750343
636.000000	3.739262
637.000000	3.728882
638.000000	3.720836
639.000000	3.716516
640.000000	3.715767
641.000000	3.719834
642.000000	3.728243
643.000000	3.741607
644.000000	3.758831
645.000000	3.779149
646.000000	3.800412
647.000000	3.822712
648.000000	3.844619
649.000000	3.866332
650.000000	3.886615
651.000000	3.905094
652.000000	3.920313
653.000000	3.932809
654.000000	3.942972
655.000000	3.950953
656.000000	3.957970
657.000000	3.964838
658.000000	3.972264
659.000000	3.979596
660.000000	3.988664
661.000000	3.999116
662.000000	4.012949
663.000000	4.029474
664.000000	4.048958
665.000000	4.071270
666.000000	4.096640
667.000000	4.124521
668.000000	4.153443
669.000000	4.183428
670.000000	4.213970
671.000000	4.244951
672.000000	4.274473
673.000000	4.301942
674.000000	4.327704
675.000000	4.350985
676.000000	4.371710
677.000000	4.389708
678.000000	4.405163
679.000000	4.419134
680.000000	4.431172
681.000000	4.441287
682.000000	4.450535
683.000000	4.459631
684.000000	4.468851
685.000000	4.478203
686.000000	4.488417
687.000000	4.499936
688.000000	4.514459
689.000000	4.530278
690.000000	4.547855
691.000000	4.567371
692.000000	4.589037
693.000000	4.612479
694.000000	4.637075
695.000000	4.663605
696.000000	4.691194
697.000000	4.719445
698.000000	4.747795
699.000000	4.776226
700.000000	4.804271
701.000000	4.832454
702.000000	4.860612
703.000000	4.889143
704.000000	4.917986
705.000000	4.946417
706.000000	4.975342
707.000000	5.005512
708.000000	5.036667
709.000000	5.069886
710.000000	5.104262
711.000000	5.140424
712.000000	5.178183
713.000000	5.217239
714.000000	5.257953
715.000000	5.300629
716.000000	5.344082
717.000000	5.388172
718.000000	5.432329
719.000000	5.476480
720.000000	5.521880
721.000000	5.566241
722.000000	5.610027
723.000000	5.653387
724.000000	5.696035
725.000000	5.737993
726.000000	5.779734
727.000000	5.819530
728.000000	5.858002
729.000000	5.895129
730.000000	5.931265
731.000000	5.966978
732.000000	6.002448
733.000000	6.037864
734.000000	6.072251
735.000000	6.105571
736.000000	6.138204
737.000000	6.172517
738.000000	6.207526
739.000000	6.243560
740.000000	6.281331
741.000000	6.320828
742.000000	6.361503
743.000000	6.402753
744.000000	6.446871
745.000000	6.494472
746.000000	6.544459
747.000000	6.595398
748.000000	6.647477
749.000000	6.701891
750.000000	6.757852
751.000000	6.815711
752.000000	6.876262
753.000000	6.939553
754.000000	7.004523
755.000000	7.071219
756.000000	7.140231
757.000000	7.210963
758.000000	7.284905
759.000000	7.361695
760.000000	7.441199
761.000000	7.523481
762.000000	7.607473
763.000000	7.693939
764.000000	7.783913
765.000000	7.876121
766.000000	7.970942
767.000000	8.068138
768.000000	8.167451
769.000000	8.267553
770.000000	8.368836
771.000000	8.471423
772.000000	8.576261
773.000000	8.683760
774.000000	8.791464
775.000000	8.899984
776.000000	9.009376
777.000000	9.120744
778.000000	9.233263
779.000000	9.346815
780.000000	9.460977
781.000000	9.574636
782.000000	9.687066
783.000000	9.797416
784.000000	9.906852
785.000000	10.017649
786.000000	10.128273
787.000000	10.237302
788.000000	10.345766
789.000000	10.453354
790.000000	10.558824
791.000000	10.663564
792.000000	10.767839
793.000000	10.871039
794.000000	10.972814
795.000000	11.072449
796.000000	11.171890
797.000000	11.269291
798.000000	11.362202
799.000000	11.452754
800.000000	11.543706
801.000000	11.634533
802.000000	11.724650
803.000000	11.813532
804.000000	11.898207
805.000000	11.980868
806.000000	12.061451
807.000000	12.137350
808.000000	12.218633
809.000000	12.300109
810.000000	12.378394
811.000000	12.453942
812.000000	12.525628
813.000000	12.593029
814.000000	12.661195
815.000000	12.726676
816.000000	12.791706
817.000000	12.855190
818.000000	12.912280
819.000000	12.965559
820.000000	13.015829
821.000000	13.062758
822.000000	13.108853
823.000000	13.154854
824.000000	13.197087
825.000000	13.236600
826.000000	13.269711
827.000000	13.307048
828.000000	13.338802
829.000000	13.365532
830.000000	13.391878
831.000000	13.418821
832.000000	13.446365
833.000000	13.468474
834.000000	13.490512
835.000000	13.508520
836.000000	13.523561
837.000000	13.536145
838.000000	13.548364
839.000000	13.563571
840.000000	13.573496
841.000000	13.581612
842.000000	13.584568
843.000000	13.589290
844.000000	13.589018
845.000000	13.585742
846.000000	13.582933
847.000000	13.581161
848.000000	13.581018
849.000000	13.573217
850.000000	13.566175
851.000000	13.560387
852.000000	13.546215
853.000000	13.529475
854.000000	13.510642
855.000000	13.502412
856.000000	13.493527
857.000000	13.477555
858.000000	13.425237
859.000000	13.440623
860.000000	13.454875
861.000000	13.465940
862.000000	13.489098
863.000000	13.516015
864.000000	13.549957
865.000000	13.579410
866.000000	13.610138
867.000000	13.645016
868.000000	13.715980
869.000000	13.724617
870.000000	13.735873
871.000000	13.745980
872.000000	13.753947
873.000000	13.759617
874.000000	13.762663
875.000000	13.764797
876.000000	13.767317
877.000000	13.767277
878.000000	13.767847
879.000000	13.768120
880.000000	13.769147
881.000000	13.772153
882.000000	13.774047
883.000000	13.776923
884.000000	13.781730
885.000000	13.786510
886.000000	13.790697
887.000000	13.795313
888.000000	13.799517
889.000000	13.806297
890.000000	13.811970
891.000000	13.815573
892.000000	13.820257
893.000000	13.826980
894.000000	13.831943
895.000000	13.836473
896.000000	13.843410
897.000000	13.851600
898.000000	13.861547
899.000000	13.871317
900.000000	13.881873
901.000000	13.895260
902.000000	13.907527
903.000000	13.917747
904.000000	13.931460
905.000000	13.946700
906.000000	13.960737
907.000000	13.974923
908.000000	13.989803
909.000000	14.003897
910.000000	14.019960
911.000000	14.035507
912.000000	14.053077
913.000000	14.072697
914.000000	14.090597
915.000000	14.109207
916.000000	14.127213
917.000000	14.145070
918.000000	14.160800
919.000000	14.178023
920.000000	14.194167
921.000000	14.210577
922.000000	14.224783
923.000000	14.239393
924.000000	14.253823
925.000000	14.267477
926.000000	14.281623
927.000000	14.296607
928.000000	14.312697
929.000000	14.326660
930.000000	14.340447
931.000000	14.353817
932.000000	14.369853
933.000000	14.384387
934.000000	14.400123
935.000000	14.414920
936.000000	14.432440
937.000000	14.451143
938.000000	14.469620
939.000000	14.487550
940.000000	14.505157
941.000000	14.525730
942.000000	14.543603
943.000000	14.562907
944.000000	14.582337
945.000000	14.603253
946.000000	14.622563
947.000000	14.642427
948.000000	14.661697
949.000000	14.682760
950.000000	14.704870
951.000000	14.726110
952.000000	14.751103
953.000000	14.774700
954.000000	14.798203
955.000000	14.822403
956.000000	14.847163
957.000000	14.871603
958.000000	14.897883
959.000000	14.924207
960.000000	14.950137
961.000000	14.973897
962.000000	14.996050
963.000000	15.020573
964.000000	15.046280
965.000000	15.070957
966.000000	15.094653
967.000000	15.118780
968.000000	15.140560
969.000000	15.164057
970.000000	15.189290
971.000000	15.215137
972.000000	15.241197
973.000000	15.267187
974.000000	15.291990
975.000000	15.316797
976.000000	15.341747
977.000000	15.366043
978.000000	15.393013
979.000000	15.417197
980.000000	15.440420
981.000000	15.464060
982.000000	15.488843
983.000000	15.514313
984.000000	15.539580
985.000000	15.564943
986.000000	15.590860
987.000000	15.616077
988.000000	15.639693
989.000000	15.663930
990.000000	15.688777
991.000000	15.713853
992.000000	15.738283
993.000000	15.762513
994.000000	15.785963
995.000000	15.809053
996.000000	15.832387
997.000000	15.855803
998.000000	15.879407
999.000000	15.904427
1000.000000	15.929090
1001.000000	15.953003
1002.000000	15.976283
1003.000000	15.998900
1004.000000	16.022380
1005.000000	16.046187
1006.000000	16.069907
1007.000000	16.093403
1008.000000	16.117227
1009.000000	16.139973
1010.000000	16.162027
1011.000000	16.183680
1012.000000	16.205537
1013.000000	16.227127
1014.000000	16.249123
1015.000000	16.271640
1016.000000	16.293080
1017.000000	16.314243
1018.000000	16.334977
1019.000000	16.356103
1020.000000	16.378110
1021.000000	16.401020
1022.000000	16.423137
1023.000000	16.445143
1024.000000	16.467077
1025.000000	16.488870
1026.000000	16.511970
1027.000000	16.535037
1028.000000	16.557997
1029.000000	16.580600
1030.000000	16.602750
1031.000000	16.625790
1032.000000	16.649830
1033.000000	16.673660
1034.000000	16.697367
1035.000000	16.719887
1036.000000	16.741687
1037.000000	16.763847
1038.000000	16.786513
1039.000000	16.809860
1040.000000	16.832853
1041.000000	16.854623
1042.000000	16.875153
1043.000000	16.894940
1044.000000	16.915440
1045.000000	16.936403
1046.000000	16.957050
1047.000000	16.978403
1048.000000	17.000117
1049.000000	17.021260
1050.000000	17.042163
1051.000000	17.063250
1052.000000	17.084990
1053.000000	17.107653
1054.000000	17.129930
1055.000000	17.151770
1056.000000	17.174003
1057.000000	17.196107
1058.000000	17.216300
1059.000000	17.236627
1060.000000	17.257803
1061.000000	17.278803
1062.000000	17.300273
1063.000000	17.320180
1064.000000	17.339337
1065.000000	17.358813
1066.000000	17.378117
1067.000000	17.397613
1068.000000	17.418800
1069.000000	17.440277
1070.000000	17.461320
1071.000000	17.481997
1072.000000	17.501370
1073.000000	17.521887
1074.000000	17.544007
1075.000000	17.566840
1076.000000	17.588163
1077.000000	17.608593
1078.000000	17.628277
1079.000000	17.647270
1080.000000	17.666923
1081.000000	17.687287
1082.000000	17.708160
1083.000000	17.728700
1084.000000	17.747730
1085.000000	17.765840
1086.000000	17.786130
1087.000000	17.805993
1088.000000	17.825953
1089.000000	17.845827
1090.000000	17.864067
1091.000000	17.881157
1092.000000	17.898597
1093.000000	17.916557
1094.000000	17.933977
1095.000000	17.950517
1096.000000	17.967580
1097.000000	17.985013
1098.000000	18.001580
1099.000000	18.018637
1100.000000	18.036310
1101.000000	18.053543
1102.000000	18.070233
1103.000000	18.085867
1104.000000	18.102403
1105.000000	18.121263
1106.000000	18.136837
1107.000000	18.151563
1108.000000	18.166940
1109.000000	18.181250
1110.000000	18.195043
1111.000000	18.210353
1112.000000	18.224883
1113.000000	18.239267
1114.000000	18.254130
1115.000000	18.265287
1116.000000	18.277440
1117.000000	18.290937
1118.000000	18.303353
1119.000000	18.316883
1120.000000	18.331003
1121.000000	18.343863
1122.000000	18.357817
1123.000000	18.372970
1124.000000	18.386720
1125.000000	18.401323
1126.000000	18.415917
1127.000000	18.428307
1128.000000	18.440403
1129.000000	18.451913
1130.000000	18.463083
1131.000000	18.471253
1132.000000	18.474533
1133.000000	18.473320
1134.000000	18.474227
1135.000000	18.478827
1136.000000	18.484260
1137.000000	18.487923
1138.000000	18.489507
1139.000000	18.488843
1140.000000	18.486717
1141.000000	18.486847
1142.000000	18.490503
1143.000000	18.496450
1144.000000	18.499063
1145.000000	18.499230
1146.000000	18.497833
1147.000000	18.501187
1148.000000	18.504770
1149.000000	18.508733
1150.000000	18.512303
1151.000000	18.517280
1152.000000	18.522050
1153.000000	18.528807
1154.000000	18.536777
1155.000000	18.542113
1156.000000	18.546413
1157.000000	18.546787
1158.000000	18.547920
1159.000000	18.547910
1160.000000	18.547773
1161.000000	18.544283
1162.000000	18.538843
1163.000000	18.529863
1164.000000	18.516343
1165.000000	18.501647
1166.000000	18.488777
1167.000000	18.474790
1168.000000	18.459847
1169.000000	18.445170
1170.000000	18.429900
1171.000000	18.415037
1172.000000	18.402127
1173.000000	18.391357
1174.000000	18.383703
1175.000000	18.378553
1176.000000	18.371507
1177.000000	18.367377
1178.000000	18.364633
1179.000000	18.363583
1180.000000	18.363017
1181.000000	18.362370
1182.000000	18.362487
1183.000000	18.362170
1184.000000	18.360840
1185.000000	18.361520
