PE UV       SUBTECH     SPECTRUM    ASCII       PEDS        4.00        
   -1
NI#0001-TX3.ASC
23/11/30
14:16:12.00
23/11/30
14:16:12.00
Vinicio Soto Monge
NI #001
250,000000
1
Lambda 1050
1050L1511233
PerkinElmer UV WinLab 6.3.2.0749 / 2.02.05 Lambda 900 UV/VIS/NIR, Aug  7 2015 09:38:08

0
0
3350/servo 860,8/2
0
0
UV/VIS
1
1
1
DoubleDePol,CommonBeamDepol,RBeamAtt,SBeamAtt,60mm sphere, WB InGaAs Detector
0
0
0
0
Program
Program
3350/servo 860,8/2
3350/0,4 860,8/0,4
3350/0,4 860,8/0,4
0
20.00
 
 
 
0
 
860,8
319,2
860,8
Front
100
on
S:100 R:100
0
0
0
0
 
0
 
 
 
0
 
 
0
0
0
0
0
 
 
 
 
0
0


0
0
#HDR
-1
-1
#GR
nm
%T
1.0
0.0
2200,000000
-1,000000
1951
8
52,526952
0,335831
#DATA
284.000000	5.518888
285.000000	5.356946
286.000000	5.200849
287.000000	5.050560
288.000000	4.905693
289.000000	4.764743
290.000000	4.629283
291.000000	4.497874
292.000000	4.371785
293.000000	4.251581
294.000000	4.133941
295.000000	4.021021
296.000000	3.912734
297.000000	3.807223
298.000000	3.705136
299.000000	3.606304
300.000000	3.511170
301.000000	3.419909
302.000000	3.330571
303.000000	3.244263
304.000000	3.160738
305.000000	3.079596
306.000000	3.000946
307.000000	2.924651
308.000000	2.850997
309.000000	2.780137
310.000000	2.710199
311.000000	2.642241
312.000000	2.575615
313.000000	2.510546
314.000000	2.447877
315.000000	2.387552
316.000000	2.327259
317.000000	2.260512
318.000000	2.197307
319.000000	2.138381
320.000000	2.080828
321.000000	2.023759
322.000000	1.967908
323.000000	1.913661
324.000000	1.863542
325.000000	1.813049
326.000000	1.764524
327.000000	1.717479
328.000000	1.671846
329.000000	1.628715
330.000000	1.585739
331.000000	1.543979
332.000000	1.504555
333.000000	1.466336
334.000000	1.429630
335.000000	1.393656
336.000000	1.358773
337.000000	1.324623
338.000000	1.291863
339.000000	1.259571
340.000000	1.228131
341.000000	1.198698
342.000000	1.169274
343.000000	1.141067
344.000000	1.113911
345.000000	1.089799
346.000000	1.066283
347.000000	1.043541
348.000000	1.021946
349.000000	1.000349
350.000000	0.980064
351.000000	0.961935
352.000000	0.951423
353.000000	0.939964
354.000000	0.927069
355.000000	0.915221
356.000000	0.905161
357.000000	0.896162
358.000000	0.887605
359.000000	0.877157
360.000000	0.868778
361.000000	0.860048
362.000000	0.851881
363.000000	0.843618
364.000000	0.835401
365.000000	0.828407
366.000000	0.821879
367.000000	0.814586
368.000000	0.808159
369.000000	0.801673
370.000000	0.796420
371.000000	0.791820
372.000000	0.787358
373.000000	0.783162
374.000000	0.779442
375.000000	0.775866
376.000000	0.771820
377.000000	0.769152
378.000000	0.766649
379.000000	0.764212
380.000000	0.760588
381.000000	0.757555
382.000000	0.755073
383.000000	0.752659
384.000000	0.750859
385.000000	0.748617
386.000000	0.746762
387.000000	0.745206
388.000000	0.743933
389.000000	0.742523
390.000000	0.741060
391.000000	0.739407
392.000000	0.737730
393.000000	0.736522
394.000000	0.735596
395.000000	0.734522
396.000000	0.733928
397.000000	0.733005
398.000000	0.732111
399.000000	0.731157
400.000000	0.730024
401.000000	0.729465
402.000000	0.729262
403.000000	0.728678
404.000000	0.728057
405.000000	0.726963
406.000000	0.725533
407.000000	0.724791
408.000000	0.724114
409.000000	0.723759
410.000000	0.723798
411.000000	0.723752
412.000000	0.723403
413.000000	0.722974
414.000000	0.722536
415.000000	0.722105
416.000000	0.721561
417.000000	0.721047
418.000000	0.720563
419.000000	0.719938
420.000000	0.719419
421.000000	0.718861
422.000000	0.718249
423.000000	0.717607
424.000000	0.717019
425.000000	0.716525
426.000000	0.716060
427.000000	0.715510
428.000000	0.714913
429.000000	0.714279
430.000000	0.713641
431.000000	0.713064
432.000000	0.712433
433.000000	0.711836
434.000000	0.711402
435.000000	0.710958
436.000000	0.710413
437.000000	0.709914
438.000000	0.709347
439.000000	0.708715
440.000000	0.708132
441.000000	0.707531
442.000000	0.706903
443.000000	0.706352
444.000000	0.705802
445.000000	0.705213
446.000000	0.704550
447.000000	0.703826
448.000000	0.703084
449.000000	0.702341
450.000000	0.701544
451.000000	0.700853
452.000000	0.700104
453.000000	0.699259
454.000000	0.698484
455.000000	0.697691
456.000000	0.696897
457.000000	0.696068
458.000000	0.695189
459.000000	0.694259
460.000000	0.693379
461.000000	0.692571
462.000000	0.691765
463.000000	0.690981
464.000000	0.690116
465.000000	0.689274
466.000000	0.688444
467.000000	0.687587
468.000000	0.686736
469.000000	0.685807
470.000000	0.684895
471.000000	0.684001
472.000000	0.683049
473.000000	0.682114
474.000000	0.681156
475.000000	0.680161
476.000000	0.679204
477.000000	0.678246
478.000000	0.677208
479.000000	0.676192
480.000000	0.675267
481.000000	0.674398
482.000000	0.673600
483.000000	0.672813
484.000000	0.671996
485.000000	0.671123
486.000000	0.670192
487.000000	0.669293
488.000000	0.668463
489.000000	0.667619
490.000000	0.666819
491.000000	0.666019
492.000000	0.665197
493.000000	0.664372
494.000000	0.663577
495.000000	0.662671
496.000000	0.661733
497.000000	0.660873
498.000000	0.659947
499.000000	0.659140
500.000000	0.658223
501.000000	0.657315
502.000000	0.656480
503.000000	0.655621
504.000000	0.654735
505.000000	0.653897
506.000000	0.653053
507.000000	0.652177
508.000000	0.651367
509.000000	0.650577
510.000000	0.649741
511.000000	0.648931
512.000000	0.648107
513.000000	0.647336
514.000000	0.646585
515.000000	0.645881
516.000000	0.645147
517.000000	0.644470
518.000000	0.643849
519.000000	0.643194
520.000000	0.642725
521.000000	0.642392
522.000000	0.642094
523.000000	0.641826
524.000000	0.641592
525.000000	0.641347
526.000000	0.641138
527.000000	0.641070
528.000000	0.641321
529.000000	0.641630
530.000000	0.642160
531.000000	0.642773
532.000000	0.643468
533.000000	0.644382
534.000000	0.645411
535.000000	0.646710
536.000000	0.648133
537.000000	0.649773
538.000000	0.651610
539.000000	0.653684
540.000000	0.655925
541.000000	0.658351
542.000000	0.661036
543.000000	0.663930
544.000000	0.667139
545.000000	0.670634
546.000000	0.674352
547.000000	0.678410
548.000000	0.682738
549.000000	0.687441
550.000000	0.692461
551.000000	0.697851
552.000000	0.703480
553.000000	0.709458
554.000000	0.715897
555.000000	0.722615
556.000000	0.729715
557.000000	0.737293
558.000000	0.745283
559.000000	0.753646
560.000000	0.762412
561.000000	0.771653
562.000000	0.781305
563.000000	0.791302
564.000000	0.801896
565.000000	0.813054
566.000000	0.824726
567.000000	0.837002
568.000000	0.849835
569.000000	0.863193
570.000000	0.877114
571.000000	0.891841
572.000000	0.907167
573.000000	0.923281
574.000000	0.940112
575.000000	0.957631
576.000000	0.976007
577.000000	0.995141
578.000000	1.015162
579.000000	1.036003
580.000000	1.057774
581.000000	1.080451
582.000000	1.104138
583.000000	1.128758
584.000000	1.154429
585.000000	1.181063
586.000000	1.208894
587.000000	1.237966
588.000000	1.268066
589.000000	1.299442
590.000000	1.332062
591.000000	1.365923
592.000000	1.401017
593.000000	1.437420
594.000000	1.475283
595.000000	1.514549
596.000000	1.555174
597.000000	1.597294
598.000000	1.640781
599.000000	1.685757
600.000000	1.732226
601.000000	1.780304
602.000000	1.829699
603.000000	1.880770
604.000000	1.933532
605.000000	1.987936
606.000000	2.043857
607.000000	2.101416
608.000000	2.160578
609.000000	2.221443
610.000000	2.284072
611.000000	2.348225
612.000000	2.414229
613.000000	2.481730
614.000000	2.550921
615.000000	2.621879
616.000000	2.694496
617.000000	2.768735
618.000000	2.844550
619.000000	2.921923
620.000000	3.001269
621.000000	3.082138
622.000000	3.164584
623.000000	3.248810
624.000000	3.334624
625.000000	3.422075
626.000000	3.511037
627.000000	3.601456
628.000000	3.693635
629.000000	3.787373
630.000000	3.882809
631.000000	3.979764
632.000000	4.078359
633.000000	4.178697
634.000000	4.280610
635.000000	4.383948
636.000000	4.488912
637.000000	4.595566
638.000000	4.703672
639.000000	4.813091
640.000000	4.924178
641.000000	5.036899
642.000000	5.151150
643.000000	5.266885
644.000000	5.384153
645.000000	5.502897
646.000000	5.623421
647.000000	5.745297
648.000000	5.868549
649.000000	5.993306
650.000000	6.119453
651.000000	6.247242
652.000000	6.376429
653.000000	6.507072
654.000000	6.639081
655.000000	6.772405
656.000000	6.906956
657.000000	7.043005
658.000000	7.180200
659.000000	7.318781
660.000000	7.459023
661.000000	7.600371
662.000000	7.743217
663.000000	7.887584
664.000000	8.033070
665.000000	8.179571
666.000000	8.327538
667.000000	8.476431
668.000000	8.626367
669.000000	8.777377
670.000000	8.929738
671.000000	9.083100
672.000000	9.237526
673.000000	9.392896
674.000000	9.549531
675.000000	9.707096
676.000000	9.865485
677.000000	10.024749
678.000000	10.184914
679.000000	10.345778
680.000000	10.507734
681.000000	10.670357
682.000000	10.833781
683.000000	10.998365
684.000000	11.163586
685.000000	11.329725
686.000000	11.496475
687.000000	11.663947
688.000000	11.832335
689.000000	12.001618
690.000000	12.171568
691.000000	12.342226
692.000000	12.513110
693.000000	12.684919
694.000000	12.856980
695.000000	13.029295
696.000000	13.202597
697.000000	13.376180
698.000000	13.549713
699.000000	13.724062
700.000000	13.898997
701.000000	14.074157
702.000000	14.250295
703.000000	14.427176
704.000000	14.604606
705.000000	14.782120
706.000000	14.959790
707.000000	15.137548
708.000000	15.315450
709.000000	15.493812
710.000000	15.672490
711.000000	15.851270
712.000000	16.030387
713.000000	16.210092
714.000000	16.390160
715.000000	16.570057
716.000000	16.750212
717.000000	16.931047
718.000000	17.112104
719.000000	17.293102
720.000000	17.473960
721.000000	17.655436
722.000000	17.837236
723.000000	18.018652
724.000000	18.199667
725.000000	18.380678
726.000000	18.561682
727.000000	18.743108
728.000000	18.924616
729.000000	19.106721
730.000000	19.288928
731.000000	19.470751
732.000000	19.652657
733.000000	19.835102
734.000000	20.017604
735.000000	20.199815
736.000000	20.381595
737.000000	20.563492
738.000000	20.745233
739.000000	20.926412
740.000000	21.107943
741.000000	21.289515
742.000000	21.471408
743.000000	21.653558
744.000000	21.835699
745.000000	22.017171
746.000000	22.198342
747.000000	22.379877
748.000000	22.560939
749.000000	22.741560
750.000000	22.922502
751.000000	23.103784
752.000000	23.283563
753.000000	23.462793
754.000000	23.642020
755.000000	23.821413
756.000000	24.001072
757.000000	24.179616
758.000000	24.357610
759.000000	24.535636
760.000000	24.713788
761.000000	24.891455
762.000000	25.069081
763.000000	25.246303
764.000000	25.423841
765.000000	25.600542
766.000000	25.775888
767.000000	25.951195
768.000000	26.125679
769.000000	26.301566
770.000000	26.477131
771.000000	26.653139
772.000000	26.828437
773.000000	27.002817
774.000000	27.177263
775.000000	27.350197
776.000000	27.523888
777.000000	27.696205
778.000000	27.868437
779.000000	28.039881
780.000000	28.211000
781.000000	28.381632
782.000000	28.552488
783.000000	28.723604
784.000000	28.893725
785.000000	29.062761
786.000000	29.231007
787.000000	29.399726
788.000000	29.567707
789.000000	29.735961
790.000000	29.903699
791.000000	30.069828
792.000000	30.235570
793.000000	30.402052
794.000000	30.568113
795.000000	30.734068
796.000000	30.898925
797.000000	31.063092
798.000000	31.226117
799.000000	31.387989
800.000000	31.550494
801.000000	31.711786
802.000000	31.872101
803.000000	32.032260
804.000000	32.191578
805.000000	32.350218
806.000000	32.507742
807.000000	32.664998
808.000000	32.822771
809.000000	32.977820
810.000000	33.134656
811.000000	33.289062
812.000000	33.445547
813.000000	33.597748
814.000000	33.751823
815.000000	33.905465
816.000000	34.059073
817.000000	34.212484
818.000000	34.363392
819.000000	34.514063
820.000000	34.664475
821.000000	34.814278
822.000000	34.964428
823.000000	35.116312
824.000000	35.265426
825.000000	35.413482
826.000000	35.563719
827.000000	35.711920
828.000000	35.856742
829.000000	36.002862
830.000000	36.144349
831.000000	36.287849
832.000000	36.432022
833.000000	36.576341
834.000000	36.718780
835.000000	36.860459
836.000000	37.004652
837.000000	37.150295
838.000000	37.294579
839.000000	37.434904
840.000000	37.574096
841.000000	37.715147
842.000000	37.853299
843.000000	37.990111
844.000000	38.129287
845.000000	38.262612
846.000000	38.393551
847.000000	38.527004
848.000000	38.660623
849.000000	38.796438
850.000000	38.937104
851.000000	39.066187
852.000000	39.197848
853.000000	39.328776
854.000000	39.462367
855.000000	39.586723
856.000000	39.712558
857.000000	39.842192
858.000000	39.967509
859.000000	40.132855
860.000000	40.269723
861.000000	40.427158
862.000000	40.576955
863.000000	40.738494
864.000000	40.886097
865.000000	41.053481
866.000000	41.229180
867.000000	41.378788
868.000000	41.538008
869.000000	41.689875
870.000000	41.824922
871.000000	41.977500
872.000000	42.136473
873.000000	42.271264
874.000000	42.426068
875.000000	42.575348
876.000000	42.741604
877.000000	42.888717
878.000000	43.042428
879.000000	43.186034
880.000000	43.321385
881.000000	43.459949
882.000000	43.603732
883.000000	43.762966
884.000000	43.912556
885.000000	44.039139
886.000000	44.173023
887.000000	44.322033
888.000000	44.482396
889.000000	44.636511
890.000000	44.772062
891.000000	44.920020
892.000000	45.046366
893.000000	45.181203
894.000000	45.284170
895.000000	45.420151
896.000000	45.496421
897.000000	45.611623
898.000000	45.725745
899.000000	45.836544
900.000000	45.918096
901.000000	45.992630
902.000000	46.086662
903.000000	46.176696
904.000000	46.283022
905.000000	46.393631
906.000000	46.497431
907.000000	46.590761
908.000000	46.706561
909.000000	46.809906
910.000000	46.915736
911.000000	46.987115
912.000000	47.105711
913.000000	47.204976
914.000000	47.312487
915.000000	47.440588
916.000000	47.539227
917.000000	47.631902
918.000000	47.697529
919.000000	47.785408
920.000000	47.886086
921.000000	47.994318
922.000000	48.088985
923.000000	48.161016
924.000000	48.238102
925.000000	48.333201
926.000000	48.427771
927.000000	48.538901
928.000000	48.638466
929.000000	48.738512
930.000000	48.801134
931.000000	48.914322
932.000000	49.007004
933.000000	49.069476
934.000000	49.153272
935.000000	49.245085
936.000000	49.330367
937.000000	49.420848
938.000000	49.512718
939.000000	49.600442
940.000000	49.695883
941.000000	49.761532
942.000000	49.832105
943.000000	49.908738
944.000000	49.962096
945.000000	50.028474
946.000000	50.124276
947.000000	50.192728
948.000000	50.268078
949.000000	50.324437
950.000000	50.375321
951.000000	50.456441
952.000000	50.542143
953.000000	50.644326
954.000000	50.721778
955.000000	50.794777
956.000000	50.867926
957.000000	50.938539
958.000000	51.005691
959.000000	51.079461
960.000000	51.145849
961.000000	51.206359
962.000000	51.279361
963.000000	51.348017
964.000000	51.395473
965.000000	51.486390
966.000000	51.561907
967.000000	51.605836
968.000000	51.680675
969.000000	51.751358
970.000000	51.818373
971.000000	51.895729
972.000000	51.964254
973.000000	52.025853
974.000000	52.092527
975.000000	52.162661
976.000000	52.227584
977.000000	52.288945
978.000000	52.354915
979.000000	52.426398
980.000000	52.475139
981.000000	52.522527
982.000000	52.579789
983.000000	52.633819
984.000000	52.697386
985.000000	52.751984
986.000000	52.808334
987.000000	52.850306
988.000000	52.891061
989.000000	52.945263
990.000000	53.000488
991.000000	53.052186
992.000000	53.090956
993.000000	53.155870
994.000000	53.215216
995.000000	53.279677
996.000000	53.332735
997.000000	53.365677
998.000000	53.402412
999.000000	53.464483
1000.000000	53.533825
1001.000000	53.596446
1002.000000	53.659341
1003.000000	53.721825
1004.000000	53.791229
1005.000000	53.860822
1006.000000	53.916209
1007.000000	53.983530
1008.000000	54.031653
1009.000000	54.057678
1010.000000	54.097103
1011.000000	54.165584
1012.000000	54.228890
1013.000000	54.281533
1014.000000	54.342904
1015.000000	54.415015
1016.000000	54.473572
1017.000000	54.522351
1018.000000	54.582868
1019.000000	54.648779
1020.000000	54.705634
1021.000000	54.750181
1022.000000	54.806055
1023.000000	54.862466
1024.000000	54.916160
1025.000000	54.971604
1026.000000	55.012280
1027.000000	55.061616
1028.000000	55.109912
1029.000000	55.154538
1030.000000	55.218119
1031.000000	55.285331
1032.000000	55.348816
1033.000000	55.423430
1034.000000	55.489360
1035.000000	55.523519
1036.000000	55.553661
1037.000000	55.605318
1038.000000	55.647335
1039.000000	55.668868
1040.000000	55.708472
1041.000000	55.758188
1042.000000	55.804448
1043.000000	55.857227
1044.000000	55.910715
1045.000000	55.949503
1046.000000	55.984912
1047.000000	56.023129
1048.000000	56.066843
1049.000000	56.110407
1050.000000	56.154307
1051.000000	56.189035
1052.000000	56.219671
1053.000000	56.249806
1054.000000	56.301841
1055.000000	56.356305
1056.000000	56.403462
1057.000000	56.446826
1058.000000	56.484588
1059.000000	56.522523
1060.000000	56.563356
1061.000000	56.624226
1062.000000	56.666328
1063.000000	56.700760
1064.000000	56.745858
1065.000000	56.779568
1066.000000	56.803807
1067.000000	56.845271
1068.000000	56.861102
1069.000000	56.871342
1070.000000	56.913956
1071.000000	56.966021
1072.000000	56.998985
1073.000000	57.021459
1074.000000	57.059850
1075.000000	57.074873
1076.000000	57.101394
1077.000000	57.125176
1078.000000	57.158183
1079.000000	57.211009
1080.000000	57.264926
1081.000000	57.303702
1082.000000	57.351922
1083.000000	57.391444
1084.000000	57.429391
1085.000000	57.461388
1086.000000	57.483545
1087.000000	57.530744
1088.000000	57.570613
1089.000000	57.583998
1090.000000	57.605008
1091.000000	57.644377
1092.000000	57.687079
1093.000000	57.732567
1094.000000	57.765472
1095.000000	57.799724
1096.000000	57.832418
1097.000000	57.881481
1098.000000	57.920399
1099.000000	57.948174
1100.000000	57.983092
1101.000000	58.005634
1102.000000	58.012009
1103.000000	58.067280
1104.000000	58.087589
1105.000000	58.104666
1106.000000	58.126973
1107.000000	58.154182
1108.000000	58.201389
1109.000000	58.224920
1110.000000	58.277476
1111.000000	58.312086
1112.000000	58.340254
1113.000000	58.383852
1114.000000	58.412707
1115.000000	58.433834
1116.000000	58.487460
1117.000000	58.506236
1118.000000	58.512707
1119.000000	58.520296
1120.000000	58.543092
1121.000000	58.573942
1122.000000	58.617302
1123.000000	58.667084
1124.000000	58.681774
1125.000000	58.752799
1126.000000	58.769436
1127.000000	58.791693
1128.000000	58.788171
1129.000000	58.809148
1130.000000	58.833801
1131.000000	58.854144
1132.000000	58.875066
1133.000000	58.890976
1134.000000	58.955487
1135.000000	58.955337
1136.000000	58.957485
1137.000000	58.992064
1138.000000	58.996288
1139.000000	59.045389
1140.000000	59.059213
1141.000000	59.085222
1142.000000	59.094620
1143.000000	59.098721
1144.000000	59.148100
1145.000000	59.153529
1146.000000	59.181187
1147.000000	59.206088
1148.000000	59.216033
1149.000000	59.231575
1150.000000	59.230515
1151.000000	59.222718
1152.000000	59.245605
1153.000000	59.266638
1154.000000	59.279583
1155.000000	59.296159
1156.000000	59.331877
1157.000000	59.337324
1158.000000	59.309579
1159.000000	59.330438
1160.000000	59.308749
1161.000000	59.344502
1162.000000	59.335596
1163.000000	59.359535
1164.000000	59.372423
1165.000000	59.388270
1166.000000	59.392909
1167.000000	59.408637
1168.000000	59.432129
1169.000000	59.384634
1170.000000	59.410862
1171.000000	59.427291
1172.000000	59.417702
1173.000000	59.420969
1174.000000	59.398325
1175.000000	59.392923
1176.000000	59.383489
1177.000000	59.393450
1178.000000	59.410799
1179.000000	59.396571
1180.000000	59.404608
1181.000000	59.382698
1182.000000	59.380432
1183.000000	59.366110
1184.000000	59.360966
1185.000000	59.389426
1186.000000	59.392782
1187.000000	59.386546
1188.000000	59.393776
1189.000000	59.411536
1190.000000	59.426161
1191.000000	59.418910
1192.000000	59.413007
1193.000000	59.445396
1194.000000	59.469840
1195.000000	59.459497
1196.000000	59.447921
1197.000000	59.475550
1198.000000	59.500503
1199.000000	59.520056
1200.000000	59.508934
1201.000000	59.509638
1202.000000	59.485890
1203.000000	59.480232
1204.000000	59.508575
1205.000000	59.520084
1206.000000	59.548204
1207.000000	59.590681
1208.000000	59.620993
1209.000000	59.672887
1210.000000	59.720325
1211.000000	59.740892
