PE UV       SUBTECH     SPECTRUM    ASCII       PEDS        4.00        
   -1
PELID.001-TX3.ASC
23/11/30
15:17:19.00
23/11/30
15:17:19.00
Vinicio Soto Monge
PELID 1
250,000000
1
Lambda 1050
1050L1511233
PerkinElmer UV WinLab 6.3.2.0749 / 2.02.05 Lambda 900 UV/VIS/NIR, Aug  7 2015 09:38:08

0
0
3350/servo 860,8/2
0
0
UV/VIS
1
1
1
DoubleDePol,CommonBeamDepol,RBeamAtt,SBeamAtt,60mm sphere, WB InGaAs Detector
0
0
0
0
Program
Program
3350/servo 860,8/2
3350/0,4 860,8/0,4
3350/0,4 860,8/0,4
0
20.00
 
 
 
0
 
860,8
319,2
860,8
Front
100
on
S:100 R:100
0
0
0
0
 
0
 
 
 
0
 
 
0
0
0
0
0
 
 
 
 
0
0


0
0
#HDR
-1
-1
#GR
nm
%T
1.0
0.0
2200,000000
-1,000000
1951
8
42,961348
0,210139
#DATA
284.000000	0.238559
285.000000	0.239309
286.000000	0.239674
287.000000	0.240372
288.000000	0.241508
289.000000	0.242073
290.000000	0.242811
291.000000	0.243412
292.000000	0.243824
293.000000	0.244345
294.000000	0.245097
295.000000	0.245788
296.000000	0.246321
297.000000	0.246698
298.000000	0.247749
299.000000	0.248340
300.000000	0.248939
301.000000	0.249698
302.000000	0.250021
303.000000	0.250372
304.000000	0.251320
305.000000	0.251889
306.000000	0.252991
307.000000	0.253987
308.000000	0.255014
309.000000	0.256374
310.000000	0.257162
311.000000	0.258253
312.000000	0.259295
313.000000	0.260148
314.000000	0.261378
315.000000	0.262689
316.000000	0.263552
317.000000	0.264159
318.000000	0.265962
319.000000	0.267130
320.000000	0.269483
321.000000	0.271094
322.000000	0.271597
323.000000	0.273465
324.000000	0.276556
325.000000	0.278997
326.000000	0.281967
327.000000	0.285557
328.000000	0.289235
329.000000	0.292859
330.000000	0.295970
331.000000	0.299115
332.000000	0.302124
333.000000	0.304681
334.000000	0.308338
335.000000	0.311629
336.000000	0.314220
337.000000	0.316726
338.000000	0.320632
339.000000	0.323490
340.000000	0.326264
341.000000	0.329189
342.000000	0.332670
343.000000	0.336112
344.000000	0.339241
345.000000	0.342931
346.000000	0.346580
347.000000	0.350355
348.000000	0.354980
349.000000	0.358853
350.000000	0.362691
351.000000	0.367188
352.000000	0.372228
353.000000	0.376060
354.000000	0.380400
355.000000	0.384323
356.000000	0.389761
357.000000	0.396298
358.000000	0.400950
359.000000	0.405394
360.000000	0.410544
361.000000	0.415352
362.000000	0.420411
363.000000	0.425130
364.000000	0.429795
365.000000	0.435210
366.000000	0.440655
367.000000	0.447098
368.000000	0.454257
369.000000	0.460950
370.000000	0.468352
371.000000	0.476813
372.000000	0.485418
373.000000	0.493305
374.000000	0.501967
375.000000	0.510847
376.000000	0.519501
377.000000	0.528630
378.000000	0.537901
379.000000	0.547908
380.000000	0.558217
381.000000	0.568697
382.000000	0.579837
383.000000	0.590937
384.000000	0.603006
385.000000	0.615317
386.000000	0.628171
387.000000	0.641380
388.000000	0.655344
389.000000	0.669823
390.000000	0.684249
391.000000	0.698668
392.000000	0.713419
393.000000	0.729114
394.000000	0.745039
395.000000	0.761499
396.000000	0.778410
397.000000	0.795153
398.000000	0.812555
399.000000	0.830670
400.000000	0.849395
401.000000	0.868894
402.000000	0.888547
403.000000	0.908108
404.000000	0.928359
405.000000	0.948844
406.000000	0.969810
407.000000	0.991706
408.000000	1.014002
409.000000	1.036902
410.000000	1.060626
411.000000	1.084985
412.000000	1.109627
413.000000	1.134782
414.000000	1.160493
415.000000	1.186910
416.000000	1.213958
417.000000	1.241624
418.000000	1.269841
419.000000	1.298596
420.000000	1.328102
421.000000	1.358280
422.000000	1.389083
423.000000	1.420493
424.000000	1.452695
425.000000	1.485543
426.000000	1.518948
427.000000	1.553032
428.000000	1.587742
429.000000	1.622952
430.000000	1.658825
431.000000	1.695342
432.000000	1.732404
433.000000	1.770165
434.000000	1.808491
435.000000	1.847343
436.000000	1.886734
437.000000	1.926705
438.000000	1.967304
439.000000	2.008457
440.000000	2.050247
441.000000	2.092545
442.000000	2.135244
443.000000	2.178532
444.000000	2.222232
445.000000	2.266427
446.000000	2.311198
447.000000	2.356199
448.000000	2.401431
449.000000	2.447017
450.000000	2.492726
451.000000	2.538840
452.000000	2.585227
453.000000	2.631817
454.000000	2.678691
455.000000	2.725818
456.000000	2.773222
457.000000	2.820854
458.000000	2.868829
459.000000	2.917024
460.000000	2.965597
461.000000	3.014559
462.000000	3.063819
463.000000	3.113400
464.000000	3.163405
465.000000	3.213669
466.000000	3.264248
467.000000	3.315255
468.000000	3.366607
469.000000	3.418380
470.000000	3.470577
471.000000	3.523305
472.000000	3.576485
473.000000	3.630136
474.000000	3.684213
475.000000	3.738667
476.000000	3.793615
477.000000	3.849123
478.000000	3.904961
479.000000	3.961323
480.000000	4.018245
481.000000	4.075651
482.000000	4.133712
483.000000	4.192422
484.000000	4.251571
485.000000	4.311361
486.000000	4.371652
487.000000	4.432611
488.000000	4.494328
489.000000	4.556650
490.000000	4.619475
491.000000	4.682963
492.000000	4.747550
493.000000	4.812854
494.000000	4.879064
495.000000	4.946106
496.000000	5.013884
497.000000	5.082416
498.000000	5.151795
499.000000	5.222187
500.000000	5.293452
501.000000	5.365741
502.000000	5.438836
503.000000	5.512748
504.000000	5.587755
505.000000	5.663613
506.000000	5.740200
507.000000	5.817611
508.000000	5.895958
509.000000	5.975210
510.000000	6.055324
511.000000	6.136498
512.000000	6.218548
513.000000	6.301576
514.000000	6.385603
515.000000	6.470288
516.000000	6.555731
517.000000	6.641913
518.000000	6.728874
519.000000	6.816485
520.000000	6.904817
521.000000	6.994093
522.000000	7.083989
523.000000	7.174599
524.000000	7.265863
525.000000	7.357610
526.000000	7.449843
527.000000	7.542278
528.000000	7.635062
529.000000	7.728165
530.000000	7.821524
531.000000	7.915192
532.000000	8.009009
533.000000	8.103122
534.000000	8.196994
535.000000	8.290830
536.000000	8.384527
537.000000	8.478329
538.000000	8.572102
539.000000	8.665519
540.000000	8.758785
541.000000	8.851830
542.000000	8.944717
543.000000	9.037349
544.000000	9.129728
545.000000	9.221752
546.000000	9.313289
547.000000	9.404643
548.000000	9.495326
549.000000	9.585431
550.000000	9.675275
551.000000	9.764518
552.000000	9.853289
553.000000	9.941470
554.000000	10.029279
555.000000	10.116534
556.000000	10.202695
557.000000	10.287771
558.000000	10.372042
559.000000	10.455350
560.000000	10.537730
561.000000	10.619489
562.000000	10.700513
563.000000	10.780758
564.000000	10.860280
565.000000	10.939131
566.000000	11.017330
567.000000	11.094954
568.000000	11.171745
569.000000	11.248519
570.000000	11.324941
571.000000	11.401661
572.000000	11.478235
573.000000	11.555068
574.000000	11.631857
575.000000	11.709055
576.000000	11.786774
577.000000	11.864677
578.000000	11.943107
579.000000	12.022212
580.000000	12.102186
581.000000	12.183292
582.000000	12.265553
583.000000	12.349209
584.000000	12.434507
585.000000	12.520939
586.000000	12.608918
587.000000	12.698591
588.000000	12.789963
589.000000	12.883192
590.000000	12.977708
591.000000	13.074415
592.000000	13.173650
593.000000	13.274750
594.000000	13.378337
595.000000	13.483963
596.000000	13.591818
597.000000	13.701403
598.000000	13.812733
599.000000	13.925979
600.000000	14.041041
601.000000	14.158124
602.000000	14.277211
603.000000	14.398083
604.000000	14.520228
605.000000	14.644059
606.000000	14.768764
607.000000	14.894616
608.000000	15.021053
609.000000	15.148691
610.000000	15.276635
611.000000	15.404852
612.000000	15.533823
613.000000	15.662981
614.000000	15.792476
615.000000	15.922021
616.000000	16.051225
617.000000	16.179839
618.000000	16.308200
619.000000	16.435705
620.000000	16.562852
621.000000	16.689374
622.000000	16.815362
623.000000	16.940542
624.000000	17.064678
625.000000	17.188325
626.000000	17.310920
627.000000	17.432303
628.000000	17.552649
629.000000	17.671759
630.000000	17.790153
631.000000	17.907243
632.000000	18.023737
633.000000	18.139636
634.000000	18.254422
635.000000	18.368212
636.000000	18.481073
637.000000	18.593276
638.000000	18.704549
639.000000	18.814765
640.000000	18.924158
641.000000	19.032661
642.000000	19.140880
643.000000	19.248644
644.000000	19.355522
645.000000	19.462305
646.000000	19.568734
647.000000	19.674202
648.000000	19.779340
649.000000	19.884016
650.000000	19.988502
651.000000	20.092665
652.000000	20.196108
653.000000	20.299019
654.000000	20.401799
655.000000	20.504483
656.000000	20.606822
657.000000	20.708665
658.000000	20.809866
659.000000	20.911057
660.000000	21.012100
661.000000	21.112709
662.000000	21.213212
663.000000	21.313528
664.000000	21.413582
665.000000	21.513120
666.000000	21.611989
667.000000	21.710469
668.000000	21.808565
669.000000	21.906599
670.000000	22.004199
671.000000	22.101439
672.000000	22.198087
673.000000	22.294368
674.000000	22.390502
675.000000	22.486111
676.000000	22.581599
677.000000	22.675980
678.000000	22.770247
679.000000	22.864427
680.000000	22.957912
681.000000	23.051082
682.000000	23.144208
683.000000	23.236688
684.000000	23.328408
685.000000	23.419739
686.000000	23.510621
687.000000	23.601413
688.000000	23.692087
689.000000	23.782497
690.000000	23.872278
691.000000	23.961494
692.000000	24.050117
693.000000	24.138540
694.000000	24.226193
695.000000	24.313648
696.000000	24.400464
697.000000	24.486526
698.000000	24.572596
699.000000	24.658312
700.000000	24.743411
701.000000	24.828558
702.000000	24.913102
703.000000	24.996849
704.000000	25.080084
705.000000	25.163113
706.000000	25.245793
707.000000	25.327985
708.000000	25.409645
709.000000	25.490716
710.000000	25.571358
711.000000	25.651020
712.000000	25.730641
713.000000	25.810498
714.000000	25.889919
715.000000	25.968578
716.000000	26.046734
717.000000	26.124589
718.000000	26.202713
719.000000	26.280544
720.000000	26.357414
721.000000	26.434182
722.000000	26.510553
723.000000	26.586321
724.000000	26.661260
725.000000	26.736353
726.000000	26.811422
727.000000	26.885781
728.000000	26.959733
729.000000	27.033057
730.000000	27.106077
731.000000	27.179387
732.000000	27.252389
733.000000	27.324538
734.000000	27.395944
735.000000	27.467901
736.000000	27.539017
737.000000	27.609488
738.000000	27.679997
739.000000	27.749788
740.000000	27.819358
741.000000	27.888512
742.000000	27.957964
743.000000	28.027300
744.000000	28.096557
745.000000	28.165050
746.000000	28.233406
747.000000	28.301862
748.000000	28.369796
749.000000	28.435939
750.000000	28.501912
751.000000	28.568878
752.000000	28.635640
753.000000	28.701255
754.000000	28.766417
755.000000	28.830953
756.000000	28.895116
757.000000	28.959325
758.000000	29.022642
759.000000	29.086403
760.000000	29.148669
761.000000	29.209584
762.000000	29.271778
763.000000	29.333835
764.000000	29.396411
765.000000	29.458032
766.000000	29.518880
767.000000	29.579695
768.000000	29.640368
769.000000	29.700835
770.000000	29.760563
771.000000	29.820306
772.000000	29.880250
773.000000	29.938846
774.000000	29.997871
775.000000	30.056571
776.000000	30.114623
777.000000	30.171481
778.000000	30.228341
779.000000	30.285778
780.000000	30.343036
781.000000	30.399665
782.000000	30.455458
783.000000	30.510978
784.000000	30.567623
785.000000	30.623773
786.000000	30.677787
787.000000	30.731941
788.000000	30.785197
789.000000	30.839270
790.000000	30.894411
791.000000	30.948786
792.000000	31.001010
793.000000	31.053185
794.000000	31.105179
795.000000	31.157190
796.000000	31.208777
797.000000	31.260254
798.000000	31.310589
799.000000	31.360828
800.000000	31.412255
801.000000	31.463957
802.000000	31.514160
803.000000	31.562275
804.000000	31.611512
805.000000	31.659387
806.000000	31.707538
807.000000	31.754510
808.000000	31.804894
809.000000	31.852661
810.000000	31.898868
811.000000	31.945586
812.000000	31.993040
813.000000	32.037944
814.000000	32.082626
815.000000	32.127033
816.000000	32.171979
817.000000	32.216004
818.000000	32.259725
819.000000	32.304212
820.000000	32.347236
821.000000	32.390813
822.000000	32.433781
823.000000	32.477727
824.000000	32.519867
825.000000	32.560199
826.000000	32.602602
827.000000	32.647680
828.000000	32.689170
829.000000	32.730116
830.000000	32.770118
831.000000	32.812321
832.000000	32.853927
833.000000	32.896989
834.000000	32.935009
835.000000	32.973143
836.000000	33.011227
837.000000	33.051661
838.000000	33.092305
839.000000	33.130502
840.000000	33.170879
841.000000	33.208751
842.000000	33.247647
843.000000	33.283155
844.000000	33.322392
845.000000	33.360367
846.000000	33.397927
847.000000	33.434566
848.000000	33.472220
849.000000	33.505324
850.000000	33.540015
851.000000	33.580012
852.000000	33.616125
853.000000	33.649585
854.000000	33.679161
855.000000	33.716672
856.000000	33.748547
857.000000	33.785156
858.000000	33.815334
859.000000	33.866720
860.000000	33.921945
861.000000	33.971120
862.000000	34.023029
863.000000	34.088968
864.000000	34.142894
865.000000	34.222342
866.000000	34.287208
867.000000	34.330573
868.000000	34.371926
869.000000	34.430959
870.000000	34.477178
871.000000	34.516996
872.000000	34.577327
873.000000	34.634244
874.000000	34.670831
875.000000	34.727193
876.000000	34.781800
877.000000	34.845757
878.000000	34.889756
879.000000	34.936215
880.000000	34.984275
881.000000	35.032464
882.000000	35.077561
883.000000	35.125106
884.000000	35.181512
885.000000	35.229126
886.000000	35.272045
887.000000	35.323816
888.000000	35.376659
889.000000	35.426293
890.000000	35.466880
891.000000	35.528712
892.000000	35.563363
893.000000	35.598119
894.000000	35.649697
895.000000	35.680297
896.000000	35.696627
897.000000	35.729790
898.000000	35.767105
899.000000	35.783010
900.000000	35.784358
901.000000	35.791871
902.000000	35.818375
903.000000	35.845345
904.000000	35.871045
905.000000	35.905639
906.000000	35.937807
907.000000	35.955340
908.000000	35.967153
909.000000	36.010552
910.000000	36.032488
911.000000	36.062573
912.000000	36.061141
913.000000	36.090190
914.000000	36.111801
915.000000	36.150320
916.000000	36.181680
917.000000	36.215083
918.000000	36.240086
919.000000	36.250901
920.000000	36.286189
921.000000	36.310820
922.000000	36.338119
923.000000	36.365672
924.000000	36.383552
925.000000	36.417053
926.000000	36.419713
927.000000	36.445978
928.000000	36.486521
929.000000	36.492970
930.000000	36.507878
931.000000	36.549149
932.000000	36.550321
933.000000	36.535892
934.000000	36.573647
935.000000	36.611342
936.000000	36.638607
937.000000	36.648947
938.000000	36.671994
939.000000	36.684764
940.000000	36.693556
941.000000	36.702702
942.000000	36.723559
943.000000	36.752935
944.000000	36.764370
945.000000	36.771251
946.000000	36.787147
947.000000	36.821564
948.000000	36.829763
949.000000	36.841677
950.000000	36.834188
951.000000	36.826829
952.000000	36.823181
953.000000	36.824953
954.000000	36.849601
955.000000	36.851636
956.000000	36.854864
957.000000	36.866177
958.000000	36.878897
959.000000	36.891139
960.000000	36.882897
961.000000	36.907617
962.000000	36.926840
963.000000	36.938791
964.000000	36.958256
965.000000	36.971139
966.000000	36.980835
967.000000	36.998189
968.000000	37.013765
969.000000	37.020523
970.000000	37.014470
971.000000	37.042334
972.000000	37.081363
973.000000	37.088633
974.000000	37.098519
975.000000	37.123578
976.000000	37.140027
977.000000	37.141828
978.000000	37.158944
979.000000	37.168148
980.000000	37.172900
981.000000	37.164060
982.000000	37.163187
983.000000	37.190813
984.000000	37.212556
985.000000	37.231248
986.000000	37.256265
987.000000	37.269862
988.000000	37.286239
989.000000	37.302385
990.000000	37.316479
991.000000	37.330749
992.000000	37.331495
993.000000	37.328280
994.000000	37.336935
995.000000	37.365813
996.000000	37.370813
997.000000	37.364938
998.000000	37.372559
999.000000	37.378898
1000.000000	37.401836
1001.000000	37.412456
1002.000000	37.424287
1003.000000	37.433603
1004.000000	37.438653
1005.000000	37.449284
1006.000000	37.435332
1007.000000	37.436960
1008.000000	37.455281
1009.000000	37.455278
1010.000000	37.458906
1011.000000	37.481340
1012.000000	37.479614
1013.000000	37.457589
1014.000000	37.462325
1015.000000	37.480417
1016.000000	37.502912
1017.000000	37.507701
1018.000000	37.503967
1019.000000	37.514476
1020.000000	37.529196
1021.000000	37.542609
1022.000000	37.552443
1023.000000	37.562136
1024.000000	37.572673
1025.000000	37.587408
1026.000000	37.599789
1027.000000	37.607247
1028.000000	37.618414
1029.000000	37.632975
1030.000000	37.648983
1031.000000	37.659417
1032.000000	37.682859
1033.000000	37.701524
1034.000000	37.726228
1035.000000	37.744419
1036.000000	37.755073
1037.000000	37.770784
1038.000000	37.792973
1039.000000	37.812073
1040.000000	37.827091
1041.000000	37.855556
1042.000000	37.878851
1043.000000	37.889569
1044.000000	37.910268
1045.000000	37.921721
1046.000000	37.932547
1047.000000	37.962883
1048.000000	38.003069
1049.000000	38.020356
1050.000000	38.028848
1051.000000	38.043278
1052.000000	38.059069
1053.000000	38.065470
1054.000000	38.085667
1055.000000	38.100072
1056.000000	38.120249
1057.000000	38.138714
1058.000000	38.153585
1059.000000	38.155864
1060.000000	38.168025
1061.000000	38.190237
1062.000000	38.191758
1063.000000	38.195565
1064.000000	38.218635
1065.000000	38.228936
1066.000000	38.237789
1067.000000	38.254050
1068.000000	38.264654
1069.000000	38.243478
1070.000000	38.231043
1071.000000	38.232213
1072.000000	38.232968
1073.000000	38.220933
1074.000000	38.221231
1075.000000	38.215602
1076.000000	38.215357
1077.000000	38.218597
1078.000000	38.243649
1079.000000	38.256436
1080.000000	38.255906
1081.000000	38.251679
1082.000000	38.250617
1083.000000	38.257374
1084.000000	38.277648
1085.000000	38.302739
1086.000000	38.299272
1087.000000	38.313691
1088.000000	38.331435
1089.000000	38.317617
1090.000000	38.317330
1091.000000	38.330237
1092.000000	38.343155
1093.000000	38.369750
1094.000000	38.381536
1095.000000	38.377948
1096.000000	38.403438
1097.000000	38.425213
1098.000000	38.449918
1099.000000	38.460763
1100.000000	38.476658
1101.000000	38.487656
1102.000000	38.486285
1103.000000	38.500919
1104.000000	38.514812
1105.000000	38.522620
1106.000000	38.548391
1107.000000	38.582683
1108.000000	38.606787
1109.000000	38.612353
1110.000000	38.626105
1111.000000	38.641422
1112.000000	38.640964
1113.000000	38.638725
1114.000000	38.645180
1115.000000	38.701934
1116.000000	38.721804
1117.000000	38.734170
1118.000000	38.739764
1119.000000	38.738818
1120.000000	38.731529
1121.000000	38.735569
1122.000000	38.753999
1123.000000	38.817691
1124.000000	38.814387
1125.000000	38.839865
1126.000000	38.819451
1127.000000	38.844955
1128.000000	38.833792
1129.000000	38.879208
1130.000000	38.892421
1131.000000	38.863967
1132.000000	38.878399
1133.000000	38.889590
1134.000000	38.922409
1135.000000	38.903582
1136.000000	38.888426
1137.000000	38.896162
1138.000000	38.885213
1139.000000	38.897379
1140.000000	38.934170
1141.000000	38.940153
1142.000000	38.937121
1143.000000	38.959329
1144.000000	38.956464
1145.000000	38.957274
1146.000000	38.945680
1147.000000	38.957240
1148.000000	38.963609
1149.000000	38.977214
1150.000000	38.920216
1151.000000	38.894393
1152.000000	38.906111
1153.000000	38.895090
1154.000000	38.893609
1155.000000	38.899934
1156.000000	38.934222
1157.000000	38.942396
1158.000000	38.894475
1159.000000	38.906314
1160.000000	38.888976
1161.000000	38.911100
1162.000000	38.897951
1163.000000	38.885513
1164.000000	38.839919
1165.000000	38.830492
1166.000000	38.835842
1167.000000	38.842356
1168.000000	38.821329
1169.000000	38.776245
1170.000000	38.766421
1171.000000	38.757844
1172.000000	38.745206
1173.000000	38.731644
1174.000000	38.723571
1175.000000	38.672438
1176.000000	38.646531
1177.000000	38.602299
1178.000000	38.578629
1179.000000	38.577797
1180.000000	38.571174
1181.000000	38.576318
1182.000000	38.567210
1183.000000	38.552212
1184.000000	38.550556
1185.000000	38.566817
1186.000000	38.579355
1187.000000	38.559787
1188.000000	38.562418
1189.000000	38.552458
1190.000000	38.563223
1191.000000	38.519393
1192.000000	38.481398
1193.000000	38.464828
1194.000000	38.468331
1195.000000	38.453194
1196.000000	38.431555
1197.000000	38.440701
1198.000000	38.466267
1199.000000	38.478546
1200.000000	38.490541
1201.000000	38.502889
1202.000000	38.471651
1203.000000	38.482850
1204.000000	38.506571
1205.000000	38.530177
