PE UV       SUBTECH     SPECTRUM    ASCII       PEDS        4.00        
   -1
C.KALI.LA22-TX3.ASC
23/11/29
12:03:47.00
23/11/29
12:03:47.00
Vinicio Soto Monge
CHRYSINA KALININI LA AMISTAD 2022
250,000000
1
Lambda 1050
1050L1511233
PerkinElmer UV WinLab 6.3.2.0749 / 2.02.05 Lambda 900 UV/VIS/NIR, Aug  7 2015 09:38:08

0
0
3350/servo 860,8/2
0
0
UV/VIS
1
1
1
DoubleDePol,CommonBeamDepol,RBeamAtt,SBeamAtt,60mm sphere, WB InGaAs Detector
0
0
0
0
Program
Program
3350/servo 860,8/2
3350/0,4 860,8/0,4
3350/0,4 860,8/0,4
0
20.00
 
 
 
0
 
860,8
319,2
860,8
Front
100
on
S:100 R:100
0
0
0
0
 
0
 
 
 
0
 
 
0
0
0
0
0
 
 
 
 
0
0


0
0
#HDR
-1
-1
#GR
nm
%T
1.0
0.0
2200,000000
-1,000000
1951
8
69,631353
0,398215
#DATA
284.000000	4.565339
285.000000	4.430388
286.000000	4.302831
287.000000	4.177853
288.000000	4.058591
289.000000	3.942125
290.000000	3.829837
291.000000	3.722522
292.000000	3.617061
293.000000	3.516038
294.000000	3.418187
295.000000	3.323712
296.000000	3.233450
297.000000	3.146295
298.000000	3.060313
299.000000	2.978445
300.000000	2.899362
301.000000	2.823798
302.000000	2.750476
303.000000	2.679794
304.000000	2.611087
305.000000	2.544096
306.000000	2.480943
307.000000	2.418760
308.000000	2.358719
309.000000	2.301776
310.000000	2.245887
311.000000	2.191804
312.000000	2.139319
313.000000	2.088374
314.000000	2.039368
315.000000	1.991648
316.000000	1.944314
317.000000	1.895889
318.000000	1.848552
319.000000	1.800906
320.000000	1.756276
321.000000	1.714490
322.000000	1.674059
323.000000	1.634208
324.000000	1.595252
325.000000	1.557611
326.000000	1.519754
327.000000	1.482998
328.000000	1.448738
329.000000	1.415056
330.000000	1.383682
331.000000	1.353618
332.000000	1.323731
333.000000	1.295014
334.000000	1.267063
335.000000	1.240157
336.000000	1.213676
337.000000	1.188420
338.000000	1.164230
339.000000	1.141049
340.000000	1.120002
341.000000	1.098109
342.000000	1.077939
343.000000	1.058768
344.000000	1.039699
345.000000	1.020786
346.000000	1.002607
347.000000	0.985948
348.000000	0.969734
349.000000	0.954038
350.000000	0.938867
351.000000	0.925801
352.000000	0.916501
353.000000	0.907815
354.000000	0.901193
355.000000	0.894229
356.000000	0.885587
357.000000	0.877453
358.000000	0.869784
359.000000	0.864139
360.000000	0.857948
361.000000	0.852584
362.000000	0.848679
363.000000	0.843109
364.000000	0.839144
365.000000	0.834554
366.000000	0.829686
367.000000	0.825806
368.000000	0.822290
369.000000	0.819158
370.000000	0.816116
371.000000	0.813126
372.000000	0.810357
373.000000	0.807865
374.000000	0.805242
375.000000	0.802503
376.000000	0.800593
377.000000	0.798614
378.000000	0.796635
379.000000	0.794494
380.000000	0.793088
381.000000	0.792003
382.000000	0.790656
383.000000	0.789675
384.000000	0.788711
385.000000	0.787656
386.000000	0.786476
387.000000	0.785506
388.000000	0.784660
389.000000	0.783507
390.000000	0.782144
391.000000	0.781689
392.000000	0.781690
393.000000	0.781680
394.000000	0.781051
395.000000	0.781032
396.000000	0.781238
397.000000	0.781128
398.000000	0.781192
399.000000	0.781089
400.000000	0.780972
401.000000	0.781232
402.000000	0.781173
403.000000	0.781062
404.000000	0.781028
405.000000	0.780664
406.000000	0.780567
407.000000	0.780683
408.000000	0.780679
409.000000	0.780662
410.000000	0.780259
411.000000	0.779863
412.000000	0.779767
413.000000	0.779596
414.000000	0.779444
415.000000	0.779372
416.000000	0.779269
417.000000	0.779018
418.000000	0.778715
419.000000	0.778444
420.000000	0.778257
421.000000	0.778021
422.000000	0.777694
423.000000	0.777380
424.000000	0.777103
425.000000	0.776903
426.000000	0.776609
427.000000	0.776222
428.000000	0.775796
429.000000	0.775368
430.000000	0.775022
431.000000	0.774749
432.000000	0.774443
433.000000	0.774061
434.000000	0.773663
435.000000	0.773329
436.000000	0.772926
437.000000	0.772527
438.000000	0.772195
439.000000	0.771910
440.000000	0.771540
441.000000	0.771248
442.000000	0.771120
443.000000	0.771069
444.000000	0.770873
445.000000	0.770601
446.000000	0.770342
447.000000	0.770081
448.000000	0.769823
449.000000	0.769568
450.000000	0.769417
451.000000	0.769268
452.000000	0.769144
453.000000	0.769059
454.000000	0.769019
455.000000	0.768921
456.000000	0.768796
457.000000	0.768645
458.000000	0.768462
459.000000	0.768312
460.000000	0.768166
461.000000	0.768097
462.000000	0.768123
463.000000	0.768147
464.000000	0.768136
465.000000	0.768023
466.000000	0.767861
467.000000	0.767753
468.000000	0.767651
469.000000	0.767589
470.000000	0.767480
471.000000	0.767336
472.000000	0.767234
473.000000	0.767144
474.000000	0.767054
475.000000	0.767021
476.000000	0.766947
477.000000	0.766770
478.000000	0.766585
479.000000	0.766621
480.000000	0.766717
481.000000	0.766846
482.000000	0.767011
483.000000	0.767242
484.000000	0.767465
485.000000	0.767617
486.000000	0.767714
487.000000	0.767844
488.000000	0.767986
489.000000	0.768061
490.000000	0.768193
491.000000	0.768292
492.000000	0.768417
493.000000	0.768632
494.000000	0.768829
495.000000	0.768901
496.000000	0.768994
497.000000	0.768997
498.000000	0.768967
499.000000	0.768912
500.000000	0.768835
501.000000	0.768766
502.000000	0.768723
503.000000	0.768609
504.000000	0.768356
505.000000	0.768064
506.000000	0.767778
507.000000	0.767413
508.000000	0.767072
509.000000	0.766636
510.000000	0.766162
511.000000	0.765686
512.000000	0.765199
513.000000	0.764587
514.000000	0.763894
515.000000	0.763170
516.000000	0.762424
517.000000	0.761652
518.000000	0.760875
519.000000	0.760171
520.000000	0.759386
521.000000	0.758603
522.000000	0.757868
523.000000	0.757127
524.000000	0.756446
525.000000	0.755776
526.000000	0.755238
527.000000	0.754776
528.000000	0.754320
529.000000	0.753909
530.000000	0.753659
531.000000	0.753427
532.000000	0.753364
533.000000	0.753479
534.000000	0.753686
535.000000	0.754134
536.000000	0.754705
537.000000	0.755371
538.000000	0.756248
539.000000	0.757424
540.000000	0.758771
541.000000	0.760294
542.000000	0.761985
543.000000	0.763930
544.000000	0.766112
545.000000	0.768529
546.000000	0.771311
547.000000	0.774349
548.000000	0.777713
549.000000	0.781462
550.000000	0.785553
551.000000	0.789916
552.000000	0.794675
553.000000	0.799899
554.000000	0.805505
555.000000	0.811561
556.000000	0.818130
557.000000	0.825188
558.000000	0.832810
559.000000	0.840833
560.000000	0.849402
561.000000	0.858620
562.000000	0.868368
563.000000	0.878774
564.000000	0.889868
565.000000	0.901687
566.000000	0.914275
567.000000	0.927572
568.000000	0.941701
569.000000	0.956707
570.000000	0.972489
571.000000	0.989273
572.000000	1.007037
573.000000	1.025677
574.000000	1.045377
575.000000	1.066280
576.000000	1.088055
577.000000	1.110991
578.000000	1.134919
579.000000	1.160120
580.000000	1.186687
581.000000	1.214551
582.000000	1.243791
583.000000	1.274608
584.000000	1.306854
585.000000	1.340810
586.000000	1.376501
587.000000	1.413873
588.000000	1.453137
589.000000	1.494352
590.000000	1.537529
591.000000	1.583018
592.000000	1.630494
593.000000	1.680097
594.000000	1.732108
595.000000	1.786409
596.000000	1.842883
597.000000	1.901660
598.000000	1.962807
599.000000	2.026495
600.000000	2.092425
601.000000	2.160663
602.000000	2.231557
603.000000	2.304815
604.000000	2.380386
605.000000	2.458281
606.000000	2.538414
607.000000	2.620865
608.000000	2.705651
609.000000	2.792648
610.000000	2.881698
611.000000	2.973115
612.000000	3.066194
613.000000	3.161105
614.000000	3.257583
615.000000	3.355452
616.000000	3.454372
617.000000	3.554416
618.000000	3.655465
619.000000	3.757338
620.000000	3.859702
621.000000	3.962669
622.000000	4.066151
623.000000	4.169704
624.000000	4.273556
625.000000	4.377286
626.000000	4.480726
627.000000	4.583969
628.000000	4.687043
629.000000	4.789644
630.000000	4.891659
631.000000	4.993014
632.000000	5.093762
633.000000	5.193477
634.000000	5.291599
635.000000	5.388512
636.000000	5.483776
637.000000	5.576997
638.000000	5.668187
639.000000	5.757309
640.000000	5.844334
641.000000	5.929304
642.000000	6.012001
643.000000	6.092803
644.000000	6.171482
645.000000	6.248245
646.000000	6.323022
647.000000	6.396766
648.000000	6.469319
649.000000	6.540991
650.000000	6.611834
651.000000	6.682537
652.000000	6.752804
653.000000	6.822992
654.000000	6.893294
655.000000	6.963764
656.000000	7.034191
657.000000	7.104685
658.000000	7.175087
659.000000	7.244893
660.000000	7.314155
661.000000	7.382317
662.000000	7.449705
663.000000	7.515779
664.000000	7.580261
665.000000	7.642808
666.000000	7.703116
667.000000	7.760839
668.000000	7.816339
669.000000	7.869756
670.000000	7.920640
671.000000	7.969205
672.000000	8.015510
673.000000	8.059386
674.000000	8.101390
675.000000	8.141438
676.000000	8.179597
677.000000	8.216032
678.000000	8.250598
679.000000	8.283462
680.000000	8.314353
681.000000	8.343484
682.000000	8.370499
683.000000	8.395226
684.000000	8.417493
685.000000	8.437245
686.000000	8.454067
687.000000	8.467727
688.000000	8.477759
689.000000	8.484084
690.000000	8.486369
691.000000	8.484475
692.000000	8.478384
693.000000	8.468319
694.000000	8.454277
695.000000	8.436452
696.000000	8.415152
697.000000	8.390360
698.000000	8.362192
699.000000	8.330710
700.000000	8.296214
701.000000	8.259347
702.000000	8.220524
703.000000	8.179346
704.000000	8.136004
705.000000	8.091292
706.000000	8.045005
707.000000	7.997139
708.000000	7.948268
709.000000	7.897740
710.000000	7.845759
711.000000	7.792125
712.000000	7.736819
713.000000	7.679711
714.000000	7.620415
715.000000	7.558987
716.000000	7.495417
717.000000	7.429476
718.000000	7.361409
719.000000	7.290939
720.000000	7.218119
721.000000	7.143072
722.000000	7.066262
723.000000	6.987784
724.000000	6.907732
725.000000	6.826588
726.000000	6.744688
727.000000	6.662481
728.000000	6.579944
729.000000	6.497382
730.000000	6.415343
731.000000	6.334129
732.000000	6.253887
733.000000	6.174971
734.000000	6.097747
735.000000	6.022404
736.000000	5.949044
737.000000	5.878036
738.000000	5.809670
739.000000	5.743884
740.000000	5.680379
741.000000	5.619886
742.000000	5.562621
743.000000	5.508140
744.000000	5.456596
745.000000	5.408081
746.000000	5.362508
747.000000	5.319906
748.000000	5.280260
749.000000	5.243916
750.000000	5.210778
751.000000	5.180543
752.000000	5.153469
753.000000	5.129786
754.000000	5.109322
755.000000	5.091635
756.000000	5.077156
757.000000	5.066057
758.000000	5.058261
759.000000	5.053815
760.000000	5.052801
761.000000	5.055153
762.000000	5.060656
763.000000	5.069258
764.000000	5.081188
765.000000	5.096471
766.000000	5.114965
767.000000	5.136260
768.000000	5.160275
769.000000	5.187838
770.000000	5.218823
771.000000	5.252619
772.000000	5.289213
773.000000	5.328546
774.000000	5.371060
775.000000	5.416858
776.000000	5.465078
777.000000	5.516161
778.000000	5.569385
779.000000	5.625381
780.000000	5.684845
781.000000	5.747194
782.000000	5.812992
783.000000	5.882282
784.000000	5.954941
785.000000	6.031582
786.000000	6.112143
787.000000	6.196348
788.000000	6.284800
789.000000	6.378152
790.000000	6.477117
791.000000	6.581300
792.000000	6.690513
793.000000	6.804095
794.000000	6.922652
795.000000	7.046486
796.000000	7.175262
797.000000	7.308108
798.000000	7.445581
799.000000	7.587837
800.000000	7.734748
801.000000	7.886455
802.000000	8.043523
803.000000	8.204770
804.000000	8.370155
805.000000	8.539804
806.000000	8.714570
807.000000	8.892586
808.000000	9.075119
809.000000	9.261041
810.000000	9.451285
811.000000	9.645155
812.000000	9.842970
813.000000	10.045552
814.000000	10.253314
815.000000	10.463450
816.000000	10.677906
817.000000	10.895309
818.000000	11.116280
819.000000	11.341534
820.000000	11.569383
821.000000	11.801310
822.000000	12.037232
823.000000	12.276851
824.000000	12.517942
825.000000	12.763350
826.000000	13.008725
827.000000	13.255262
828.000000	13.504266
829.000000	13.757122
830.000000	14.011758
831.000000	14.268168
832.000000	14.527749
833.000000	14.789402
834.000000	15.050526
835.000000	15.311586
836.000000	15.573750
837.000000	15.838539
838.000000	16.103464
839.000000	16.366249
840.000000	16.628054
841.000000	16.889200
842.000000	17.150623
843.000000	17.411781
844.000000	17.673312
845.000000	17.933018
846.000000	18.188850
847.000000	18.442235
848.000000	18.695566
849.000000	18.944838
850.000000	19.196815
851.000000	19.445236
852.000000	19.690604
853.000000	19.937355
854.000000	20.180241
855.000000	20.416658
856.000000	20.655421
857.000000	20.891544
858.000000	21.146644
859.000000	21.357726
860.000000	21.588424
861.000000	21.805279
862.000000	22.044475
863.000000	22.269953
864.000000	22.489869
865.000000	22.714007
866.000000	22.942583
867.000000	23.168257
868.000000	23.388022
869.000000	23.582369
870.000000	23.806598
871.000000	24.017474
872.000000	24.212292
873.000000	24.415083
874.000000	24.621128
875.000000	24.812951
876.000000	25.011856
877.000000	25.220873
878.000000	25.403926
879.000000	25.587841
880.000000	25.781673
881.000000	25.979508
882.000000	26.187821
883.000000	26.374094
884.000000	26.555889
885.000000	26.742305
886.000000	26.931310
887.000000	27.108256
888.000000	27.291044
889.000000	27.460945
890.000000	27.646510
891.000000	27.825455
892.000000	28.018284
893.000000	28.176740
894.000000	28.376562
895.000000	28.543357
896.000000	28.724156
897.000000	28.885267
898.000000	29.047907
899.000000	29.214865
900.000000	29.366548
901.000000	29.522042
902.000000	29.677302
903.000000	29.831417
904.000000	30.011034
905.000000	30.161221
906.000000	30.323840
907.000000	30.497667
908.000000	30.660909
909.000000	30.807465
910.000000	30.982874
911.000000	31.136700
912.000000	31.294885
913.000000	31.469110
914.000000	31.620675
915.000000	31.774506
916.000000	31.928452
917.000000	32.073281
918.000000	32.242173
919.000000	32.421994
920.000000	32.577093
921.000000	32.732707
922.000000	32.906945
923.000000	33.068806
924.000000	33.230375
925.000000	33.383899
926.000000	33.546361
927.000000	33.684973
928.000000	33.838380
929.000000	33.997180
930.000000	34.157376
931.000000	34.327544
932.000000	34.483825
933.000000	34.643722
934.000000	34.795725
935.000000	34.973298
936.000000	35.130040
937.000000	35.285625
938.000000	35.436279
939.000000	35.583976
940.000000	35.725191
941.000000	35.866076
942.000000	35.998541
943.000000	36.136363
944.000000	36.285956
945.000000	36.412533
946.000000	36.563135
947.000000	36.686728
948.000000	36.816034
949.000000	36.974628
950.000000	37.124907
951.000000	37.263347
952.000000	37.384396
953.000000	37.499273
954.000000	37.628246
955.000000	37.773210
956.000000	37.912175
957.000000	38.034360
958.000000	38.170135
959.000000	38.322523
960.000000	38.462401
961.000000	38.603727
962.000000	38.745411
963.000000	38.877940
964.000000	39.012622
965.000000	39.150490
966.000000	39.289363
967.000000	39.441955
968.000000	39.586917
969.000000	39.740078
970.000000	39.878521
971.000000	40.006208
972.000000	40.131197
973.000000	40.278551
974.000000	40.427959
975.000000	40.583828
976.000000	40.726324
977.000000	40.875670
978.000000	41.026435
979.000000	41.184391
980.000000	41.332680
981.000000	41.469749
982.000000	41.622546
983.000000	41.778356
984.000000	41.916894
985.000000	42.046575
986.000000	42.184852
987.000000	42.327999
988.000000	42.467328
989.000000	42.599755
990.000000	42.735283
991.000000	42.873893
992.000000	43.029888
993.000000	43.173456
994.000000	43.308667
995.000000	43.447342
996.000000	43.582968
997.000000	43.726216
998.000000	43.869693
999.000000	44.016230
1000.000000	44.163154
1001.000000	44.286669
1002.000000	44.406314
1003.000000	44.547519
1004.000000	44.679999
1005.000000	44.806581
1006.000000	44.949403
1007.000000	45.091113
1008.000000	45.217309
1009.000000	45.340310
1010.000000	45.469115
1011.000000	45.612008
1012.000000	45.750614
1013.000000	45.884114
1014.000000	46.015824
1015.000000	46.157346
1016.000000	46.291904
1017.000000	46.421954
1018.000000	46.556800
1019.000000	46.698781
1020.000000	46.849201
1021.000000	46.997674
1022.000000	47.157626
1023.000000	47.325311
1024.000000	47.472429
1025.000000	47.595855
1026.000000	47.710790
1027.000000	47.825161
1028.000000	47.945724
1029.000000	48.071648
1030.000000	48.202316
1031.000000	48.328334
1032.000000	48.459358
1033.000000	48.584981
1034.000000	48.710384
1035.000000	48.846418
1036.000000	48.982032
1037.000000	49.109043
1038.000000	49.230514
1039.000000	49.342252
1040.000000	49.455589
1041.000000	49.582784
1042.000000	49.710565
1043.000000	49.833155
1044.000000	49.952247
1045.000000	50.072025
1046.000000	50.188429
1047.000000	50.296925
1048.000000	50.401906
1049.000000	50.499204
1050.000000	50.597538
1051.000000	50.713155
1052.000000	50.822900
1053.000000	50.931421
1054.000000	51.047832
1055.000000	51.148957
1056.000000	51.251545
1057.000000	51.342752
1058.000000	51.430263
1059.000000	51.529050
1060.000000	51.648224
1061.000000	51.765383
1062.000000	51.876442
1063.000000	51.973037
1064.000000	52.063398
1065.000000	52.161748
1066.000000	52.266150
1067.000000	52.352972
1068.000000	52.447805
1069.000000	52.531349
1070.000000	52.624942
1071.000000	52.713254
1072.000000	52.814079
1073.000000	52.908293
1074.000000	53.004962
1075.000000	53.102290
1076.000000	53.191856
1077.000000	53.293265
1078.000000	53.395216
1079.000000	53.509899
1080.000000	53.597661
1081.000000	53.683759
1082.000000	53.788935
1083.000000	53.914143
1084.000000	54.009168
1085.000000	54.109214
1086.000000	54.195381
1087.000000	54.288971
1088.000000	54.390723
1089.000000	54.462028
1090.000000	54.550581
1091.000000	54.638187
1092.000000	54.733329
1093.000000	54.820787
1094.000000	54.904709
1095.000000	54.974834
1096.000000	55.049137
1097.000000	55.136899
1098.000000	55.223833
1099.000000	55.313607
1100.000000	55.398864
1101.000000	55.470879
1102.000000	55.562670
1103.000000	55.631428
1104.000000	55.701335
1105.000000	55.753245
1106.000000	55.826593
1107.000000	55.900601
1108.000000	55.956327
1109.000000	56.019370
1110.000000	56.074842
1111.000000	56.144020
1112.000000	56.190927
1113.000000	56.242143
1114.000000	56.283651
1115.000000	56.347502
1116.000000	56.402777
1117.000000	56.454939
1118.000000	56.501776
1119.000000	56.560438
1120.000000	56.622112
1121.000000	56.691542
1122.000000	56.747286
1123.000000	56.802425
1124.000000	56.855584
1125.000000	56.929612
1126.000000	56.985490
1127.000000	57.026723
1128.000000	57.075241
1129.000000	57.117487
1130.000000	57.174591
1131.000000	57.226463
1132.000000	57.261952
1133.000000	57.321751
1134.000000	57.413645
1135.000000	57.437349
1136.000000	57.460919
1137.000000	57.493016
1138.000000	57.556829
1139.000000	57.616988
1140.000000	57.666741
1141.000000	57.705759
1142.000000	57.747871
1143.000000	57.808582
1144.000000	57.861604
1145.000000	57.918210
1146.000000	57.984140
1147.000000	58.044918
1148.000000	58.089092
1149.000000	58.149796
1150.000000	58.178852
1151.000000	58.228164
1152.000000	58.308329
1153.000000	58.328330
1154.000000	58.374960
1155.000000	58.428907
1156.000000	58.462203
1157.000000	58.506599
1158.000000	58.516326
1159.000000	58.569219
1160.000000	58.579714
1161.000000	58.609398
1162.000000	58.667825
1163.000000	58.702269
1164.000000	58.756913
1165.000000	58.793859
1166.000000	58.841716
1167.000000	58.894667
1168.000000	58.920058
1169.000000	58.924869
1170.000000	58.976136
1171.000000	59.017623
1172.000000	59.051501
1173.000000	59.068546
1174.000000	59.093569
1175.000000	59.128959
1176.000000	59.151955
1177.000000	59.179874
1178.000000	59.191277
1179.000000	59.234640
1180.000000	59.272217
1181.000000	59.279624
1182.000000	59.287977
1183.000000	59.323726
1184.000000	59.341238
1185.000000	59.374882
1186.000000	59.392015
1187.000000	59.376900
1188.000000	59.412399
1189.000000	59.441535
1190.000000	59.455068
1191.000000	59.486922
1192.000000	59.513272
1193.000000	59.549475
1194.000000	59.568227
1195.000000	59.591362
1196.000000	59.625012
1197.000000	59.628764
1198.000000	59.650428
1199.000000	59.659974
1200.000000	59.675915
1201.000000	59.694103
1202.000000	59.715865
1203.000000	59.749142
1204.000000	59.759406
1205.000000	59.799191
1206.000000	59.838286
1207.000000	59.865434
1208.000000	59.904837
1209.000000	59.938543
1210.000000	59.960315
1211.000000	59.993243
1212.000000	60.010495
1213.000000	60.049667
1214.000000	60.063956
1215.000000	60.076966
1216.000000	60.098696
