PE UV       SUBTECH     SPECTRUM    ASCII       PEDS        4.00        
   -1
C.RESP.MV23-TX3.ASC
23/11/29
12:37:13.00
23/11/29
12:37:13.00
Vinicio Soto Monge
C. RESPLENDENS
250,000000
1
Lambda 1050
1050L1511233
PerkinElmer UV WinLab 6.3.2.0749 / 2.02.05 Lambda 900 UV/VIS/NIR, Aug  7 2015 09:38:08

0
0
3350/servo 860,8/2
0
0
UV/VIS
1
1
1
DoubleDePol,CommonBeamDepol,RBeamAtt,SBeamAtt,60mm sphere, WB InGaAs Detector
0
0
0
0
Program
Program
3350/servo 860,8/2
3350/0,4 860,8/0,4
3350/0,4 860,8/0,4
0
20.00
 
 
 
0
 
860,8
319,2
860,8
Front
100
on
S:100 R:100
0
0
0
0
 
0
 
 
 
0
 
 
0
0
0
0
0
 
 
 
 
0
0


0
0
#HDR
-1
-1
#GR
nm
%T
1.0
0.0
2200,000000
-1,000000
1951
8
73,589983
0,239045
#DATA
284.000000	0.310125
285.000000	0.309673
286.000000	0.310412
287.000000	0.310446
288.000000	0.311076
289.000000	0.311580
290.000000	0.312054
291.000000	0.312711
292.000000	0.313115
293.000000	0.313593
294.000000	0.314195
295.000000	0.315043
296.000000	0.315546
297.000000	0.315907
298.000000	0.316101
299.000000	0.316289
300.000000	0.316425
301.000000	0.317049
302.000000	0.317381
303.000000	0.317764
304.000000	0.318051
305.000000	0.318748
306.000000	0.319707
307.000000	0.320115
308.000000	0.320505
309.000000	0.321446
310.000000	0.322439
311.000000	0.323207
312.000000	0.324221
313.000000	0.325513
314.000000	0.326466
315.000000	0.327770
316.000000	0.328540
317.000000	0.329152
318.000000	0.332141
319.000000	0.332682
320.000000	0.333987
321.000000	0.336277
322.000000	0.339236
323.000000	0.341507
324.000000	0.342914
325.000000	0.344280
326.000000	0.346071
327.000000	0.348220
328.000000	0.351112
329.000000	0.352980
330.000000	0.355591
331.000000	0.358096
332.000000	0.360505
333.000000	0.362676
334.000000	0.364848
335.000000	0.367199
336.000000	0.369304
337.000000	0.371422
338.000000	0.374014
339.000000	0.377107
340.000000	0.380015
341.000000	0.382770
342.000000	0.385554
343.000000	0.388302
344.000000	0.391192
345.000000	0.393546
346.000000	0.396340
347.000000	0.399228
348.000000	0.401889
349.000000	0.404614
350.000000	0.407016
351.000000	0.410086
352.000000	0.413993
353.000000	0.415247
354.000000	0.419025
355.000000	0.422567
356.000000	0.424576
357.000000	0.426452
358.000000	0.429272
359.000000	0.432699
360.000000	0.435590
361.000000	0.438482
362.000000	0.441521
363.000000	0.443792
364.000000	0.447105
365.000000	0.449630
366.000000	0.452029
367.000000	0.455023
368.000000	0.458296
369.000000	0.461699
370.000000	0.465252
371.000000	0.469203
372.000000	0.473187
373.000000	0.476280
374.000000	0.478117
375.000000	0.480999
376.000000	0.484104
377.000000	0.486892
378.000000	0.489613
379.000000	0.491761
380.000000	0.494431
381.000000	0.496971
382.000000	0.499436
383.000000	0.502179
384.000000	0.504694
385.000000	0.507101
386.000000	0.509515
387.000000	0.511342
388.000000	0.513371
389.000000	0.515420
390.000000	0.517061
391.000000	0.519069
392.000000	0.520799
393.000000	0.522374
394.000000	0.524011
395.000000	0.526003
396.000000	0.527733
397.000000	0.529329
398.000000	0.531106
399.000000	0.532602
400.000000	0.534291
401.000000	0.536298
402.000000	0.537855
403.000000	0.539361
404.000000	0.540631
405.000000	0.541542
406.000000	0.542001
407.000000	0.542671
408.000000	0.543774
409.000000	0.545514
410.000000	0.546458
411.000000	0.546922
412.000000	0.548303
413.000000	0.549574
414.000000	0.550791
415.000000	0.552050
416.000000	0.553283
417.000000	0.554420
418.000000	0.555509
419.000000	0.556671
420.000000	0.557783
421.000000	0.558772
422.000000	0.559691
423.000000	0.560609
424.000000	0.561467
425.000000	0.562281
426.000000	0.563124
427.000000	0.563975
428.000000	0.564775
429.000000	0.565512
430.000000	0.566215
431.000000	0.566881
432.000000	0.567514
433.000000	0.568143
434.000000	0.568721
435.000000	0.569256
436.000000	0.569784
437.000000	0.570340
438.000000	0.570825
439.000000	0.571326
440.000000	0.571916
441.000000	0.572526
442.000000	0.573073
443.000000	0.573616
444.000000	0.574102
445.000000	0.574600
446.000000	0.575080
447.000000	0.575579
448.000000	0.576235
449.000000	0.576936
450.000000	0.577604
451.000000	0.578337
452.000000	0.579095
453.000000	0.579826
454.000000	0.580534
455.000000	0.581295
456.000000	0.582178
457.000000	0.583013
458.000000	0.583878
459.000000	0.584846
460.000000	0.585818
461.000000	0.586786
462.000000	0.587735
463.000000	0.588775
464.000000	0.589956
465.000000	0.591104
466.000000	0.592343
467.000000	0.593618
468.000000	0.594980
469.000000	0.596389
470.000000	0.597859
471.000000	0.599452
472.000000	0.601087
473.000000	0.602731
474.000000	0.604479
475.000000	0.606267
476.000000	0.608083
477.000000	0.609918
478.000000	0.611800
479.000000	0.613783
480.000000	0.615833
481.000000	0.618026
482.000000	0.620282
483.000000	0.622588
484.000000	0.624982
485.000000	0.627443
486.000000	0.630018
487.000000	0.632790
488.000000	0.635713
489.000000	0.638771
490.000000	0.642087
491.000000	0.645477
492.000000	0.649104
493.000000	0.652926
494.000000	0.656980
495.000000	0.661269
496.000000	0.665757
497.000000	0.670478
498.000000	0.675377
499.000000	0.680430
500.000000	0.685851
501.000000	0.691522
502.000000	0.697470
503.000000	0.703695
504.000000	0.710122
505.000000	0.716779
506.000000	0.723566
507.000000	0.730604
508.000000	0.737942
509.000000	0.745392
510.000000	0.753010
511.000000	0.760719
512.000000	0.768572
513.000000	0.776436
514.000000	0.784335
515.000000	0.792261
516.000000	0.800161
517.000000	0.808130
518.000000	0.816008
519.000000	0.823861
520.000000	0.831744
521.000000	0.839591
522.000000	0.847253
523.000000	0.854842
524.000000	0.862413
525.000000	0.869718
526.000000	0.876963
527.000000	0.884107
528.000000	0.890993
529.000000	0.897795
530.000000	0.904484
531.000000	0.910924
532.000000	0.917295
533.000000	0.923581
534.000000	0.929732
535.000000	0.935712
536.000000	0.941510
537.000000	0.947150
538.000000	0.952596
539.000000	0.957929
540.000000	0.963205
541.000000	0.968549
542.000000	0.973886
543.000000	0.979200
544.000000	0.984447
545.000000	0.989713
546.000000	0.995021
547.000000	1.000479
548.000000	1.006146
549.000000	1.011929
550.000000	1.017948
551.000000	1.024072
552.000000	1.030418
553.000000	1.037030
554.000000	1.043883
555.000000	1.050967
556.000000	1.058325
557.000000	1.065982
558.000000	1.073874
559.000000	1.082033
560.000000	1.090442
561.000000	1.099168
562.000000	1.108176
563.000000	1.117579
564.000000	1.127175
565.000000	1.137209
566.000000	1.147679
567.000000	1.158513
568.000000	1.169629
569.000000	1.181235
570.000000	1.193210
571.000000	1.205693
572.000000	1.218620
573.000000	1.231941
574.000000	1.245942
575.000000	1.260405
576.000000	1.275221
577.000000	1.290450
578.000000	1.306099
579.000000	1.322350
580.000000	1.339183
581.000000	1.356595
582.000000	1.374563
583.000000	1.393097
584.000000	1.412357
585.000000	1.432497
586.000000	1.453676
587.000000	1.475867
588.000000	1.499215
589.000000	1.523973
590.000000	1.550113
591.000000	1.577865
592.000000	1.607414
593.000000	1.638857
594.000000	1.672386
595.000000	1.708315
596.000000	1.746711
597.000000	1.787545
598.000000	1.831098
599.000000	1.877409
600.000000	1.926416
601.000000	1.978607
602.000000	2.033837
603.000000	2.092439
604.000000	2.154462
605.000000	2.220291
606.000000	2.289939
607.000000	2.363821
608.000000	2.442175
609.000000	2.525036
610.000000	2.612996
611.000000	2.706326
612.000000	2.805346
613.000000	2.910360
614.000000	3.021844
615.000000	3.140136
616.000000	3.265625
617.000000	3.398784
618.000000	3.540113
619.000000	3.689950
620.000000	3.848485
621.000000	4.016137
622.000000	4.192867
623.000000	4.379120
624.000000	4.575038
625.000000	4.780284
626.000000	4.994737
627.000000	5.218298
628.000000	5.450500
629.000000	5.691254
630.000000	5.939940
631.000000	6.195927
632.000000	6.458101
633.000000	6.725786
634.000000	6.998026
635.000000	7.273328
636.000000	7.550246
637.000000	7.827780
638.000000	8.104580
639.000000	8.379059
640.000000	8.650134
641.000000	8.916427
642.000000	9.176434
643.000000	9.429606
644.000000	9.674538
645.000000	9.910045
646.000000	10.135332
647.000000	10.349556
648.000000	10.551930
649.000000	10.741705
650.000000	10.918172
651.000000	11.081175
652.000000	11.230190
653.000000	11.364596
654.000000	11.484419
655.000000	11.589653
656.000000	11.680023
657.000000	11.756085
658.000000	11.817256
659.000000	11.863459
660.000000	11.895443
661.000000	11.913416
662.000000	11.917687
663.000000	11.909071
664.000000	11.887764
665.000000	11.854349
666.000000	11.809320
667.000000	11.754256
668.000000	11.689927
669.000000	11.617323
670.000000	11.537976
671.000000	11.453306
672.000000	11.364494
673.000000	11.272656
674.000000	11.179372
675.000000	11.085722
676.000000	10.993093
677.000000	10.902865
678.000000	10.815148
679.000000	10.731174
680.000000	10.651909
681.000000	10.577839
682.000000	10.509586
683.000000	10.447467
684.000000	10.392243
685.000000	10.344100
686.000000	10.302883
687.000000	10.268569
688.000000	10.241134
689.000000	10.220322
690.000000	10.205878
691.000000	10.197601
692.000000	10.194873
693.000000	10.197376
694.000000	10.204636
695.000000	10.215982
696.000000	10.230905
697.000000	10.249166
698.000000	10.270002
699.000000	10.292743
700.000000	10.316571
701.000000	10.341307
702.000000	10.366626
703.000000	10.391791
704.000000	10.416409
705.000000	10.439905
706.000000	10.461752
707.000000	10.481849
708.000000	10.499839
709.000000	10.515063
710.000000	10.527561
711.000000	10.536958
712.000000	10.542705
713.000000	10.545369
714.000000	10.544743
715.000000	10.540412
716.000000	10.532534
717.000000	10.521092
718.000000	10.506327
719.000000	10.487822
720.000000	10.465858
721.000000	10.440343
722.000000	10.411258
723.000000	10.378591
724.000000	10.342600
725.000000	10.303262
726.000000	10.260376
727.000000	10.214374
728.000000	10.165693
729.000000	10.114395
730.000000	10.061040
731.000000	10.006158
732.000000	9.949493
733.000000	9.891513
734.000000	9.832488
735.000000	9.773270
736.000000	9.714293
737.000000	9.655669
738.000000	9.598203
739.000000	9.542585
740.000000	9.489217
741.000000	9.438392
742.000000	9.390620
743.000000	9.346435
744.000000	9.306673
745.000000	9.271130
746.000000	9.240453
747.000000	9.215458
748.000000	9.195750
749.000000	9.181368
750.000000	9.173074
751.000000	9.170840
752.000000	9.175072
753.000000	9.185751
754.000000	9.202522
755.000000	9.225466
756.000000	9.254626
757.000000	9.289862
758.000000	9.331535
759.000000	9.378972
760.000000	9.432387
761.000000	9.491932
762.000000	9.557148
763.000000	9.627279
764.000000	9.702516
765.000000	9.782693
766.000000	9.867615
767.000000	9.957166
768.000000	10.050083
769.000000	10.146499
770.000000	10.247054
771.000000	10.350765
772.000000	10.457501
773.000000	10.566774
774.000000	10.678913
775.000000	10.793627
776.000000	10.910767
777.000000	11.030550
778.000000	11.152023
779.000000	11.275352
780.000000	11.400830
781.000000	11.527597
782.000000	11.655835
783.000000	11.785501
784.000000	11.916639
785.000000	12.048899
786.000000	12.183299
787.000000	12.319055
788.000000	12.454685
789.000000	12.591627
790.000000	12.729745
791.000000	12.869102
792.000000	13.009784
793.000000	13.151239
794.000000	13.293810
795.000000	13.437112
796.000000	13.580801
797.000000	13.725510
798.000000	13.871120
799.000000	14.017849
800.000000	14.166635
801.000000	14.316519
802.000000	14.468720
803.000000	14.623376
804.000000	14.782135
805.000000	14.943353
806.000000	15.107650
807.000000	15.274204
808.000000	15.445892
809.000000	15.619778
810.000000	15.797539
811.000000	15.979830
812.000000	16.166411
813.000000	16.358212
814.000000	16.554011
815.000000	16.755316
816.000000	16.962576
817.000000	17.175766
818.000000	17.394924
819.000000	17.620531
820.000000	17.850833
821.000000	18.086393
822.000000	18.326515
823.000000	18.574655
824.000000	18.825620
825.000000	19.083067
826.000000	19.345075
827.000000	19.610961
828.000000	19.880001
829.000000	20.152909
830.000000	20.426582
831.000000	20.704257
832.000000	20.984639
833.000000	21.266460
834.000000	21.548234
835.000000	21.829644
836.000000	22.110515
837.000000	22.390560
838.000000	22.669375
839.000000	22.944397
840.000000	23.215535
841.000000	23.482669
842.000000	23.747687
843.000000	24.007246
844.000000	24.264139
845.000000	24.517275
846.000000	24.759988
847.000000	24.997857
848.000000	25.227326
849.000000	25.453572
850.000000	25.671032
851.000000	25.881646
852.000000	26.083400
853.000000	26.283024
854.000000	26.473875
855.000000	26.659486
856.000000	26.839540
857.000000	27.014154
858.000000	27.162226
859.000000	27.330188
860.000000	27.497010
861.000000	27.647706
862.000000	27.804954
863.000000	27.965467
864.000000	28.127272
865.000000	28.279339
866.000000	28.412514
867.000000	28.566525
868.000000	28.718650
869.000000	28.874938
870.000000	29.016920
871.000000	29.175964
872.000000	29.326603
873.000000	29.465758
874.000000	29.628183
875.000000	29.795392
876.000000	29.952453
877.000000	30.137836
878.000000	30.310361
879.000000	30.471561
880.000000	30.649231
881.000000	30.842584
882.000000	31.033669
883.000000	31.236491
884.000000	31.446121
885.000000	31.655983
886.000000	31.860283
887.000000	32.065426
888.000000	32.275550
889.000000	32.477719
890.000000	32.701490
891.000000	32.916360
892.000000	33.132540
893.000000	33.356857
894.000000	33.568283
895.000000	33.774305
896.000000	33.981551
897.000000	34.198292
898.000000	34.383211
899.000000	34.569940
900.000000	34.756748
901.000000	34.966783
902.000000	35.145949
903.000000	35.341760
904.000000	35.534355
905.000000	35.729722
906.000000	35.915779
907.000000	36.114632
908.000000	36.330795
909.000000	36.514502
910.000000	36.695563
911.000000	36.892224
912.000000	37.072701
913.000000	37.268357
914.000000	37.472430
915.000000	37.654156
916.000000	37.839570
917.000000	38.024144
918.000000	38.196313
919.000000	38.374350
920.000000	38.556495
921.000000	38.753804
922.000000	38.954936
923.000000	39.145362
924.000000	39.348759
925.000000	39.534197
926.000000	39.735317
927.000000	39.946508
928.000000	40.161711
929.000000	40.374818
930.000000	40.586362
931.000000	40.820791
932.000000	41.038520
933.000000	41.279785
934.000000	41.509737
935.000000	41.739098
936.000000	41.963142
937.000000	42.198819
938.000000	42.415364
939.000000	42.618331
940.000000	42.849558
941.000000	43.071671
942.000000	43.287285
943.000000	43.504700
944.000000	43.731083
945.000000	43.959198
946.000000	44.191002
947.000000	44.404462
948.000000	44.608415
949.000000	44.821759
950.000000	45.048620
951.000000	45.266525
952.000000	45.492981
953.000000	45.722575
954.000000	45.945310
955.000000	46.170778
956.000000	46.386181
957.000000	46.591763
958.000000	46.811070
959.000000	47.022975
960.000000	47.227738
961.000000	47.437835
962.000000	47.640150
963.000000	47.833396
964.000000	48.014955
965.000000	48.202523
966.000000	48.387727
967.000000	48.568184
968.000000	48.751737
969.000000	48.936391
970.000000	49.126808
971.000000	49.323579
972.000000	49.506594
973.000000	49.690481
974.000000	49.890448
975.000000	50.065240
976.000000	50.241705
977.000000	50.422560
978.000000	50.602178
979.000000	50.785040
980.000000	50.948460
981.000000	51.102037
982.000000	51.265282
983.000000	51.442346
984.000000	51.618969
985.000000	51.785606
986.000000	51.952428
987.000000	52.103543
988.000000	52.247325
989.000000	52.393518
990.000000	52.538783
991.000000	52.690727
992.000000	52.848620
993.000000	52.999026
994.000000	53.159191
995.000000	53.319039
996.000000	53.468325
997.000000	53.614121
998.000000	53.772977
999.000000	53.935366
1000.000000	54.092114
1001.000000	54.235410
1002.000000	54.381746
1003.000000	54.528976
1004.000000	54.674051
1005.000000	54.827529
1006.000000	54.970397
1007.000000	55.123730
1008.000000	55.278377
1009.000000	55.420083
1010.000000	55.573826
1011.000000	55.723157
1012.000000	55.854402
1013.000000	55.975548
1014.000000	56.099587
1015.000000	56.245578
1016.000000	56.384751
1017.000000	56.512342
1018.000000	56.632700
1019.000000	56.756671
1020.000000	56.887403
1021.000000	57.020270
1022.000000	57.150517
1023.000000	57.282076
1024.000000	57.404882
1025.000000	57.515222
1026.000000	57.618742
1027.000000	57.720806
1028.000000	57.813072
1029.000000	57.906449
1030.000000	57.999652
1031.000000	58.080165
1032.000000	58.156010
1033.000000	58.230161
1034.000000	58.305437
1035.000000	58.379967
1036.000000	58.445650
1037.000000	58.503093
1038.000000	58.568307
1039.000000	58.619351
1040.000000	58.661255
1041.000000	58.713075
1042.000000	58.767656
1043.000000	58.810173
1044.000000	58.856300
1045.000000	58.900818
1046.000000	58.949054
1047.000000	59.007224
1048.000000	59.058929
1049.000000	59.110077
1050.000000	59.159069
1051.000000	59.208027
1052.000000	59.258876
1053.000000	59.309711
1054.000000	59.350460
1055.000000	59.400066
1056.000000	59.439587
1057.000000	59.482694
1058.000000	59.534342
1059.000000	59.580783
1060.000000	59.639532
1061.000000	59.700641
1062.000000	59.761465
1063.000000	59.822678
1064.000000	59.851533
1065.000000	59.903042
1066.000000	59.968413
1067.000000	60.027840
1068.000000	60.091838
1069.000000	60.149473
1070.000000	60.218338
1071.000000	60.276247
1072.000000	60.334290
1073.000000	60.387655
1074.000000	60.458116
1075.000000	60.541327
1076.000000	60.612305
1077.000000	60.662185
1078.000000	60.718196
1079.000000	60.786697
1080.000000	60.846677
1081.000000	60.907058
1082.000000	60.971006
1083.000000	61.042969
1084.000000	61.092700
1085.000000	61.134613
1086.000000	61.187763
1087.000000	61.235554
1088.000000	61.290263
1089.000000	61.341653
1090.000000	61.373439
1091.000000	61.406665
1092.000000	61.439741
1093.000000	61.472383
1094.000000	61.521211
1095.000000	61.544583
1096.000000	61.572943
1097.000000	61.601780
1098.000000	61.637652
1099.000000	61.688884
1100.000000	61.718967
1101.000000	61.736887
1102.000000	61.765075
1103.000000	61.786757
1104.000000	61.793873
1105.000000	61.794918
1106.000000	61.825444
1107.000000	61.861960
1108.000000	61.894919
1109.000000	61.917078
1110.000000	61.926600
1111.000000	61.924486
1112.000000	61.938403
1113.000000	61.960445
1114.000000	61.982594
1115.000000	62.010173
1116.000000	62.008134
1117.000000	62.011196
1118.000000	62.018260
1119.000000	62.024808
1120.000000	62.049611
1121.000000	62.074561
1122.000000	62.123852
1123.000000	62.168887
1124.000000	62.198056
1125.000000	62.244795
1126.000000	62.272807
1127.000000	62.318677
1128.000000	62.352058
1129.000000	62.361114
1130.000000	62.389946
1131.000000	62.413283
1132.000000	62.416022
1133.000000	62.440332
1134.000000	62.496156
1135.000000	62.490930
1136.000000	62.501806
1137.000000	62.526174
1138.000000	62.555269
1139.000000	62.587808
1140.000000	62.628256
1141.000000	62.640531
1142.000000	62.665046
1143.000000	62.678087
1144.000000	62.678396
1145.000000	62.695049
1146.000000	62.740598
1147.000000	62.770005
1148.000000	62.782560
1149.000000	62.814385
1150.000000	62.816497
1151.000000	62.829984
1152.000000	62.882037
1153.000000	62.889222
1154.000000	62.908580
1155.000000	62.922906
1156.000000	62.933784
1157.000000	62.936879
1158.000000	62.915588
1159.000000	62.918799
1160.000000	62.916491
1161.000000	62.932222
1162.000000	62.934484
1163.000000	62.936047
1164.000000	62.959573
1165.000000	62.976488
1166.000000	62.996799
1167.000000	63.017835
1168.000000	63.004732
1169.000000	62.977364
1170.000000	63.019658
1171.000000	63.042259
1172.000000	63.037201
1173.000000	63.045002
1174.000000	63.066237
1175.000000	63.076144
1176.000000	63.091614
1177.000000	63.097304
1178.000000	63.113479
1179.000000	63.131912
1180.000000	63.140286
1181.000000	63.136505
1182.000000	63.133422
1183.000000	63.166353
1184.000000	63.158761
1185.000000	63.171967
1186.000000	63.209542
1187.000000	63.195138
1188.000000	63.209871
1189.000000	63.243454
1190.000000	63.253280
1191.000000	63.261814
1192.000000	63.262260
1193.000000	63.281905
1194.000000	63.296986
1195.000000	63.301162
1196.000000	63.304889
1197.000000	63.297575
1198.000000	63.307577
1199.000000	63.300245
1200.000000	63.301438
1201.000000	63.300401
1202.000000	63.315584
1203.000000	63.339760
1204.000000	63.357425
1205.000000	63.364952
1206.000000	63.374994
1207.000000	63.387786
1208.000000	63.389608
1209.000000	63.398117
1210.000000	63.399811
1211.000000	63.406210
