PE UV       SUBTECH     SPECTRUM    ASCII       PEDS        4.00        
   -1
C.OPTI.8.17-TX3.ASC
23/11/29
14:44:53.00
23/11/29
14:44:53.00
Vinicio Soto Monge
C. OPTIMA #81 7
250,000000
1
Lambda 1050
1050L1511233
PerkinElmer UV WinLab 6.3.2.0749 / 2.02.05 Lambda 900 UV/VIS/NIR, Aug  7 2015 09:38:08

0
0
3350/servo 860,8/2
0
0
UV/VIS
1
1
1
DoubleDePol,CommonBeamDepol,RBeamAtt,SBeamAtt,60mm sphere, WB InGaAs Detector
0
0
0
0
Program
Program
3350/servo 860,8/2
3350/0,4 860,8/0,4
3350/0,4 860,8/0,4
0
20.00
 
 
 
0
 
860,8
319,2
860,8
Front
100
on
S:100 R:100
0
0
0
0
 
0
 
 
 
0
 
 
0
0
0
0
0
 
 
 
 
0
0


0
0
#HDR
-1
-1
#GR
nm
%T
1.0
0.0
2200,000000
-1,000000
1951
8
42,632739
0,179440
#DATA
284.000000	0.206150
285.000000	0.206496
286.000000	0.207240
287.000000	0.208257
288.000000	0.209057
289.000000	0.210238
290.000000	0.211218
291.000000	0.212653
292.000000	0.213633
293.000000	0.214590
294.000000	0.215341
295.000000	0.216388
296.000000	0.217786
297.000000	0.218359
298.000000	0.218734
299.000000	0.219783
300.000000	0.220649
301.000000	0.221342
302.000000	0.221768
303.000000	0.222608
304.000000	0.223530
305.000000	0.224461
306.000000	0.225804
307.000000	0.226885
308.000000	0.228070
309.000000	0.229439
310.000000	0.229985
311.000000	0.230895
312.000000	0.232002
313.000000	0.232673
314.000000	0.233499
315.000000	0.234915
316.000000	0.235752
317.000000	0.237627
318.000000	0.240430
319.000000	0.241260
320.000000	0.242038
321.000000	0.244678
322.000000	0.245915
323.000000	0.246942
324.000000	0.247358
325.000000	0.248647
326.000000	0.250613
327.000000	0.252649
328.000000	0.254502
329.000000	0.255409
330.000000	0.257222
331.000000	0.259014
332.000000	0.260538
333.000000	0.261687
334.000000	0.263109
335.000000	0.265309
336.000000	0.268019
337.000000	0.269834
338.000000	0.270977
339.000000	0.273237
340.000000	0.276089
341.000000	0.278106
342.000000	0.280484
343.000000	0.282402
344.000000	0.284567
345.000000	0.287145
346.000000	0.289714
347.000000	0.291756
348.000000	0.294080
349.000000	0.296477
350.000000	0.298530
351.000000	0.301091
352.000000	0.303118
353.000000	0.304485
354.000000	0.307492
355.000000	0.310947
356.000000	0.312382
357.000000	0.315034
358.000000	0.318373
359.000000	0.322116
360.000000	0.324533
361.000000	0.326149
362.000000	0.328287
363.000000	0.330571
364.000000	0.334140
365.000000	0.337087
366.000000	0.340115
367.000000	0.343642
368.000000	0.347133
369.000000	0.350598
370.000000	0.352922
371.000000	0.355764
372.000000	0.359869
373.000000	0.363921
374.000000	0.365996
375.000000	0.368528
376.000000	0.371192
377.000000	0.373459
378.000000	0.375994
379.000000	0.378241
380.000000	0.380422
381.000000	0.382838
382.000000	0.385512
383.000000	0.388222
384.000000	0.390588
385.000000	0.392849
386.000000	0.394861
387.000000	0.396808
388.000000	0.398461
389.000000	0.400437
390.000000	0.402350
391.000000	0.404469
392.000000	0.406655
393.000000	0.408549
394.000000	0.410356
395.000000	0.412689
396.000000	0.414926
397.000000	0.417004
398.000000	0.419252
399.000000	0.421034
400.000000	0.422487
401.000000	0.423696
402.000000	0.424924
403.000000	0.426705
404.000000	0.427935
405.000000	0.429334
406.000000	0.430125
407.000000	0.430383
408.000000	0.431363
409.000000	0.433018
410.000000	0.434011
411.000000	0.435250
412.000000	0.436852
413.000000	0.438486
414.000000	0.440029
415.000000	0.441464
416.000000	0.442803
417.000000	0.444104
418.000000	0.445463
419.000000	0.446813
420.000000	0.448186
421.000000	0.449491
422.000000	0.450730
423.000000	0.451907
424.000000	0.453031
425.000000	0.454151
426.000000	0.455259
427.000000	0.456395
428.000000	0.457542
429.000000	0.458635
430.000000	0.459756
431.000000	0.460998
432.000000	0.462283
433.000000	0.463517
434.000000	0.464754
435.000000	0.466042
436.000000	0.467257
437.000000	0.468491
438.000000	0.469755
439.000000	0.471056
440.000000	0.472400
441.000000	0.473725
442.000000	0.475030
443.000000	0.476470
444.000000	0.477991
445.000000	0.479446
446.000000	0.480998
447.000000	0.482637
448.000000	0.484326
449.000000	0.486080
450.000000	0.487867
451.000000	0.489752
452.000000	0.491705
453.000000	0.493617
454.000000	0.495571
455.000000	0.497502
456.000000	0.499517
457.000000	0.501653
458.000000	0.503901
459.000000	0.506229
460.000000	0.508597
461.000000	0.511011
462.000000	0.513475
463.000000	0.516057
464.000000	0.518826
465.000000	0.521724
466.000000	0.524679
467.000000	0.527702
468.000000	0.530800
469.000000	0.534068
470.000000	0.537385
471.000000	0.540757
472.000000	0.544241
473.000000	0.547776
474.000000	0.551353
475.000000	0.555002
476.000000	0.558770
477.000000	0.562574
478.000000	0.566389
479.000000	0.570293
480.000000	0.574348
481.000000	0.578491
482.000000	0.582771
483.000000	0.587177
484.000000	0.591701
485.000000	0.596351
486.000000	0.601045
487.000000	0.605820
488.000000	0.610740
489.000000	0.615765
490.000000	0.620979
491.000000	0.626324
492.000000	0.631754
493.000000	0.637261
494.000000	0.642871
495.000000	0.648687
496.000000	0.654605
497.000000	0.660658
498.000000	0.666854
499.000000	0.673183
500.000000	0.679685
501.000000	0.686404
502.000000	0.693307
503.000000	0.700476
504.000000	0.707699
505.000000	0.715053
506.000000	0.722618
507.000000	0.730294
508.000000	0.738116
509.000000	0.746089
510.000000	0.754229
511.000000	0.762482
512.000000	0.770755
513.000000	0.779124
514.000000	0.787860
515.000000	0.796807
516.000000	0.805672
517.000000	0.814758
518.000000	0.823974
519.000000	0.833330
520.000000	0.842945
521.000000	0.852741
522.000000	0.862903
523.000000	0.873105
524.000000	0.883641
525.000000	0.894333
526.000000	0.905326
527.000000	0.916579
528.000000	0.928060
529.000000	0.939882
530.000000	0.952017
531.000000	0.964658
532.000000	0.977688
533.000000	0.991153
534.000000	1.005048
535.000000	1.019416
536.000000	1.034305
537.000000	1.049812
538.000000	1.065751
539.000000	1.082348
540.000000	1.099520
541.000000	1.117364
542.000000	1.135972
543.000000	1.155256
544.000000	1.175198
545.000000	1.195820
546.000000	1.217338
547.000000	1.239705
548.000000	1.262713
549.000000	1.286309
550.000000	1.310786
551.000000	1.336282
552.000000	1.362428
553.000000	1.389394
554.000000	1.417381
555.000000	1.446187
556.000000	1.475914
557.000000	1.506261
558.000000	1.537681
559.000000	1.569805
560.000000	1.602747
561.000000	1.636596
562.000000	1.671238
563.000000	1.706805
564.000000	1.743187
565.000000	1.780292
566.000000	1.818109
567.000000	1.856556
568.000000	1.895702
569.000000	1.935582
570.000000	1.976134
571.000000	2.017336
572.000000	2.059217
573.000000	2.101799
574.000000	2.145147
575.000000	2.189210
576.000000	2.233928
577.000000	2.279086
578.000000	2.324884
579.000000	2.371441
580.000000	2.418756
581.000000	2.466663
582.000000	2.515286
583.000000	2.564826
584.000000	2.615109
585.000000	2.665889
586.000000	2.717600
587.000000	2.770205
588.000000	2.823904
589.000000	2.878477
590.000000	2.934150
591.000000	2.991032
592.000000	3.049116
593.000000	3.108320
594.000000	3.168667
595.000000	3.230406
596.000000	3.293131
597.000000	3.356856
598.000000	3.421713
599.000000	3.487567
600.000000	3.554691
601.000000	3.622623
602.000000	3.691758
603.000000	3.761858
604.000000	3.832736
605.000000	3.904612
606.000000	3.977416
607.000000	4.050942
608.000000	4.125485
609.000000	4.200889
610.000000	4.277299
611.000000	4.354694
612.000000	4.433296
613.000000	4.512820
614.000000	4.593373
615.000000	4.674629
616.000000	4.756607
617.000000	4.839189
618.000000	4.922417
619.000000	5.006213
620.000000	5.090886
621.000000	5.175902
622.000000	5.261556
623.000000	5.347826
624.000000	5.434377
625.000000	5.521084
626.000000	5.607957
627.000000	5.695253
628.000000	5.782761
629.000000	5.870503
630.000000	5.958173
631.000000	6.045885
632.000000	6.133794
633.000000	6.221600
634.000000	6.309293
635.000000	6.396657
636.000000	6.484166
637.000000	6.571322
638.000000	6.657988
639.000000	6.744335
640.000000	6.830356
641.000000	6.915881
642.000000	7.001117
643.000000	7.085843
644.000000	7.169909
645.000000	7.253195
646.000000	7.335695
647.000000	7.417195
648.000000	7.497759
649.000000	7.577010
650.000000	7.655113
651.000000	7.731780
652.000000	7.807107
653.000000	7.881078
654.000000	7.953558
655.000000	8.024128
656.000000	8.093130
657.000000	8.160788
658.000000	8.226361
659.000000	8.290419
660.000000	8.352879
661.000000	8.413742
662.000000	8.472985
663.000000	8.530549
664.000000	8.586747
665.000000	8.641555
666.000000	8.694918
667.000000	8.746728
668.000000	8.797101
669.000000	8.846293
670.000000	8.894170
671.000000	8.940651
672.000000	8.985892
673.000000	9.029750
674.000000	9.072329
675.000000	9.113748
676.000000	9.153875
677.000000	9.192559
678.000000	9.230145
679.000000	9.266864
680.000000	9.302879
681.000000	9.338182
682.000000	9.373058
683.000000	9.407656
684.000000	9.442102
685.000000	9.476536
686.000000	9.510964
687.000000	9.545655
688.000000	9.580793
689.000000	9.616214
690.000000	9.651781
691.000000	9.687405
692.000000	9.722806
693.000000	9.758487
694.000000	9.794036
695.000000	9.829651
696.000000	9.865373
697.000000	9.901458
698.000000	9.938029
699.000000	9.974698
700.000000	10.011626
701.000000	10.048748
702.000000	10.086266
703.000000	10.124141
704.000000	10.162406
705.000000	10.201237
706.000000	10.240447
707.000000	10.280075
708.000000	10.320594
709.000000	10.361938
710.000000	10.403926
711.000000	10.446936
712.000000	10.491068
713.000000	10.535989
714.000000	10.581419
715.000000	10.627361
716.000000	10.673858
717.000000	10.720747
718.000000	10.767977
719.000000	10.815460
720.000000	10.863102
721.000000	10.911235
722.000000	10.959704
723.000000	11.008116
724.000000	11.057039
725.000000	11.106895
726.000000	11.157890
727.000000	11.209873
728.000000	11.262420
729.000000	11.316223
730.000000	11.371165
731.000000	11.427043
732.000000	11.483371
733.000000	11.539934
734.000000	11.597026
735.000000	11.654404
736.000000	11.711967
737.000000	11.769549
738.000000	11.827115
739.000000	11.884755
740.000000	11.942463
741.000000	12.000094
742.000000	12.058164
743.000000	12.116986
744.000000	12.176217
745.000000	12.235800
746.000000	12.296055
747.000000	12.356518
748.000000	12.417250
749.000000	12.478766
750.000000	12.540824
751.000000	12.603316
752.000000	12.665762
753.000000	12.728117
754.000000	12.790641
755.000000	12.853175
756.000000	12.915277
757.000000	12.977111
758.000000	13.039071
759.000000	13.101065
760.000000	13.162792
761.000000	13.224010
762.000000	13.285288
763.000000	13.347048
764.000000	13.409006
765.000000	13.470766
766.000000	13.532348
767.000000	13.594034
768.000000	13.656312
769.000000	13.718440
770.000000	13.780254
771.000000	13.842747
772.000000	13.905996
773.000000	13.969152
774.000000	14.033087
775.000000	14.096831
776.000000	14.160401
777.000000	14.223823
778.000000	14.287113
779.000000	14.349982
780.000000	14.412027
781.000000	14.473506
782.000000	14.535073
783.000000	14.596983
784.000000	14.658350
785.000000	14.719429
786.000000	14.779853
787.000000	14.840327
788.000000	14.900845
789.000000	14.961711
790.000000	15.023170
791.000000	15.084007
792.000000	15.145300
793.000000	15.206907
794.000000	15.268170
795.000000	15.328846
796.000000	15.389081
797.000000	15.448831
798.000000	15.508107
799.000000	15.566827
800.000000	15.624565
801.000000	15.683075
802.000000	15.741156
803.000000	15.798022
804.000000	15.854009
805.000000	15.910389
806.000000	15.966737
807.000000	16.021719
808.000000	16.077085
809.000000	16.131690
810.000000	16.185891
811.000000	16.239525
812.000000	16.293971
813.000000	16.345607
814.000000	16.398033
815.000000	16.450576
816.000000	16.502550
817.000000	16.554807
818.000000	16.606925
819.000000	16.658584
820.000000	16.707654
821.000000	16.758449
822.000000	16.808761
823.000000	16.857846
824.000000	16.905096
825.000000	16.953914
826.000000	17.003706
827.000000	17.052750
828.000000	17.100804
829.000000	17.149085
830.000000	17.198116
831.000000	17.247800
832.000000	17.295506
833.000000	17.343061
834.000000	17.390126
835.000000	17.438839
836.000000	17.486980
837.000000	17.534356
838.000000	17.582125
839.000000	17.632081
840.000000	17.678756
841.000000	17.727192
842.000000	17.776422
843.000000	17.825881
844.000000	17.874637
845.000000	17.924222
846.000000	17.972735
847.000000	18.022241
848.000000	18.074357
849.000000	18.129426
850.000000	18.184358
851.000000	18.234988
852.000000	18.289030
853.000000	18.342808
854.000000	18.395307
855.000000	18.451060
856.000000	18.506686
857.000000	18.566919
858.000000	18.640339
859.000000	18.698891
860.000000	18.771913
861.000000	18.840644
862.000000	18.902927
863.000000	18.978554
864.000000	19.058411
865.000000	19.123656
866.000000	19.197509
867.000000	19.284877
868.000000	19.358759
869.000000	19.429644
870.000000	19.508485
871.000000	19.574890
872.000000	19.642491
873.000000	19.715010
874.000000	19.814945
875.000000	19.915771
876.000000	20.005005
877.000000	20.095874
878.000000	20.182617
879.000000	20.264602
880.000000	20.357113
881.000000	20.446143
882.000000	20.543079
883.000000	20.635764
884.000000	20.716638
885.000000	20.819372
886.000000	20.944519
887.000000	21.031402
888.000000	21.136606
889.000000	21.236639
890.000000	21.327886
891.000000	21.442598
892.000000	21.557734
893.000000	21.665394
894.000000	21.779885
895.000000	21.889070
896.000000	21.976496
897.000000	22.102478
898.000000	22.215352
899.000000	22.326764
900.000000	22.447525
901.000000	22.574766
902.000000	22.691335
903.000000	22.830983
904.000000	22.976782
905.000000	23.106167
906.000000	23.258804
907.000000	23.413164
908.000000	23.573663
909.000000	23.696327
910.000000	23.834028
911.000000	23.971024
912.000000	24.132358
913.000000	24.285865
914.000000	24.446703
915.000000	24.610927
916.000000	24.780793
917.000000	24.946129
918.000000	25.121060
919.000000	25.321899
920.000000	25.484406
921.000000	25.646379
922.000000	25.837372
923.000000	26.010760
924.000000	26.189245
925.000000	26.392422
926.000000	26.580317
927.000000	26.766512
928.000000	26.939067
929.000000	27.144870
930.000000	27.328002
931.000000	27.543960
932.000000	27.729701
933.000000	27.918442
934.000000	28.116463
935.000000	28.321995
936.000000	28.500896
937.000000	28.690926
938.000000	28.881091
939.000000	29.065914
940.000000	29.278139
941.000000	29.469797
942.000000	29.657329
943.000000	29.842633
944.000000	30.030917
945.000000	30.200387
946.000000	30.403839
947.000000	30.563270
948.000000	30.744976
949.000000	30.929109
950.000000	31.112999
951.000000	31.301199
952.000000	31.485200
953.000000	31.652213
954.000000	31.804312
955.000000	31.980352
956.000000	32.142207
957.000000	32.300340
958.000000	32.469560
959.000000	32.643628
960.000000	32.791852
961.000000	32.940193
962.000000	33.082884
963.000000	33.244128
964.000000	33.370279
965.000000	33.513339
966.000000	33.659112
967.000000	33.797788
968.000000	33.939311
969.000000	34.071307
970.000000	34.208927
971.000000	34.363507
972.000000	34.489779
973.000000	34.609131
974.000000	34.737157
975.000000	34.849416
976.000000	34.969601
977.000000	35.085522
978.000000	35.200505
979.000000	35.320155
980.000000	35.433738
981.000000	35.520136
982.000000	35.625512
983.000000	35.728006
984.000000	35.829070
985.000000	35.911126
986.000000	35.993071
987.000000	36.075292
988.000000	36.162661
989.000000	36.250303
990.000000	36.337784
991.000000	36.431278
992.000000	36.536052
993.000000	36.621844
994.000000	36.691935
995.000000	36.769670
996.000000	36.846167
997.000000	36.923402
998.000000	36.993024
999.000000	37.079444
1000.000000	37.151136
1001.000000	37.208865
1002.000000	37.279496
1003.000000	37.347872
1004.000000	37.410248
1005.000000	37.467990
1006.000000	37.516724
1007.000000	37.582098
1008.000000	37.643251
1009.000000	37.683723
1010.000000	37.729634
1011.000000	37.777172
1012.000000	37.822848
1013.000000	37.868781
1014.000000	37.912380
1015.000000	37.962844
1016.000000	38.027424
1017.000000	38.083105
1018.000000	38.130115
1019.000000	38.174898
1020.000000	38.229513
1021.000000	38.291873
1022.000000	38.341484
1023.000000	38.386284
1024.000000	38.430309
1025.000000	38.464628
1026.000000	38.485164
1027.000000	38.507928
1028.000000	38.546194
1029.000000	38.601195
1030.000000	38.646868
1031.000000	38.681982
1032.000000	38.726447
1033.000000	38.751861
1034.000000	38.775858
1035.000000	38.820195
1036.000000	38.857560
1037.000000	38.874153
1038.000000	38.899198
1039.000000	38.911918
1040.000000	38.928704
1041.000000	38.971474
1042.000000	39.008354
1043.000000	39.036564
1044.000000	39.078147
1045.000000	39.106380
1046.000000	39.146976
1047.000000	39.178581
1048.000000	39.209022
1049.000000	39.243566
1050.000000	39.270895
1051.000000	39.290750
1052.000000	39.308354
1053.000000	39.335409
1054.000000	39.367878
1055.000000	39.402489
1056.000000	39.418923
1057.000000	39.438694
1058.000000	39.465260
1059.000000	39.494900
1060.000000	39.537914
1061.000000	39.567359
1062.000000	39.588574
1063.000000	39.609096
1064.000000	39.611268
1065.000000	39.638042
1066.000000	39.654623
1067.000000	39.663464
1068.000000	39.686160
1069.000000	39.706914
1070.000000	39.727866
1071.000000	39.738169
1072.000000	39.771642
1073.000000	39.801416
1074.000000	39.843407
1075.000000	39.869452
1076.000000	39.881871
1077.000000	39.904289
1078.000000	39.932665
1079.000000	39.958032
1080.000000	39.975738
1081.000000	39.989103
1082.000000	40.032541
1083.000000	40.076709
1084.000000	40.083658
1085.000000	40.103941
1086.000000	40.109856
1087.000000	40.139755
1088.000000	40.167654
1089.000000	40.181742
1090.000000	40.188309
1091.000000	40.202955
1092.000000	40.214818
1093.000000	40.236474
1094.000000	40.256981
1095.000000	40.252777
1096.000000	40.260331
1097.000000	40.288341
1098.000000	40.312835
1099.000000	40.348106
1100.000000	40.352189
1101.000000	40.366667
1102.000000	40.389928
1103.000000	40.414747
1104.000000	40.424920
1105.000000	40.424980
1106.000000	40.458897
1107.000000	40.478188
1108.000000	40.487685
1109.000000	40.492040
1110.000000	40.512885
1111.000000	40.522340
1112.000000	40.526277
1113.000000	40.520341
1114.000000	40.528620
1115.000000	40.548173
1116.000000	40.548432
1117.000000	40.550830
1118.000000	40.539192
1119.000000	40.546211
1120.000000	40.563762
1121.000000	40.609012
1122.000000	40.627623
1123.000000	40.659831
1124.000000	40.673131
1125.000000	40.686536
1126.000000	40.712596
1127.000000	40.727767
1128.000000	40.733151
1129.000000	40.750618
1130.000000	40.773177
1131.000000	40.815860
1132.000000	40.814151
1133.000000	40.810540
1134.000000	40.856582
1135.000000	40.858467
1136.000000	40.865233
1137.000000	40.894046
1138.000000	40.908679
1139.000000	40.929666
1140.000000	40.935689
1141.000000	40.957729
1142.000000	40.981259
1143.000000	41.002310
1144.000000	41.017982
1145.000000	41.027977
1146.000000	41.052509
1147.000000	41.067535
1148.000000	41.093648
1149.000000	41.110416
1150.000000	41.106187
1151.000000	41.126135
1152.000000	41.149512
1153.000000	41.157804
1154.000000	41.176104
1155.000000	41.192002
1156.000000	41.192284
1157.000000	41.199697
1158.000000	41.184534
1159.000000	41.198200
1160.000000	41.204243
1161.000000	41.193087
1162.000000	41.213448
1163.000000	41.219334
1164.000000	41.222358
1165.000000	41.221579
1166.000000	41.211726
1167.000000	41.227716
1168.000000	41.241676
1169.000000	41.206981
1170.000000	41.228578
1171.000000	41.236959
1172.000000	41.233328
1173.000000	41.224098
1174.000000	41.230137
1175.000000	41.244860
1176.000000	41.211923
1177.000000	41.204334
1178.000000	41.198211
1179.000000	41.207249
1180.000000	41.209233
1181.000000	41.197471
1182.000000	41.189858
1183.000000	41.187575
1184.000000	41.182753
1185.000000	41.183049
1186.000000	41.181898
1187.000000	41.163181
1188.000000	41.158920
1189.000000	41.176010
1190.000000	41.165605
1191.000000	41.161420
1192.000000	41.181687
1193.000000	41.193938
1194.000000	41.209940
1195.000000	41.204102
1196.000000	41.205830
1197.000000	41.186229
1198.000000	41.202494
1199.000000	41.200694
1200.000000	41.212647
1201.000000	41.225456
1202.000000	41.242084
1203.000000	41.255875
1204.000000	41.273436
1205.000000	41.293894
1206.000000	41.306565
1207.000000	41.300421
1208.000000	41.313062
1209.000000	41.318962
1210.000000	41.337360
1211.000000	41.374939
