PE UV       SUBTECH     SPECTRUM    ASCII       PEDS        4.00        
   -1
C.CUPR.MV23-TX3.ASC
23/11/29
12:57:02.00
23/11/29
12:57:02.00
Vinicio Soto Monge
C. CUPREOMARGINATA MV 23-15
250,000000
1
Lambda 1050
1050L1511233
PerkinElmer UV WinLab 6.3.2.0749 / 2.02.05 Lambda 900 UV/VIS/NIR, Aug  7 2015 09:38:08

0
0
3350/servo 860,8/2
0
0
UV/VIS
1
1
1
DoubleDePol,CommonBeamDepol,RBeamAtt,SBeamAtt,60mm sphere, WB InGaAs Detector
0
0
0
0
Program
Program
3350/servo 860,8/2
3350/0,4 860,8/0,4
3350/0,4 860,8/0,4
0
20.00
 
 
 
0
 
860,8
319,2
860,8
Front
100
on
S:100 R:100
0
0
0
0
 
0
 
 
 
0
 
 
0
0
0
0
0
 
 
 
 
0
0


0
0
#HDR
-1
-1
#GR
nm
%T
1.0
0.0
2200,000000
-1,000000
1951
8
84,599875
0,293470
#DATA
284.000000	0.337949
285.000000	0.337450
286.000000	0.336831
287.000000	0.336506
288.000000	0.336562
289.000000	0.336817
290.000000	0.336900
291.000000	0.337208
292.000000	0.337292
293.000000	0.337116
294.000000	0.337385
295.000000	0.338190
296.000000	0.338457
297.000000	0.338641
298.000000	0.338748
299.000000	0.339269
300.000000	0.340016
301.000000	0.340181
302.000000	0.340438
303.000000	0.340747
304.000000	0.340701
305.000000	0.340844
306.000000	0.341588
307.000000	0.341951
308.000000	0.342368
309.000000	0.343212
310.000000	0.343863
311.000000	0.344537
312.000000	0.345706
313.000000	0.346636
314.000000	0.347646
315.000000	0.348928
316.000000	0.349696
317.000000	0.349773
318.000000	0.351816
319.000000	0.353081
320.000000	0.355779
321.000000	0.359037
322.000000	0.360484
323.000000	0.362890
324.000000	0.363526
325.000000	0.365416
326.000000	0.367557
327.000000	0.369870
328.000000	0.372346
329.000000	0.374283
330.000000	0.377043
331.000000	0.379569
332.000000	0.381385
333.000000	0.383476
334.000000	0.385677
335.000000	0.387992
336.000000	0.390329
337.000000	0.392456
338.000000	0.394272
339.000000	0.397203
340.000000	0.400322
341.000000	0.402636
342.000000	0.405162
343.000000	0.407893
344.000000	0.410864
345.000000	0.413361
346.000000	0.416077
347.000000	0.418711
348.000000	0.421255
349.000000	0.423893
350.000000	0.426239
351.000000	0.429184
352.000000	0.433076
353.000000	0.435096
354.000000	0.438531
355.000000	0.440882
356.000000	0.442367
357.000000	0.445689
358.000000	0.448076
359.000000	0.452170
360.000000	0.454529
361.000000	0.456760
362.000000	0.459407
363.000000	0.462049
364.000000	0.465465
365.000000	0.467930
366.000000	0.470623
367.000000	0.474109
368.000000	0.477581
369.000000	0.480570
370.000000	0.483427
371.000000	0.486974
372.000000	0.490625
373.000000	0.494211
374.000000	0.496734
375.000000	0.499627
376.000000	0.502975
377.000000	0.505679
378.000000	0.508299
379.000000	0.510455
380.000000	0.513066
381.000000	0.515649
382.000000	0.518011
383.000000	0.520767
384.000000	0.523079
385.000000	0.525426
386.000000	0.527821
387.000000	0.529945
388.000000	0.532059
389.000000	0.533685
390.000000	0.534970
391.000000	0.536825
392.000000	0.538531
393.000000	0.540083
394.000000	0.541707
395.000000	0.543518
396.000000	0.545164
397.000000	0.546800
398.000000	0.548349
399.000000	0.549546
400.000000	0.550755
401.000000	0.552300
402.000000	0.553589
403.000000	0.554566
404.000000	0.555645
405.000000	0.556674
406.000000	0.557474
407.000000	0.558256
408.000000	0.559202
409.000000	0.560259
410.000000	0.560896
411.000000	0.561391
412.000000	0.562586
413.000000	0.563652
414.000000	0.564741
415.000000	0.565781
416.000000	0.566676
417.000000	0.567556
418.000000	0.568405
419.000000	0.569288
420.000000	0.570118
421.000000	0.570939
422.000000	0.571733
423.000000	0.572430
424.000000	0.573020
425.000000	0.573550
426.000000	0.574125
427.000000	0.574664
428.000000	0.575216
429.000000	0.575674
430.000000	0.576094
431.000000	0.576521
432.000000	0.576955
433.000000	0.577345
434.000000	0.577716
435.000000	0.578065
436.000000	0.578369
437.000000	0.578753
438.000000	0.579130
439.000000	0.579406
440.000000	0.579631
441.000000	0.579898
442.000000	0.580209
443.000000	0.580580
444.000000	0.580915
445.000000	0.581180
446.000000	0.581474
447.000000	0.581766
448.000000	0.582012
449.000000	0.582269
450.000000	0.582574
451.000000	0.582887
452.000000	0.583144
453.000000	0.583404
454.000000	0.583716
455.000000	0.584082
456.000000	0.584484
457.000000	0.584894
458.000000	0.585410
459.000000	0.586055
460.000000	0.586728
461.000000	0.587356
462.000000	0.587966
463.000000	0.588644
464.000000	0.589453
465.000000	0.590311
466.000000	0.591242
467.000000	0.592161
468.000000	0.593128
469.000000	0.594210
470.000000	0.595300
471.000000	0.596478
472.000000	0.597761
473.000000	0.599077
474.000000	0.600546
475.000000	0.602180
476.000000	0.603908
477.000000	0.605714
478.000000	0.607547
479.000000	0.609578
480.000000	0.611712
481.000000	0.614029
482.000000	0.616572
483.000000	0.619265
484.000000	0.622012
485.000000	0.624835
486.000000	0.627860
487.000000	0.631154
488.000000	0.634602
489.000000	0.638175
490.000000	0.641945
491.000000	0.645948
492.000000	0.650192
493.000000	0.654592
494.000000	0.659250
495.000000	0.664199
496.000000	0.669462
497.000000	0.675011
498.000000	0.680733
499.000000	0.686768
500.000000	0.693168
501.000000	0.699951
502.000000	0.707160
503.000000	0.714721
504.000000	0.722637
505.000000	0.730997
506.000000	0.739789
507.000000	0.749078
508.000000	0.758983
509.000000	0.769388
510.000000	0.780270
511.000000	0.791606
512.000000	0.803398
513.000000	0.815721
514.000000	0.828466
515.000000	0.841866
516.000000	0.855696
517.000000	0.869877
518.000000	0.884567
519.000000	0.899727
520.000000	0.915331
521.000000	0.931335
522.000000	0.947612
523.000000	0.964229
524.000000	0.981193
525.000000	0.998528
526.000000	1.016120
527.000000	1.033948
528.000000	1.052054
529.000000	1.070360
530.000000	1.088877
531.000000	1.107593
532.000000	1.126744
533.000000	1.146322
534.000000	1.166145
535.000000	1.186365
536.000000	1.206966
537.000000	1.228021
538.000000	1.249579
539.000000	1.271752
540.000000	1.294690
541.000000	1.318431
542.000000	1.343011
543.000000	1.368509
544.000000	1.395120
545.000000	1.422922
546.000000	1.452124
547.000000	1.482809
548.000000	1.515138
549.000000	1.549260
550.000000	1.585295
551.000000	1.623368
552.000000	1.663775
553.000000	1.706779
554.000000	1.752193
555.000000	1.800437
556.000000	1.851725
557.000000	1.905998
558.000000	1.963539
559.000000	2.024409
560.000000	2.088848
561.000000	2.156927
562.000000	2.228621
563.000000	2.304168
564.000000	2.383552
565.000000	2.467075
566.000000	2.554591
567.000000	2.646025
568.000000	2.741509
569.000000	2.841204
570.000000	2.945129
571.000000	3.053404
572.000000	3.166192
573.000000	3.283693
574.000000	3.406053
575.000000	3.532857
576.000000	3.664445
577.000000	3.800695
578.000000	3.941713
579.000000	4.087452
580.000000	4.237859
581.000000	4.392897
582.000000	4.552790
583.000000	4.717076
584.000000	4.885823
585.000000	5.058533
586.000000	5.235707
587.000000	5.417195
588.000000	5.602820
589.000000	5.793012
590.000000	5.987438
591.000000	6.186197
592.000000	6.389669
593.000000	6.597777
594.000000	6.811220
595.000000	7.030026
596.000000	7.254361
597.000000	7.484320
598.000000	7.720189
599.000000	7.962024
600.000000	8.209699
601.000000	8.463992
602.000000	8.725095
603.000000	8.993206
604.000000	9.268229
605.000000	9.550282
606.000000	9.838674
607.000000	10.133364
608.000000	10.433966
609.000000	10.740638
610.000000	11.053490
611.000000	11.372668
612.000000	11.697635
613.000000	12.027902
614.000000	12.363833
615.000000	12.705308
616.000000	13.052028
617.000000	13.404039
618.000000	13.761824
619.000000	14.124418
620.000000	14.492185
621.000000	14.864247
622.000000	15.239940
623.000000	15.618846
624.000000	16.000295
625.000000	16.383750
626.000000	16.768114
627.000000	17.152465
628.000000	17.536226
629.000000	17.917784
630.000000	18.295665
631.000000	18.669324
632.000000	19.037801
633.000000	19.399672
634.000000	19.754585
635.000000	20.102429
636.000000	20.441584
637.000000	20.771537
638.000000	21.091913
639.000000	21.402160
640.000000	21.702488
641.000000	21.992858
642.000000	22.272639
643.000000	22.542012
644.000000	22.799951
645.000000	23.046332
646.000000	23.280269
647.000000	23.502193
648.000000	23.712009
649.000000	23.909934
650.000000	24.095916
651.000000	24.270279
652.000000	24.432700
653.000000	24.582731
654.000000	24.721633
655.000000	24.849572
656.000000	24.966832
657.000000	25.074379
658.000000	25.172923
659.000000	25.262647
660.000000	25.344272
661.000000	25.419139
662.000000	25.488744
663.000000	25.553925
664.000000	25.615573
665.000000	25.675163
666.000000	25.733450
667.000000	25.792338
668.000000	25.853500
669.000000	25.916744
670.000000	25.982473
671.000000	26.051594
672.000000	26.124206
673.000000	26.200341
674.000000	26.280479
675.000000	26.364357
676.000000	26.452994
677.000000	26.546186
678.000000	26.643712
679.000000	26.746251
680.000000	26.853921
681.000000	26.967048
682.000000	27.085368
683.000000	27.208889
684.000000	27.337027
685.000000	27.469013
686.000000	27.604606
687.000000	27.743082
688.000000	27.884493
689.000000	28.028344
690.000000	28.173895
691.000000	28.320450
692.000000	28.467718
693.000000	28.615598
694.000000	28.764013
695.000000	28.912523
696.000000	29.060229
697.000000	29.206398
698.000000	29.350332
699.000000	29.492213
700.000000	29.631396
701.000000	29.767076
702.000000	29.898208
703.000000	30.024216
704.000000	30.145314
705.000000	30.261080
706.000000	30.371700
707.000000	30.477276
708.000000	30.578042
709.000000	30.673726
710.000000	30.764742
711.000000	30.850886
712.000000	30.933078
713.000000	31.012020
714.000000	31.087913
715.000000	31.160351
716.000000	31.229149
717.000000	31.295671
718.000000	31.361017
719.000000	31.423940
720.000000	31.485235
721.000000	31.545930
722.000000	31.606034
723.000000	31.665569
724.000000	31.725002
725.000000	31.784805
726.000000	31.846174
727.000000	31.908895
728.000000	31.972009
729.000000	32.036653
730.000000	32.104039
731.000000	32.174365
732.000000	32.246755
733.000000	32.321879
734.000000	32.398810
735.000000	32.478168
736.000000	32.560716
737.000000	32.645956
738.000000	32.733241
739.000000	32.822081
740.000000	32.912764
741.000000	33.005131
742.000000	33.099568
743.000000	33.195518
744.000000	33.292638
745.000000	33.390848
746.000000	33.490221
747.000000	33.590043
748.000000	33.690330
749.000000	33.790901
750.000000	33.891666
751.000000	33.992758
752.000000	34.092476
753.000000	34.190390
754.000000	34.287352
755.000000	34.383225
756.000000	34.476951
757.000000	34.569245
758.000000	34.660841
759.000000	34.750293
760.000000	34.837257
761.000000	34.922576
762.000000	35.006639
763.000000	35.089150
764.000000	35.169073
765.000000	35.247120
766.000000	35.323144
767.000000	35.397019
768.000000	35.468776
769.000000	35.539862
770.000000	35.609743
771.000000	35.678570
772.000000	35.745753
773.000000	35.810745
774.000000	35.876771
775.000000	35.943350
776.000000	36.010404
777.000000	36.076519
778.000000	36.142104
779.000000	36.208463
780.000000	36.276012
781.000000	36.343721
782.000000	36.413408
783.000000	36.483521
784.000000	36.555589
785.000000	36.629712
786.000000	36.707071
787.000000	36.786511
788.000000	36.868996
789.000000	36.955781
790.000000	37.046160
791.000000	37.140228
792.000000	37.236428
793.000000	37.334682
794.000000	37.435068
795.000000	37.538203
796.000000	37.643966
797.000000	37.753699
798.000000	37.864693
799.000000	37.979099
800.000000	38.093927
801.000000	38.211677
802.000000	38.332959
803.000000	38.456035
804.000000	38.581719
805.000000	38.709282
806.000000	38.838568
807.000000	38.970649
808.000000	39.106345
809.000000	39.241676
810.000000	39.379685
811.000000	39.517961
812.000000	39.659284
813.000000	39.801204
814.000000	39.945596
815.000000	40.091992
816.000000	40.241140
817.000000	40.389101
818.000000	40.539899
819.000000	40.689789
820.000000	40.838507
821.000000	40.989651
822.000000	41.143178
823.000000	41.297298
824.000000	41.450842
825.000000	41.608381
826.000000	41.768575
827.000000	41.931663
828.000000	42.095522
829.000000	42.268204
830.000000	42.443465
831.000000	42.625731
832.000000	42.808579
833.000000	42.998360
834.000000	43.190642
835.000000	43.389313
836.000000	43.591180
837.000000	43.798671
838.000000	44.010374
839.000000	44.224481
840.000000	44.442918
841.000000	44.666673
842.000000	44.895588
843.000000	45.130016
844.000000	45.374966
845.000000	45.626474
846.000000	45.879272
847.000000	46.133754
848.000000	46.391902
849.000000	46.658892
850.000000	46.925041
851.000000	47.194352
852.000000	47.474548
853.000000	47.753097
854.000000	48.041657
855.000000	48.322863
856.000000	48.611791
857.000000	48.907839
858.000000	49.246715
859.000000	49.552797
860.000000	49.865668
861.000000	50.184713
862.000000	50.510068
863.000000	50.825138
864.000000	51.150293
865.000000	51.467985
866.000000	51.772404
867.000000	52.086404
868.000000	52.401513
869.000000	52.705520
870.000000	53.014363
871.000000	53.311719
872.000000	53.612986
873.000000	53.918609
874.000000	54.207898
875.000000	54.509254
876.000000	54.795931
877.000000	55.106286
878.000000	55.385196
879.000000	55.663156
880.000000	55.949265
881.000000	56.233628
882.000000	56.500334
883.000000	56.773336
884.000000	57.035078
885.000000	57.312286
886.000000	57.579363
887.000000	57.848367
888.000000	58.118926
889.000000	58.391362
890.000000	58.669729
891.000000	58.944432
892.000000	59.211607
893.000000	59.449281
894.000000	59.718729
895.000000	59.984378
896.000000	60.240436
897.000000	60.499368
898.000000	60.753940
899.000000	61.001610
900.000000	61.265512
901.000000	61.540459
902.000000	61.783612
903.000000	62.035341
904.000000	62.301438
905.000000	62.548004
906.000000	62.810267
907.000000	63.075719
908.000000	63.324962
909.000000	63.588760
910.000000	63.845655
911.000000	64.110444
912.000000	64.355314
913.000000	64.618415
914.000000	64.850911
915.000000	65.083266
916.000000	65.312807
917.000000	65.545138
918.000000	65.766785
919.000000	66.008602
920.000000	66.226086
921.000000	66.444102
922.000000	66.657772
923.000000	66.881346
924.000000	67.084376
925.000000	67.278488
926.000000	67.469423
927.000000	67.653989
928.000000	67.829271
929.000000	68.010906
930.000000	68.178365
931.000000	68.347701
932.000000	68.506238
933.000000	68.694180
934.000000	68.863780
935.000000	69.040183
936.000000	69.198056
937.000000	69.373162
938.000000	69.521211
939.000000	69.666750
940.000000	69.833757
941.000000	69.988513
942.000000	70.124730
943.000000	70.278936
944.000000	70.422308
945.000000	70.558717
946.000000	70.699549
947.000000	70.815709
948.000000	70.942118
949.000000	71.094838
950.000000	71.219570
951.000000	71.354835
952.000000	71.503759
953.000000	71.651409
954.000000	71.784688
955.000000	71.924284
956.000000	72.067172
957.000000	72.204871
958.000000	72.328217
959.000000	72.457018
960.000000	72.586560
961.000000	72.727976
962.000000	72.862374
963.000000	72.988610
964.000000	73.095751
965.000000	73.212216
966.000000	73.334466
967.000000	73.451822
968.000000	73.551254
969.000000	73.652221
970.000000	73.724647
971.000000	73.801434
972.000000	73.878092
973.000000	73.975626
974.000000	74.063696
975.000000	74.143039
976.000000	74.217963
977.000000	74.279836
978.000000	74.346154
979.000000	74.416482
980.000000	74.467140
981.000000	74.510895
982.000000	74.567822
983.000000	74.616107
984.000000	74.672712
985.000000	74.727684
986.000000	74.752321
987.000000	74.777160
988.000000	74.811638
989.000000	74.834554
990.000000	74.850901
991.000000	74.868076
992.000000	74.879862
993.000000	74.894582
994.000000	74.911054
995.000000	74.932110
996.000000	74.936009
997.000000	74.944719
998.000000	74.954615
999.000000	74.989432
1000.000000	75.004515
1001.000000	74.999784
1002.000000	74.992890
1003.000000	74.994146
1004.000000	74.997354
1005.000000	74.999217
1006.000000	75.010202
1007.000000	75.025201
1008.000000	75.024137
1009.000000	75.030439
1010.000000	75.038786
1011.000000	75.048838
1012.000000	75.078805
1013.000000	75.088383
1014.000000	75.095068
1015.000000	75.120966
1016.000000	75.146029
1017.000000	75.178405
1018.000000	75.213986
1019.000000	75.233308
1020.000000	75.264998
1021.000000	75.309854
1022.000000	75.345681
1023.000000	75.370290
1024.000000	75.409810
1025.000000	75.457778
1026.000000	75.489421
1027.000000	75.524751
1028.000000	75.563795
1029.000000	75.604294
1030.000000	75.634156
1031.000000	75.670763
1032.000000	75.717314
1033.000000	75.750490
1034.000000	75.776353
1035.000000	75.820439
1036.000000	75.874156
1037.000000	75.922192
1038.000000	75.959313
1039.000000	75.986572
1040.000000	76.021983
1041.000000	76.069873
1042.000000	76.119448
1043.000000	76.174738
1044.000000	76.210798
1045.000000	76.230347
1046.000000	76.262675
1047.000000	76.285350
1048.000000	76.304893
1049.000000	76.329711
1050.000000	76.349215
1051.000000	76.380245
1052.000000	76.396939
1053.000000	76.422275
1054.000000	76.447250
1055.000000	76.473532
1056.000000	76.487101
1057.000000	76.501525
1058.000000	76.516733
1059.000000	76.527010
1060.000000	76.532577
1061.000000	76.556882
1062.000000	76.572059
1063.000000	76.559891
1064.000000	76.534055
1065.000000	76.553619
1066.000000	76.561523
1067.000000	76.546828
1068.000000	76.553782
1069.000000	76.547911
1070.000000	76.536294
1071.000000	76.507344
1072.000000	76.494894
1073.000000	76.489528
1074.000000	76.491544
1075.000000	76.488707
1076.000000	76.482432
1077.000000	76.467776
1078.000000	76.447143
1079.000000	76.454211
1080.000000	76.446444
1081.000000	76.431674
1082.000000	76.424172
1083.000000	76.426469
1084.000000	76.421815
1085.000000	76.421067
1086.000000	76.404832
1087.000000	76.386056
1088.000000	76.364589
1089.000000	76.344379
1090.000000	76.319676
1091.000000	76.313067
1092.000000	76.305674
1093.000000	76.308246
1094.000000	76.307928
1095.000000	76.298590
1096.000000	76.269892
1097.000000	76.262438
1098.000000	76.264544
1099.000000	76.275041
1100.000000	76.250324
1101.000000	76.237585
1102.000000	76.241429
1103.000000	76.249153
1104.000000	76.226627
1105.000000	76.216540
1106.000000	76.215351
1107.000000	76.212108
1108.000000	76.216519
1109.000000	76.214110
1110.000000	76.233101
1111.000000	76.243971
1112.000000	76.249404
1113.000000	76.263683
1114.000000	76.261971
1115.000000	76.277943
1116.000000	76.280699
1117.000000	76.289609
1118.000000	76.292100
1119.000000	76.301771
1120.000000	76.295713
1121.000000	76.332597
1122.000000	76.362653
1123.000000	76.407471
1124.000000	76.403845
1125.000000	76.447249
1126.000000	76.482757
1127.000000	76.512217
1128.000000	76.524764
1129.000000	76.541685
1130.000000	76.548083
1131.000000	76.594597
1132.000000	76.610977
1133.000000	76.627237
1134.000000	76.714275
1135.000000	76.734577
1136.000000	76.752774
1137.000000	76.775984
1138.000000	76.806283
1139.000000	76.870477
1140.000000	76.911364
1141.000000	76.949708
1142.000000	76.984046
1143.000000	77.002388
1144.000000	77.029330
1145.000000	77.046081
1146.000000	77.081054
1147.000000	77.106317
1148.000000	77.128618
1149.000000	77.162535
1150.000000	77.172742
1151.000000	77.200390
1152.000000	77.242219
1153.000000	77.275982
1154.000000	77.298129
1155.000000	77.342963
1156.000000	77.323541
1157.000000	77.340758
1158.000000	77.321328
1159.000000	77.349650
1160.000000	77.338330
1161.000000	77.332764
1162.000000	77.330851
1163.000000	77.335698
1164.000000	77.345294
1165.000000	77.346256
1166.000000	77.344284
1167.000000	77.335020
1168.000000	77.320613
1169.000000	77.258026
1170.000000	77.280953
1171.000000	77.281613
1172.000000	77.270572
1173.000000	77.234545
1174.000000	77.197277
1175.000000	77.173925
1176.000000	77.150771
1177.000000	77.132489
1178.000000	77.118035
1179.000000	77.111119
1180.000000	77.088551
1181.000000	77.040257
1182.000000	77.004297
1183.000000	76.982653
1184.000000	76.943404
1185.000000	76.936772
1186.000000	76.920177
1187.000000	76.874893
1188.000000	76.839451
1189.000000	76.818058
1190.000000	76.776475
1191.000000	76.767092
1192.000000	76.734134
1193.000000	76.711553
1194.000000	76.698106
1195.000000	76.663714
1196.000000	76.638123
1197.000000	76.609925
1198.000000	76.605980
1199.000000	76.574620
1200.000000	76.569056
1201.000000	76.556476
1202.000000	76.560203
1203.000000	76.577882
1204.000000	76.581394
1205.000000	76.559186
1206.000000	76.546283
1207.000000	76.533503
