PE UV       SUBTECH     SPECTRUM    ASCII       PEDS        4.00        
   -1
NI#0002-TX3.ASC
23/11/30
13:13:48.00
23/11/30
13:13:48.00
Vinicio Soto Monge
NI #2
250,000000
1
Lambda 1050
1050L1511233
PerkinElmer UV WinLab 6.3.2.0749 / 2.02.05 Lambda 900 UV/VIS/NIR, Aug  7 2015 09:38:08

0
0
3350/servo 860,8/2
0
0
UV/VIS
1
1
1
DoubleDePol,CommonBeamDepol,RBeamAtt,SBeamAtt,60mm sphere, WB InGaAs Detector
0
0
0
0
Program
Program
3350/servo 860,8/2
3350/0,4 860,8/0,4
3350/0,4 860,8/0,4
0
20.00
 
 
 
0
 
860,8
319,2
860,8
Front
100
on
S:100 R:100
0
0
0
0
 
0
 
 
 
0
 
 
0
0
0
0
0
 
 
 
 
0
0


0
0
#HDR
-1
-1
#GR
nm
%T
1.0
0.0
2200,000000
-1,000000
1951
8
60,368636
0,383152
#DATA
284.000000	0.520844
285.000000	0.513210
286.000000	0.505286
287.000000	0.498515
288.000000	0.491890
289.000000	0.485434
290.000000	0.479368
291.000000	0.473943
292.000000	0.468674
293.000000	0.463674
294.000000	0.458839
295.000000	0.454520
296.000000	0.451230
297.000000	0.446955
298.000000	0.443660
299.000000	0.440478
300.000000	0.437378
301.000000	0.434583
302.000000	0.431450
303.000000	0.428877
304.000000	0.426902
305.000000	0.425163
306.000000	0.423261
307.000000	0.421870
308.000000	0.420482
309.000000	0.419397
310.000000	0.418456
311.000000	0.417873
312.000000	0.417221
313.000000	0.416850
314.000000	0.416898
315.000000	0.417103
316.000000	0.417259
317.000000	0.419216
318.000000	0.421950
319.000000	0.423789
320.000000	0.427245
321.000000	0.431190
322.000000	0.433631
323.000000	0.435637
324.000000	0.437095
325.000000	0.439640
326.000000	0.443101
327.000000	0.446559
328.000000	0.449630
329.000000	0.453613
330.000000	0.457144
331.000000	0.458764
332.000000	0.461218
333.000000	0.464202
334.000000	0.468373
335.000000	0.472151
336.000000	0.475610
337.000000	0.480245
338.000000	0.483945
339.000000	0.487239
340.000000	0.491646
341.000000	0.495484
342.000000	0.499629
343.000000	0.503615
344.000000	0.507173
345.000000	0.511636
346.000000	0.515640
347.000000	0.519361
348.000000	0.523603
349.000000	0.527608
350.000000	0.530780
351.000000	0.533789
352.000000	0.535787
353.000000	0.537339
354.000000	0.540168
355.000000	0.541885
356.000000	0.543663
357.000000	0.547014
358.000000	0.550351
359.000000	0.554330
360.000000	0.557864
361.000000	0.560234
362.000000	0.563053
363.000000	0.566371
364.000000	0.568614
365.000000	0.571130
366.000000	0.575576
367.000000	0.580034
368.000000	0.583506
369.000000	0.586585
370.000000	0.590145
371.000000	0.594241
372.000000	0.597843
373.000000	0.601866
374.000000	0.605968
375.000000	0.607963
376.000000	0.610843
377.000000	0.613341
378.000000	0.615817
379.000000	0.618985
380.000000	0.621319
381.000000	0.623780
382.000000	0.627067
383.000000	0.629688
384.000000	0.632235
385.000000	0.635102
386.000000	0.638272
387.000000	0.641234
388.000000	0.643868
389.000000	0.646344
390.000000	0.648435
391.000000	0.650312
392.000000	0.651947
393.000000	0.653955
394.000000	0.656152
395.000000	0.658015
396.000000	0.659739
397.000000	0.661166
398.000000	0.662625
399.000000	0.664260
400.000000	0.666282
401.000000	0.667868
402.000000	0.669196
403.000000	0.670541
404.000000	0.671559
405.000000	0.672580
406.000000	0.673304
407.000000	0.673618
408.000000	0.673729
409.000000	0.674428
410.000000	0.676008
411.000000	0.677401
412.000000	0.678632
413.000000	0.679693
414.000000	0.680742
415.000000	0.681818
416.000000	0.682731
417.000000	0.683567
418.000000	0.684297
419.000000	0.684950
420.000000	0.685648
421.000000	0.686387
422.000000	0.687020
423.000000	0.687566
424.000000	0.687998
425.000000	0.688271
426.000000	0.688551
427.000000	0.688922
428.000000	0.689356
429.000000	0.689697
430.000000	0.690047
431.000000	0.690315
432.000000	0.690509
433.000000	0.690788
434.000000	0.691074
435.000000	0.691269
436.000000	0.691369
437.000000	0.691579
438.000000	0.691728
439.000000	0.691844
440.000000	0.692037
441.000000	0.692174
442.000000	0.692172
443.000000	0.692130
444.000000	0.692147
445.000000	0.692042
446.000000	0.691830
447.000000	0.691659
448.000000	0.691540
449.000000	0.691432
450.000000	0.691193
451.000000	0.690906
452.000000	0.690688
453.000000	0.690407
454.000000	0.690119
455.000000	0.689794
456.000000	0.689444
457.000000	0.689183
458.000000	0.688895
459.000000	0.688514
460.000000	0.688191
461.000000	0.687857
462.000000	0.687528
463.000000	0.687200
464.000000	0.686904
465.000000	0.686593
466.000000	0.686298
467.000000	0.686022
468.000000	0.685770
469.000000	0.685549
470.000000	0.685244
471.000000	0.684915
472.000000	0.684565
473.000000	0.684239
474.000000	0.683980
475.000000	0.683632
476.000000	0.683364
477.000000	0.683160
478.000000	0.682907
479.000000	0.682528
480.000000	0.682182
481.000000	0.681943
482.000000	0.681725
483.000000	0.681472
484.000000	0.681217
485.000000	0.681028
486.000000	0.680848
487.000000	0.680655
488.000000	0.680526
489.000000	0.680355
490.000000	0.680192
491.000000	0.679971
492.000000	0.679655
493.000000	0.679341
494.000000	0.679088
495.000000	0.678821
496.000000	0.678608
497.000000	0.678327
498.000000	0.677860
499.000000	0.677351
500.000000	0.676800
501.000000	0.676232
502.000000	0.675658
503.000000	0.674961
504.000000	0.674233
505.000000	0.673510
506.000000	0.672800
507.000000	0.671999
508.000000	0.671143
509.000000	0.670152
510.000000	0.669167
511.000000	0.668164
512.000000	0.667070
513.000000	0.666061
514.000000	0.665107
515.000000	0.664120
516.000000	0.663015
517.000000	0.661873
518.000000	0.660779
519.000000	0.659689
520.000000	0.658657
521.000000	0.657586
522.000000	0.656504
523.000000	0.655510
524.000000	0.654547
525.000000	0.653505
526.000000	0.652584
527.000000	0.651688
528.000000	0.650850
529.000000	0.650086
530.000000	0.649428
531.000000	0.648775
532.000000	0.648095
533.000000	0.647592
534.000000	0.647148
535.000000	0.646703
536.000000	0.646363
537.000000	0.646107
538.000000	0.646027
539.000000	0.645847
540.000000	0.645822
541.000000	0.645899
542.000000	0.646056
543.000000	0.646283
544.000000	0.646671
545.000000	0.647127
546.000000	0.647550
547.000000	0.648211
548.000000	0.648850
549.000000	0.649593
550.000000	0.650447
551.000000	0.651419
552.000000	0.652565
553.000000	0.653626
554.000000	0.654731
555.000000	0.655855
556.000000	0.657158
557.000000	0.658505
558.000000	0.659868
559.000000	0.661332
560.000000	0.662842
561.000000	0.664435
562.000000	0.666040
563.000000	0.667810
564.000000	0.669619
565.000000	0.671486
566.000000	0.673585
567.000000	0.675863
568.000000	0.678105
569.000000	0.680553
570.000000	0.683209
571.000000	0.685806
572.000000	0.688634
573.000000	0.691467
574.000000	0.694562
575.000000	0.697942
576.000000	0.701378
577.000000	0.704914
578.000000	0.708729
579.000000	0.712780
580.000000	0.716916
581.000000	0.721310
582.000000	0.725817
583.000000	0.730593
584.000000	0.735611
585.000000	0.740785
586.000000	0.746254
587.000000	0.751888
588.000000	0.757868
589.000000	0.764171
590.000000	0.770612
591.000000	0.777243
592.000000	0.784209
593.000000	0.791473
594.000000	0.799078
595.000000	0.807062
596.000000	0.815315
597.000000	0.823929
598.000000	0.832723
599.000000	0.841878
600.000000	0.851307
601.000000	0.861025
602.000000	0.871144
603.000000	0.881677
604.000000	0.892474
605.000000	0.903594
606.000000	0.915228
607.000000	0.927161
608.000000	0.939506
609.000000	0.952239
610.000000	0.965154
611.000000	0.978580
612.000000	0.992496
613.000000	1.006770
614.000000	1.021395
615.000000	1.036512
616.000000	1.052052
617.000000	1.068030
618.000000	1.084389
619.000000	1.101181
620.000000	1.118492
621.000000	1.136229
622.000000	1.154457
623.000000	1.173233
624.000000	1.192422
625.000000	1.212141
626.000000	1.232345
627.000000	1.252972
628.000000	1.274116
629.000000	1.295793
630.000000	1.318098
631.000000	1.340804
632.000000	1.364164
633.000000	1.388106
634.000000	1.412488
635.000000	1.437497
636.000000	1.462944
637.000000	1.488955
638.000000	1.515670
639.000000	1.542975
640.000000	1.570861
641.000000	1.599286
642.000000	1.628313
643.000000	1.658048
644.000000	1.688484
645.000000	1.719467
646.000000	1.751001
647.000000	1.783111
648.000000	1.815873
649.000000	1.849192
650.000000	1.883278
651.000000	1.918064
652.000000	1.953527
653.000000	1.989659
654.000000	2.026428
655.000000	2.063928
656.000000	2.101955
657.000000	2.140603
658.000000	2.179984
659.000000	2.220066
660.000000	2.260974
661.000000	2.302502
662.000000	2.344724
663.000000	2.387581
664.000000	2.430973
665.000000	2.475008
666.000000	2.519976
667.000000	2.565512
668.000000	2.611848
669.000000	2.659040
670.000000	2.706868
671.000000	2.755329
672.000000	2.804476
673.000000	2.854217
674.000000	2.904591
675.000000	2.955678
676.000000	3.007512
677.000000	3.060196
678.000000	3.113380
679.000000	3.167063
680.000000	3.221492
681.000000	3.276654
682.000000	3.332640
683.000000	3.389412
684.000000	3.446896
685.000000	3.504968
686.000000	3.563758
687.000000	3.623266
688.000000	3.683529
689.000000	3.744371
690.000000	3.805874
691.000000	3.868310
692.000000	3.931519
693.000000	3.995139
694.000000	4.059313
695.000000	4.124197
696.000000	4.189784
697.000000	4.256143
698.000000	4.323277
699.000000	4.391186
700.000000	4.459819
701.000000	4.528979
702.000000	4.598934
703.000000	4.669351
704.000000	4.740454
705.000000	4.812400
706.000000	4.885065
707.000000	4.958215
708.000000	5.031939
709.000000	5.106391
710.000000	5.181754
711.000000	5.257785
712.000000	5.334311
713.000000	5.411737
714.000000	5.489895
715.000000	5.568648
716.000000	5.648074
717.000000	5.728018
718.000000	5.808507
719.000000	5.889789
720.000000	5.972029
721.000000	6.054791
722.000000	6.137875
723.000000	6.221639
724.000000	6.306288
725.000000	6.391585
726.000000	6.477196
727.000000	6.563285
728.000000	6.650203
729.000000	6.737847
730.000000	6.826187
731.000000	6.915339
732.000000	7.005074
733.000000	7.095737
734.000000	7.186964
735.000000	7.278346
736.000000	7.370364
737.000000	7.462869
738.000000	7.555947
739.000000	7.649587
740.000000	7.743745
741.000000	7.838490
742.000000	7.934354
743.000000	8.031065
744.000000	8.128129
745.000000	8.225505
746.000000	8.323394
747.000000	8.422005
748.000000	8.520822
749.000000	8.620164
750.000000	8.720339
751.000000	8.820800
752.000000	8.921863
753.000000	9.023264
754.000000	9.125242
755.000000	9.227512
756.000000	9.330466
757.000000	9.433730
758.000000	9.537920
759.000000	9.642637
760.000000	9.747818
761.000000	9.853906
762.000000	9.960300
763.000000	10.067354
764.000000	10.174795
765.000000	10.282231
766.000000	10.389903
767.000000	10.498277
768.000000	10.606896
769.000000	10.716059
770.000000	10.826657
771.000000	10.937386
772.000000	11.048512
773.000000	11.160046
774.000000	11.271527
775.000000	11.382900
776.000000	11.495189
777.000000	11.607707
778.000000	11.720048
779.000000	11.832848
780.000000	11.946500
781.000000	12.060611
782.000000	12.175267
783.000000	12.291112
784.000000	12.407098
785.000000	12.522822
786.000000	12.638494
787.000000	12.754871
788.000000	12.871790
789.000000	12.988713
790.000000	13.106310
791.000000	13.223382
792.000000	13.341650
793.000000	13.460407
794.000000	13.579308
795.000000	13.698541
796.000000	13.817654
797.000000	13.936916
798.000000	14.057149
799.000000	14.176972
800.000000	14.297686
801.000000	14.419056
802.000000	14.540444
803.000000	14.661386
804.000000	14.783065
805.000000	14.902221
806.000000	15.022361
807.000000	15.143273
808.000000	15.265202
809.000000	15.387112
810.000000	15.510456
811.000000	15.633141
812.000000	15.755815
813.000000	15.878617
814.000000	16.002160
815.000000	16.125927
816.000000	16.249527
817.000000	16.372442
818.000000	16.495235
819.000000	16.618804
820.000000	16.742501
821.000000	16.868788
822.000000	16.993990
823.000000	17.119744
824.000000	17.245277
825.000000	17.370055
826.000000	17.495706
827.000000	17.620352
828.000000	17.744303
829.000000	17.870378
830.000000	17.995120
831.000000	18.119656
832.000000	18.243448
833.000000	18.367256
834.000000	18.491960
835.000000	18.615915
836.000000	18.739955
837.000000	18.866684
838.000000	18.992576
839.000000	19.117628
840.000000	19.242747
841.000000	19.372087
842.000000	19.499100
843.000000	19.627339
844.000000	19.753647
845.000000	19.880130
846.000000	20.007518
847.000000	20.129847
848.000000	20.253022
849.000000	20.379679
850.000000	20.506202
851.000000	20.633992
852.000000	20.760321
853.000000	20.886303
854.000000	21.009011
855.000000	21.132818
856.000000	21.253937
857.000000	21.378570
858.000000	21.516213
859.000000	21.635046
860.000000	21.769843
861.000000	21.898403
862.000000	22.036711
863.000000	22.155713
864.000000	22.279229
865.000000	22.412174
866.000000	22.536981
867.000000	22.651957
868.000000	22.754743
869.000000	22.871186
870.000000	22.998790
871.000000	23.125249
872.000000	23.239765
873.000000	23.368256
874.000000	23.499311
875.000000	23.626667
876.000000	23.764481
877.000000	23.876296
878.000000	24.003159
879.000000	24.143063
880.000000	24.272466
881.000000	24.382533
882.000000	24.502903
883.000000	24.625778
884.000000	24.736874
885.000000	24.873725
886.000000	24.990671
887.000000	25.119365
888.000000	25.244530
889.000000	25.375413
890.000000	25.487184
891.000000	25.630033
892.000000	25.751055
893.000000	25.868322
894.000000	25.995699
895.000000	26.117863
896.000000	26.237287
897.000000	26.347014
898.000000	26.483489
899.000000	26.598366
900.000000	26.702575
901.000000	26.830622
902.000000	26.957670
903.000000	27.091772
904.000000	27.217041
905.000000	27.328448
906.000000	27.438622
907.000000	27.579414
908.000000	27.680138
909.000000	27.794117
910.000000	27.929147
911.000000	28.030121
912.000000	28.156383
913.000000	28.255499
914.000000	28.349315
915.000000	28.459850
916.000000	28.592886
917.000000	28.706688
918.000000	28.826266
919.000000	28.959581
920.000000	29.071209
921.000000	29.191841
922.000000	29.305010
923.000000	29.421696
924.000000	29.529590
925.000000	29.648667
926.000000	29.744967
927.000000	29.853462
928.000000	29.953644
929.000000	30.061615
930.000000	30.167680
931.000000	30.273231
932.000000	30.390946
933.000000	30.489030
934.000000	30.610257
935.000000	30.726788
936.000000	30.829145
937.000000	30.932503
938.000000	31.037483
939.000000	31.130096
940.000000	31.232148
941.000000	31.339791
942.000000	31.436793
943.000000	31.571200
944.000000	31.663667
945.000000	31.749429
946.000000	31.840071
947.000000	31.933072
948.000000	32.030595
949.000000	32.123479
950.000000	32.214367
951.000000	32.293626
952.000000	32.386661
953.000000	32.485170
954.000000	32.586071
955.000000	32.665336
956.000000	32.748913
957.000000	32.828860
958.000000	32.915350
959.000000	33.001107
960.000000	33.089785
961.000000	33.195597
962.000000	33.298148
963.000000	33.402212
964.000000	33.495812
965.000000	33.581952
966.000000	33.680492
967.000000	33.767021
968.000000	33.862772
969.000000	33.955514
970.000000	34.057314
971.000000	34.159412
972.000000	34.270757
973.000000	34.378278
974.000000	34.498870
975.000000	34.606266
976.000000	34.696967
977.000000	34.778675
978.000000	34.852463
979.000000	34.943466
980.000000	35.027521
981.000000	35.117912
982.000000	35.210739
983.000000	35.319658
984.000000	35.431797
985.000000	35.532465
986.000000	35.641243
987.000000	35.750696
988.000000	35.833002
989.000000	35.912635
990.000000	36.019790
991.000000	36.121342
992.000000	36.222201
993.000000	36.325889
994.000000	36.441320
995.000000	36.554448
996.000000	36.625218
997.000000	36.699623
998.000000	36.778963
999.000000	36.867257
1000.000000	36.953971
1001.000000	37.034833
1002.000000	37.114432
1003.000000	37.212968
1004.000000	37.303122
1005.000000	37.382359
1006.000000	37.462025
1007.000000	37.547618
1008.000000	37.628980
1009.000000	37.691038
1010.000000	37.763227
1011.000000	37.860836
1012.000000	37.968390
1013.000000	38.061836
1014.000000	38.154877
1015.000000	38.245725
1016.000000	38.350554
1017.000000	38.457739
1018.000000	38.545274
1019.000000	38.624810
1020.000000	38.706941
1021.000000	38.787497
1022.000000	38.871373
1023.000000	38.964337
1024.000000	39.041543
1025.000000	39.118552
1026.000000	39.206552
1027.000000	39.293354
1028.000000	39.358290
1029.000000	39.420596
1030.000000	39.494398
1031.000000	39.582147
1032.000000	39.670244
1033.000000	39.753568
1034.000000	39.842634
1035.000000	39.920355
1036.000000	39.990220
1037.000000	40.069464
1038.000000	40.129080
1039.000000	40.185708
1040.000000	40.255704
1041.000000	40.325845
1042.000000	40.394872
1043.000000	40.466092
1044.000000	40.554149
1045.000000	40.633918
1046.000000	40.696840
1047.000000	40.755103
1048.000000	40.825173
1049.000000	40.900500
1050.000000	40.972648
1051.000000	41.033511
1052.000000	41.091866
1053.000000	41.160413
1054.000000	41.237902
1055.000000	41.307583
1056.000000	41.375446
1057.000000	41.440870
1058.000000	41.511418
1059.000000	41.583793
1060.000000	41.645027
1061.000000	41.704548
1062.000000	41.766364
1063.000000	41.853376
1064.000000	41.941594
1065.000000	42.003309
1066.000000	42.074938
1067.000000	42.151138
1068.000000	42.220540
1069.000000	42.294452
1070.000000	42.386845
1071.000000	42.471624
1072.000000	42.535844
1073.000000	42.614928
1074.000000	42.705682
1075.000000	42.767524
1076.000000	42.826954
1077.000000	42.900677
1078.000000	42.964901
1079.000000	43.030956
1080.000000	43.104752
1081.000000	43.188423
1082.000000	43.248294
1083.000000	43.298791
1084.000000	43.362354
1085.000000	43.436893
1086.000000	43.510985
1087.000000	43.560027
1088.000000	43.634847
1089.000000	43.696508
1090.000000	43.767846
1091.000000	43.846731
1092.000000	43.919655
1093.000000	43.986029
1094.000000	44.046910
1095.000000	44.106779
1096.000000	44.180628
1097.000000	44.253440
1098.000000	44.317345
1099.000000	44.359829
1100.000000	44.443331
1101.000000	44.498468
1102.000000	44.554770
1103.000000	44.615868
1104.000000	44.661577
1105.000000	44.698245
1106.000000	44.744807
1107.000000	44.799035
1108.000000	44.845972
1109.000000	44.881434
1110.000000	44.956075
1111.000000	45.016347
1112.000000	45.049801
1113.000000	45.115767
1114.000000	45.176787
1115.000000	45.238877
1116.000000	45.275282
1117.000000	45.331138
1118.000000	45.393901
1119.000000	45.459082
1120.000000	45.484753
1121.000000	45.524253
1122.000000	45.593517
1123.000000	45.653923
1124.000000	45.688236
1125.000000	45.769794
1126.000000	45.802672
1127.000000	45.850271
1128.000000	45.906345
1129.000000	45.961077
1130.000000	46.012539
1131.000000	46.046569
1132.000000	46.077453
1133.000000	46.112805
1134.000000	46.178797
1135.000000	46.198440
1136.000000	46.242540
1137.000000	46.283844
1138.000000	46.324542
1139.000000	46.383989
1140.000000	46.449831
1141.000000	46.504027
1142.000000	46.546165
1143.000000	46.585518
1144.000000	46.645131
1145.000000	46.686270
1146.000000	46.729661
1147.000000	46.781526
1148.000000	46.838838
1149.000000	46.867228
1150.000000	46.891110
1151.000000	46.925704
1152.000000	46.979497
1153.000000	47.019657
1154.000000	47.037351
1155.000000	47.103956
1156.000000	47.163734
1157.000000	47.217216
1158.000000	47.224685
1159.000000	47.284625
1160.000000	47.275895
1161.000000	47.303142
1162.000000	47.323106
1163.000000	47.333611
1164.000000	47.363135
1165.000000	47.390842
1166.000000	47.452136
1167.000000	47.502240
1168.000000	47.529611
1169.000000	47.535233
1170.000000	47.571810
1171.000000	47.609612
1172.000000	47.639093
1173.000000	47.658051
1174.000000	47.672015
1175.000000	47.679441
1176.000000	47.703869
1177.000000	47.739166
1178.000000	47.791100
1179.000000	47.817046
1180.000000	47.841221
1181.000000	47.863922
1182.000000	47.890324
1183.000000	47.891530
1184.000000	47.927332
1185.000000	47.961543
1186.000000	47.995699
1187.000000	48.007394
1188.000000	48.041514
1189.000000	48.091076
1190.000000	48.124909
1191.000000	48.121196
1192.000000	48.129148
1193.000000	48.163539
1194.000000	48.181389
1195.000000	48.189611
1196.000000	48.226146
1197.000000	48.258044
1198.000000	48.302249
1199.000000	48.335184
1200.000000	48.362634
1201.000000	48.383276
1202.000000	48.403715
1203.000000	48.432467
1204.000000	48.464155
1205.000000	48.499610
1206.000000	48.529751
1207.000000	48.567105
1208.000000	48.617665
1209.000000	48.668093
1210.000000	48.717427
1211.000000	48.754436
1212.000000	48.806180
1213.000000	48.825058
1214.000000	48.854949
1215.000000	48.898407
