PE UV       SUBTECH     SPECTRUM    ASCII       PEDS        4.00        
   -1
PLATY.001-TX3.ASC
23/11/30
15:38:45.00
23/11/30
15:38:45.00
Vinicio Soto Monge
PLATY 1
250,000000
1
Lambda 1050
1050L1511233
PerkinElmer UV WinLab 6.3.2.0749 / 2.02.05 Lambda 900 UV/VIS/NIR, Aug  7 2015 09:38:08

0
0
3350/servo 860,8/2
0
0
UV/VIS
1
1
1
DoubleDePol,CommonBeamDepol,RBeamAtt,SBeamAtt,60mm sphere, WB InGaAs Detector
0
0
0
0
Program
Program
3350/servo 860,8/2
3350/0,4 860,8/0,4
3350/0,4 860,8/0,4
0
20.00
 
 
 
0
 
860,8
319,2
860,8
Front
100
on
S:100 R:100
0
0
0
0
 
0
 
 
 
0
 
 
0
0
0
0
0
 
 
 
 
0
0


0
0
#HDR
-1
-1
#GR
nm
%T
1.0
0.0
2200,000000
-1,000000
1951
8
35,125412
0,217810
#DATA
284.000000	0.175198
285.000000	0.176097
286.000000	0.176803
287.000000	0.178296
288.000000	0.179496
289.000000	0.179957
290.000000	0.181057
291.000000	0.181959
292.000000	0.182591
293.000000	0.183776
294.000000	0.184641
295.000000	0.185886
296.000000	0.186993
297.000000	0.187703
298.000000	0.188966
299.000000	0.189742
300.000000	0.190833
301.000000	0.191778
302.000000	0.192624
303.000000	0.192919
304.000000	0.193952
305.000000	0.194691
306.000000	0.195276
307.000000	0.195892
308.000000	0.196926
309.000000	0.198154
310.000000	0.199433
311.000000	0.200764
312.000000	0.202062
313.000000	0.202778
314.000000	0.203865
315.000000	0.204895
316.000000	0.205807
317.000000	0.206051
318.000000	0.208018
319.000000	0.209844
320.000000	0.212167
321.000000	0.215589
322.000000	0.215672
323.000000	0.217006
324.000000	0.220000
325.000000	0.222014
326.000000	0.224521
327.000000	0.227607
328.000000	0.230217
329.000000	0.232876
330.000000	0.235076
331.000000	0.237748
332.000000	0.240742
333.000000	0.243458
334.000000	0.246087
335.000000	0.248188
336.000000	0.250805
337.000000	0.253073
338.000000	0.255534
339.000000	0.257732
340.000000	0.259922
341.000000	0.262493
342.000000	0.264844
343.000000	0.267179
344.000000	0.269409
345.000000	0.272072
346.000000	0.274150
347.000000	0.276434
348.000000	0.279822
349.000000	0.282536
350.000000	0.285810
351.000000	0.288916
352.000000	0.292729
353.000000	0.294923
354.000000	0.297432
355.000000	0.299190
356.000000	0.300871
357.000000	0.305396
358.000000	0.309107
359.000000	0.311333
360.000000	0.314163
361.000000	0.316481
362.000000	0.318577
363.000000	0.320782
364.000000	0.322650
365.000000	0.325053
366.000000	0.327123
367.000000	0.329437
368.000000	0.332122
369.000000	0.335047
370.000000	0.338580
371.000000	0.341813
372.000000	0.344594
373.000000	0.347478
374.000000	0.350657
375.000000	0.353909
376.000000	0.356723
377.000000	0.359562
378.000000	0.362140
379.000000	0.364965
380.000000	0.367353
381.000000	0.370087
382.000000	0.373061
383.000000	0.375309
384.000000	0.377868
385.000000	0.379896
386.000000	0.382277
387.000000	0.384683
388.000000	0.387060
389.000000	0.389400
390.000000	0.391736
391.000000	0.393357
392.000000	0.395035
393.000000	0.396669
394.000000	0.398485
395.000000	0.400239
396.000000	0.401879
397.000000	0.403494
398.000000	0.405261
399.000000	0.407365
400.000000	0.409273
401.000000	0.411028
402.000000	0.412691
403.000000	0.413923
404.000000	0.415328
405.000000	0.416367
406.000000	0.417328
407.000000	0.419102
408.000000	0.420786
409.000000	0.422174
410.000000	0.423590
411.000000	0.425094
412.000000	0.426736
413.000000	0.428237
414.000000	0.429652
415.000000	0.431073
416.000000	0.432456
417.000000	0.433884
418.000000	0.435308
419.000000	0.436611
420.000000	0.437910
421.000000	0.439194
422.000000	0.440459
423.000000	0.441692
424.000000	0.442974
425.000000	0.444272
426.000000	0.445565
427.000000	0.446871
428.000000	0.448126
429.000000	0.449292
430.000000	0.450584
431.000000	0.451965
432.000000	0.453310
433.000000	0.454620
434.000000	0.455931
435.000000	0.457290
436.000000	0.458652
437.000000	0.460090
438.000000	0.461525
439.000000	0.462954
440.000000	0.464429
441.000000	0.465978
442.000000	0.467536
443.000000	0.469105
444.000000	0.470617
445.000000	0.472164
446.000000	0.473699
447.000000	0.475180
448.000000	0.476706
449.000000	0.478253
450.000000	0.479828
451.000000	0.481524
452.000000	0.483253
453.000000	0.484949
454.000000	0.486714
455.000000	0.488530
456.000000	0.490395
457.000000	0.492229
458.000000	0.494102
459.000000	0.495956
460.000000	0.497845
461.000000	0.499811
462.000000	0.501826
463.000000	0.503939
464.000000	0.506158
465.000000	0.508332
466.000000	0.510448
467.000000	0.512597
468.000000	0.514833
469.000000	0.517220
470.000000	0.519683
471.000000	0.522211
472.000000	0.524864
473.000000	0.527585
474.000000	0.530332
475.000000	0.533164
476.000000	0.536058
477.000000	0.538960
478.000000	0.541942
479.000000	0.545052
480.000000	0.548282
481.000000	0.551714
482.000000	0.555342
483.000000	0.558979
484.000000	0.562740
485.000000	0.566442
486.000000	0.570256
487.000000	0.574221
488.000000	0.578490
489.000000	0.582863
490.000000	0.587391
491.000000	0.591952
492.000000	0.596708
493.000000	0.601618
494.000000	0.606806
495.000000	0.612274
496.000000	0.617778
497.000000	0.623422
498.000000	0.629240
499.000000	0.635322
500.000000	0.641580
501.000000	0.648006
502.000000	0.654693
503.000000	0.661736
504.000000	0.668944
505.000000	0.676440
506.000000	0.684286
507.000000	0.692383
508.000000	0.700740
509.000000	0.709482
510.000000	0.718488
511.000000	0.727763
512.000000	0.737405
513.000000	0.747439
514.000000	0.757848
515.000000	0.768724
516.000000	0.779775
517.000000	0.791219
518.000000	0.803033
519.000000	0.815109
520.000000	0.827638
521.000000	0.840587
522.000000	0.853852
523.000000	0.867367
524.000000	0.881255
525.000000	0.895491
526.000000	0.910132
527.000000	0.925097
528.000000	0.940445
529.000000	0.956055
530.000000	0.971833
531.000000	0.988093
532.000000	1.004627
533.000000	1.021490
534.000000	1.038556
535.000000	1.055956
536.000000	1.073623
537.000000	1.091495
538.000000	1.109469
539.000000	1.127722
540.000000	1.146134
541.000000	1.164749
542.000000	1.183473
543.000000	1.202377
544.000000	1.221469
545.000000	1.240698
546.000000	1.260240
547.000000	1.279766
548.000000	1.299358
549.000000	1.319155
550.000000	1.338799
551.000000	1.358583
552.000000	1.378417
553.000000	1.398393
554.000000	1.418522
555.000000	1.438716
556.000000	1.458801
557.000000	1.478965
558.000000	1.499153
559.000000	1.519402
560.000000	1.539664
561.000000	1.559936
562.000000	1.580290
563.000000	1.600587
564.000000	1.621002
565.000000	1.641476
566.000000	1.661839
567.000000	1.682265
568.000000	1.702584
569.000000	1.722868
570.000000	1.743050
571.000000	1.763423
572.000000	1.783575
573.000000	1.803841
574.000000	1.824080
575.000000	1.844195
576.000000	1.864081
577.000000	1.883946
578.000000	1.903872
579.000000	1.923531
580.000000	1.943075
581.000000	1.962326
582.000000	1.981639
583.000000	2.000645
584.000000	2.019503
585.000000	2.038219
586.000000	2.056890
587.000000	2.075134
588.000000	2.093262
589.000000	2.111086
590.000000	2.128659
591.000000	2.146045
592.000000	2.163185
593.000000	2.180082
594.000000	2.196702
595.000000	2.213147
596.000000	2.229336
597.000000	2.245301
598.000000	2.261030
599.000000	2.276396
600.000000	2.291415
601.000000	2.306370
602.000000	2.320960
603.000000	2.335393
604.000000	2.349621
605.000000	2.363614
606.000000	2.377317
607.000000	2.391020
608.000000	2.404359
609.000000	2.417486
610.000000	2.430365
611.000000	2.443174
612.000000	2.455806
613.000000	2.468244
614.000000	2.480727
615.000000	2.493202
616.000000	2.505590
617.000000	2.517756
618.000000	2.529948
619.000000	2.541825
620.000000	2.553675
621.000000	2.565398
622.000000	2.577241
623.000000	2.588787
624.000000	2.600308
625.000000	2.611891
626.000000	2.623516
627.000000	2.634937
628.000000	2.646328
629.000000	2.657620
630.000000	2.668673
631.000000	2.679652
632.000000	2.690501
633.000000	2.701285
634.000000	2.711890
635.000000	2.722488
636.000000	2.732874
637.000000	2.743227
638.000000	2.753538
639.000000	2.763453
640.000000	2.773336
641.000000	2.783025
642.000000	2.792537
643.000000	2.801935
644.000000	2.811101
645.000000	2.820327
646.000000	2.829432
647.000000	2.838295
648.000000	2.846946
649.000000	2.855569
650.000000	2.864120
651.000000	2.872721
652.000000	2.881391
653.000000	2.890080
654.000000	2.899114
655.000000	2.908256
656.000000	2.917495
657.000000	2.926870
658.000000	2.936648
659.000000	2.946788
660.000000	2.957430
661.000000	2.968274
662.000000	2.979769
663.000000	2.991850
664.000000	3.004627
665.000000	3.018468
666.000000	3.033103
667.000000	3.048675
668.000000	3.065230
669.000000	3.082944
670.000000	3.101853
671.000000	3.121879
672.000000	3.143405
673.000000	3.166429
674.000000	3.191237
675.000000	3.217684
676.000000	3.246005
677.000000	3.276243
678.000000	3.308426
679.000000	3.342901
680.000000	3.379818
681.000000	3.419066
682.000000	3.461030
683.000000	3.505674
684.000000	3.552843
685.000000	3.602885
686.000000	3.655608
687.000000	3.711160
688.000000	3.769746
689.000000	3.831280
690.000000	3.895767
691.000000	3.963090
692.000000	4.033572
693.000000	4.107144
694.000000	4.183582
695.000000	4.262589
696.000000	4.344369
697.000000	4.428687
698.000000	4.515282
699.000000	4.604195
700.000000	4.695327
701.000000	4.788752
702.000000	4.883919
703.000000	4.980888
704.000000	5.079527
705.000000	5.179649
706.000000	5.281070
707.000000	5.383142
708.000000	5.486017
709.000000	5.589695
710.000000	5.693704
711.000000	5.797890
712.000000	5.902549
713.000000	6.007687
714.000000	6.112371
715.000000	6.216260
716.000000	6.319600
717.000000	6.421934
718.000000	6.523112
719.000000	6.623425
720.000000	6.722558
721.000000	6.820369
722.000000	6.916532
723.000000	7.010935
724.000000	7.103589
725.000000	7.194345
726.000000	7.283368
727.000000	7.370433
728.000000	7.455145
729.000000	7.537623
730.000000	7.618009
731.000000	7.696555
732.000000	7.773067
733.000000	7.848101
734.000000	7.921401
735.000000	7.992149
736.000000	8.060741
737.000000	8.127779
738.000000	8.193225
739.000000	8.257179
740.000000	8.319509
741.000000	8.380422
742.000000	8.440171
743.000000	8.498428
744.000000	8.555250
745.000000	8.611322
746.000000	8.666157
747.000000	8.719740
748.000000	8.772337
749.000000	8.823631
750.000000	8.873794
751.000000	8.923587
752.000000	8.972743
753.000000	9.021363
754.000000	9.068895
755.000000	9.115904
756.000000	9.162665
757.000000	9.208533
758.000000	9.253697
759.000000	9.298260
760.000000	9.342512
761.000000	9.386798
762.000000	9.430292
763.000000	9.473790
764.000000	9.517084
765.000000	9.560111
766.000000	9.602347
767.000000	9.644501
768.000000	9.685702
769.000000	9.726422
770.000000	9.767416
771.000000	9.808663
772.000000	9.849721
773.000000	9.890463
774.000000	9.930443
775.000000	9.970019
776.000000	10.009878
777.000000	10.049566
778.000000	10.089283
779.000000	10.128980
780.000000	10.167902
781.000000	10.206622
782.000000	10.245494
783.000000	10.283528
784.000000	10.321977
785.000000	10.360195
786.000000	10.398126
787.000000	10.436166
788.000000	10.473624
789.000000	10.511435
790.000000	10.548438
791.000000	10.585060
792.000000	10.621791
793.000000	10.659104
794.000000	10.695898
795.000000	10.732746
796.000000	10.768405
797.000000	10.804275
798.000000	10.839466
799.000000	10.875593
800.000000	10.911918
801.000000	10.947588
802.000000	10.982331
803.000000	11.017080
804.000000	11.052024
805.000000	11.087068
806.000000	11.120990
807.000000	11.154842
808.000000	11.189190
809.000000	11.223186
810.000000	11.257434
811.000000	11.291184
812.000000	11.324928
813.000000	11.357611
814.000000	11.390235
815.000000	11.422693
816.000000	11.455977
817.000000	11.488130
818.000000	11.521149
819.000000	11.553634
820.000000	11.585837
821.000000	11.617885
822.000000	11.649239
823.000000	11.681440
824.000000	11.712418
825.000000	11.744345
826.000000	11.776758
827.000000	11.808374
828.000000	11.839159
829.000000	11.871668
830.000000	11.902070
831.000000	11.933621
832.000000	11.964436
833.000000	11.996128
834.000000	12.026483
835.000000	12.055793
836.000000	12.085648
837.000000	12.116592
838.000000	12.147523
839.000000	12.177260
840.000000	12.207141
841.000000	12.237155
842.000000	12.267163
843.000000	12.295461
844.000000	12.324662
845.000000	12.354204
846.000000	12.381884
847.000000	12.412314
848.000000	12.440377
849.000000	12.469026
850.000000	12.499123
851.000000	12.527451
852.000000	12.557269
853.000000	12.586346
854.000000	12.614891
855.000000	12.645779
856.000000	12.674034
857.000000	12.705552
858.000000	12.751840
859.000000	12.791378
860.000000	12.822624
861.000000	12.860944
862.000000	12.904271
863.000000	12.948644
864.000000	12.975359
865.000000	13.023387
866.000000	13.065740
867.000000	13.094752
868.000000	13.131880
869.000000	13.170792
870.000000	13.212818
871.000000	13.234237
872.000000	13.303105
873.000000	13.348482
874.000000	13.399537
875.000000	13.411466
876.000000	13.451700
877.000000	13.494138
878.000000	13.538307
879.000000	13.568976
880.000000	13.616567
881.000000	13.659019
882.000000	13.686518
883.000000	13.725652
884.000000	13.749333
885.000000	13.773131
886.000000	13.803143
887.000000	13.846237
888.000000	13.890572
889.000000	13.934048
890.000000	13.967885
891.000000	14.017586
892.000000	14.029677
893.000000	14.049082
894.000000	14.090674
895.000000	14.115967
896.000000	14.135983
897.000000	14.152857
898.000000	14.178013
899.000000	14.216402
900.000000	14.221767
901.000000	14.240686
902.000000	14.267863
903.000000	14.268659
904.000000	14.290202
905.000000	14.305562
906.000000	14.339862
907.000000	14.321144
908.000000	14.325928
909.000000	14.338316
910.000000	14.387461
911.000000	14.412766
912.000000	14.440122
913.000000	14.456155
914.000000	14.491212
915.000000	14.522731
916.000000	14.527576
917.000000	14.549724
918.000000	14.554088
919.000000	14.592171
920.000000	14.616605
921.000000	14.625906
922.000000	14.653291
923.000000	14.658487
924.000000	14.667268
925.000000	14.686930
926.000000	14.686264
927.000000	14.730019
928.000000	14.735423
929.000000	14.726308
930.000000	14.736341
931.000000	14.759666
932.000000	14.795301
933.000000	14.797113
934.000000	14.811511
935.000000	14.846459
936.000000	14.862970
937.000000	14.882905
938.000000	14.925338
939.000000	14.950052
940.000000	14.963159
941.000000	14.975291
942.000000	14.996624
943.000000	15.021330
944.000000	15.026748
945.000000	15.034654
946.000000	15.050902
947.000000	15.078135
948.000000	15.101865
949.000000	15.109660
950.000000	15.099817
951.000000	15.118091
952.000000	15.131716
953.000000	15.177105
954.000000	15.188309
955.000000	15.203374
956.000000	15.232551
957.000000	15.232439
958.000000	15.242083
959.000000	15.247945
960.000000	15.253649
961.000000	15.274864
962.000000	15.287269
963.000000	15.306453
964.000000	15.334885
965.000000	15.370895
966.000000	15.383488
967.000000	15.384562
968.000000	15.412540
969.000000	15.417317
970.000000	15.424326
971.000000	15.455436
972.000000	15.492114
973.000000	15.498999
974.000000	15.502774
975.000000	15.526420
976.000000	15.538543
977.000000	15.542550
978.000000	15.544722
979.000000	15.556607
980.000000	15.576369
981.000000	15.578503
982.000000	15.579820
983.000000	15.596464
984.000000	15.612295
985.000000	15.633098
986.000000	15.649082
987.000000	15.658068
988.000000	15.643263
989.000000	15.662179
990.000000	15.684298
991.000000	15.701887
992.000000	15.713976
993.000000	15.736121
994.000000	15.775242
995.000000	15.809692
996.000000	15.816472
997.000000	15.816789
998.000000	15.836127
999.000000	15.850044
1000.000000	15.858142
1001.000000	15.872324
1002.000000	15.894013
1003.000000	15.921043
1004.000000	15.941461
1005.000000	15.956491
1006.000000	15.986171
1007.000000	16.008199
1008.000000	16.034774
1009.000000	16.051459
1010.000000	16.065927
1011.000000	16.078567
1012.000000	16.098528
1013.000000	16.130418
1014.000000	16.155855
1015.000000	16.175532
1016.000000	16.205662
1017.000000	16.219491
1018.000000	16.230642
1019.000000	16.247646
1020.000000	16.249408
1021.000000	16.275462
1022.000000	16.308826
1023.000000	16.343444
1024.000000	16.372493
1025.000000	16.396379
1026.000000	16.422973
1027.000000	16.446595
1028.000000	16.467693
1029.000000	16.474398
1030.000000	16.487739
1031.000000	16.516406
1032.000000	16.544143
1033.000000	16.583175
1034.000000	16.613967
1035.000000	16.638508
1036.000000	16.663791
1037.000000	16.680497
1038.000000	16.682518
1039.000000	16.711786
1040.000000	16.737652
1041.000000	16.732169
1042.000000	16.721873
1043.000000	16.751873
1044.000000	16.799294
1045.000000	16.821921
1046.000000	16.845246
1047.000000	16.873929
1048.000000	16.886373
1049.000000	16.887693
1050.000000	16.892580
1051.000000	16.898821
1052.000000	16.911540
1053.000000	16.925336
1054.000000	16.947223
1055.000000	16.982710
1056.000000	16.996382
1057.000000	17.021762
1058.000000	17.042701
1059.000000	17.045357
1060.000000	17.062230
1061.000000	17.069567
1062.000000	17.069158
1063.000000	17.087222
1064.000000	17.097683
1065.000000	17.111716
1066.000000	17.109332
1067.000000	17.114113
1068.000000	17.117746
1069.000000	17.129324
1070.000000	17.142525
1071.000000	17.146079
1072.000000	17.150216
1073.000000	17.162562
1074.000000	17.168061
1075.000000	17.172310
1076.000000	17.189802
1077.000000	17.210659
1078.000000	17.206397
1079.000000	17.199510
1080.000000	17.202821
1081.000000	17.217951
1082.000000	17.232983
1083.000000	17.262765
1084.000000	17.298496
1085.000000	17.338733
1086.000000	17.363281
1087.000000	17.358851
1088.000000	17.368241
1089.000000	17.367927
1090.000000	17.382888
1091.000000	17.415191
1092.000000	17.435447
1093.000000	17.461304
1094.000000	17.466824
1095.000000	17.462128
1096.000000	17.481324
1097.000000	17.538977
1098.000000	17.547863
1099.000000	17.585006
1100.000000	17.621153
1101.000000	17.657045
1102.000000	17.683517
1103.000000	17.692717
1104.000000	17.693615
1105.000000	17.689313
1106.000000	17.708316
1107.000000	17.737525
1108.000000	17.752031
1109.000000	17.770539
1110.000000	17.786213
1111.000000	17.809120
1112.000000	17.807522
1113.000000	17.813694
1114.000000	17.832491
1115.000000	17.856119
1116.000000	17.884844
1117.000000	17.919823
1118.000000	17.921726
1119.000000	17.915763
1120.000000	17.922835
1121.000000	17.932756
1122.000000	17.953977
1123.000000	18.013043
1124.000000	18.027439
1125.000000	18.051688
1126.000000	18.026539
1127.000000	18.027454
1128.000000	18.025313
1129.000000	18.057796
1130.000000	18.102586
1131.000000	18.104418
1132.000000	18.078625
1133.000000	18.070469
1134.000000	18.083106
1135.000000	18.077773
1136.000000	18.075237
1137.000000	18.087536
1138.000000	18.093242
1139.000000	18.107245
1140.000000	18.144762
1141.000000	18.189531
1142.000000	18.176084
1143.000000	18.207529
1144.000000	18.234108
1145.000000	18.268055
1146.000000	18.272144
1147.000000	18.284559
1148.000000	18.321407
1149.000000	18.337941
1150.000000	18.371412
1151.000000	18.399379
1152.000000	18.394047
1153.000000	18.386060
1154.000000	18.419155
1155.000000	18.420931
1156.000000	18.460708
1157.000000	18.488484
1158.000000	18.453838
1159.000000	18.484674
1160.000000	18.475525
1161.000000	18.504616
1162.000000	18.497368
1163.000000	18.515264
1164.000000	18.516051
1165.000000	18.497745
1166.000000	18.520028
1167.000000	18.544586
1168.000000	18.583651
1169.000000	18.578105
1170.000000	18.572216
1171.000000	18.584833
1172.000000	18.605655
1173.000000	18.616394
1174.000000	18.601265
1175.000000	18.582911
1176.000000	18.538686
1177.000000	18.546366
1178.000000	18.545418
1179.000000	18.540564
1180.000000	18.510514
1181.000000	18.502106
1182.000000	18.512771
1183.000000	18.497115
1184.000000	18.499054
1185.000000	18.483638
1186.000000	18.449741
1187.000000	18.439580
1188.000000	18.465710
1189.000000	18.466381
1190.000000	18.482950
1191.000000	18.461680
1192.000000	18.459076
1193.000000	18.456527
1194.000000	18.455175
1195.000000	18.465827
1196.000000	18.474386
1197.000000	18.509558
1198.000000	18.519845
1199.000000	18.532777
1200.000000	18.567298
1201.000000	18.569483
1202.000000	18.565689
1203.000000	18.564636
1204.000000	18.587203
1205.000000	18.620266
1206.000000	18.627685
1207.000000	18.635372
1208.000000	18.666172
1209.000000	18.708703
1210.000000	18.741847
1211.000000	18.771214
1212.000000	18.812119
1213.000000	18.807689
1214.000000	18.795086
1215.000000	18.821719
