PE UV       SUBTECH     SPECTRUM    ASCII       PEDS        4.00        
   -1
C.CHRY.MV73-TX3.ASC
23/11/29
15:04:51.00
23/11/29
15:04:51.00
Vinicio Soto Monge
C. CHRYSARGYREA #73 MV23
250,000000
1
Lambda 1050
1050L1511233
PerkinElmer UV WinLab 6.3.2.0749 / 2.02.05 Lambda 900 UV/VIS/NIR, Aug  7 2015 09:38:08

0
0
3350/servo 860,8/2
0
0
UV/VIS
1
1
1
DoubleDePol,CommonBeamDepol,RBeamAtt,SBeamAtt,60mm sphere, WB InGaAs Detector
0
0
0
0
Program
Program
3350/servo 860,8/2
3350/0,4 860,8/0,4
3350/0,4 860,8/0,4
0
20.00
 
 
 
0
 
860,8
319,2
860,8
Front
100
on
S:100 R:100
0
0
0
0
 
0
 
 
 
0
 
 
0
0
0
0
0
 
 
 
 
0
0


0
0
#HDR
-1
-1
#GR
nm
%T
1.0
0.0
2200,000000
-1,000000
1951
8
71,423533
0,110484
#DATA
284.000000	0.221119
285.000000	0.221567
286.000000	0.222327
287.000000	0.222861
288.000000	0.223786
289.000000	0.224584
290.000000	0.225680
291.000000	0.226711
292.000000	0.227857
293.000000	0.228176
294.000000	0.228945
295.000000	0.230240
296.000000	0.231320
297.000000	0.231705
298.000000	0.232089
299.000000	0.232642
300.000000	0.233435
301.000000	0.234080
302.000000	0.234487
303.000000	0.235362
304.000000	0.235800
305.000000	0.236246
306.000000	0.236560
307.000000	0.237112
308.000000	0.237852
309.000000	0.239146
310.000000	0.239777
311.000000	0.240288
312.000000	0.241111
313.000000	0.241710
314.000000	0.242733
315.000000	0.243934
316.000000	0.244611
317.000000	0.245086
318.000000	0.248225
319.000000	0.248973
320.000000	0.252245
321.000000	0.255040
322.000000	0.257059
323.000000	0.259478
324.000000	0.260223
325.000000	0.261542
326.000000	0.263194
327.000000	0.264480
328.000000	0.267672
329.000000	0.269271
330.000000	0.271273
331.000000	0.273928
332.000000	0.276598
333.000000	0.278701
334.000000	0.280947
335.000000	0.282538
336.000000	0.284654
337.000000	0.286479
338.000000	0.288182
339.000000	0.291441
340.000000	0.293852
341.000000	0.296189
342.000000	0.298563
343.000000	0.301140
344.000000	0.303453
345.000000	0.305507
346.000000	0.307834
347.000000	0.310631
348.000000	0.313129
349.000000	0.315374
350.000000	0.317847
351.000000	0.320712
352.000000	0.323827
353.000000	0.324520
354.000000	0.327631
355.000000	0.329016
356.000000	0.330640
357.000000	0.332914
358.000000	0.334726
359.000000	0.338192
360.000000	0.340677
361.000000	0.342989
362.000000	0.346120
363.000000	0.347190
364.000000	0.349667
365.000000	0.351758
366.000000	0.353519
367.000000	0.355689
368.000000	0.358494
369.000000	0.361106
370.000000	0.364118
371.000000	0.367300
372.000000	0.370560
373.000000	0.373397
374.000000	0.375170
375.000000	0.377625
376.000000	0.380234
377.000000	0.382464
378.000000	0.384585
379.000000	0.386847
380.000000	0.389488
381.000000	0.391889
382.000000	0.393876
383.000000	0.396305
384.000000	0.398713
385.000000	0.400533
386.000000	0.402543
387.000000	0.404607
388.000000	0.406422
389.000000	0.408266
390.000000	0.409344
391.000000	0.410879
392.000000	0.412715
393.000000	0.414253
394.000000	0.415823
395.000000	0.417599
396.000000	0.419262
397.000000	0.420782
398.000000	0.422730
399.000000	0.424715
400.000000	0.426455
401.000000	0.428077
402.000000	0.429358
403.000000	0.430629
404.000000	0.431911
405.000000	0.432955
406.000000	0.433549
407.000000	0.434371
408.000000	0.435515
409.000000	0.436411
410.000000	0.437183
411.000000	0.438106
412.000000	0.439347
413.000000	0.440512
414.000000	0.441618
415.000000	0.442624
416.000000	0.443630
417.000000	0.444605
418.000000	0.445561
419.000000	0.446487
420.000000	0.447270
421.000000	0.447959
422.000000	0.448630
423.000000	0.449231
424.000000	0.449796
425.000000	0.450326
426.000000	0.450897
427.000000	0.451432
428.000000	0.451938
429.000000	0.452451
430.000000	0.452832
431.000000	0.453156
432.000000	0.453479
433.000000	0.453776
434.000000	0.454070
435.000000	0.454332
436.000000	0.454613
437.000000	0.454914
438.000000	0.455176
439.000000	0.455410
440.000000	0.455559
441.000000	0.455689
442.000000	0.455852
443.000000	0.456041
444.000000	0.456239
445.000000	0.456398
446.000000	0.456517
447.000000	0.456591
448.000000	0.456625
449.000000	0.456621
450.000000	0.456765
451.000000	0.456878
452.000000	0.456897
453.000000	0.456903
454.000000	0.456899
455.000000	0.456901
456.000000	0.456980
457.000000	0.456991
458.000000	0.456981
459.000000	0.457022
460.000000	0.457078
461.000000	0.457054
462.000000	0.457034
463.000000	0.457022
464.000000	0.457027
465.000000	0.456991
466.000000	0.457035
467.000000	0.457062
468.000000	0.457164
469.000000	0.457336
470.000000	0.457457
471.000000	0.457563
472.000000	0.457690
473.000000	0.457840
474.000000	0.457965
475.000000	0.458134
476.000000	0.458331
477.000000	0.458526
478.000000	0.458745
479.000000	0.459009
480.000000	0.459351
481.000000	0.459729
482.000000	0.460188
483.000000	0.460728
484.000000	0.461399
485.000000	0.462049
486.000000	0.462758
487.000000	0.463641
488.000000	0.464559
489.000000	0.465498
490.000000	0.466581
491.000000	0.467704
492.000000	0.468853
493.000000	0.470156
494.000000	0.471537
495.000000	0.473052
496.000000	0.474778
497.000000	0.476578
498.000000	0.478597
499.000000	0.480755
500.000000	0.483236
501.000000	0.485935
502.000000	0.488967
503.000000	0.492181
504.000000	0.495601
505.000000	0.499413
506.000000	0.503526
507.000000	0.508025
508.000000	0.512983
509.000000	0.518310
510.000000	0.524078
511.000000	0.530399
512.000000	0.537186
513.000000	0.544468
514.000000	0.552279
515.000000	0.560684
516.000000	0.569819
517.000000	0.579645
518.000000	0.590214
519.000000	0.601543
520.000000	0.613671
521.000000	0.626603
522.000000	0.640335
523.000000	0.654909
524.000000	0.670370
525.000000	0.686548
526.000000	0.703542
527.000000	0.721442
528.000000	0.740092
529.000000	0.759584
530.000000	0.779790
531.000000	0.800770
532.000000	0.822675
533.000000	0.845451
534.000000	0.869254
535.000000	0.893997
536.000000	0.919715
537.000000	0.946412
538.000000	0.974307
539.000000	1.003636
540.000000	1.034275
541.000000	1.066415
542.000000	1.100125
543.000000	1.135270
544.000000	1.172058
545.000000	1.210460
546.000000	1.250498
547.000000	1.292374
548.000000	1.336150
549.000000	1.381697
550.000000	1.429371
551.000000	1.479060
552.000000	1.530898
553.000000	1.584730
554.000000	1.640601
555.000000	1.698743
556.000000	1.759059
557.000000	1.821696
558.000000	1.886790
559.000000	1.954603
560.000000	2.025165
561.000000	2.098367
562.000000	2.174399
563.000000	2.253335
564.000000	2.334972
565.000000	2.419680
566.000000	2.507445
567.000000	2.598093
568.000000	2.691766
569.000000	2.788316
570.000000	2.887968
571.000000	2.990450
572.000000	3.095942
573.000000	3.203928
574.000000	3.314615
575.000000	3.427765
576.000000	3.543314
577.000000	3.661157
578.000000	3.781189
579.000000	3.903533
580.000000	4.028096
581.000000	4.154835
582.000000	4.283500
583.000000	4.414298
584.000000	4.547233
585.000000	4.681941
586.000000	4.818618
587.000000	4.957162
588.000000	5.097625
589.000000	5.239930
590.000000	5.384091
591.000000	5.530337
592.000000	5.678376
593.000000	5.828291
594.000000	5.980178
595.000000	6.134042
596.000000	6.289972
597.000000	6.447930
598.000000	6.607841
599.000000	6.770017
600.000000	6.934209
601.000000	7.100588
602.000000	7.269720
603.000000	7.441685
604.000000	7.616499
605.000000	7.793730
606.000000	7.973899
607.000000	8.156791
608.000000	8.342202
609.000000	8.529683
610.000000	8.719595
611.000000	8.911445
612.000000	9.105134
613.000000	9.301086
614.000000	9.498842
615.000000	9.698689
616.000000	9.900638
617.000000	10.104417
618.000000	10.309892
619.000000	10.517224
620.000000	10.726528
621.000000	10.937503
622.000000	11.150008
623.000000	11.364418
624.000000	11.580792
625.000000	11.799267
626.000000	12.019821
627.000000	12.242235
628.000000	12.466465
629.000000	12.691981
630.000000	12.918382
631.000000	13.145716
632.000000	13.372999
633.000000	13.600576
634.000000	13.828064
635.000000	14.055820
636.000000	14.283176
637.000000	14.509402
638.000000	14.734412
639.000000	14.958117
640.000000	15.180947
641.000000	15.402674
642.000000	15.622942
643.000000	15.842414
644.000000	16.061076
645.000000	16.278642
646.000000	16.495361
647.000000	16.711545
648.000000	16.926951
649.000000	17.142319
650.000000	17.357351
651.000000	17.572214
652.000000	17.786932
653.000000	18.001205
654.000000	18.214386
655.000000	18.426375
656.000000	18.636509
657.000000	18.845009
658.000000	19.051037
659.000000	19.254341
660.000000	19.454467
661.000000	19.651928
662.000000	19.847640
663.000000	20.041373
664.000000	20.233576
665.000000	20.423994
666.000000	20.612262
667.000000	20.799275
668.000000	20.984790
669.000000	21.168411
670.000000	21.349259
671.000000	21.527638
672.000000	21.703299
673.000000	21.876279
674.000000	22.046857
675.000000	22.214527
676.000000	22.379637
677.000000	22.542504
678.000000	22.703407
679.000000	22.862696
680.000000	23.020012
681.000000	23.175034
682.000000	23.327420
683.000000	23.476895
684.000000	23.622552
685.000000	23.763645
686.000000	23.899562
687.000000	24.030687
688.000000	24.157314
689.000000	24.280233
690.000000	24.399469
691.000000	24.515601
692.000000	24.629018
693.000000	24.740350
694.000000	24.849769
695.000000	24.957290
696.000000	25.062261
697.000000	25.163839
698.000000	25.261489
699.000000	25.354565
700.000000	25.443434
701.000000	25.527799
702.000000	25.607983
703.000000	25.684202
704.000000	25.756876
705.000000	25.826640
706.000000	25.893538
707.000000	25.958346
708.000000	26.021700
709.000000	26.083349
710.000000	26.143133
711.000000	26.200567
712.000000	26.255751
713.000000	26.307871
714.000000	26.356195
715.000000	26.400769
716.000000	26.442044
717.000000	26.480327
718.000000	26.515980
719.000000	26.549064
720.000000	26.580119
721.000000	26.610705
722.000000	26.640814
723.000000	26.669828
724.000000	26.698014
725.000000	26.725198
726.000000	26.751301
727.000000	26.776459
728.000000	26.800006
729.000000	26.821312
730.000000	26.840193
731.000000	26.857136
732.000000	26.872363
733.000000	26.886265
734.000000	26.899322
735.000000	26.911468
736.000000	26.923272
737.000000	26.935585
738.000000	26.948171
739.000000	26.960872
740.000000	26.974076
741.000000	26.988175
742.000000	27.002779
743.000000	27.016755
744.000000	27.029926
745.000000	27.043118
746.000000	27.056002
747.000000	27.068172
748.000000	27.079216
749.000000	27.089759
750.000000	27.101160
751.000000	27.112433
752.000000	27.123591
753.000000	27.134894
754.000000	27.146796
755.000000	27.160086
756.000000	27.173782
757.000000	27.187574
758.000000	27.202718
759.000000	27.218624
760.000000	27.234483
761.000000	27.251925
762.000000	27.269807
763.000000	27.288264
764.000000	27.307016
765.000000	27.326832
766.000000	27.346529
767.000000	27.367428
768.000000	27.389004
769.000000	27.410907
770.000000	27.434548
771.000000	27.458848
772.000000	27.482892
773.000000	27.507238
774.000000	27.533390
775.000000	27.561140
776.000000	27.589107
777.000000	27.617469
778.000000	27.646675
779.000000	27.676980
780.000000	27.708078
781.000000	27.740070
782.000000	27.773182
783.000000	27.807693
784.000000	27.842950
785.000000	27.878532
786.000000	27.915628
787.000000	27.953159
788.000000	27.991301
789.000000	28.031035
790.000000	28.071182
791.000000	28.110687
792.000000	28.149809
793.000000	28.189619
794.000000	28.229716
795.000000	28.270048
796.000000	28.310344
797.000000	28.351076
798.000000	28.392199
799.000000	28.433700
800.000000	28.475237
801.000000	28.518895
802.000000	28.562685
803.000000	28.606174
804.000000	28.650334
805.000000	28.693874
806.000000	28.738221
807.000000	28.783020
808.000000	28.826616
809.000000	28.867415
810.000000	28.906916
811.000000	28.946155
812.000000	28.984460
813.000000	29.020966
814.000000	29.057333
815.000000	29.093926
816.000000	29.131319
817.000000	29.168664
818.000000	29.207750
819.000000	29.248001
820.000000	29.286692
821.000000	29.327950
822.000000	29.369062
823.000000	29.409857
824.000000	29.448320
825.000000	29.489655
826.000000	29.530519
827.000000	29.571009
828.000000	29.606914
829.000000	29.643420
830.000000	29.681030
831.000000	29.717707
832.000000	29.753623
833.000000	29.787600
834.000000	29.822421
835.000000	29.857201
836.000000	29.893574
837.000000	29.933385
838.000000	29.972539
839.000000	30.010994
840.000000	30.049223
841.000000	30.090617
842.000000	30.132679
843.000000	30.176832
844.000000	30.224522
845.000000	30.271666
846.000000	30.318746
847.000000	30.363747
848.000000	30.409911
849.000000	30.456689
850.000000	30.504887
851.000000	30.547221
852.000000	30.590274
853.000000	30.632333
854.000000	30.673658
855.000000	30.716123
856.000000	30.759382
857.000000	30.806844
858.000000	30.920426
859.000000	30.980111
860.000000	31.044244
861.000000	31.110529
862.000000	31.177606
863.000000	31.240624
864.000000	31.312657
865.000000	31.378958
866.000000	31.436742
867.000000	31.504370
868.000000	31.581231
869.000000	31.648617
870.000000	31.725067
871.000000	31.807407
872.000000	31.876498
873.000000	31.948261
874.000000	32.030180
875.000000	32.113934
876.000000	32.206214
877.000000	32.289657
878.000000	32.356282
879.000000	32.442134
880.000000	32.524693
881.000000	32.619073
882.000000	32.718797
883.000000	32.807113
884.000000	32.898628
885.000000	32.998313
886.000000	33.111409
887.000000	33.215643
888.000000	33.328963
889.000000	33.441287
890.000000	33.555316
891.000000	33.671203
892.000000	33.792869
893.000000	33.861317
894.000000	33.980061
895.000000	34.102167
896.000000	34.222381
897.000000	34.352901
898.000000	34.485470
899.000000	34.602217
900.000000	34.742900
901.000000	34.897991
902.000000	35.053065
903.000000	35.209409
904.000000	35.395677
905.000000	35.558290
906.000000	35.727055
907.000000	35.915137
908.000000	36.097409
909.000000	36.272899
910.000000	36.473506
911.000000	36.653292
912.000000	36.861731
913.000000	37.079248
914.000000	37.286482
915.000000	37.503659
916.000000	37.708409
917.000000	37.915351
918.000000	38.145106
919.000000	38.394462
920.000000	38.631813
921.000000	38.863639
922.000000	39.112056
923.000000	39.364018
924.000000	39.628443
925.000000	39.888321
926.000000	40.172390
927.000000	40.435003
928.000000	40.687574
929.000000	40.949732
930.000000	41.229702
931.000000	41.525931
932.000000	41.811647
933.000000	42.110254
934.000000	42.421790
935.000000	42.735510
936.000000	43.030727
937.000000	43.324118
938.000000	43.614177
939.000000	43.903755
940.000000	44.215645
941.000000	44.512799
942.000000	44.798142
943.000000	45.103062
944.000000	45.403945
945.000000	45.683456
946.000000	45.986548
947.000000	46.262747
948.000000	46.549701
949.000000	46.850410
950.000000	47.144871
951.000000	47.437937
952.000000	47.732107
953.000000	48.021814
954.000000	48.296642
955.000000	48.573783
956.000000	48.856798
957.000000	49.137792
958.000000	49.420438
959.000000	49.684455
960.000000	49.934187
961.000000	50.161816
962.000000	50.414808
963.000000	50.669699
964.000000	50.919800
965.000000	51.155162
966.000000	51.383701
967.000000	51.607332
968.000000	51.829919
969.000000	52.053059
970.000000	52.258784
971.000000	52.466414
972.000000	52.657837
973.000000	52.857240
974.000000	53.041294
975.000000	53.220759
976.000000	53.399969
977.000000	53.583705
978.000000	53.764021
979.000000	53.948486
980.000000	54.120880
981.000000	54.278893
982.000000	54.453366
983.000000	54.621709
984.000000	54.776609
985.000000	54.931827
986.000000	55.078583
987.000000	55.218735
988.000000	55.347662
989.000000	55.466819
990.000000	55.593785
991.000000	55.715274
992.000000	55.824228
993.000000	55.919442
994.000000	56.024552
995.000000	56.149292
996.000000	56.271208
997.000000	56.383581
998.000000	56.488789
999.000000	56.595539
1000.000000	56.690292
1001.000000	56.775234
1002.000000	56.865128
1003.000000	56.951839
1004.000000	57.028061
1005.000000	57.093533
1006.000000	57.170549
1007.000000	57.265590
1008.000000	57.342442
1009.000000	57.412276
1010.000000	57.487112
1011.000000	57.562893
1012.000000	57.628055
1013.000000	57.680891
1014.000000	57.735954
1015.000000	57.797896
1016.000000	57.867082
1017.000000	57.916812
1018.000000	57.960027
1019.000000	57.990443
1020.000000	58.032157
1021.000000	58.093509
1022.000000	58.147883
1023.000000	58.213521
1024.000000	58.279779
1025.000000	58.321220
1026.000000	58.363267
1027.000000	58.412868
1028.000000	58.466837
1029.000000	58.520928
1030.000000	58.576642
1031.000000	58.626484
1032.000000	58.672587
1033.000000	58.716740
1034.000000	58.763407
1035.000000	58.798506
1036.000000	58.839113
1037.000000	58.878732
1038.000000	58.908843
1039.000000	58.930634
1040.000000	58.963915
1041.000000	59.004502
1042.000000	59.037922
1043.000000	59.077118
1044.000000	59.103667
1045.000000	59.125075
1046.000000	59.153809
1047.000000	59.182323
1048.000000	59.216852
1049.000000	59.242026
1050.000000	59.259097
1051.000000	59.269522
1052.000000	59.300067
1053.000000	59.337893
1054.000000	59.373170
1055.000000	59.401898
1056.000000	59.426145
1057.000000	59.461867
1058.000000	59.481925
1059.000000	59.503633
1060.000000	59.539286
1061.000000	59.571751
1062.000000	59.604809
1063.000000	59.620401
1064.000000	59.627863
1065.000000	59.643146
1066.000000	59.660807
1067.000000	59.673259
1068.000000	59.699298
1069.000000	59.723476
1070.000000	59.750521
1071.000000	59.758208
1072.000000	59.763918
1073.000000	59.780591
1074.000000	59.819998
1075.000000	59.844967
1076.000000	59.864161
1077.000000	59.875170
1078.000000	59.885401
1079.000000	59.925260
1080.000000	59.969262
1081.000000	60.001389
1082.000000	60.032763
1083.000000	60.060806
1084.000000	60.066988
1085.000000	60.083052
1086.000000	60.113207
1087.000000	60.130117
1088.000000	60.156542
1089.000000	60.185874
1090.000000	60.208947
1091.000000	60.227102
1092.000000	60.239083
1093.000000	60.256166
1094.000000	60.270122
1095.000000	60.275706
1096.000000	60.295133
1097.000000	60.299127
1098.000000	60.326266
1099.000000	60.368463
1100.000000	60.381136
1101.000000	60.389033
1102.000000	60.408858
1103.000000	60.406789
1104.000000	60.405386
1105.000000	60.415292
1106.000000	60.445362
1107.000000	60.481881
1108.000000	60.513040
1109.000000	60.524581
1110.000000	60.542313
1111.000000	60.562416
1112.000000	60.570690
1113.000000	60.602211
1114.000000	60.604418
1115.000000	60.594919
1116.000000	60.588478
1117.000000	60.601014
1118.000000	60.604043
1119.000000	60.627768
1120.000000	60.651812
1121.000000	60.673472
1122.000000	60.698561
1123.000000	60.722228
1124.000000	60.715308
1125.000000	60.744874
1126.000000	60.749742
1127.000000	60.754248
1128.000000	60.761815
1129.000000	60.787877
1130.000000	60.823545
1131.000000	60.839061
1132.000000	60.849763
1133.000000	60.856279
1134.000000	60.898313
1135.000000	60.908239
1136.000000	60.919095
1137.000000	60.934049
1138.000000	60.954002
1139.000000	60.966323
1140.000000	60.988521
1141.000000	61.013184
1142.000000	61.006740
1143.000000	61.003229
1144.000000	61.001689
1145.000000	61.009478
1146.000000	61.024586
1147.000000	61.055583
1148.000000	61.050122
1149.000000	61.089555
1150.000000	61.100856
1151.000000	61.129694
1152.000000	61.157199
1153.000000	61.183205
1154.000000	61.199514
1155.000000	61.237705
1156.000000	61.237368
1157.000000	61.232166
1158.000000	61.219405
1159.000000	61.251307
1160.000000	61.224906
1161.000000	61.233406
1162.000000	61.250351
1163.000000	61.253591
1164.000000	61.232341
1165.000000	61.200229
1166.000000	61.183158
1167.000000	61.186898
1168.000000	61.188283
1169.000000	61.138065
1170.000000	61.139807
1171.000000	61.133662
1172.000000	61.118079
1173.000000	61.111203
1174.000000	61.110760
1175.000000	61.107056
1176.000000	61.075748
1177.000000	61.070743
1178.000000	61.085328
1179.000000	61.090447
1180.000000	61.084025
1181.000000	61.070953
1182.000000	61.049790
1183.000000	61.041165
1184.000000	61.004655
1185.000000	60.984921
1186.000000	60.965270
1187.000000	60.943893
1188.000000	60.925057
1189.000000	60.923395
1190.000000	60.903300
1191.000000	60.918357
1192.000000	60.919834
1193.000000	60.922260
1194.000000	60.928326
1195.000000	60.940170
1196.000000	60.937236
1197.000000	60.918562
1198.000000	60.916359
1199.000000	60.929254
1200.000000	60.962008
1201.000000	60.992305
1202.000000	61.004077
1203.000000	61.014547
1204.000000	61.030958
1205.000000	61.035951
1206.000000	61.041204
1207.000000	61.059682
