PE UV       SUBTECH     SPECTRUM    ASCII       PEDS        4.00        
   -1
CICIMAUCR0204-3.ASC
24/06/06
14:12:33.00
24/06/06
14:12:33.00
Vinicio Soto Monge
C. cupreomarginata. Sex M. Ventral
250,000000
1
Lambda 1050
1050L1511233
PerkinElmer UV WinLab 6.3.2.0749 / 2.02.05 Lambda 900 UV/VIS/NIR, Aug  7 2015 09:38:08

0
0
3350/servo 860,8/2
0
0
UV/VIS
1
1
1
DoubleDePol,CommonBeamDepol,RBeamAtt,SBeamAtt,60mm sphere, WB InGaAs Detector
0
0
0
0
Program
Program
3350/servo 860,8/2
3350/0,2 860,8/0,2
3350/0,2 860,8/0,2
0
15.00
 
 
 
0
 
860,8
319,2
860,8
Front
100
on
S:100 R:100
0
0
0
0
 
0
 
 
 
0
 
 
0
0
0
0
0
 
 
 
 
0
0


0
0
#HDR
-1
-1
#GR
nm
%R
1.0
0.0
2500,000000
-1,000000
2251
8
53,165300
3,700600
#DATA
2482.000000	8.235758
2481.000000	8.185379
2480.000000	8.082173
2479.000000	8.183280
2478.000000	8.171385
2477.000000	8.115176
2476.000000	8.136167
2475.000000	8.210219
2474.000000	8.117391
2473.000000	8.147829
2472.000000	8.136633
2471.000000	8.217099
2470.000000	8.197624
2469.000000	8.190511
2468.000000	8.187479
2467.000000	8.205088
2466.000000	8.230044
2465.000000	8.267711
2464.000000	8.271676
2463.000000	8.294883
2462.000000	8.312609
2461.000000	8.339198
2460.000000	8.357390
2459.000000	8.434241
2458.000000	8.395174
2457.000000	8.459430
2456.000000	8.503045
2455.000000	8.549576
2454.000000	8.595989
2453.000000	8.625844
2452.000000	8.678088
2451.000000	8.713423
2450.000000	8.736747
2449.000000	8.776397
2448.000000	8.860011
2447.000000	8.906892
2446.000000	8.970332
2445.000000	9.002868
2444.000000	9.043801
2443.000000	9.100943
2442.000000	9.163333
2441.000000	9.214295
2440.000000	9.261175
2439.000000	9.331379
2438.000000	9.373245
2437.000000	9.401583
2436.000000	9.459658
2435.000000	9.493944
2434.000000	9.556218
2433.000000	9.599366
2432.000000	9.652544
2431.000000	9.703389
2430.000000	9.742222
2429.000000	9.788170
2428.000000	9.809044
2427.000000	9.849511
2426.000000	9.900939
2425.000000	9.967178
2424.000000	9.980589
2423.000000	10.018256
2422.000000	10.057323
2421.000000	10.098955
2420.000000	10.135223
2419.000000	10.163095
2418.000000	10.220237
2417.000000	10.242745
2416.000000	10.261287
2415.000000	10.297438
2414.000000	10.329158
2413.000000	10.355864
2412.000000	10.371957
2411.000000	10.402977
2410.000000	10.445776
2409.000000	10.474930
2408.000000	10.504084
2407.000000	10.522743
2406.000000	10.546416
2405.000000	10.574988
2404.000000	10.590614
2403.000000	10.609973
2402.000000	10.638894
2401.000000	10.673646
2400.000000	10.694054
2399.000000	10.715395
2398.000000	10.725424
2397.000000	10.742334
2396.000000	10.748165
2395.000000	10.769856
2394.000000	10.794812
2393.000000	10.816619
2392.000000	10.823966
2391.000000	10.838893
2390.000000	10.855220
2389.000000	10.878193
2388.000000	10.905598
2387.000000	10.913995
2386.000000	10.917377
2385.000000	10.925890
2384.000000	10.920059
2383.000000	10.924490
2382.000000	10.947930
2381.000000	10.955044
2380.000000	10.948747
2379.000000	10.951895
2378.000000	10.948747
2377.000000	10.941167
2376.000000	10.951079
2375.000000	10.952245
2374.000000	10.953178
2373.000000	10.937901
2372.000000	10.921808
2371.000000	10.929621
2370.000000	10.941400
2369.000000	10.936735
2368.000000	10.900584
2367.000000	10.894286
2366.000000	10.897552
2365.000000	10.877493
2364.000000	10.863849
2363.000000	10.852887
2362.000000	10.835511
2361.000000	10.833179
2360.000000	10.830613
2359.000000	10.818835
2358.000000	10.805307
2357.000000	10.777669
2356.000000	10.771138
2355.000000	10.777319
2354.000000	10.767057
2353.000000	10.762975
2352.000000	10.752946
2351.000000	10.749681
2350.000000	10.765891
2349.000000	10.769039
2348.000000	10.773004
2347.000000	10.790847
2346.000000	10.789680
2345.000000	10.789214
2344.000000	10.804724
2343.000000	10.826765
2342.000000	10.851021
2341.000000	10.864549
2340.000000	10.895219
2339.000000	10.909796
2338.000000	10.914228
2337.000000	10.920409
2336.000000	10.943965
2335.000000	10.962857
2334.000000	10.973470
2333.000000	10.975102
2332.000000	10.967755
2331.000000	10.985481
2330.000000	10.986298
2329.000000	10.985948
2328.000000	10.976035
2327.000000	10.965306
2326.000000	10.960525
2325.000000	10.939884
2324.000000	10.930438
2323.000000	10.923791
2322.000000	10.893353
2321.000000	10.869214
2320.000000	10.838543
2319.000000	10.800176
2318.000000	10.772888
2317.000000	10.731605
2316.000000	10.676562
2315.000000	10.650323
2314.000000	10.611955
2313.000000	10.574871
2312.000000	10.542102
2311.000000	10.479828
2310.000000	10.431665
2309.000000	10.402977
2308.000000	10.390849
2307.000000	10.353998
2306.000000	10.348050
2305.000000	10.336855
2304.000000	10.322394
2303.000000	10.314231
2302.000000	10.326826
2301.000000	10.333356
2300.000000	10.357380
2299.000000	10.397379
2298.000000	10.423502
2297.000000	10.434580
2296.000000	10.496971
2295.000000	10.528341
2294.000000	10.563326
2293.000000	10.603792
2292.000000	10.626766
2291.000000	10.653471
2290.000000	10.681576
2289.000000	10.724025
2288.000000	10.764841
2287.000000	10.750730
2286.000000	10.787931
2285.000000	10.794578
2284.000000	10.794928
2283.000000	10.803908
2282.000000	10.816153
2281.000000	10.811371
2280.000000	10.821284
2279.000000	10.797844
2278.000000	10.787698
2277.000000	10.792129
2276.000000	10.777319
2275.000000	10.773354
2274.000000	10.766590
2273.000000	10.773004
2272.000000	10.762042
2271.000000	10.768456
2270.000000	10.778135
2269.000000	10.806240
2268.000000	10.826065
2267.000000	10.864316
2266.000000	10.923557
2265.000000	10.973003
2264.000000	11.025131
2263.000000	11.091137
2262.000000	11.189445
2261.000000	11.312710
2260.000000	11.418365
2259.000000	11.539997
2258.000000	11.639822
2257.000000	11.771366
2256.000000	11.941511
2255.000000	12.049149
2254.000000	12.195970
2253.000000	12.342325
2252.000000	12.485298
2251.000000	12.604015
2250.000000	12.737192
2249.000000	12.874917
2248.000000	12.980339
2247.000000	13.107336
2246.000000	13.222321
2245.000000	13.331358
2244.000000	13.401095
2243.000000	13.493923
2242.000000	13.584068
2241.000000	13.681910
2240.000000	13.733805
2239.000000	13.787216
2238.000000	13.854387
2237.000000	13.899868
2236.000000	13.901734
2235.000000	13.984416
2234.000000	14.034445
2233.000000	14.025582
2232.000000	14.041325
2231.000000	14.075144
2230.000000	14.050421
2229.000000	14.069547
2228.000000	14.085406
2227.000000	14.089255
2226.000000	14.083657
2225.000000	14.039692
2224.000000	14.014853
2223.000000	13.981500
2222.000000	13.982550
2221.000000	13.916894
2220.000000	13.892988
2219.000000	13.848440
2218.000000	13.847040
2217.000000	13.767741
2216.000000	13.727741
2215.000000	13.719927
2214.000000	13.691706
2213.000000	13.649607
2212.000000	13.595846
2211.000000	13.563310
2210.000000	13.560161
2209.000000	13.520162
2208.000000	13.499870
2207.000000	13.456605
2206.000000	13.449841
2205.000000	13.396780
2204.000000	13.406110
2203.000000	13.386401
2202.000000	13.369958
2201.000000	13.337422
2200.000000	13.326227
2199.000000	13.309434
2198.000000	13.284245
2197.000000	13.274799
2196.000000	13.270017
2195.000000	13.247860
2194.000000	13.238997
2193.000000	13.251242
2192.000000	13.232233
2191.000000	13.224070
2190.000000	13.192350
2189.000000	13.179755
2188.000000	13.174158
2187.000000	13.171126
2186.000000	13.149551
2185.000000	13.125412
2184.000000	13.119347
2183.000000	13.098939
2182.000000	13.078182
2181.000000	13.060106
2180.000000	13.061622
2179.000000	13.036549
2178.000000	13.048327
2177.000000	13.024771
2176.000000	13.023721
2175.000000	13.011126
2174.000000	13.004829
2173.000000	12.998648
2172.000000	12.990369
2171.000000	13.005645
2170.000000	12.994917
2169.000000	12.989552
2168.000000	12.986753
2167.000000	13.032001
2166.000000	13.024421
2165.000000	13.038532
2164.000000	13.050660
2163.000000	13.054042
2162.000000	13.079581
2161.000000	13.108385
2160.000000	13.135324
2159.000000	13.145586
2158.000000	13.189318
2157.000000	13.237131
2156.000000	13.262087
2155.000000	13.308384
2154.000000	13.354215
2153.000000	13.384885
2152.000000	13.432349
2151.000000	13.472698
2150.000000	13.534039
2149.000000	13.572523
2148.000000	13.618703
2147.000000	13.666633
2146.000000	13.718528
2145.000000	13.761210
2144.000000	13.826283
2143.000000	13.859985
2142.000000	13.905466
2141.000000	13.954795
2140.000000	13.987914
2139.000000	14.033162
2138.000000	14.077593
2137.000000	14.117010
2136.000000	14.145698
2135.000000	14.184065
2134.000000	14.223365
2133.000000	14.259750
2132.000000	14.294268
2131.000000	14.328904
2130.000000	14.353044
2129.000000	14.370303
2128.000000	14.398524
2127.000000	14.403072
2126.000000	14.423481
2125.000000	14.454734
2124.000000	14.462314
2123.000000	14.484821
2122.000000	14.490069
2121.000000	14.508495
2120.000000	14.521789
2119.000000	14.511293
2118.000000	14.517474
2117.000000	14.526337
2116.000000	14.537649
2115.000000	14.540098
2114.000000	14.522722
2113.000000	14.520973
2112.000000	14.529952
2111.000000	14.521672
2110.000000	14.506162
2109.000000	14.488203
2108.000000	14.487387
2107.000000	14.480623
2106.000000	14.479807
2105.000000	14.464180
2104.000000	14.454501
2103.000000	14.445405
2102.000000	14.430244
2101.000000	14.413102
2100.000000	14.393160
2099.000000	14.370769
2098.000000	14.382081
2097.000000	14.373568
2096.000000	14.359341
2095.000000	14.366105
2094.000000	14.350245
2093.000000	14.328787
2092.000000	14.336134
2091.000000	14.341382
2090.000000	14.331936
2089.000000	14.322723
2088.000000	14.311644
2087.000000	14.306047
2086.000000	14.280974
2085.000000	14.260099
2084.000000	14.261032
2083.000000	14.245056
2082.000000	14.222199
2081.000000	14.193044
2080.000000	14.160858
2079.000000	14.135669
2078.000000	14.099517
2077.000000	14.063482
2076.000000	14.012521
2075.000000	13.954795
2074.000000	13.901617
2073.000000	13.866049
2072.000000	13.829431
2071.000000	13.756662
2070.000000	13.700802
2069.000000	13.644826
2068.000000	13.586867
2067.000000	13.527392
2066.000000	13.460220
2065.000000	13.399929
2064.000000	13.356781
2063.000000	13.301271
2062.000000	13.238064
2061.000000	13.192350
2060.000000	13.143021
2059.000000	13.097773
2058.000000	13.055324
2057.000000	13.022089
2056.000000	13.016141
2055.000000	13.000048
2054.000000	12.974042
2053.000000	12.983372
2052.000000	13.004129
2051.000000	13.026053
2050.000000	13.062088
2049.000000	13.092176
2048.000000	13.123662
2047.000000	13.164828
2046.000000	13.214974
2045.000000	13.264303
2044.000000	13.315498
2043.000000	13.370541
2042.000000	13.433748
2041.000000	13.489375
2040.000000	13.532173
2039.000000	13.600628
2038.000000	13.667100
2037.000000	13.719811
2036.000000	13.771589
2035.000000	13.827565
2034.000000	13.869431
2033.000000	13.901151
2032.000000	13.914562
2031.000000	13.956194
2030.000000	13.983949
2029.000000	14.007856
2028.000000	14.014736
2027.000000	14.044590
2026.000000	14.070013
2025.000000	14.096252
2024.000000	14.111879
2023.000000	14.103249
2022.000000	14.111529
2021.000000	14.126456
2020.000000	14.120975
2019.000000	14.133919
2018.000000	14.125989
2017.000000	14.134619
2016.000000	14.122491
2015.000000	14.116543
2014.000000	14.106048
2013.000000	14.113161
2012.000000	14.090538
2011.000000	14.061966
2010.000000	14.037710
2009.000000	14.025698
2008.000000	13.985582
2007.000000	13.951880
2006.000000	13.944416
2005.000000	13.916311
2004.000000	13.863483
2003.000000	13.821035
2002.000000	13.784300
2001.000000	13.737653
2000.000000	13.709898
1999.000000	13.651706
1998.000000	13.612639
1997.000000	13.567042
1996.000000	13.501386
1995.000000	13.459870
1994.000000	13.380920
1993.000000	13.321912
1992.000000	13.272350
1991.000000	13.236315
1990.000000	13.167627
1989.000000	13.109435
1988.000000	13.051943
1987.000000	12.959232
1986.000000	12.910369
1985.000000	12.865355
1984.000000	12.793052
1983.000000	12.720632
1982.000000	12.665589
1981.000000	12.610196
1980.000000	12.540109
1979.000000	12.486231
1978.000000	12.428156
1977.000000	12.351072
1976.000000	12.286232
1975.000000	12.235037
1974.000000	12.181976
1973.000000	12.120169
1972.000000	12.052298
1971.000000	12.019528
1970.000000	11.954222
1969.000000	11.892765
1968.000000	11.862444
1967.000000	11.796439
1966.000000	11.743845
1965.000000	11.683087
1964.000000	11.628510
1963.000000	11.591542
1962.000000	11.531484
1961.000000	11.485887
1960.000000	11.426412
1959.000000	11.394342
1958.000000	11.339182
1957.000000	11.261515
1956.000000	11.211836
1955.000000	11.165772
1954.000000	11.134985
1953.000000	11.103615
1952.000000	11.040875
1951.000000	11.014519
1950.000000	10.954228
1949.000000	10.909213
1948.000000	10.868980
1947.000000	10.842392
1946.000000	10.793645
1945.000000	10.785482
1944.000000	10.771255
1943.000000	10.708981
1942.000000	10.689739
1941.000000	10.681576
1940.000000	10.637028
1939.000000	10.656154
1938.000000	10.642509
1937.000000	10.639594
1936.000000	10.637145
1935.000000	10.652422
1934.000000	10.631547
1933.000000	10.660119
1932.000000	10.659302
1931.000000	10.676678
1930.000000	10.700818
1929.000000	10.762042
1928.000000	10.770672
1927.000000	10.817902
1926.000000	10.891488
1925.000000	10.953994
1924.000000	11.018484
1923.000000	11.043440
1922.000000	11.096151
1921.000000	11.190145
1920.000000	11.283322
1919.000000	11.420231
1918.000000	11.492884
1917.000000	11.580463
1916.000000	11.680988
1915.000000	11.757722
1914.000000	11.875389
1913.000000	12.045184
1912.000000	12.216145
1911.000000	12.376261
1910.000000	12.513986
1909.000000	12.639700
1908.000000	12.771711
1907.000000	12.914567
1906.000000	13.114216
1905.000000	13.360279
1904.000000	13.618587
1903.000000	13.852172
1902.000000	14.080159
1901.000000	14.317125
1900.000000	14.585229
1899.000000	14.881321
1898.000000	15.212398
1897.000000	15.540909
1896.000000	15.855076
1895.000000	16.097524
1894.000000	16.382187
1893.000000	16.686209
1892.000000	17.066265
1891.000000	17.517225
1890.000000	17.987077
1889.000000	18.411681
1888.000000	18.814478
1887.000000	19.227420
1886.000000	19.627185
1885.000000	20.051206
1884.000000	20.518259
1883.000000	21.021113
1882.000000	21.503793
1881.000000	21.936910
1880.000000	22.364430
1879.000000	22.743553
1878.000000	23.129907
1877.000000	23.555327
1876.000000	23.942381
1875.000000	24.317306
1874.000000	24.702377
1873.000000	25.111354
1872.000000	25.529428
1871.000000	25.902953
1870.000000	26.296421
1869.000000	26.664815
1868.000000	27.025863
1867.000000	27.285453
1866.000000	27.505977
1865.000000	27.652448
1864.000000	27.801952
1863.000000	27.929415
1862.000000	28.054079
1861.000000	28.226906
1860.000000	28.427605
1859.000000	28.583406
1858.000000	28.789352
1857.000000	28.932208
1856.000000	29.042412
1855.000000	29.101187
1854.000000	29.182236
1853.000000	29.318679
1852.000000	29.380836
1851.000000	29.413022
1850.000000	29.432964
1849.000000	29.407774
1848.000000	29.466550
1847.000000	29.613604
1846.000000	29.708414
1845.000000	29.700134
1844.000000	29.646374
1843.000000	29.577453
1842.000000	29.560310
1841.000000	29.616170
1840.000000	29.666549
1839.000000	29.683691
1838.000000	29.672030
1837.000000	29.644624
1836.000000	29.636811
1835.000000	29.642059
1834.000000	29.631913
1833.000000	29.561010
1832.000000	29.484742
1831.000000	29.419086
1830.000000	29.399378
1829.000000	29.379670
1828.000000	29.347950
1827.000000	29.303169
1826.000000	29.272731
1825.000000	29.268300
1824.000000	29.203227
1823.000000	29.139088
1822.000000	29.086260
1821.000000	29.074248
1820.000000	29.139904
1819.000000	29.160429
1818.000000	29.108884
1817.000000	29.046377
1816.000000	29.010575
1815.000000	29.008010
1814.000000	28.994132
1813.000000	28.966027
1812.000000	28.951100
1811.000000	28.937573
1810.000000	28.910051
1809.000000	28.864337
1808.000000	28.816291
1807.000000	28.779440
1806.000000	28.754600
1805.000000	28.731976
1804.000000	28.690111
1803.000000	28.646146
1802.000000	28.607312
1801.000000	28.574543
1800.000000	28.556817
1799.000000	28.518916
1798.000000	28.472852
1797.000000	28.440549
1796.000000	28.396235
1795.000000	28.354019
1794.000000	28.312387
1793.000000	28.280900
1792.000000	28.269238
1791.000000	28.248947
1790.000000	28.208247
1789.000000	28.163116
1788.000000	28.143641
1787.000000	28.120318
1786.000000	28.082417
1785.000000	28.051163
1784.000000	28.035420
1783.000000	28.020143
1782.000000	27.974429
1781.000000	27.923467
1780.000000	27.894430
1779.000000	27.857812
1778.000000	27.815596
1777.000000	27.771048
1776.000000	27.724401
1775.000000	27.674489
1774.000000	27.640320
1773.000000	27.589358
1772.000000	27.530583
1771.000000	27.457464
1770.000000	27.391109
1769.000000	27.343879
1768.000000	27.284754
1767.000000	27.217349
1766.000000	27.157407
1765.000000	27.113442
1764.000000	27.085221
1763.000000	27.057000
1762.000000	27.047670
1761.000000	27.040790
1760.000000	27.053151
1759.000000	27.076708
1758.000000	27.085921
1757.000000	27.119973
1756.000000	27.161022
1755.000000	27.187728
1754.000000	27.214317
1753.000000	27.242188
1752.000000	27.260730
1751.000000	27.277640
1750.000000	27.275657
1749.000000	27.270060
1748.000000	27.258748
1747.000000	27.218515
1746.000000	27.196358
1745.000000	27.142947
1744.000000	27.104113
1743.000000	27.048253
1742.000000	26.952627
1741.000000	26.875426
1740.000000	26.781316
1739.000000	26.683824
1738.000000	26.573387
1737.000000	26.484641
1736.000000	26.395779
1735.000000	26.300619
1734.000000	26.224118
1733.000000	26.170124
1732.000000	26.126392
1731.000000	26.109833
1730.000000	26.113448
1729.000000	26.122661
1728.000000	26.138637
1727.000000	26.148783
1726.000000	26.198928
1725.000000	26.237762
1724.000000	26.274846
1723.000000	26.312864
1722.000000	26.356712
1721.000000	26.440793
1720.000000	26.533037
1719.000000	26.618168
1718.000000	26.705398
1717.000000	26.814319
1716.000000	26.944814
1715.000000	27.061664
1714.000000	27.187145
1713.000000	27.312858
1712.000000	27.424111
1711.000000	27.498280
1710.000000	27.580495
1709.000000	27.676821
1708.000000	27.723352
1707.000000	27.766384
1706.000000	27.779561
1705.000000	27.808949
1704.000000	27.799853
1703.000000	27.775713
1702.000000	27.763118
1701.000000	27.714839
1700.000000	27.675305
1699.000000	27.605568
1698.000000	27.545977
1697.000000	27.499096
1696.000000	27.428543
1695.000000	27.376998
1694.000000	27.385977
1693.000000	27.357989
1692.000000	27.361371
1691.000000	27.392508
1690.000000	27.418630
1689.000000	27.468543
1688.000000	27.537930
1687.000000	27.610349
1686.000000	27.677055
1685.000000	27.776296
1684.000000	27.897928
1683.000000	28.030406
1682.000000	28.226906
1681.000000	28.418275
1680.000000	28.656525
1679.000000	28.929293
1678.000000	29.192848
1677.000000	29.519261
1676.000000	29.827481
1675.000000	30.066080
1674.000000	30.329286
1673.000000	30.566952
1672.000000	30.772315
1671.000000	30.955638
1670.000000	31.153071
1669.000000	31.312371
1668.000000	31.488930
1667.000000	31.666538
1666.000000	31.783622
1665.000000	31.905370
1664.000000	32.022804
1663.000000	32.113299
1662.000000	32.225252
1661.000000	32.299771
1660.000000	32.373939
1659.000000	32.468866
1658.000000	32.508050
1657.000000	32.612189
1656.000000	32.607874
1655.000000	32.654871
1654.000000	32.682509
1653.000000	32.707699
1652.000000	32.707815
1651.000000	32.719010
1650.000000	32.711430
1649.000000	32.679477
1648.000000	32.680177
1647.000000	32.632130
1646.000000	32.619419
1645.000000	32.580236
1644.000000	32.543851
1643.000000	32.510498
1642.000000	32.476679
1641.000000	32.423502
1640.000000	32.415922
1639.000000	32.362977
1638.000000	32.306418
1637.000000	32.268984
1636.000000	32.235981
1635.000000	32.171375
1634.000000	32.114116
1633.000000	32.070734
1632.000000	32.031551
1631.000000	31.980589
1630.000000	31.931143
1629.000000	31.856391
1628.000000	31.790736
1627.000000	31.709220
1626.000000	31.665488
1625.000000	31.587705
1624.000000	31.519250
1623.000000	31.436335
1622.000000	31.375344
1621.000000	31.318785
1620.000000	31.251380
1619.000000	31.190855
1618.000000	31.123217
1617.000000	31.076454
1616.000000	31.018495
1615.000000	30.947475
1614.000000	30.898845
1613.000000	30.840536
1612.000000	30.758438
1611.000000	30.703744
1610.000000	30.650683
1609.000000	30.602520
1608.000000	30.533599
1607.000000	30.462463
1606.000000	30.380947
1605.000000	30.293484
1604.000000	30.234242
