PE UV       SUBTECH     SPECTRUM    ASCII       PEDS        4.00        
   -1
CICIMAUCR0210-2.Sample.ASC
24/06/12
12:45:38.00
24/06/12
12:45:38.00
Vinicio Soto Monge
C. resplendens. Sex F. Ventral
250,000000
1
Lambda 1050
1050L1511233
PerkinElmer UV WinLab 6.3.2.0749 / 2.02.05 Lambda 900 UV/VIS/NIR, Aug  7 2015 09:38:08

0
0
3350/servo 860,8/2
0
0
UV/VIS
1
1
1
DoubleDePol,CommonBeamDepol,RBeamAtt,SBeamAtt,60mm sphere, WB InGaAs Detector
0
0
0
0
Program
Program
3350/servo 860,8/2
3350/0,2 860,8/0,2
3350/0,2 860,8/0,2
0
15.00
 
 
 
0
 
860,8
319,2
860,8
Front
100
on
S:100 R:100
0
0
0
0
 
0
 
 
 
0
 
 
0
0
0
0
0
 
 
 
 
0
0


0
0
#HDR
-1
-1
#GR
nm
%R
1.0
0.0
2500,000000
-1,000000
2251
8
50,736000
2,900900
#DATA
2482.000000	5.417458
2481.000000	5.172223
2480.000000	5.221743
2479.000000	5.316479
2478.000000	5.110645
2477.000000	5.289565
2476.000000	5.199567
2475.000000	5.105047
2474.000000	5.267173
2473.000000	5.197952
2472.000000	5.110860
2471.000000	5.139496
2470.000000	5.125609
2469.000000	5.209578
2468.000000	5.214531
2467.000000	5.214315
2466.000000	5.115812
2465.000000	5.199459
2464.000000	5.234339
2463.000000	5.216361
2462.000000	5.196337
2461.000000	5.229925
2460.000000	5.203873
2459.000000	5.184818
2458.000000	5.174806
2457.000000	5.246181
2456.000000	5.256838
2455.000000	5.249087
2454.000000	5.292795
2453.000000	5.247580
2452.000000	5.296563
2451.000000	5.363416
2450.000000	5.369121
2449.000000	5.404001
2448.000000	5.428546
2447.000000	5.432206
2446.000000	5.428331
2445.000000	5.439527
2444.000000	5.524896
2443.000000	5.555578
2442.000000	5.551487
2441.000000	5.573233
2440.000000	5.598101
2439.000000	5.631581
2438.000000	5.676473
2437.000000	5.673674
2436.000000	5.728577
2435.000000	5.743864
2434.000000	5.752046
2433.000000	5.759151
2432.000000	5.826434
2431.000000	5.852271
2430.000000	5.855931
2429.000000	5.834616
2428.000000	5.909435
2427.000000	5.922892
2426.000000	5.928059
2425.000000	5.936133
2424.000000	5.930535
2423.000000	5.971013
2422.000000	6.008261
2421.000000	6.037005
2420.000000	6.069301
2419.000000	6.107949
2418.000000	6.095676
2417.000000	6.076191
2416.000000	6.134324
2415.000000	6.157685
2414.000000	6.167266
2413.000000	6.173725
2412.000000	6.181907
2411.000000	6.236057
2410.000000	6.223892
2409.000000	6.224107
2408.000000	6.239825
2407.000000	6.260171
2406.000000	6.271152
2405.000000	6.275566
2404.000000	6.270613
2403.000000	6.277934
2402.000000	6.303663
2401.000000	6.336498
2400.000000	6.344141
2399.000000	6.366318
2398.000000	6.355445
2397.000000	6.357705
2396.000000	6.388279
2395.000000	6.416807
2394.000000	6.427896
2393.000000	6.438661
2392.000000	6.438769
2391.000000	6.451364
2390.000000	6.462668
2389.000000	6.466005
2388.000000	6.489473
2387.000000	6.504007
2386.000000	6.513588
2385.000000	6.511112
2384.000000	6.523277
2383.000000	6.500777
2382.000000	6.509820
2381.000000	6.515310
2380.000000	6.505406
2379.000000	6.513157
2378.000000	6.510574
2377.000000	6.532212
2376.000000	6.547391
2375.000000	6.525322
2374.000000	6.530274
2373.000000	6.536088
2372.000000	6.532750
2371.000000	6.538671
2370.000000	6.523815
2369.000000	6.523169
2368.000000	6.535549
2367.000000	6.535980
2366.000000	6.505514
2365.000000	6.484521
2364.000000	6.488289
2363.000000	6.483660
2362.000000	6.496040
2361.000000	6.487213
2360.000000	6.450072
2359.000000	6.441029
2358.000000	6.439737
2357.000000	6.415838
2356.000000	6.402489
2355.000000	6.398721
2354.000000	6.396030
2353.000000	6.399690
2352.000000	6.400229
2351.000000	6.378483
2350.000000	6.375253
2349.000000	6.398614
2348.000000	6.407980
2347.000000	6.411748
2346.000000	6.421867
2345.000000	6.437369
2344.000000	6.447704
2343.000000	6.465036
2342.000000	6.478385
2341.000000	6.470634
2340.000000	6.493995
2339.000000	6.512188
2338.000000	6.507559
2337.000000	6.516495
2336.000000	6.533612
2335.000000	6.538025
2334.000000	6.521447
2333.000000	6.530059
2332.000000	6.541363
2331.000000	6.530813
2330.000000	6.525537
2329.000000	6.518325
2328.000000	6.511758
2327.000000	6.498086
2326.000000	6.472249
2325.000000	6.455024
2324.000000	6.465790
2323.000000	6.463206
2322.000000	6.425204
2321.000000	6.392370
2320.000000	6.376868
2319.000000	6.360397
2318.000000	6.339835
2317.000000	6.304094
2316.000000	6.254358
2315.000000	6.208282
2314.000000	6.189443
2313.000000	6.162314
2312.000000	6.135508
2311.000000	6.094277
2310.000000	6.068655
2309.000000	6.059935
2308.000000	6.037005
2307.000000	6.015044
2306.000000	6.010414
2305.000000	6.014075
2304.000000	6.000618
2303.000000	5.996419
2302.000000	6.021826
2301.000000	6.020319
2300.000000	6.030869
2299.000000	6.045617
2298.000000	6.068978
2297.000000	6.096107
2296.000000	6.129157
2295.000000	6.158977
2294.000000	6.176955
2293.000000	6.210112
2292.000000	6.237564
2291.000000	6.251774
2290.000000	6.269429
2289.000000	6.304632
2288.000000	6.317658
2287.000000	6.316797
2286.000000	6.323256
2285.000000	6.321211
2284.000000	6.326701
2283.000000	6.323364
2282.000000	6.311737
2281.000000	6.288915
2280.000000	6.290314
2279.000000	6.280195
2278.000000	6.277288
2277.000000	6.247037
2276.000000	6.247360
2275.000000	6.223354
2274.000000	6.205914
2273.000000	6.208713
2272.000000	6.196871
2271.000000	6.206237
2270.000000	6.203545
2269.000000	6.205591
2268.000000	6.201069
2267.000000	6.234011
2266.000000	6.259633
2265.000000	6.288484
2264.000000	6.323687
2263.000000	6.377191
2262.000000	6.421975
2261.000000	6.482153
2260.000000	6.564616
2259.000000	6.628239
2258.000000	6.701228
2257.000000	6.811466
2256.000000	6.881441
2255.000000	6.977898
2254.000000	7.066174
2253.000000	7.160048
2252.000000	7.266303
2251.000000	7.338000
2250.000000	7.430475
2249.000000	7.514875
2248.000000	7.596907
2247.000000	7.683246
2246.000000	7.740733
2245.000000	7.809631
2244.000000	7.872931
2243.000000	7.942691
2242.000000	7.996733
2241.000000	8.043885
2240.000000	8.092653
2239.000000	8.132377
2238.000000	8.166826
2237.000000	8.204720
2236.000000	8.252088
2235.000000	8.270389
2234.000000	8.303223
2233.000000	8.337027
2232.000000	8.358665
2231.000000	8.355866
2230.000000	8.353605
2229.000000	8.355758
2228.000000	8.379442
2227.000000	8.380303
2226.000000	8.367600
2225.000000	8.369215
2224.000000	8.383210
2223.000000	8.368461
2222.000000	8.352206
2221.000000	8.331106
2220.000000	8.337134
2219.000000	8.318510
2218.000000	8.307099
2217.000000	8.263391
2216.000000	8.268236
2215.000000	8.250042
2214.000000	8.230772
2213.000000	8.200306
2212.000000	8.196108
2211.000000	8.182543
2210.000000	8.177053
2209.000000	8.145295
2208.000000	8.133130
2207.000000	8.127425
2206.000000	8.113107
2205.000000	8.092760
2204.000000	8.075859
2203.000000	8.058849
2202.000000	8.084040
2201.000000	8.062617
2200.000000	8.030321
2199.000000	8.022893
2198.000000	8.031721
2197.000000	8.033981
2196.000000	8.001255
2195.000000	8.029245
2194.000000	7.993611
2193.000000	8.000070
2192.000000	7.999532
2191.000000	8.000716
2190.000000	7.954641
2189.000000	7.970035
2188.000000	7.965621
2187.000000	7.960992
2186.000000	7.939784
2185.000000	7.948504
2184.000000	7.929342
2183.000000	7.937308
2182.000000	7.907919
2181.000000	7.895539
2180.000000	7.892309
2179.000000	7.901029
2178.000000	7.896400
2177.000000	7.880682
2176.000000	7.870563
2175.000000	7.859798
2174.000000	7.853338
2173.000000	7.862274
2172.000000	7.859259
2171.000000	7.871640
2170.000000	7.854738
2169.000000	7.848494
2168.000000	7.857645
2167.000000	7.864750
2166.000000	7.873685
2165.000000	7.869163
2164.000000	7.876053
2163.000000	7.895754
2162.000000	7.909534
2161.000000	7.918469
2160.000000	7.912225
2159.000000	7.942045
2158.000000	7.949258
2157.000000	7.957117
2156.000000	7.982738
2155.000000	7.998563
2154.000000	8.012774
2153.000000	8.031075
2152.000000	8.050022
2151.000000	8.074351
2150.000000	8.084471
2149.000000	8.115906
2148.000000	8.147341
2147.000000	8.183943
2146.000000	8.189756
2145.000000	8.215270
2144.000000	8.246705
2143.000000	8.261346
2142.000000	8.274372
2141.000000	8.279862
2140.000000	8.296010
2139.000000	8.312912
2138.000000	8.343270
2137.000000	8.362756
2136.000000	8.368892
2135.000000	8.381810
2134.000000	8.388593
2133.000000	8.403557
2132.000000	8.410231
2131.000000	8.412276
2130.000000	8.420889
2129.000000	8.428747
2128.000000	8.435530
2127.000000	8.439836
2126.000000	8.446187
2125.000000	8.444465
2124.000000	8.447695
2123.000000	8.441128
2122.000000	8.432731
2121.000000	8.438006
2120.000000	8.437575
2119.000000	8.418951
2118.000000	8.434453
2117.000000	8.436929
2116.000000	8.415398
2115.000000	8.413784
2114.000000	8.402372
2113.000000	8.403341
2112.000000	8.388593
2111.000000	8.364263
2110.000000	8.353282
2109.000000	8.327338
2108.000000	8.308498
2107.000000	8.300532
2106.000000	8.301716
2105.000000	8.286752
2104.000000	8.280185
2103.000000	8.262853
2102.000000	8.243583
2101.000000	8.233464
2100.000000	8.214086
2099.000000	8.201706
2098.000000	8.190725
2097.000000	8.180390
2096.000000	8.164673
2095.000000	8.157998
2094.000000	8.150570
2093.000000	8.138513
2092.000000	8.126348
2091.000000	8.133669
2090.000000	8.133561
2089.000000	8.103418
2088.000000	8.088562
2087.000000	8.078658
2086.000000	8.068430
2085.000000	8.057880
2084.000000	8.048730
2083.000000	8.048945
2082.000000	8.034950
2081.000000	8.002439
2080.000000	7.986075
2079.000000	7.964114
2078.000000	7.927942
2077.000000	7.910933
2076.000000	7.891232
2075.000000	7.869163
2074.000000	7.844080
2073.000000	7.818459
2072.000000	7.801772
2071.000000	7.771199
2070.000000	7.741486
2069.000000	7.713927
2068.000000	7.690135
2067.000000	7.649442
2066.000000	7.606381
2065.000000	7.586465
2064.000000	7.551693
2063.000000	7.519074
2062.000000	7.488931
2061.000000	7.466754
2060.000000	7.453190
2059.000000	7.428322
2058.000000	7.407760
2057.000000	7.402592
2056.000000	7.395487
2055.000000	7.393549
2054.000000	7.383645
2053.000000	7.380954
2052.000000	7.394411
2051.000000	7.399793
2050.000000	7.390212
2049.000000	7.398609
2048.000000	7.428429
2047.000000	7.434242
2046.000000	7.475366
2045.000000	7.496682
2044.000000	7.507339
2043.000000	7.546095
2042.000000	7.558475
2041.000000	7.591955
2040.000000	7.623821
2039.000000	7.652457
2038.000000	7.669251
2037.000000	7.670973
2036.000000	7.700362
2035.000000	7.715434
2034.000000	7.737180
2033.000000	7.759141
2032.000000	7.771522
2031.000000	7.796174
2030.000000	7.801772
2029.000000	7.797789
2028.000000	7.797358
2027.000000	7.797358
2026.000000	7.801772
2025.000000	7.809093
2024.000000	7.806186
2023.000000	7.799296
2022.000000	7.816951
2021.000000	7.810277
2020.000000	7.789930
2019.000000	7.798650
2018.000000	7.775828
2017.000000	7.776797
2016.000000	7.760003
2015.000000	7.769261
2014.000000	7.757419
2013.000000	7.738580
2012.000000	7.713173
2011.000000	7.713604
2010.000000	7.686260
2009.000000	7.668928
2008.000000	7.658162
2007.000000	7.637708
2006.000000	7.616393
2005.000000	7.583666
2004.000000	7.565472
2003.000000	7.538559
2002.000000	7.520473
2001.000000	7.504433
2000.000000	7.465247
1999.000000	7.435319
1998.000000	7.409374
1997.000000	7.383322
1996.000000	7.349950
1995.000000	7.335739
1994.000000	7.291817
1993.000000	7.252954
1992.000000	7.247248
1991.000000	7.205371
1990.000000	7.161879
1989.000000	7.130551
1988.000000	7.100516
1987.000000	7.077478
1986.000000	7.054333
1985.000000	7.005135
1984.000000	6.970901
1983.000000	6.925794
1982.000000	6.904048
1981.000000	6.880687
1980.000000	6.812973
1979.000000	6.804684
1978.000000	6.772603
1977.000000	6.729864
1976.000000	6.711455
1975.000000	6.662473
1974.000000	6.637067
1973.000000	6.620380
1972.000000	6.593252
1971.000000	6.562893
1970.000000	6.534903
1969.000000	6.494318
1968.000000	6.467835
1967.000000	6.435647
1966.000000	6.399583
1965.000000	6.396676
1964.000000	6.367717
1963.000000	6.343818
1962.000000	6.320027
1961.000000	6.298496
1960.000000	6.268676
1959.000000	6.248222
1958.000000	6.221308
1957.000000	6.187182
1956.000000	6.175555
1955.000000	6.146273
1954.000000	6.129479
1953.000000	6.122590
1952.000000	6.111071
1951.000000	6.069516
1950.000000	6.051861
1949.000000	6.019673
1948.000000	6.016120
1947.000000	5.969183
1946.000000	5.950990
1945.000000	5.956372
1944.000000	5.981886
1943.000000	5.935703
1942.000000	5.921385
1941.000000	5.911481
1940.000000	5.905344
1939.000000	5.873802
1938.000000	5.892857
1937.000000	5.926229
1936.000000	5.883706
1935.000000	5.912665
1934.000000	5.892318
1933.000000	5.923000
1932.000000	5.901900
1931.000000	5.918478
1930.000000	5.930751
1929.000000	5.932473
1928.000000	5.964985
1927.000000	5.984470
1926.000000	6.000726
1925.000000	6.042065
1924.000000	6.088463
1923.000000	6.092985
1922.000000	6.143474
1921.000000	6.165543
1920.000000	6.243485
1919.000000	6.274381
1918.000000	6.325086
1917.000000	6.363519
1916.000000	6.438015
1915.000000	6.462129
1914.000000	6.520262
1913.000000	6.598957
1912.000000	6.696815
1911.000000	6.762053
1910.000000	6.844085
1909.000000	6.911368
1908.000000	6.964980
1907.000000	7.046151
1906.000000	7.156281
1905.000000	7.251662
1904.000000	7.366744
1903.000000	7.492053
1902.000000	7.613594
1901.000000	7.759034
1900.000000	7.876161
1899.000000	8.055943
1898.000000	8.217208
1897.000000	8.392038
1896.000000	8.539308
1895.000000	8.681518
1894.000000	8.844829
1893.000000	9.029563
1892.000000	9.219679
1891.000000	9.504639
1890.000000	9.757517
1889.000000	10.024498
1888.000000	10.279207
1887.000000	10.539083
1886.000000	10.788194
1885.000000	11.105988
1884.000000	11.437669
1883.000000	11.770749
1882.000000	12.095648
1881.000000	12.442616
1880.000000	12.766223
1879.000000	13.075620
1878.000000	13.379526
1877.000000	13.714760
1876.000000	14.036645
1875.000000	14.365527
1874.000000	14.683428
1873.000000	15.034056
1872.000000	15.382101
1871.000000	15.695373
1870.000000	16.028992
1869.000000	16.337958
1868.000000	16.629700
1867.000000	16.843069
1866.000000	17.035769
1865.000000	17.202956
1864.000000	17.367881
1863.000000	17.491683
1862.000000	17.628403
1861.000000	17.795266
1860.000000	17.961699
1859.000000	18.127916
1858.000000	18.307375
1857.000000	18.419873
1856.000000	18.510733
1855.000000	18.588997
1854.000000	18.677812
1853.000000	18.763396
1852.000000	18.814209
1851.000000	18.882569
1850.000000	18.895164
1849.000000	18.895595
1848.000000	18.958142
1847.000000	19.070748
1846.000000	19.109395
1845.000000	19.083235
1844.000000	19.054923
1843.000000	19.017567
1842.000000	19.027256
1841.000000	19.068164
1840.000000	19.083989
1839.000000	19.102183
1838.000000	19.110580
1837.000000	19.104551
1836.000000	19.115639
1835.000000	19.106058
1834.000000	19.058475
1833.000000	19.010892
1832.000000	18.961264
1831.000000	18.939195
1830.000000	18.929614
1829.000000	18.911205
1828.000000	18.879124
1827.000000	18.830249
1826.000000	18.806027
1825.000000	18.772870
1824.000000	18.722918
1823.000000	18.663601
1822.000000	18.630552
1821.000000	18.643685
1820.000000	18.662525
1819.000000	18.665862
1818.000000	18.627645
1817.000000	18.578985
1816.000000	18.553472
1815.000000	18.550350
1814.000000	18.531080
1813.000000	18.512886
1812.000000	18.494262
1811.000000	18.475961
1810.000000	18.467133
1809.000000	18.428593
1808.000000	18.375305
1807.000000	18.351083
1806.000000	18.338379
1805.000000	18.300378
1804.000000	18.251288
1803.000000	18.219960
1802.000000	18.197138
1801.000000	18.174100
1800.000000	18.128670
1799.000000	18.079795
1798.000000	18.046530
1797.000000	18.013481
1796.000000	17.977201
1795.000000	17.942752
1794.000000	17.911209
1793.000000	17.892155
1792.000000	17.851139
1791.000000	17.808615
1790.000000	17.767061
1789.000000	17.733581
1788.000000	17.704407
1787.000000	17.678355
1786.000000	17.661345
1785.000000	17.619899
1784.000000	17.587387
1783.000000	17.566610
1782.000000	17.536359
1781.000000	17.496097
1780.000000	17.461217
1779.000000	17.431720
1778.000000	17.404483
1777.000000	17.377247
1776.000000	17.320083
1775.000000	17.265933
1774.000000	17.214798
1773.000000	17.168829
1772.000000	17.128029
1771.000000	17.075817
1770.000000	17.031571
1769.000000	16.981835
1768.000000	16.933606
1767.000000	16.877949
1766.000000	16.844469
1765.000000	16.810235
1764.000000	16.776862
1763.000000	16.756193
1762.000000	16.758346
1761.000000	16.758992
1760.000000	16.783752
1759.000000	16.812173
1758.000000	16.853189
1757.000000	16.898942
1756.000000	16.952661
1755.000000	16.987325
1754.000000	17.041260
1753.000000	17.072049
1752.000000	17.097778
1751.000000	17.124153
1750.000000	17.145792
1749.000000	17.144930
1748.000000	17.139117
1747.000000	17.128998
1746.000000	17.099393
1745.000000	17.074094
1744.000000	17.030602
1743.000000	16.987541
1742.000000	16.910245
1741.000000	16.832089
1740.000000	16.753609
1739.000000	16.670608
1738.000000	16.562954
1737.000000	16.477154
1736.000000	16.369608
1735.000000	16.290483
1734.000000	16.224814
1733.000000	16.167219
1732.000000	16.134708
1731.000000	16.119098
1730.000000	16.149887
1729.000000	16.188104
1728.000000	16.219108
1727.000000	16.245699
1726.000000	16.298449
1725.000000	16.362073
1724.000000	16.407610
1723.000000	16.449487
1722.000000	16.503637
1721.000000	16.557033
1720.000000	16.596758
1719.000000	16.673299
1718.000000	16.728741
1717.000000	16.805606
1716.000000	16.879349
1715.000000	16.957075
1714.000000	17.033293
1713.000000	17.133088
1712.000000	17.197573
1711.000000	17.255491
1710.000000	17.311901
1709.000000	17.359377
1708.000000	17.374340
1707.000000	17.389627
1706.000000	17.410512
1705.000000	17.400393
1704.000000	17.373910
1703.000000	17.327726
1702.000000	17.268517
1701.000000	17.234175
1700.000000	17.170983
1699.000000	17.098532
1698.000000	17.003904
1697.000000	16.927578
1696.000000	16.858033
1695.000000	16.814756
1694.000000	16.770080
1693.000000	16.770726
1692.000000	16.788166
1691.000000	16.839947
1690.000000	16.908200
1689.000000	16.971823
1688.000000	17.041260
1687.000000	17.130397
1686.000000	17.174643
1685.000000	17.251292
1684.000000	17.336769
1683.000000	17.421062
1682.000000	17.564672
1681.000000	17.744346
1680.000000	17.922083
1679.000000	18.170332
1678.000000	18.449586
1677.000000	18.723995
1676.000000	18.997866
1675.000000	19.278950
1674.000000	19.499532
1673.000000	19.720222
1672.000000	19.912707
1671.000000	20.121556
1670.000000	20.270441
1669.000000	20.387998
1668.000000	20.518367
1667.000000	20.651750
1666.000000	20.748746
1665.000000	20.825826
1664.000000	20.894294
1663.000000	20.944353
1662.000000	21.005715
1661.000000	21.060834
1660.000000	21.123919
1659.000000	21.154924
1658.000000	21.192172
1657.000000	21.224468
1656.000000	21.237709
1655.000000	21.226406
1654.000000	21.221669
1653.000000	21.250951
1652.000000	21.248690
1651.000000	21.238570
1650.000000	21.217040
1649.000000	21.191203
1648.000000	21.172902
1647.000000	21.131670
1646.000000	21.111539
1645.000000	21.067724
1644.000000	21.021110
1643.000000	21.001302
1642.000000	20.966745
1641.000000	20.922930
1640.000000	20.899246
1639.000000	20.842082
1638.000000	20.795575
1637.000000	20.758758
1636.000000	20.703639
1635.000000	20.673711
1634.000000	20.612887
1633.000000	20.537637
1632.000000	20.489731
1631.000000	20.459481
1630.000000	20.401993
1629.000000	20.324698
1628.000000	20.258491
1627.000000	20.210585
1626.000000	20.140933
1625.000000	20.098841
1624.000000	20.017454
1623.000000	19.955661
1622.000000	19.912815
1621.000000	19.840472
1620.000000	19.783738
1619.000000	19.727543
1618.000000	19.644757
1617.000000	19.597174
1616.000000	19.563586
1615.000000	19.499209
1614.000000	19.446674
1613.000000	19.384451
1612.000000	19.332131
1611.000000	19.265601
1610.000000	19.216618
1609.000000	19.147935
1608.000000	19.098092
1607.000000	19.037375
1606.000000	18.975259
1605.000000	18.910021
1604.000000	18.854902
1603.000000	18.790094
1602.000000	18.720873
1601.000000	18.667262
1600.000000	18.610097
1599.000000	18.525266
1598.000000	18.451631
1597.000000	18.393283
1596.000000	18.340640
1595.000000	18.282722
1594.000000	18.223836
1593.000000	18.168179
1592.000000	18.124687
1591.000000	18.053097
1590.000000	18.013911
1589.000000	17.950718
1588.000000	17.881066
1587.000000	17.841665
1586.000000	17.781164
1585.000000	17.724323
1584.000000	17.684814
1583.000000	17.638846
1582.000000	17.577914
1581.000000	17.533022
1580.000000	17.481456
