PE UV       SUBTECH     SPECTRUM    ASCII       PEDS        4.00        
   -1
CICIMAUCR0232-3.ASC
24/06/14
13:58:39.00
24/06/14
13:58:39.00
Vinicio Soto Monge
C. resplendens. Sex M. Ventral 
250,000000
1
Lambda 1050
1050L1511233
PerkinElmer UV WinLab 6.3.2.0749 / 2.02.05 Lambda 900 UV/VIS/NIR, Aug  7 2015 09:38:08

0
0
3350/servo 860,8/2
0
0
UV/VIS
1
1
1
DoubleDePol,CommonBeamDepol,RBeamAtt,SBeamAtt,60mm sphere, WB InGaAs Detector
0
0
0
0
Program
Program
3350/servo 860,8/2
3350/0,2 860,8/0,2
3350/0,2 860,8/0,2
0
15.00
 
 
 
0
 
860,8
319,2
860,8
Front
100
on
S:100 R:100
0
0
0
0
 
0
 
 
 
0
 
 
0
0
0
0
0
 
 
 
 
0
0


0
0
#HDR
-1
-1
#GR
nm
%R
1.0
0.0
2500,000000
-1,000000
2251
8
57,706600
4,549600
#DATA
2482.000000	5.403977
2481.000000	5.438442
2480.000000	5.383853
2479.000000	5.381424
2478.000000	5.368586
2477.000000	5.329148
2476.000000	5.455328
2475.000000	5.385125
2474.000000	5.405018
2473.000000	5.379921
2472.000000	5.385472
2471.000000	5.375179
2470.000000	5.330073
2469.000000	5.364886
2468.000000	5.361185
2467.000000	5.355517
2466.000000	5.312725
2465.000000	5.346959
2464.000000	5.348809
2463.000000	5.336550
2462.000000	5.376220
2461.000000	5.384778
2460.000000	5.391949
2459.000000	5.381540
2458.000000	5.425489
2457.000000	5.392411
2456.000000	5.457872
2455.000000	5.455790
2454.000000	5.448620
2453.000000	5.453477
2452.000000	5.508876
2451.000000	5.526455
2450.000000	5.554444
2449.000000	5.574799
2448.000000	5.597699
2447.000000	5.603829
2446.000000	5.654601
2445.000000	5.671140
2444.000000	5.668248
2443.000000	5.668017
2442.000000	5.710000
2441.000000	5.726192
2440.000000	5.761698
2439.000000	5.773841
2438.000000	5.812586
2437.000000	5.833404
2436.000000	5.858501
2435.000000	5.865556
2434.000000	5.893429
2433.000000	5.921764
2432.000000	5.937493
2431.000000	5.945126
2430.000000	5.990000
2429.000000	6.007233
2428.000000	6.018683
2427.000000	6.054767
2426.000000	6.072115
2425.000000	6.068530
2424.000000	6.094321
2423.000000	6.116643
2422.000000	6.115602
2421.000000	6.146829
2420.000000	6.141277
2419.000000	6.159088
2418.000000	6.186151
2417.000000	6.192512
2416.000000	6.204425
2415.000000	6.220501
2414.000000	6.228597
2413.000000	6.231257
2412.000000	6.263409
2411.000000	6.264681
2410.000000	6.261096
2409.000000	6.283186
2408.000000	6.291050
2407.000000	6.300187
2406.000000	6.311059
2405.000000	6.325284
2404.000000	6.336734
2403.000000	6.332570
2402.000000	6.356742
2401.000000	6.389820
2400.000000	6.405664
2399.000000	6.424632
2398.000000	6.449382
2397.000000	6.463839
2396.000000	6.478296
2395.000000	6.494719
2394.000000	6.509638
2393.000000	6.512298
2392.000000	6.537627
2391.000000	6.553471
2390.000000	6.567697
2389.000000	6.570588
2388.000000	6.581922
2387.000000	6.597073
2386.000000	6.610720
2385.000000	6.619395
2384.000000	6.617428
2383.000000	6.611646
2382.000000	6.613381
2381.000000	6.621592
2380.000000	6.637784
2379.000000	6.637668
2378.000000	6.644954
2377.000000	6.640328
2376.000000	6.641253
2375.000000	6.654322
2374.000000	6.650506
2373.000000	6.625987
2372.000000	6.606904
2371.000000	6.604244
2370.000000	6.600659
2369.000000	6.591522
2368.000000	6.587358
2367.000000	6.581460
2366.000000	6.559370
2365.000000	6.530687
2364.000000	6.514033
2363.000000	6.501889
2362.000000	6.484194
2361.000000	6.478643
2360.000000	6.465227
2359.000000	6.451695
2358.000000	6.430877
2357.000000	6.402310
2356.000000	6.380567
2355.000000	6.377444
2354.000000	6.384499
2353.000000	6.364954
2352.000000	6.372009
2351.000000	6.390167
2350.000000	6.377329
2349.000000	6.380914
2348.000000	6.390860
2347.000000	6.395371
2346.000000	6.424400
2345.000000	6.452505
2344.000000	6.469853
2343.000000	6.494950
2342.000000	6.502352
2341.000000	6.532075
2340.000000	6.560526
2339.000000	6.562377
2338.000000	6.568275
2337.000000	6.574174
2336.000000	6.571860
2335.000000	6.583542
2334.000000	6.580419
2333.000000	6.586664
2332.000000	6.584814
2331.000000	6.570357
2330.000000	6.561105
2329.000000	6.547920
2328.000000	6.528490
2327.000000	6.503393
2326.000000	6.494025
2325.000000	6.470547
2324.000000	6.439320
2323.000000	6.402426
2322.000000	6.367151
2321.000000	6.351075
2320.000000	6.324128
2319.000000	6.287696
2318.000000	6.267225
2317.000000	6.209629
2316.000000	6.171463
2315.000000	6.145556
2314.000000	6.121616
2313.000000	6.072694
2312.000000	6.023540
2311.000000	6.004110
2310.000000	5.964556
2309.000000	5.945705
2308.000000	5.937724
2307.000000	5.925118
2306.000000	5.915634
2305.000000	5.912743
2304.000000	5.898864
2303.000000	5.906960
2302.000000	5.917022
2301.000000	5.947439
2300.000000	5.992892
2299.000000	6.004920
2298.000000	6.042392
2297.000000	6.073735
2296.000000	6.096172
2295.000000	6.136998
2294.000000	6.165680
2293.000000	6.192975
2292.000000	6.209860
2291.000000	6.239699
2290.000000	6.235073
2289.000000	6.255544
2288.000000	6.270232
2287.000000	6.284805
2286.000000	6.281914
2285.000000	6.266763
2284.000000	6.260517
2283.000000	6.253578
2282.000000	6.226630
2281.000000	6.219575
2280.000000	6.206275
2279.000000	6.196560
2278.000000	6.186961
2277.000000	6.156197
2276.000000	6.131678
2275.000000	6.137692
2274.000000	6.103805
2273.000000	6.097097
2272.000000	6.092818
2271.000000	6.100335
2270.000000	6.113404
2269.000000	6.116643
2268.000000	6.121963
2267.000000	6.127977
2266.000000	6.177708
2265.000000	6.220501
2264.000000	6.257163
2263.000000	6.298105
2262.000000	6.385425
2261.000000	6.427754
2260.000000	6.503393
2259.000000	6.596264
2258.000000	6.689250
2257.000000	6.806756
2256.000000	6.895000
2255.000000	7.013431
2254.000000	7.117520
2253.000000	7.247864
2252.000000	7.344898
2251.000000	7.445633
2250.000000	7.556662
2249.000000	7.678678
2248.000000	7.794796
2247.000000	7.881884
2246.000000	7.967931
2245.000000	8.054904
2244.000000	8.158530
2243.000000	8.233012
2242.000000	8.285057
2241.000000	8.355838
2240.000000	8.419679
2239.000000	8.482249
2238.000000	8.554533
2237.000000	8.607503
2236.000000	8.671460
2235.000000	8.701877
2234.000000	8.749874
2233.000000	8.780985
2232.000000	8.801688
2231.000000	8.849800
2230.000000	8.865298
2229.000000	8.906008
2228.000000	8.926017
2227.000000	8.937582
2226.000000	8.953196
2225.000000	8.935153
2224.000000	8.949495
2223.000000	8.964645
2222.000000	8.954815
2221.000000	8.954815
2220.000000	8.949495
2219.000000	8.944059
2218.000000	8.946950
2217.000000	8.916533
2216.000000	8.904042
2215.000000	8.893055
2214.000000	8.879292
2213.000000	8.848181
2212.000000	8.868420
2211.000000	8.863679
2210.000000	8.848297
2209.000000	8.835921
2208.000000	8.810940
2207.000000	8.831758
2206.000000	8.815682
2205.000000	8.788619
2204.000000	8.803075
2203.000000	8.781332
2202.000000	8.772427
2201.000000	8.764678
2200.000000	8.759705
2199.000000	8.754963
2198.000000	8.755541
2197.000000	8.757045
2196.000000	8.755079
2195.000000	8.748139
2194.000000	8.743282
2193.000000	8.738077
2192.000000	8.709395
2191.000000	8.720729
2190.000000	8.734261
2189.000000	8.702918
2188.000000	8.687421
2187.000000	8.691468
2186.000000	8.692509
2185.000000	8.660589
2184.000000	8.666371
2183.000000	8.663827
2182.000000	8.652146
2181.000000	8.635260
2180.000000	8.648329
2179.000000	8.623579
2178.000000	8.636301
2177.000000	8.629362
2176.000000	8.610626
2175.000000	8.610047
2174.000000	8.627974
2173.000000	8.617565
2172.000000	8.601373
2171.000000	8.609122
2170.000000	8.618490
2169.000000	8.609816
2168.000000	8.631559
2167.000000	8.614558
2166.000000	8.655731
2165.000000	8.650758
2164.000000	8.652261
2163.000000	8.653418
2162.000000	8.668916
2161.000000	8.684067
2160.000000	8.690312
2159.000000	8.694475
2158.000000	8.713905
2157.000000	8.714831
2156.000000	8.755773
2155.000000	8.766528
2154.000000	8.769767
2153.000000	8.767222
2152.000000	8.795905
2151.000000	8.808511
2150.000000	8.821233
2149.000000	8.847718
2148.000000	8.871428
2147.000000	8.896756
2146.000000	8.901151
2145.000000	8.920581
2144.000000	8.949032
2143.000000	8.964298
2142.000000	8.979565
2141.000000	8.997376
2140.000000	8.992981
2139.000000	9.000383
2138.000000	9.028140
2137.000000	9.045488
2136.000000	9.059251
2135.000000	9.066306
2134.000000	9.079491
2133.000000	9.079375
2132.000000	9.089668
2131.000000	9.099268
2130.000000	9.105513
2129.000000	9.105744
2128.000000	9.105050
2127.000000	9.118929
2126.000000	9.120201
2125.000000	9.092097
2124.000000	9.089437
2123.000000	9.101696
2122.000000	9.080532
2121.000000	9.067810
2120.000000	9.071164
2119.000000	9.050461
2118.000000	9.038896
2117.000000	9.033576
2116.000000	9.029065
2115.000000	9.024208
2114.000000	9.003852
2113.000000	8.974592
2112.000000	8.964067
2111.000000	8.951229
2110.000000	8.927867
2109.000000	8.915608
2108.000000	8.904620
2107.000000	8.887966
2106.000000	8.862753
2105.000000	8.841820
2104.000000	8.834418
2103.000000	8.820655
2102.000000	8.813716
2101.000000	8.803769
2100.000000	8.765950
2099.000000	8.748486
2098.000000	8.735533
2097.000000	8.724893
2096.000000	8.708354
2095.000000	8.680366
2094.000000	8.679672
2093.000000	8.677359
2092.000000	8.655500
2091.000000	8.648907
2090.000000	8.643472
2089.000000	8.630634
2088.000000	8.627743
2087.000000	8.620109
2086.000000	8.604149
2085.000000	8.596284
2084.000000	8.599176
2083.000000	8.580787
2082.000000	8.537532
2081.000000	8.508618
2080.000000	8.503414
2079.000000	8.499828
2078.000000	8.498440
2077.000000	8.466635
2076.000000	8.448593
2075.000000	8.442926
2074.000000	8.413318
2073.000000	8.411005
2072.000000	8.392038
2071.000000	8.357688
2070.000000	8.331666
2069.000000	8.315243
2068.000000	8.296622
2067.000000	8.287370
2066.000000	8.282513
2065.000000	8.251170
2064.000000	8.227808
2063.000000	8.208956
2062.000000	8.208725
2061.000000	8.198894
2060.000000	8.180274
2059.000000	8.164545
2058.000000	8.155523
2057.000000	8.156217
2056.000000	8.152863
2055.000000	8.158415
2054.000000	8.169980
2053.000000	8.177151
2052.000000	8.190104
2051.000000	8.218324
2050.000000	8.234053
2049.000000	8.260076
2048.000000	8.301364
2047.000000	8.347626
2046.000000	8.387412
2045.000000	8.411237
2044.000000	8.466057
2043.000000	8.519605
2042.000000	8.585066
2041.000000	8.635838
2040.000000	8.659663
2039.000000	8.708817
2038.000000	8.767454
2037.000000	8.806429
2036.000000	8.835806
2035.000000	8.871774
2034.000000	8.914104
2033.000000	8.947066
2032.000000	8.977483
2031.000000	9.005587
2030.000000	9.037971
2029.000000	9.064687
2028.000000	9.077062
2027.000000	9.097070
2026.000000	9.121011
2025.000000	9.165538
2024.000000	9.190519
2023.000000	9.197574
2022.000000	9.187744
2021.000000	9.204167
2020.000000	9.216426
2019.000000	9.223019
2018.000000	9.250891
2017.000000	9.252395
2016.000000	9.251007
2015.000000	9.249157
2014.000000	9.241292
2013.000000	9.247190
2012.000000	9.247075
2011.000000	9.242911
2010.000000	9.233312
2009.000000	9.224522
2008.000000	9.209140
2007.000000	9.202432
2006.000000	9.180920
2005.000000	9.157442
2004.000000	9.142870
2003.000000	9.132229
2002.000000	9.098689
2001.000000	9.078103
2000.000000	9.047223
1999.000000	9.012411
1998.000000	8.986735
1997.000000	8.957359
1996.000000	8.932262
1995.000000	8.879755
1994.000000	8.840201
1993.000000	8.813369
1992.000000	8.790122
1991.000000	8.739465
1990.000000	8.704884
1989.000000	8.659779
1988.000000	8.620803
1987.000000	8.582753
1986.000000	8.547247
1985.000000	8.495549
1984.000000	8.464091
1983.000000	8.415169
1982.000000	8.344388
1981.000000	8.338721
1980.000000	8.288295
1979.000000	8.234747
1978.000000	8.199472
1977.000000	8.151360
1976.000000	8.110302
1975.000000	8.085437
1974.000000	8.050509
1973.000000	7.995110
1972.000000	7.970938
1971.000000	7.943528
1970.000000	7.881537
1969.000000	7.849616
1968.000000	7.814341
1967.000000	7.791442
1966.000000	7.750500
1965.000000	7.717191
1964.000000	7.673011
1963.000000	7.653118
1962.000000	7.612755
1961.000000	7.597141
1960.000000	7.558166
1959.000000	7.551920
1958.000000	7.489467
1957.000000	7.472118
1956.000000	7.448872
1955.000000	7.401338
1954.000000	7.383989
1953.000000	7.350565
1952.000000	7.312515
1951.000000	7.307773
1950.000000	7.276199
1949.000000	7.226930
1948.000000	7.231787
1947.000000	7.207847
1946.000000	7.203221
1945.000000	7.150019
1944.000000	7.131977
1943.000000	7.136488
1942.000000	7.136488
1941.000000	7.102601
1940.000000	7.099941
1939.000000	7.091614
1938.000000	7.138454
1937.000000	7.112316
1936.000000	7.129549
1935.000000	7.093464
1934.000000	7.109887
1933.000000	7.143543
1932.000000	7.145740
1931.000000	7.174307
1930.000000	7.188301
1929.000000	7.206228
1928.000000	7.232944
1927.000000	7.254803
1926.000000	7.275505
1925.000000	7.310202
1924.000000	7.368492
1923.000000	7.416257
1922.000000	7.457777
1921.000000	7.515373
1920.000000	7.572970
1919.000000	7.612061
1918.000000	7.675324
1917.000000	7.742057
1916.000000	7.808327
1915.000000	7.905131
1914.000000	7.974177
1913.000000	8.064619
1912.000000	8.159687
1911.000000	8.255449
1910.000000	8.354913
1909.000000	8.441422
1908.000000	8.545281
1907.000000	8.631675
1906.000000	8.779944
1905.000000	8.923125
1904.000000	9.066306
1903.000000	9.185893
1902.000000	9.314386
1901.000000	9.463003
1900.000000	9.620062
1899.000000	9.800368
1898.000000	9.985185
1897.000000	10.165259
1896.000000	10.350192
1895.000000	10.536627
1894.000000	10.716124
1893.000000	10.931473
1892.000000	11.139536
1891.000000	11.394903
1890.000000	11.661950
1889.000000	11.915581
1888.000000	12.188642
1887.000000	12.500795
1886.000000	12.796409
1885.000000	13.169859
1884.000000	13.528967
1883.000000	13.967531
1882.000000	14.404013
1881.000000	14.866285
1880.000000	15.332837
1879.000000	15.813962
1878.000000	16.234252
1877.000000	16.701267
1876.000000	17.185977
1875.000000	17.633330
1874.000000	18.053851
1873.000000	18.461997
1872.000000	18.883328
1871.000000	19.270541
1870.000000	19.635432
1869.000000	19.961579
1868.000000	20.306694
1867.000000	20.566108
1866.000000	20.802506
1865.000000	21.013577
1864.000000	21.200591
1863.000000	21.367828
1862.000000	21.500600
1861.000000	21.674892
1860.000000	21.827556
1859.000000	21.940898
1858.000000	22.042790
1857.000000	22.124211
1856.000000	22.205401
1855.000000	22.267623
1854.000000	22.302204
1853.000000	22.340370
1852.000000	22.344302
1851.000000	22.350316
1850.000000	22.356562
1849.000000	22.347888
1848.000000	22.354480
1847.000000	22.317933
1846.000000	22.282774
1845.000000	22.237322
1844.000000	22.194645
1843.000000	22.189209
1842.000000	22.176950
1841.000000	22.155785
1840.000000	22.126987
1839.000000	22.099808
1838.000000	22.079568
1837.000000	22.045681
1836.000000	22.007053
1835.000000	21.973975
1834.000000	21.917883
1833.000000	21.858667
1832.000000	21.788580
1831.000000	21.730869
1830.000000	21.672925
1829.000000	21.591967
1828.000000	21.533561
1827.000000	21.448092
1826.000000	21.375345
1825.000000	21.315089
1824.000000	21.259575
1823.000000	21.209612
1822.000000	21.179426
1821.000000	21.151900
1820.000000	21.132239
1819.000000	21.088174
1818.000000	21.033238
1817.000000	21.006637
1816.000000	20.997963
1815.000000	20.999235
1814.000000	20.991140
1813.000000	20.967199
1812.000000	20.960491
1811.000000	20.951123
1810.000000	20.916773
1809.000000	20.871205
1808.000000	20.832924
1807.000000	20.796377
1806.000000	20.755319
1805.000000	20.708710
1804.000000	20.640936
1803.000000	20.600689
1802.000000	20.551535
1801.000000	20.487694
1800.000000	20.436805
1799.000000	20.380713
1798.000000	20.327396
1797.000000	20.275236
1796.000000	20.228511
1795.000000	20.185025
1794.000000	20.126272
1793.000000	20.064397
1792.000000	20.013508
1791.000000	19.956606
1790.000000	19.902248
1789.000000	19.845693
1788.000000	19.770633
1787.000000	19.707485
1786.000000	19.640290
1785.000000	19.559794
1784.000000	19.504395
1783.000000	19.438472
1782.000000	19.352887
1781.000000	19.271582
1780.000000	19.176398
1779.000000	19.103535
1778.000000	19.027550
1777.000000	18.928202
1776.000000	18.857306
1775.000000	18.762585
1774.000000	18.642303
1773.000000	18.528962
1772.000000	18.427185
1771.000000	18.316619
1770.000000	18.181997
1769.000000	18.070274
1768.000000	17.960749
1767.000000	17.845210
1766.000000	17.745978
1765.000000	17.651256
1764.000000	17.595742
1763.000000	17.548439
1762.000000	17.526118
1761.000000	17.531785
1760.000000	17.550637
1759.000000	17.596320
1758.000000	17.680633
1757.000000	17.761707
1756.000000	17.817915
1755.000000	17.881063
1754.000000	17.947102
1753.000000	17.976709
1752.000000	17.992207
1751.000000	17.994173
1750.000000	17.990588
1749.000000	17.964219
1748.000000	17.921426
1747.000000	17.866837
1746.000000	17.793396
1745.000000	17.714635
1744.000000	17.608927
1743.000000	17.479509
1742.000000	17.321640
1741.000000	17.150355
1740.000000	16.951428
1739.000000	16.740011
1738.000000	16.542010
1737.000000	16.339961
1736.000000	16.164975
1735.000000	16.039027
1734.000000	15.962579
1733.000000	15.891682
1732.000000	15.860918
1731.000000	15.893070
1730.000000	15.968477
1729.000000	16.050592
1728.000000	16.146239
1727.000000	16.251832
1726.000000	16.361241
1725.000000	16.449023
1724.000000	16.526049
1723.000000	16.580176
1722.000000	16.640895
1721.000000	16.673163
1720.000000	16.692593
1719.000000	16.718384
1718.000000	16.730065
1717.000000	16.775517
1716.000000	16.833692
1715.000000	16.891982
1714.000000	16.968777
1713.000000	17.033196
1712.000000	17.108488
1711.000000	17.173948
1710.000000	17.199046
1709.000000	17.221483
1708.000000	17.208645
1707.000000	17.186208
1706.000000	17.166084
1705.000000	17.122482
1704.000000	17.079227
1703.000000	17.020474
1702.000000	16.937665
1701.000000	16.833807
1700.000000	16.722779
1699.000000	16.577053
1698.000000	16.437111
1697.000000	16.294740
1696.000000	16.170411
1695.000000	16.100786
1694.000000	16.083785
1693.000000	16.130047
1692.000000	16.191344
1691.000000	16.355690
1690.000000	16.500721
1689.000000	16.641242
1688.000000	16.748454
1687.000000	16.845373
1686.000000	16.905282
1685.000000	16.935815
1684.000000	16.988669
1683.000000	17.081424
1682.000000	17.235361
1681.000000	17.544507
1680.000000	17.910092
1679.000000	18.379651
1678.000000	18.908194
1677.000000	19.446568
1676.000000	19.944578
1675.000000	20.442357
1674.000000	20.866926
1673.000000	21.233784
1672.000000	21.575081
1671.000000	21.861212
1670.000000	22.090440
1669.000000	22.311341
1668.000000	22.484360
1667.000000	22.685600
1666.000000	22.827856
1665.000000	22.951491
1664.000000	23.045171
1663.000000	23.128558
1662.000000	23.221776
1661.000000	23.297530
1660.000000	23.354780
1659.000000	23.396994
1658.000000	23.475408
1657.000000	23.493218
1656.000000	23.466849
1655.000000	23.498192
1654.000000	23.528262
1653.000000	23.495994
1652.000000	23.488361
1651.000000	23.474020
1650.000000	23.469856
1649.000000	23.435507
1648.000000	23.375829
1647.000000	23.330145
1646.000000	23.293714
1645.000000	23.232879
1644.000000	23.178174
1643.000000	23.111210
1642.000000	23.042396
1641.000000	23.004345
1640.000000	22.923040
1639.000000	22.878397
1638.000000	22.788880
1637.000000	22.698669
1636.000000	22.661081
1635.000000	22.573762
1634.000000	22.476149
1633.000000	22.422138
1632.000000	22.358991
1631.000000	22.242873
1630.000000	22.138784
1629.000000	22.072629
1628.000000	22.011447
1627.000000	21.898221
1626.000000	21.810323
1625.000000	21.732025
1624.000000	21.649563
1623.000000	21.555073
1622.000000	21.444391
1621.000000	21.388299
1620.000000	21.297047
1619.000000	21.223375
1618.000000	21.130388
1617.000000	21.030115
1616.000000	20.976451
1615.000000	20.885200
1614.000000	20.788628
1613.000000	20.716922
1612.000000	20.664646
1611.000000	20.595368
1610.000000	20.502266
1609.000000	20.424777
1608.000000	20.362439
1607.000000	20.293162
1606.000000	20.210237
1605.000000	20.130783
1604.000000	20.043116
1603.000000	19.983901
1602.000000	19.927692
1601.000000	19.853673
1600.000000	19.779076
1599.000000	19.710377
1598.000000	19.639827
1597.000000	19.548344
1596.000000	19.468195
1595.000000	19.410368
1594.000000	19.358670
1593.000000	19.279909
1592.000000	19.220925
1591.000000	19.176398
1590.000000	19.113019
1589.000000	19.051375
1588.000000	19.004535
1587.000000	18.965096
1586.000000	18.910045
1585.000000	18.873729
1584.000000	18.822725
1583.000000	18.760618
1582.000000	18.734480
1581.000000	18.706145
1580.000000	18.658380
