PE UV       SUBTECH     SPECTRUM    ASCII       PEDS        4.00        
   -1
CICIMAUCR0204-1.ASC
24/06/06
12:22:36.00
24/06/06
12:22:36.00
Vinicio Soto Monge
C. cupreomarginata. Sex M. Ventral
250,000000
1
Lambda 1050
1050L1511233
PerkinElmer UV WinLab 6.3.2.0749 / 2.02.05 Lambda 900 UV/VIS/NIR, Aug  7 2015 09:38:08

0
0
3350/servo 860,8/2
0
0
UV/VIS
1
1
1
DoubleDePol,CommonBeamDepol,RBeamAtt,SBeamAtt,60mm sphere, WB InGaAs Detector
0
0
0
0
Program
Program
3350/servo 860,8/2
3350/0,2 860,8/0,2
3350/0,2 860,8/0,2
0
15.00
 
 
 
0
 
860,8
319,2
860,8
Front
100
on
S:100 R:100
0
0
0
0
 
0
 
 
 
0
 
 
0
0
0
0
0
 
 
 
 
0
0


0
0
#HDR
-1
-1
#GR
nm
%R
1.0
0.0
2500,000000
-1,000000
2251
8
54,018700
3,363200
#DATA
2482.000000	7.823856
2481.000000	7.838973
2480.000000	7.928093
2479.000000	7.894701
2478.000000	7.916925
2477.000000	7.893573
2476.000000	7.880713
2475.000000	7.957988
2474.000000	7.889061
2473.000000	7.919632
2472.000000	7.949076
2471.000000	7.974910
2470.000000	7.995667
2469.000000	7.942420
2468.000000	7.951107
2467.000000	8.002210
2466.000000	8.015183
2465.000000	8.034586
2464.000000	8.024208
2463.000000	8.095278
2462.000000	8.141869
2461.000000	8.163867
2460.000000	8.162965
2459.000000	8.209443
2458.000000	8.207412
2457.000000	8.249941
2456.000000	8.297435
2455.000000	8.341431
2454.000000	8.345153
2453.000000	8.432018
2452.000000	8.484474
2451.000000	8.509518
2450.000000	8.542459
2449.000000	8.602587
2448.000000	8.659895
2447.000000	8.704906
2446.000000	8.765034
2445.000000	8.796959
2444.000000	8.868481
2443.000000	8.936957
2442.000000	8.973508
2441.000000	9.011638
2440.000000	9.071314
2439.000000	9.136970
2438.000000	9.187848
2437.000000	9.232972
2436.000000	9.270763
2435.000000	9.295920
2434.000000	9.368006
2433.000000	9.408843
2432.000000	9.459382
2431.000000	9.501686
2430.000000	9.576141
2429.000000	9.606826
2428.000000	9.642587
2427.000000	9.675527
2426.000000	9.720313
2425.000000	9.763068
2424.000000	9.786758
2423.000000	9.830529
2422.000000	9.863018
2421.000000	9.913444
2420.000000	9.957102
2419.000000	9.962855
2418.000000	10.006400
2417.000000	10.034941
2416.000000	10.063482
2415.000000	10.107027
2414.000000	10.117180
2413.000000	10.154859
2412.000000	10.183964
2411.000000	10.218258
2410.000000	10.243866
2409.000000	10.266992
2408.000000	10.287185
2407.000000	10.316629
2406.000000	10.336484
2405.000000	10.354533
2404.000000	10.383074
2403.000000	10.405411
2402.000000	10.433275
2401.000000	10.469374
2400.000000	10.520026
2399.000000	10.537738
2398.000000	10.531871
2397.000000	10.536835
2396.000000	10.568760
2395.000000	10.592112
2394.000000	10.617833
2393.000000	10.642313
2392.000000	10.649307
2391.000000	10.667808
2390.000000	10.680443
2389.000000	10.702328
2388.000000	10.718911
2387.000000	10.718121
2386.000000	10.718121
2385.000000	10.716091
2384.000000	10.721506
2383.000000	10.737186
2382.000000	10.745422
2381.000000	10.744519
2380.000000	10.739668
2379.000000	10.747452
2378.000000	10.728726
2377.000000	10.724439
2376.000000	10.735381
2375.000000	10.742263
2374.000000	10.746775
2373.000000	10.732674
2372.000000	10.719250
2371.000000	10.716993
2370.000000	10.718460
2369.000000	10.719475
2368.000000	10.698154
2367.000000	10.673448
2366.000000	10.656640
2365.000000	10.659911
2364.000000	10.648856
2363.000000	10.621781
2362.000000	10.611516
2361.000000	10.588953
2360.000000	10.565376
2359.000000	10.562669
2358.000000	10.551613
2357.000000	10.537738
2356.000000	10.528713
2355.000000	10.514386
2354.000000	10.491372
2353.000000	10.490470
2352.000000	10.491824
2351.000000	10.486973
2350.000000	10.496787
2349.000000	10.493177
2348.000000	10.486973
2347.000000	10.503894
2346.000000	10.511678
2345.000000	10.511791
2344.000000	10.528825
2343.000000	10.552854
2342.000000	10.557479
2341.000000	10.592563
2340.000000	10.609711
2339.000000	10.598655
2338.000000	10.622909
2337.000000	10.643667
2336.000000	10.649533
2335.000000	10.636108
2334.000000	10.647389
2333.000000	10.651676
2332.000000	10.649871
2331.000000	10.659798
2330.000000	10.652579
2329.000000	10.638590
2328.000000	10.643215
2327.000000	10.625617
2326.000000	10.615577
2325.000000	10.608695
2324.000000	10.587036
2323.000000	10.538866
2322.000000	10.515852
2321.000000	10.485958
2320.000000	10.451663
2319.000000	10.411615
2318.000000	10.370440
2317.000000	10.338401
2316.000000	10.295308
2315.000000	10.251989
2314.000000	10.197840
2313.000000	10.142788
2312.000000	10.098002
2311.000000	10.050396
2310.000000	10.002903
2309.000000	9.969286
2308.000000	9.938037
2307.000000	9.928899
2306.000000	9.913557
2305.000000	9.900133
2304.000000	9.897087
2303.000000	9.898441
2302.000000	9.902502
2301.000000	9.926869
2300.000000	9.953718
2299.000000	9.982259
2298.000000	10.005272
2297.000000	10.040807
2296.000000	10.075891
2295.000000	10.106238
2294.000000	10.138501
2293.000000	10.180467
2292.000000	10.218822
2291.000000	10.253342
2290.000000	10.297000
2289.000000	10.307491
2288.000000	10.323398
2287.000000	10.355097
2286.000000	10.343139
2285.000000	10.362092
2284.000000	10.379013
2283.000000	10.374726
2282.000000	10.371793
2281.000000	10.352728
2280.000000	10.341222
2279.000000	10.325428
2278.000000	10.323510
2277.000000	10.309973
2276.000000	10.308055
2275.000000	10.304220
2274.000000	10.279289
2273.000000	10.271956
2272.000000	10.286734
2271.000000	10.279966
2270.000000	10.269925
2269.000000	10.296436
2268.000000	10.319788
2267.000000	10.360287
2266.000000	10.406765
2265.000000	10.470615
2264.000000	10.547214
2263.000000	10.621781
2262.000000	10.700861
2261.000000	10.810288
2260.000000	10.929415
2259.000000	11.039970
2258.000000	11.171958
2257.000000	11.308007
2256.000000	11.422171
2255.000000	11.577624
2254.000000	11.718637
2253.000000	11.870706
2252.000000	11.989382
2251.000000	12.137728
2250.000000	12.272537
2249.000000	12.398997
2248.000000	12.523878
2247.000000	12.643796
2246.000000	12.715656
2245.000000	12.832302
2244.000000	12.941841
2243.000000	13.025434
2242.000000	13.094135
2241.000000	13.170734
2240.000000	13.234810
2239.000000	13.275309
2238.000000	13.332165
2237.000000	13.370972
2236.000000	13.417901
2235.000000	13.456144
2234.000000	13.452308
2233.000000	13.493710
2232.000000	13.516723
2231.000000	13.539398
2230.000000	13.520897
2229.000000	13.520446
2228.000000	13.517739
2227.000000	13.494725
2226.000000	13.467425
2225.000000	13.455806
2224.000000	13.444637
2223.000000	13.393760
2222.000000	13.379094
2221.000000	13.336114
2220.000000	13.294374
2219.000000	13.253988
2218.000000	13.232554
2217.000000	13.188558
2216.000000	13.147156
2215.000000	13.103950
2214.000000	13.077214
2213.000000	13.033330
2212.000000	13.001179
2211.000000	12.963726
2210.000000	12.937667
2209.000000	12.916572
2208.000000	12.866822
2207.000000	12.868063
2206.000000	12.824293
2205.000000	12.791803
2204.000000	12.793044
2203.000000	12.757396
2202.000000	12.723440
2201.000000	12.698396
2200.000000	12.686664
2199.000000	12.671096
2198.000000	12.662410
2197.000000	12.628002
2196.000000	12.618526
2195.000000	12.622475
2194.000000	12.596980
2193.000000	12.583330
2192.000000	12.589308
2191.000000	12.564603
2190.000000	12.552758
2189.000000	12.515079
2188.000000	12.523878
2187.000000	12.510003
2186.000000	12.507408
2185.000000	12.480672
2184.000000	12.470406
2183.000000	12.462171
2182.000000	12.444911
2181.000000	12.425846
2180.000000	12.413211
2179.000000	12.423364
2178.000000	12.394936
2177.000000	12.378240
2176.000000	12.369779
2175.000000	12.353986
2174.000000	12.369892
2173.000000	12.363688
2172.000000	12.373276
2171.000000	12.369554
2170.000000	12.383091
2169.000000	12.393808
2168.000000	12.376322
2167.000000	12.396290
2166.000000	12.420544
2165.000000	12.430359
2164.000000	12.455290
2163.000000	12.483154
2162.000000	12.495450
2161.000000	12.524668
2160.000000	12.549148
2159.000000	12.584683
2158.000000	12.612660
2157.000000	12.639848
2156.000000	12.696930
2155.000000	12.740249
2154.000000	12.769580
2153.000000	12.817411
2152.000000	12.870883
2151.000000	12.920520
2150.000000	12.949738
2149.000000	13.006820
2148.000000	13.060405
2147.000000	13.099325
2146.000000	13.150315
2145.000000	13.209315
2144.000000	13.251731
2143.000000	13.294035
2142.000000	13.342544
2141.000000	13.396580
2140.000000	13.424106
2139.000000	13.466410
2138.000000	13.519092
2137.000000	13.534322
2136.000000	13.590163
2135.000000	13.627954
2134.000000	13.653111
2133.000000	13.676012
2132.000000	13.701507
2131.000000	13.737042
2130.000000	13.764681
2129.000000	13.787356
2128.000000	13.805405
2127.000000	13.825598
2126.000000	13.840715
2125.000000	13.849852
2124.000000	13.862600
2123.000000	13.868692
2122.000000	13.867000
2121.000000	13.876025
2120.000000	13.873768
2119.000000	13.867338
2118.000000	13.867789
2117.000000	13.856170
2116.000000	13.851093
2115.000000	13.866210
2114.000000	13.864969
2113.000000	13.848160
2112.000000	13.826275
2111.000000	13.815784
2110.000000	13.798298
2109.000000	13.769306
2108.000000	13.762650
2107.000000	13.751031
2106.000000	13.721023
2105.000000	13.713916
2104.000000	13.707937
2103.000000	13.693272
2102.000000	13.671950
2101.000000	13.639235
2100.000000	13.622201
2099.000000	13.613627
2098.000000	13.597608
2097.000000	13.574257
2096.000000	13.562411
2095.000000	13.544136
2094.000000	13.533758
2093.000000	13.521800
2092.000000	13.499576
2091.000000	13.481752
2090.000000	13.483783
2089.000000	13.471373
2088.000000	13.448924
2087.000000	13.427716
2086.000000	13.408651
2085.000000	13.375033
2084.000000	13.343446
2083.000000	13.318966
2082.000000	13.291892
2081.000000	13.269894
2080.000000	13.235712
2079.000000	13.186640
2078.000000	13.133393
2077.000000	13.090977
2076.000000	13.056795
2075.000000	13.017763
2074.000000	12.965193
2073.000000	12.899537
2072.000000	12.848773
2071.000000	12.787742
2070.000000	12.706293
2069.000000	12.643796
2068.000000	12.585134
2067.000000	12.529970
2066.000000	12.487666
2065.000000	12.425959
2064.000000	12.348458
2063.000000	12.301303
2062.000000	12.250764
2061.000000	12.192893
2060.000000	12.145738
2059.000000	12.092378
2058.000000	12.050751
2057.000000	12.029205
2056.000000	12.007319
2055.000000	11.979568
2054.000000	11.968400
2053.000000	11.986788
2052.000000	11.989608
2051.000000	12.002581
2050.000000	12.024918
2049.000000	12.054361
2048.000000	12.094635
2047.000000	12.133441
2046.000000	12.165818
2045.000000	12.216583
2044.000000	12.276823
2043.000000	12.327363
2042.000000	12.375533
2041.000000	12.444685
2040.000000	12.477400
2039.000000	12.533016
2038.000000	12.582991
2037.000000	12.627664
2036.000000	12.686100
2035.000000	12.717461
2034.000000	12.748258
2033.000000	12.766534
2032.000000	12.779056
2031.000000	12.830272
2030.000000	12.860054
2029.000000	12.861971
2028.000000	12.892205
2027.000000	12.921084
2026.000000	12.928191
2025.000000	12.929658
2024.000000	12.936765
2023.000000	12.942067
2022.000000	12.933944
2021.000000	12.950640
2020.000000	12.963839
2019.000000	12.965531
2018.000000	12.939811
2017.000000	12.936990
2016.000000	12.940487
2015.000000	12.931801
2014.000000	12.912736
2013.000000	12.886000
2012.000000	12.868402
2011.000000	12.857572
2010.000000	12.840312
2009.000000	12.808838
2008.000000	12.782778
2007.000000	12.752658
2006.000000	12.705390
2005.000000	12.682716
2004.000000	12.644586
2003.000000	12.617060
2002.000000	12.577238
2001.000000	12.520494
2000.000000	12.459238
1999.000000	12.430810
1998.000000	12.380722
1997.000000	12.354324
1996.000000	12.282464
1995.000000	12.247493
1994.000000	12.188606
1993.000000	12.117986
1992.000000	12.058310
1991.000000	12.021759
1990.000000	11.955088
1989.000000	11.888756
1988.000000	11.840585
1987.000000	11.790949
1986.000000	11.720555
1985.000000	11.651966
1984.000000	11.584506
1983.000000	11.525731
1982.000000	11.463009
1981.000000	11.411793
1980.000000	11.360577
1979.000000	11.296726
1978.000000	11.247767
1977.000000	11.167107
1976.000000	11.126834
1975.000000	11.078664
1974.000000	10.995184
1973.000000	10.934830
1972.000000	10.896700
1971.000000	10.830368
1970.000000	10.785921
1969.000000	10.743955
1968.000000	10.686873
1967.000000	10.655512
1966.000000	10.582974
1965.000000	10.536948
1964.000000	10.497690
1963.000000	10.445346
1962.000000	10.386120
1961.000000	10.356225
1960.000000	10.323059
1959.000000	10.266090
1958.000000	10.234052
1957.000000	10.179677
1956.000000	10.115488
1955.000000	10.097325
1954.000000	10.034264
1953.000000	9.982259
1952.000000	9.974588
1951.000000	9.932058
1950.000000	9.885016
1949.000000	9.808531
1948.000000	9.817104
1947.000000	9.773221
1946.000000	9.756412
1945.000000	9.711852
1944.000000	9.689516
1943.000000	9.681845
1942.000000	9.677107
1941.000000	9.666728
1940.000000	9.661990
1939.000000	9.618445
1938.000000	9.645858
1937.000000	9.614497
1936.000000	9.628824
1935.000000	9.628598
1934.000000	9.624424
1933.000000	9.634690
1932.000000	9.666277
1931.000000	9.682634
1930.000000	9.713544
1929.000000	9.738701
1928.000000	9.798152
1927.000000	9.820940
1926.000000	9.888175
1925.000000	9.937924
1924.000000	9.971429
1923.000000	10.033588
1922.000000	10.120339
1921.000000	10.197727
1920.000000	10.281207
1919.000000	10.359271
1918.000000	10.436998
1917.000000	10.511227
1916.000000	10.623812
1915.000000	10.731997
1914.000000	10.862519
1913.000000	10.982775
1912.000000	11.111266
1911.000000	11.248443
1910.000000	11.374453
1909.000000	11.537915
1908.000000	11.686374
1907.000000	11.839232
1906.000000	12.023226
1905.000000	12.235196
1904.000000	12.463412
1903.000000	12.681813
1902.000000	12.890512
1901.000000	13.157760
1900.000000	13.410907
1899.000000	13.666084
1898.000000	13.964129
1897.000000	14.235326
1896.000000	14.521300
1895.000000	14.827468
1894.000000	15.129010
1893.000000	15.448038
1892.000000	15.843326
1891.000000	16.249895
1890.000000	16.674175
1889.000000	17.081195
1888.000000	17.483590
1887.000000	17.895687
1886.000000	18.306768
1885.000000	18.762973
1884.000000	19.243772
1883.000000	19.734159
1882.000000	20.189800
1881.000000	20.637770
1880.000000	21.068819
1879.000000	21.467379
1878.000000	21.880378
1877.000000	22.318985
1876.000000	22.744731
1875.000000	23.180857
1874.000000	23.579303
1873.000000	23.980006
1872.000000	24.403609
1871.000000	24.790436
1870.000000	25.133267
1869.000000	25.448798
1868.000000	25.730824
1867.000000	25.962086
1866.000000	26.133445
1865.000000	26.304917
1864.000000	26.458677
1863.000000	26.621124
1862.000000	26.793386
1861.000000	26.984148
1860.000000	27.164419
1859.000000	27.344126
1858.000000	27.514245
1857.000000	27.625589
1856.000000	27.725764
1855.000000	27.826053
1854.000000	27.924649
1853.000000	27.981731
1852.000000	28.035090
1851.000000	28.080102
1850.000000	28.128610
1849.000000	28.178247
1848.000000	28.243451
1847.000000	28.322644
1846.000000	28.343740
1845.000000	28.309558
1844.000000	28.276054
1843.000000	28.240518
1842.000000	28.260147
1841.000000	28.308656
1840.000000	28.316553
1839.000000	28.308881
1838.000000	28.310686
1837.000000	28.310574
1836.000000	28.281694
1835.000000	28.239954
1834.000000	28.189641
1833.000000	28.123872
1832.000000	28.069836
1831.000000	28.039603
1830.000000	28.010611
1829.000000	27.977444
1828.000000	27.929951
1827.000000	27.883135
1826.000000	27.838236
1825.000000	27.808003
1824.000000	27.762202
1823.000000	27.706135
1822.000000	27.693839
1821.000000	27.716852
1820.000000	27.718996
1819.000000	27.699592
1818.000000	27.650294
1817.000000	27.617805
1816.000000	27.592648
1815.000000	27.555533
1814.000000	27.535679
1813.000000	27.517065
1812.000000	27.495067
1811.000000	27.474310
1810.000000	27.441256
1809.000000	27.392296
1808.000000	27.350557
1807.000000	27.317052
1806.000000	27.275199
1805.000000	27.232670
1804.000000	27.208754
1803.000000	27.183372
1802.000000	27.145918
1801.000000	27.113316
1800.000000	27.073720
1799.000000	27.018781
1798.000000	26.978395
1797.000000	26.934060
1796.000000	26.890516
1795.000000	26.867277
1794.000000	26.828921
1793.000000	26.790227
1792.000000	26.766086
1791.000000	26.729648
1790.000000	26.698287
1789.000000	26.674371
1788.000000	26.642558
1787.000000	26.612663
1786.000000	26.587507
1785.000000	26.568329
1784.000000	26.530537
1783.000000	26.493423
1782.000000	26.463415
1781.000000	26.434197
1780.000000	26.390991
1779.000000	26.355004
1778.000000	26.319356
1777.000000	26.273781
1776.000000	26.235087
1775.000000	26.184097
1774.000000	26.113364
1773.000000	26.052560
1772.000000	26.008563
1771.000000	25.942795
1770.000000	25.878155
1769.000000	25.822990
1768.000000	25.771436
1767.000000	25.714918
1766.000000	25.661333
1765.000000	25.621624
1764.000000	25.572551
1763.000000	25.544687
1762.000000	25.538144
1761.000000	25.543107
1760.000000	25.550779
1759.000000	25.572551
1758.000000	25.598949
1757.000000	25.647119
1756.000000	25.674080
1755.000000	25.707698
1754.000000	25.729245
1753.000000	25.755642
1752.000000	25.778430
1751.000000	25.793885
1750.000000	25.793772
1749.000000	25.795464
1748.000000	25.771097
1747.000000	25.746505
1746.000000	25.729809
1745.000000	25.659189
1744.000000	25.585975
1743.000000	25.518402
1742.000000	25.433907
1741.000000	25.354601
1740.000000	25.252169
1739.000000	25.138344
1738.000000	25.041214
1737.000000	24.936977
1736.000000	24.838606
1735.000000	24.764603
1734.000000	24.699398
1733.000000	24.657094
1732.000000	24.628553
1731.000000	24.613775
1730.000000	24.612308
1729.000000	24.633178
1728.000000	24.657997
1727.000000	24.698044
1726.000000	24.718801
1725.000000	24.767310
1724.000000	24.824731
1723.000000	24.859363
1722.000000	24.919378
1721.000000	24.978830
1720.000000	25.091978
1719.000000	25.160116
1718.000000	25.269317
1717.000000	25.376938
1716.000000	25.491440
1715.000000	25.613614
1714.000000	25.728568
1713.000000	25.840025
1712.000000	25.938170
1711.000000	26.035074
1710.000000	26.118892
1709.000000	26.181615
1708.000000	26.233846
1707.000000	26.265658
1706.000000	26.290138
1705.000000	26.289010
1704.000000	26.278744
1703.000000	26.255506
1702.000000	26.196731
1701.000000	26.128594
1700.000000	26.073091
1699.000000	26.017363
1698.000000	25.956896
1697.000000	25.889887
1696.000000	25.819944
1695.000000	25.773918
1694.000000	25.756432
1693.000000	25.751920
1692.000000	25.753386
1691.000000	25.785199
1690.000000	25.826713
1689.000000	25.879508
1688.000000	25.968967
1687.000000	26.028869
1686.000000	26.124871
1685.000000	26.235425
1684.000000	26.342708
1683.000000	26.503124
1682.000000	26.688810
1681.000000	26.897735
1680.000000	27.163630
1679.000000	27.456260
1678.000000	27.731518
1677.000000	28.040618
1676.000000	28.314522
1675.000000	28.573084
1674.000000	28.829840
1673.000000	29.066855
1672.000000	29.279728
1671.000000	29.462932
1670.000000	29.653808
1669.000000	29.826521
1668.000000	29.988629
1667.000000	30.131786
1666.000000	30.241325
1665.000000	30.368575
1664.000000	30.462997
1663.000000	30.542980
1662.000000	30.618676
1661.000000	30.712083
1660.000000	30.779994
1659.000000	30.850614
1658.000000	30.901604
1657.000000	30.937929
1656.000000	30.989258
1655.000000	30.996139
1654.000000	31.026260
1653.000000	31.020845
1652.000000	31.020845
1651.000000	31.023778
1650.000000	30.988581
1649.000000	30.963311
1648.000000	30.956204
1647.000000	30.915593
1646.000000	30.903409
1645.000000	30.832226
1644.000000	30.805377
1643.000000	30.782138
1642.000000	30.739496
1641.000000	30.704637
1640.000000	30.658949
1639.000000	30.631987
1638.000000	30.576823
1637.000000	30.514777
1636.000000	30.487477
1635.000000	30.445173
1634.000000	30.386624
1633.000000	30.324127
1632.000000	30.260954
1631.000000	30.196990
1630.000000	30.129868
1629.000000	30.069740
1628.000000	30.003407
1627.000000	29.936398
1626.000000	29.882136
1625.000000	29.804522
1624.000000	29.732098
1623.000000	29.657869
1622.000000	29.594808
1621.000000	29.525655
1620.000000	29.481546
1619.000000	29.417470
1618.000000	29.345045
1617.000000	29.282887
1616.000000	29.235394
1615.000000	29.187111
1614.000000	29.106451
1613.000000	29.043954
1612.000000	28.982924
1611.000000	28.929790
1610.000000	28.836270
1609.000000	28.772645
1608.000000	28.701123
1607.000000	28.645846
1606.000000	28.584590
1605.000000	28.486445
1604.000000	28.397889
1603.000000	28.331782
1602.000000	28.240180
