PE UV       SUBTECH     SPECTRUM    ASCII       PEDS        4.00        
   -1
CICIMAUCR0015-1.Sample.ASC
24/04/12
10:05:24.00
24/04/12
10:05:24.00
Vinicio Soto Monge
C. resplendens
250,000000
1
Lambda 1050
1050L1511233
PerkinElmer UV WinLab 6.3.2.0749 / 2.02.05 Lambda 900 UV/VIS/NIR, Aug  7 2015 09:38:08

0
0
3350/servo 860,8/2
0
0
UV/VIS
1
1
1
DoubleDePol,CommonBeamDepol,RBeamAtt,SBeamAtt,60mm sphere, WB InGaAs Detector
0
0
0
0
Program
Program
3350/servo 860,8/2
3350/0,2 860,8/0,2
3350/0,2 860,8/0,2
0
15.00
 
 
 
0
 
860,8
319,2
860,8
Front
100
on
S:100 R:100
0
0
0
0
 
0
 
 
 
0
 
 
0
0
0
0
0
 
 
 
 
0
0


0
0
#HDR
-1
-1
#GR
nm
%R
1.0
0.0
2500,000000
-1,000000
2251
8
95,380100
5,607500
#DATA
2482.000000	9.406332
2481.000000	9.403696
2480.000000	9.376178
2479.000000	9.436169
2478.000000	9.431741
2477.000000	9.373542
2476.000000	9.390095
2475.000000	9.387670
2474.000000	9.433533
2473.000000	9.444287
2472.000000	9.412130
2471.000000	9.424466
2470.000000	9.431530
2469.000000	9.428156
2468.000000	9.493840
2467.000000	9.462843
2466.000000	9.475811
2465.000000	9.532112
2464.000000	9.549192
2463.000000	9.586937
2462.000000	9.603595
2461.000000	9.668858
2460.000000	9.726002
2459.000000	9.766066
2458.000000	9.833015
2457.000000	9.908610
2456.000000	9.967125
2455.000000	10.043985
2454.000000	10.117576
2453.000000	10.227015
2452.000000	10.315051
2451.000000	10.390962
2450.000000	10.490806
2449.000000	10.585168
2448.000000	10.677104
2447.000000	10.789179
2446.000000	10.858342
2445.000000	10.931301
2444.000000	11.035890
2443.000000	11.133941
2442.000000	11.224086
2441.000000	11.312860
2440.000000	11.398260
2439.000000	11.482289
2438.000000	11.571906
2437.000000	11.640648
2436.000000	11.735958
2435.000000	11.804700
2434.000000	11.887886
2433.000000	11.965273
2432.000000	12.029376
2431.000000	12.089683
2430.000000	12.136495
2429.000000	12.156421
2428.000000	12.199649
2427.000000	12.249940
2426.000000	12.288633
2425.000000	12.343142
2424.000000	12.385314
2423.000000	12.435078
2422.000000	12.459539
2421.000000	12.492012
2420.000000	12.531760
2419.000000	12.579731
2418.000000	12.615894
2417.000000	12.658911
2416.000000	12.694968
2415.000000	12.716582
2414.000000	12.758017
2413.000000	12.774780
2412.000000	12.809784
2411.000000	12.865874
2410.000000	12.873992
2409.000000	12.896449
2408.000000	12.940309
2407.000000	12.965085
2406.000000	12.999983
2405.000000	13.018223
2404.000000	13.061556
2403.000000	13.102674
2402.000000	13.122706
2401.000000	13.143898
2400.000000	13.185544
2399.000000	13.207790
2398.000000	13.238049
2397.000000	13.284439
2396.000000	13.309110
2395.000000	13.332621
2394.000000	13.360666
2393.000000	13.397357
2392.000000	13.422450
2391.000000	13.445539
2390.000000	13.465360
2389.000000	13.477591
2388.000000	13.503527
2387.000000	13.514808
2386.000000	13.518498
2385.000000	13.521767
2384.000000	13.511118
2383.000000	13.505952
2382.000000	13.511223
2381.000000	13.487396
2380.000000	13.467153
2379.000000	13.455661
2378.000000	13.437632
2377.000000	13.412855
2376.000000	13.392191
2375.000000	13.362775
2374.000000	13.324714
2373.000000	13.283701
2372.000000	13.253864
2371.000000	13.226451
2370.000000	13.170362
2369.000000	13.117329
2368.000000	13.065035
2367.000000	13.000194
2366.000000	12.933034
2365.000000	12.872200
2364.000000	12.798503
2363.000000	12.715106
2362.000000	12.636243
2361.000000	12.569188
2360.000000	12.497283
2359.000000	12.431705
2358.000000	12.373295
2357.000000	12.306451
2356.000000	12.247515
2355.000000	12.210086
2354.000000	12.170866
2353.000000	12.159901
2352.000000	12.167281
2351.000000	12.196275
2350.000000	12.230224
2349.000000	12.259534
2348.000000	12.306240
2347.000000	12.346726
2346.000000	12.396596
2345.000000	12.460171
2344.000000	12.512465
2343.000000	12.563916
2342.000000	12.611044
2341.000000	12.647629
2340.000000	12.664604
2339.000000	12.694441
2338.000000	12.708253
2337.000000	12.708042
2336.000000	12.690540
2335.000000	12.668610
2334.000000	12.635294
2333.000000	12.604719
2332.000000	12.566763
2331.000000	12.507405
2330.000000	12.460593
2329.000000	12.401235
2328.000000	12.327854
2327.000000	12.253313
2326.000000	12.158952
2325.000000	12.071654
2324.000000	11.988468
2323.000000	11.896110
2322.000000	11.786671
2321.000000	11.643178
2320.000000	11.525621
2319.000000	11.408592
2318.000000	11.275642
2317.000000	11.141427
2316.000000	11.012905
2315.000000	10.867093
2314.000000	10.738360
2313.000000	10.622912
2312.000000	10.494074
2311.000000	10.384952
2310.000000	10.308936
2309.000000	10.256009
2308.000000	10.220478
2307.000000	10.190641
2306.000000	10.193909
2305.000000	10.214890
2304.000000	10.274986
2303.000000	10.337191
2302.000000	10.416160
2301.000000	10.513263
2300.000000	10.605516
2299.000000	10.725603
2298.000000	10.826607
2297.000000	10.941001
2296.000000	11.031567
2295.000000	11.142060
2294.000000	11.208060
2293.000000	11.286818
2292.000000	11.335738
2291.000000	11.369266
2290.000000	11.409119
2289.000000	11.424090
2288.000000	11.409119
2287.000000	11.393304
2286.000000	11.374959
2285.000000	11.335844
2284.000000	11.306006
2283.000000	11.246227
2282.000000	11.219763
2281.000000	11.151759
2280.000000	11.098516
2279.000000	11.032832
2278.000000	10.991503
2277.000000	10.945745
2276.000000	10.903361
2275.000000	10.870256
2274.000000	10.854968
2273.000000	10.820492
2272.000000	10.817540
2271.000000	10.855074
2270.000000	10.918965
2269.000000	10.959662
2268.000000	11.038314
2267.000000	11.140267
2266.000000	11.273955
2265.000000	11.448972
2264.000000	11.635271
2263.000000	11.827052
2262.000000	12.025897
2261.000000	12.311301
2260.000000	12.581629
2259.000000	12.870513
2258.000000	13.147799
2257.000000	13.441744
2256.000000	13.740433
2255.000000	14.031952
2254.000000	14.341923
2253.000000	14.636711
2252.000000	14.879099
2251.000000	15.139411
2250.000000	15.400355
2249.000000	15.642954
2248.000000	15.858246
2247.000000	16.066264
2246.000000	16.244866
2245.000000	16.417036
2244.000000	16.590683
2243.000000	16.750834
2242.000000	16.880832
2241.000000	17.055954
2240.000000	17.129230
2239.000000	17.262812
2238.000000	17.377311
2237.000000	17.445210
2236.000000	17.556124
2235.000000	17.622546
2234.000000	17.701304
2233.000000	17.746007
2232.000000	17.785544
2231.000000	17.845113
2230.000000	17.877481
2229.000000	17.902679
2228.000000	17.945801
2227.000000	17.917229
2226.000000	17.927034
2225.000000	17.926191
2224.000000	17.903839
2223.000000	17.901309
2222.000000	17.860717
2221.000000	17.833621
2220.000000	17.831407
2219.000000	17.761717
2218.000000	17.741579
2217.000000	17.715643
2216.000000	17.665457
2215.000000	17.626447
2214.000000	17.593658
2213.000000	17.526709
2212.000000	17.504779
2211.000000	17.476839
2210.000000	17.497609
2209.000000	17.440465
2208.000000	17.410944
2207.000000	17.383743
2206.000000	17.347896
2205.000000	17.338196
2204.000000	17.321222
2203.000000	17.303298
2202.000000	17.304352
2201.000000	17.267346
2200.000000	17.255116
2199.000000	17.241515
2198.000000	17.238352
2197.000000	17.225489
2196.000000	17.213365
2195.000000	17.204087
2194.000000	17.181313
2193.000000	17.173828
2192.000000	17.161281
2191.000000	17.172668
2190.000000	17.155904
2189.000000	17.123326
2188.000000	17.124274
2187.000000	17.117843
2186.000000	17.087795
2185.000000	17.075038
2184.000000	17.053951
2183.000000	17.031494
2182.000000	17.029596
2181.000000	17.020108
2180.000000	17.007877
2179.000000	16.997861
2178.000000	16.977829
2177.000000	16.973296
2176.000000	16.945883
2175.000000	16.947887
2174.000000	16.966970
2173.000000	16.982574
2172.000000	17.007772
2171.000000	17.010197
2170.000000	17.023165
2169.000000	17.045622
2168.000000	17.080731
2167.000000	17.099076
2166.000000	17.127227
2165.000000	17.155904
2164.000000	17.184054
2163.000000	17.204719
2162.000000	17.261969
2161.000000	17.298765
2160.000000	17.324068
2159.000000	17.376046
2158.000000	17.411471
2157.000000	17.467245
2156.000000	17.518379
2155.000000	17.597664
2154.000000	17.654176
2153.000000	17.713323
2152.000000	17.758132
2151.000000	17.818861
2150.000000	17.887919
2149.000000	17.947910
2148.000000	18.002102
2147.000000	18.063885
2146.000000	18.126722
2145.000000	18.191563
2144.000000	18.238270
2143.000000	18.301951
2142.000000	18.348446
2141.000000	18.394836
2140.000000	18.440805
2139.000000	18.495102
2138.000000	18.545288
2137.000000	18.589675
2136.000000	18.631109
2135.000000	18.664215
2134.000000	18.695634
2133.000000	18.715244
2132.000000	18.755519
2131.000000	18.790312
2130.000000	18.814667
2129.000000	18.835648
2128.000000	18.848405
2127.000000	18.864852
2126.000000	18.867804
2125.000000	18.861268
2124.000000	18.856418
2123.000000	18.849775
2122.000000	18.852517
2121.000000	18.843871
2120.000000	18.821309
2119.000000	18.810871
2118.000000	18.794213
2117.000000	18.771756
2116.000000	18.746030
2115.000000	18.731481
2114.000000	18.704596
2113.000000	18.673071
2112.000000	18.661052
2111.000000	18.631109
2110.000000	18.584508
2109.000000	18.565847
2108.000000	18.548767
2107.000000	18.516294
2106.000000	18.484770
2105.000000	18.454405
2104.000000	18.413603
2103.000000	18.391357
2102.000000	18.375120
2101.000000	18.340644
2100.000000	18.320612
2099.000000	18.304586
2098.000000	18.270637
2097.000000	18.237953
2096.000000	18.217394
2095.000000	18.200947
2094.000000	18.195886
2093.000000	18.185554
2092.000000	18.154240
2091.000000	18.137898
2090.000000	18.126722
2089.000000	18.111119
2088.000000	18.091508
2087.000000	18.086342
2086.000000	18.079383
2085.000000	18.051444
2084.000000	18.036789
2083.000000	18.014754
2082.000000	17.986076
2081.000000	17.944536
2080.000000	17.920076
2079.000000	17.904155
2078.000000	17.875794
2077.000000	17.834254
2076.000000	17.796931
2075.000000	17.756445
2074.000000	17.703307
2073.000000	17.662611
2072.000000	17.626658
2071.000000	17.592709
2070.000000	17.540837
2069.000000	17.488859
2068.000000	17.456491
2067.000000	17.395024
2066.000000	17.348634
2065.000000	17.305828
2064.000000	17.259227
2063.000000	17.249633
2062.000000	17.222643
2061.000000	17.162019
2060.000000	17.129546
2059.000000	17.127859
2058.000000	17.137137
2057.000000	17.139773
2056.000000	17.165288
2055.000000	17.212627
2054.000000	17.267978
2053.000000	17.315317
2052.000000	17.416427
2051.000000	17.515006
2050.000000	17.622757
2049.000000	17.757921
2048.000000	17.872947
2047.000000	18.010958
2046.000000	18.187768
2045.000000	18.361098
2044.000000	18.526626
2043.000000	18.704068
2042.000000	18.873603
2041.000000	19.044508
2040.000000	19.210142
2039.000000	19.376619
2038.000000	19.554800
2037.000000	19.712737
2036.000000	19.852751
2035.000000	19.987493
2034.000000	20.137206
2033.000000	20.296198
2032.000000	20.425668
2031.000000	20.535634
2030.000000	20.656248
2029.000000	20.777390
2028.000000	20.893681
2027.000000	21.000800
2026.000000	21.101699
2025.000000	21.199751
2024.000000	21.283991
2023.000000	21.385311
2022.000000	21.493484
2021.000000	21.578779
2020.000000	21.651949
2019.000000	21.750106
2018.000000	21.840883
2017.000000	21.907727
2016.000000	21.955698
2015.000000	22.016533
2014.000000	22.072623
2013.000000	22.110051
2012.000000	22.176579
2011.000000	22.221493
2010.000000	22.265247
2009.000000	22.298669
2008.000000	22.309950
2007.000000	22.326187
2006.000000	22.335465
2005.000000	22.339366
2004.000000	22.354970
2003.000000	22.354126
2002.000000	22.349698
2001.000000	22.327663
2000.000000	22.316171
1999.000000	22.287599
1998.000000	22.255547
1997.000000	22.225815
1996.000000	22.172045
1995.000000	22.130294
1994.000000	22.108259
1993.000000	22.042258
1992.000000	21.993759
1991.000000	21.922593
1990.000000	21.864711
1989.000000	21.803876
1988.000000	21.729230
1987.000000	21.665444
1986.000000	21.573929
1985.000000	21.519526
1984.000000	21.422950
1983.000000	21.343454
1982.000000	21.261639
1981.000000	21.174131
1980.000000	21.097060
1979.000000	21.018829
1978.000000	20.943867
1977.000000	20.854988
1976.000000	20.775070
1975.000000	20.689987
1974.000000	20.597523
1973.000000	20.515286
1972.000000	20.431045
1971.000000	20.364940
1970.000000	20.297568
1969.000000	20.225242
1968.000000	20.146484
1967.000000	20.078692
1966.000000	19.991605
1965.000000	19.911476
1964.000000	19.832719
1963.000000	19.755015
1962.000000	19.685430
1961.000000	19.604353
1960.000000	19.542991
1959.000000	19.466658
1958.000000	19.377252
1957.000000	19.295859
1956.000000	19.229015
1955.000000	19.147410
1954.000000	19.054841
1953.000000	18.969546
1952.000000	18.912297
1951.000000	18.835331
1950.000000	18.788203
1949.000000	18.723152
1948.000000	18.676551
1947.000000	18.620882
1946.000000	18.553195
1945.000000	18.518086
1944.000000	18.485086
1943.000000	18.453773
1942.000000	18.456619
1941.000000	18.415923
1940.000000	18.430683
1939.000000	18.463578
1938.000000	18.446603
1937.000000	18.463683
1936.000000	18.483715
1935.000000	18.521565
1934.000000	18.580818
1933.000000	18.645343
1932.000000	18.706072
1931.000000	18.821625
1930.000000	18.897114
1929.000000	19.021524
1928.000000	19.132755
1927.000000	19.263913
1926.000000	19.386636
1925.000000	19.540988
1924.000000	19.707254
1923.000000	19.863610
1922.000000	20.063509
1921.000000	20.266361
1920.000000	20.499365
1919.000000	20.668162
1918.000000	20.888726
1917.000000	21.096743
1916.000000	21.314672
1915.000000	21.574667
1914.000000	21.876624
1913.000000	22.154016
1912.000000	22.450386
1911.000000	22.695937
1910.000000	22.963313
1909.000000	23.214873
1908.000000	23.498907
1907.000000	23.831967
1906.000000	24.186852
1905.000000	24.548800
1904.000000	24.892719
1903.000000	25.206274
1902.000000	25.518564
1901.000000	25.845087
1900.000000	26.201342
1899.000000	26.545050
1898.000000	26.894241
1897.000000	27.245435
1896.000000	27.542121
1895.000000	27.829002
1894.000000	28.175663
1893.000000	28.530441
1892.000000	28.877313
1891.000000	29.215012
1890.000000	29.536369
1889.000000	29.853719
1888.000000	30.225262
1887.000000	30.571184
1886.000000	30.957804
1885.000000	31.381957
1884.000000	31.848177
1883.000000	32.299848
1882.000000	32.763117
1881.000000	33.244414
1880.000000	33.706734
1879.000000	34.160513
1878.000000	34.578446
1877.000000	34.935544
1876.000000	35.284208
1875.000000	35.619271
1874.000000	35.935567
1873.000000	36.203576
1872.000000	36.440165
1871.000000	36.669585
1870.000000	36.846817
1869.000000	36.976814
1868.000000	37.077924
1867.000000	37.148352
1866.000000	37.188205
1865.000000	37.246615
1864.000000	37.314408
1863.000000	37.350676
1862.000000	37.390846
1861.000000	37.424268
1860.000000	37.444616
1859.000000	37.429856
1858.000000	37.406555
1857.000000	37.389264
1856.000000	37.336865
1855.000000	37.288788
1854.000000	37.239129
1853.000000	37.126211
1852.000000	37.043764
1851.000000	37.011291
1850.000000	36.985776
1849.000000	36.950562
1848.000000	36.858309
1847.000000	36.731579
1846.000000	36.626885
1845.000000	36.558671
1844.000000	36.507642
1843.000000	36.516287
1842.000000	36.511753
1841.000000	36.457350
1840.000000	36.388714
1839.000000	36.310905
1838.000000	36.253234
1837.000000	36.185968
1836.000000	36.102150
1835.000000	36.013903
1834.000000	35.922915
1833.000000	35.840889
1832.000000	35.775521
1831.000000	35.685272
1830.000000	35.595127
1829.000000	35.517424
1828.000000	35.400710
1827.000000	35.321426
1826.000000	35.257007
1825.000000	35.184680
1824.000000	35.150204
1823.000000	35.152313
1822.000000	35.147252
1821.000000	35.117836
1820.000000	35.074820
1819.000000	35.027692
1818.000000	35.018308
1817.000000	35.026321
1816.000000	35.030328
1815.000000	35.017359
1814.000000	35.015462
1813.000000	35.002283
1812.000000	34.972551
1811.000000	34.928059
1810.000000	34.876924
1809.000000	34.841077
1808.000000	34.814403
1807.000000	34.780032
1806.000000	34.717932
1805.000000	34.649929
1804.000000	34.601641
1803.000000	34.555989
1802.000000	34.512973
1801.000000	34.458042
1800.000000	34.387298
1799.000000	34.319505
1798.000000	34.282076
1797.000000	34.240958
1796.000000	34.190983
1795.000000	34.133523
1794.000000	34.064465
1793.000000	34.002998
1792.000000	33.950598
1791.000000	33.889869
1790.000000	33.821022
1789.000000	33.747114
1788.000000	33.684487
1787.000000	33.621017
1786.000000	33.538991
1785.000000	33.447160
1784.000000	33.341728
1783.000000	33.232500
1782.000000	33.146784
1781.000000	33.077093
1780.000000	32.973348
1779.000000	32.863488
1778.000000	32.747829
1777.000000	32.621416
1776.000000	32.507866
1775.000000	32.364689
1774.000000	32.192308
1773.000000	32.033000
1772.000000	31.885922
1771.000000	31.728090
1770.000000	31.555814
1769.000000	31.394819
1768.000000	31.276419
1767.000000	31.160339
1766.000000	31.044680
1765.000000	30.960967
1764.000000	30.923749
1763.000000	30.885477
1762.000000	30.916791
1761.000000	30.976571
1760.000000	31.029497
1759.000000	31.092862
1758.000000	31.160760
1757.000000	31.209997
1756.000000	31.250799
1755.000000	31.278528
1754.000000	31.280109
1753.000000	31.255122
1752.000000	31.216323
1751.000000	31.175837
1750.000000	31.111418
1749.000000	31.029181
1748.000000	30.927650
1747.000000	30.788163
1746.000000	30.656795
1745.000000	30.464065
1744.000000	30.256153
1743.000000	30.049717
1742.000000	29.799422
1741.000000	29.524877
1740.000000	29.256763
1739.000000	28.983272
1738.000000	28.750584
1737.000000	28.552688
1736.000000	28.418789
1735.000000	28.307558
1734.000000	28.263382
1733.000000	28.282043
1732.000000	28.341191
1731.000000	28.430808
1730.000000	28.561438
1729.000000	28.673091
1728.000000	28.798871
1727.000000	28.901141
1726.000000	28.978000
1725.000000	29.063822
1724.000000	29.083643
1723.000000	29.125289
1722.000000	29.151225
1721.000000	29.181590
1720.000000	29.235782
1719.000000	29.257501
1718.000000	29.316121
1717.000000	29.388026
1716.000000	29.495039
1715.000000	29.577698
1714.000000	29.665207
1713.000000	29.740696
1712.000000	29.811546
1711.000000	29.851189
1710.000000	29.902323
1709.000000	29.882502
1708.000000	29.877336
1707.000000	29.877230
1706.000000	29.850451
1705.000000	29.786032
1704.000000	29.720980
1703.000000	29.656983
1702.000000	29.535631
1701.000000	29.369048
1700.000000	29.210794
1699.000000	29.027975
1698.000000	28.902933
1697.000000	28.788223
1696.000000	28.716634
1695.000000	28.716424
1694.000000	28.798133
1693.000000	28.922860
1692.000000	29.085752
1691.000000	29.243373
1690.000000	29.409850
1689.000000	29.505477
1688.000000	29.571583
1687.000000	29.590877
1686.000000	29.624404
1685.000000	29.677753
1684.000000	29.851083
1683.000000	30.111290
1682.000000	30.513724
1681.000000	31.031606
1680.000000	31.648911
1679.000000	32.280027
1678.000000	32.889846
1677.000000	33.456332
1676.000000	33.983914
1675.000000	34.387403
1674.000000	34.771914
1673.000000	35.087788
1672.000000	35.381522
1671.000000	35.626968
1670.000000	35.856071
1669.000000	36.054284
1668.000000	36.225822
1667.000000	36.389979
1666.000000	36.513968
1665.000000	36.614339
1664.000000	36.718822
1663.000000	36.802957
1662.000000	36.865056
1661.000000	36.922200
1660.000000	36.995792
1659.000000	37.035856
1658.000000	37.056205
1657.000000	37.085304
1656.000000	37.105547
1655.000000	37.113876
1654.000000	37.109553
1653.000000	37.087518
1652.000000	37.074339
1651.000000	37.047770
1650.000000	37.024259
1649.000000	37.003067
1648.000000	36.940862
1647.000000	36.900481
1646.000000	36.843337
1645.000000	36.793046
1644.000000	36.749924
1643.000000	36.686349
1642.000000	36.627518
1641.000000	36.538849
1640.000000	36.495411
1639.000000	36.426459
1638.000000	36.364254
1637.000000	36.288870
1636.000000	36.222975
1635.000000	36.147802
1634.000000	36.048907
1633.000000	35.969516
1632.000000	35.884116
1631.000000	35.792918
1630.000000	35.704460
1629.000000	35.615159
1628.000000	35.533660
1627.000000	35.451212
1626.000000	35.362966
1625.000000	35.280940
1624.000000	35.172977
1623.000000	35.077983
1622.000000	34.990369
1621.000000	34.913614
1620.000000	34.819569
1619.000000	34.742287
1618.000000	34.669328
1617.000000	34.584772
1616.000000	34.512973
1615.000000	34.424726
1614.000000	34.352189
1613.000000	34.266472
1612.000000	34.189823
1611.000000	34.129411
1610.000000	34.046541
1609.000000	33.969049
1608.000000	33.912748
1607.000000	33.819335
1606.000000	33.732248
1605.000000	33.676264
