PE UV       SUBTECH     SPECTRUM    ASCII       PEDS        4.00        
   -1
CICIMAUCR0213-2.Sample.ASC
24/06/13
13:05:55.00
24/06/13
13:05:55.00
Vinicio Soto Monge
C. resplendens. Sex M. Ventral 
250,000000
1
Lambda 1050
1050L1511233
PerkinElmer UV WinLab 6.3.2.0749 / 2.02.05 Lambda 900 UV/VIS/NIR, Aug  7 2015 09:38:08

0
0
3350/servo 860,8/2
0
0
UV/VIS
1
1
1
DoubleDePol,CommonBeamDepol,RBeamAtt,SBeamAtt,60mm sphere, WB InGaAs Detector
0
0
0
0
Program
Program
3350/servo 860,8/2
3350/0,2 860,8/0,2
3350/0,2 860,8/0,2
0
15.00
 
 
 
0
 
860,8
319,2
860,8
Front
100
on
S:100 R:100
0
0
0
0
 
0
 
 
 
0
 
 
0
0
0
0
0
 
 
 
 
0
0


0
0
#HDR
-1
-1
#GR
nm
%R
1.0
0.0
2500,000000
-1,000000
2251
8
58,092600
3,968400
#DATA
2482.000000	4.977631
2481.000000	4.974244
2480.000000	4.904699
2479.000000	4.874742
2478.000000	4.884057
2477.000000	4.912214
2476.000000	4.948839
2475.000000	4.910838
2474.000000	4.931797
2473.000000	4.903640
2472.000000	4.872943
2471.000000	4.940900
2470.000000	4.924070
2469.000000	4.905546
2468.000000	4.885222
2467.000000	4.862993
2466.000000	4.922905
2465.000000	4.928833
2464.000000	4.887233
2463.000000	4.970010
2462.000000	4.916978
2461.000000	4.948945
2460.000000	4.917084
2459.000000	4.942277
2458.000000	4.972127
2457.000000	4.942382
2456.000000	4.963553
2455.000000	4.959848
2454.000000	4.976361
2453.000000	5.002719
2452.000000	5.018173
2451.000000	5.021455
2450.000000	5.026536
2449.000000	5.061467
2448.000000	5.085813
2447.000000	5.107196
2446.000000	5.101056
2445.000000	5.122756
2444.000000	5.125191
2443.000000	5.176318
2442.000000	5.175259
2441.000000	5.179811
2440.000000	5.201193
2439.000000	5.200664
2438.000000	5.210296
2437.000000	5.257824
2436.000000	5.259730
2435.000000	5.267139
2434.000000	5.297731
2433.000000	5.314773
2432.000000	5.322924
2431.000000	5.329169
2430.000000	5.328852
2429.000000	5.346847
2428.000000	5.389505
2427.000000	5.392681
2426.000000	5.399667
2425.000000	5.405489
2424.000000	5.418086
2423.000000	5.428248
2422.000000	5.437033
2421.000000	5.456510
2420.000000	5.468154
2419.000000	5.455452
2418.000000	5.472918
2417.000000	5.500757
2416.000000	5.511554
2415.000000	5.511448
2414.000000	5.518434
2413.000000	5.527750
2412.000000	5.539605
2411.000000	5.543204
2410.000000	5.552096
2409.000000	5.560458
2408.000000	5.555801
2407.000000	5.562258
2406.000000	5.574325
2405.000000	5.581099
2404.000000	5.593590
2403.000000	5.607669
2402.000000	5.611903
2401.000000	5.629368
2400.000000	5.631062
2399.000000	5.635825
2398.000000	5.632226
2397.000000	5.650539
2396.000000	5.665041
2395.000000	5.664617
2394.000000	5.675944
2393.000000	5.674991
2392.000000	5.672451
2391.000000	5.686741
2390.000000	5.690551
2389.000000	5.698702
2388.000000	5.703889
2387.000000	5.714263
2386.000000	5.728235
2385.000000	5.720825
2384.000000	5.714368
2383.000000	5.712992
2382.000000	5.716697
2381.000000	5.721778
2380.000000	5.711722
2379.000000	5.714157
2378.000000	5.708441
2377.000000	5.711510
2376.000000	5.712145
2375.000000	5.708017
2374.000000	5.706324
2373.000000	5.704312
2372.000000	5.704101
2371.000000	5.694997
2370.000000	5.684094
2369.000000	5.670439
2368.000000	5.656255
2367.000000	5.661018
2366.000000	5.658266
2365.000000	5.643341
2364.000000	5.622700
2363.000000	5.619842
2362.000000	5.614655
2361.000000	5.598142
2360.000000	5.588086
2359.000000	5.588192
2358.000000	5.576442
2357.000000	5.569456
2356.000000	5.560458
2355.000000	5.537700
2354.000000	5.534736
2353.000000	5.527220
2352.000000	5.523092
2351.000000	5.529126
2350.000000	5.534207
2349.000000	5.534101
2348.000000	5.538229
2347.000000	5.542675
2346.000000	5.539817
2345.000000	5.543733
2344.000000	5.563634
2343.000000	5.573478
2342.000000	5.580147
2341.000000	5.576548
2340.000000	5.590520
2339.000000	5.589038
2338.000000	5.589356
2337.000000	5.602376
2336.000000	5.605551
2335.000000	5.593802
2334.000000	5.601847
2333.000000	5.603964
2332.000000	5.596872
2331.000000	5.585757
2330.000000	5.594331
2329.000000	5.589250
2328.000000	5.567021
2327.000000	5.544051
2326.000000	5.536006
2325.000000	5.520022
2324.000000	5.512718
2323.000000	5.486361
2322.000000	5.473129
2321.000000	5.462332
2320.000000	5.439468
2319.000000	5.428565
2318.000000	5.411205
2317.000000	5.378497
2316.000000	5.346953
2315.000000	5.327476
2314.000000	5.307469
2313.000000	5.281853
2312.000000	5.276137
2311.000000	5.267245
2310.000000	5.237501
2309.000000	5.221834
2308.000000	5.204580
2307.000000	5.196324
2306.000000	5.183198
2305.000000	5.182775
2304.000000	5.181822
2303.000000	5.189232
2302.000000	5.199817
2301.000000	5.215271
2300.000000	5.207862
2299.000000	5.225645
2298.000000	5.237289
2297.000000	5.247451
2296.000000	5.280477
2295.000000	5.271585
2294.000000	5.305882
2293.000000	5.315938
2292.000000	5.342824
2291.000000	5.344306
2290.000000	5.360396
2289.000000	5.357326
2288.000000	5.372569
2287.000000	5.386118
2286.000000	5.367488
2285.000000	5.360184
2284.000000	5.362407
2283.000000	5.345894
2282.000000	5.341872
2281.000000	5.342507
2280.000000	5.336579
2279.000000	5.329593
2278.000000	5.326311
2277.000000	5.307364
2276.000000	5.303129
2275.000000	5.302600
2274.000000	5.288204
2273.000000	5.270209
2272.000000	5.278995
2271.000000	5.276031
2270.000000	5.274549
2269.000000	5.271797
2268.000000	5.269468
2267.000000	5.280794
2266.000000	5.306517
2265.000000	5.335097
2264.000000	5.353621
2263.000000	5.384425
2262.000000	5.446454
2261.000000	5.486255
2260.000000	5.522986
2259.000000	5.577818
2258.000000	5.617407
2257.000000	5.679331
2256.000000	5.752370
2255.000000	5.818951
2254.000000	5.876641
2253.000000	5.952961
2252.000000	6.041666
2251.000000	6.095863
2250.000000	6.142332
2249.000000	6.223733
2248.000000	6.278565
2247.000000	6.345887
2246.000000	6.394368
2245.000000	6.436815
2244.000000	6.501280
2243.000000	6.567226
2242.000000	6.592737
2241.000000	6.625128
2240.000000	6.659318
2239.000000	6.709069
2238.000000	6.743048
2237.000000	6.777979
2236.000000	6.794810
2235.000000	6.834081
2234.000000	6.862132
2233.000000	6.881080
2232.000000	6.888702
2231.000000	6.911354
2230.000000	6.922363
2229.000000	6.927232
2228.000000	6.955495
2227.000000	6.966080
2226.000000	6.967562
2225.000000	6.954119
2224.000000	6.926809
2223.000000	6.959835
2222.000000	6.936441
2221.000000	6.963645
2220.000000	6.947450
2219.000000	6.940252
2218.000000	6.907755
2217.000000	6.893571
2216.000000	6.903203
2215.000000	6.898122
2214.000000	6.870707
2213.000000	6.889337
2212.000000	6.845937
2211.000000	6.835669
2210.000000	6.826037
2209.000000	6.833552
2208.000000	6.825719
2207.000000	6.811958
2206.000000	6.816933
2205.000000	6.806454
2204.000000	6.795233
2203.000000	6.777344
2202.000000	6.784542
2201.000000	6.753739
2200.000000	6.751516
2199.000000	6.742624
2198.000000	6.753210
2197.000000	6.754162
2196.000000	6.762948
2195.000000	6.759137
2194.000000	6.749822
2193.000000	6.733944
2192.000000	6.735321
2191.000000	6.717961
2190.000000	6.719654
2189.000000	6.708328
2188.000000	6.722195
2187.000000	6.708328
2186.000000	6.691921
2185.000000	6.678054
2184.000000	6.666940
2183.000000	6.674455
2182.000000	6.682076
2181.000000	6.683241
2180.000000	6.671279
2179.000000	6.657201
2178.000000	6.662070
2177.000000	6.659636
2176.000000	6.646298
2175.000000	6.658048
2174.000000	6.673397
2173.000000	6.652226
2172.000000	6.658154
2171.000000	6.664822
2170.000000	6.665034
2169.000000	6.679959
2168.000000	6.682288
2167.000000	6.693297
2166.000000	6.686734
2165.000000	6.692344
2164.000000	6.699648
2163.000000	6.698590
2162.000000	6.694779
2161.000000	6.707375
2160.000000	6.710657
2159.000000	6.725159
2158.000000	6.753845
2157.000000	6.763054
2156.000000	6.769299
2155.000000	6.782743
2154.000000	6.792375
2153.000000	6.830694
2152.000000	6.839056
2151.000000	6.847419
2150.000000	6.865731
2149.000000	6.903627
2148.000000	6.913577
2147.000000	6.897487
2146.000000	6.928185
2145.000000	6.947132
2144.000000	6.945756
2143.000000	6.968091
2142.000000	6.971690
2141.000000	7.002282
2140.000000	7.001012
2139.000000	7.016360
2138.000000	7.023982
2137.000000	7.037848
2136.000000	7.053515
2135.000000	7.060395
2134.000000	7.050657
2133.000000	7.055949
2132.000000	7.072674
2131.000000	7.068546
2130.000000	7.072145
2129.000000	7.094586
2128.000000	7.082624
2127.000000	7.079343
2126.000000	7.092045
2125.000000	7.084953
2124.000000	7.085482
2123.000000	7.087282
2122.000000	7.093315
2121.000000	7.080931
2120.000000	7.066958
2119.000000	7.063359
2118.000000	7.058596
2117.000000	7.049810
2116.000000	7.032556
2115.000000	7.023347
2114.000000	7.014455
2113.000000	7.002070
2112.000000	6.987462
2111.000000	6.979841
2110.000000	6.971373
2109.000000	6.943004
2108.000000	6.946709
2107.000000	6.939617
2106.000000	6.944698
2105.000000	6.924586
2104.000000	6.902039
2103.000000	6.881504
2102.000000	6.862238
2101.000000	6.855993
2100.000000	6.853452
2099.000000	6.850700
2098.000000	6.843396
2097.000000	6.824555
2096.000000	6.812805
2095.000000	6.813440
2094.000000	6.804548
2093.000000	6.777979
2092.000000	6.761043
2091.000000	6.768770
2090.000000	6.767288
2089.000000	6.745059
2088.000000	6.734897
2087.000000	6.722936
2086.000000	6.704941
2085.000000	6.694461
2084.000000	6.684405
2083.000000	6.676890
2082.000000	6.665669
2081.000000	6.649262
2080.000000	6.641535
2079.000000	6.628727
2078.000000	6.607662
2077.000000	6.593583
2076.000000	6.576753
2075.000000	6.554629
2074.000000	6.537375
2073.000000	6.514935
2072.000000	6.502761
2071.000000	6.493552
2070.000000	6.461373
2069.000000	6.442637
2068.000000	6.439991
2067.000000	6.423054
2066.000000	6.397226
2065.000000	6.377432
2064.000000	6.366740
2063.000000	6.356790
2062.000000	6.339113
2061.000000	6.313073
2060.000000	6.292537
2059.000000	6.291479
2058.000000	6.274225
2057.000000	6.262369
2056.000000	6.265545
2055.000000	6.257394
2054.000000	6.251996
2053.000000	6.250196
2052.000000	6.256653
2051.000000	6.269991
2050.000000	6.275707
2049.000000	6.281846
2048.000000	6.306192
2047.000000	6.317836
2046.000000	6.341124
2045.000000	6.364517
2044.000000	6.378490
2043.000000	6.405059
2042.000000	6.425701
2041.000000	6.448565
2040.000000	6.475240
2039.000000	6.506361
2038.000000	6.517475
2037.000000	6.529648
2036.000000	6.551030
2035.000000	6.575059
2034.000000	6.590619
2033.000000	6.597500
2032.000000	6.602369
2031.000000	6.612531
2030.000000	6.648098
2029.000000	6.646086
2028.000000	6.657307
2027.000000	6.663976
2026.000000	6.660588
2025.000000	6.659212
2024.000000	6.662705
2023.000000	6.678054
2022.000000	6.689274
2021.000000	6.687898
2020.000000	6.683453
2019.000000	6.680912
2018.000000	6.673291
2017.000000	6.664928
2016.000000	6.670115
2015.000000	6.662705
2014.000000	6.654131
2013.000000	6.665669
2012.000000	6.647568
2011.000000	6.624175
2010.000000	6.618459
2009.000000	6.616765
2008.000000	6.610943
2007.000000	6.595171
2006.000000	6.593160
2005.000000	6.589879
2004.000000	6.563098
2003.000000	6.540022
2002.000000	6.534941
2001.000000	6.497469
2000.000000	6.493341
1999.000000	6.469312
1998.000000	6.450788
1997.000000	6.427394
1996.000000	6.404424
1995.000000	6.363988
1994.000000	6.353297
1993.000000	6.335937
1992.000000	6.311273
1991.000000	6.285128
1990.000000	6.268297
1989.000000	6.241410
1988.000000	6.225321
1987.000000	6.178534
1986.000000	6.179275
1985.000000	6.150800
1984.000000	6.109835
1983.000000	6.117668
1982.000000	6.066753
1981.000000	6.031927
1980.000000	5.992868
1979.000000	5.999113
1978.000000	5.972226
1977.000000	5.943223
1976.000000	5.921417
1975.000000	5.901622
1974.000000	5.888920
1973.000000	5.861081
1972.000000	5.842345
1971.000000	5.827949
1970.000000	5.797251
1969.000000	5.804026
1968.000000	5.766130
1967.000000	5.736068
1966.000000	5.706429
1965.000000	5.696797
1964.000000	5.678484
1963.000000	5.659960
1962.000000	5.632332
1961.000000	5.634026
1960.000000	5.597083
1959.000000	5.572631
1958.000000	5.548179
1957.000000	5.567233
1956.000000	5.552413
1955.000000	5.524680
1954.000000	5.506791
1953.000000	5.500757
1952.000000	5.475882
1951.000000	5.453547
1950.000000	5.458416
1949.000000	5.459474
1948.000000	5.408877
1947.000000	5.426977
1946.000000	5.424860
1945.000000	5.397550
1944.000000	5.418509
1943.000000	5.381143
1942.000000	5.357538
1941.000000	5.385906
1940.000000	5.371828
1939.000000	5.343142
1938.000000	5.378073
1937.000000	5.349705
1936.000000	5.362936
1935.000000	5.368758
1934.000000	5.369923
1933.000000	5.376274
1932.000000	5.365900
1931.000000	5.388870
1930.000000	5.378814
1929.000000	5.393104
1928.000000	5.425813
1927.000000	5.426660
1926.000000	5.465826
1925.000000	5.477893
1924.000000	5.490066
1923.000000	5.527432
1922.000000	5.533042
1921.000000	5.573478
1920.000000	5.618783
1919.000000	5.619207
1918.000000	5.657843
1917.000000	5.682295
1916.000000	5.714792
1915.000000	5.743584
1914.000000	5.816093
1913.000000	5.862563
1912.000000	5.927450
1911.000000	5.980059
1910.000000	6.000066
1909.000000	6.036585
1908.000000	6.100097
1907.000000	6.179698
1906.000000	6.243951
1905.000000	6.327469
1904.000000	6.406541
1903.000000	6.499692
1902.000000	6.571143
1901.000000	6.647886
1900.000000	6.751622
1899.000000	6.848477
1898.000000	6.969044
1897.000000	7.077861
1896.000000	7.204884
1895.000000	7.293589
1894.000000	7.422412
1893.000000	7.566267
1892.000000	7.708427
1891.000000	7.867524
1890.000000	8.058906
1889.000000	8.227213
1888.000000	8.428122
1887.000000	8.636864
1886.000000	8.847829
1885.000000	9.090338
1884.000000	9.361110
1883.000000	9.676023
1882.000000	9.962038
1881.000000	10.294945
1880.000000	10.614198
1879.000000	10.920113
1878.000000	11.259689
1877.000000	11.602336
1876.000000	11.943288
1875.000000	12.269633
1874.000000	12.599683
1873.000000	12.951115
1872.000000	13.274707
1871.000000	13.562945
1870.000000	13.884950
1869.000000	14.166519
1868.000000	14.460472
1867.000000	14.695678
1866.000000	14.895317
1865.000000	15.089133
1864.000000	15.268660
1863.000000	15.431462
1862.000000	15.609189
1861.000000	15.747963
1860.000000	15.880596
1859.000000	16.042657
1858.000000	16.152744
1857.000000	16.254152
1856.000000	16.351219
1855.000000	16.418012
1854.000000	16.472103
1853.000000	16.533286
1852.000000	16.561337
1851.000000	16.590764
1850.000000	16.627178
1849.000000	16.638504
1848.000000	16.636281
1847.000000	16.644008
1846.000000	16.641044
1845.000000	16.606430
1844.000000	16.602514
1843.000000	16.588118
1842.000000	16.594681
1841.000000	16.602514
1840.000000	16.607806
1839.000000	16.606219
1838.000000	16.573933
1837.000000	16.547153
1836.000000	16.517090
1835.000000	16.486181
1834.000000	16.457072
1833.000000	16.413566
1832.000000	16.358734
1831.000000	16.335764
1830.000000	16.302103
1829.000000	16.262196
1828.000000	16.214245
1827.000000	16.143853
1826.000000	16.072931
1825.000000	16.024662
1824.000000	15.978087
1823.000000	15.957657
1822.000000	15.923573
1821.000000	15.892981
1820.000000	15.853604
1819.000000	15.828411
1818.000000	15.787340
1817.000000	15.769133
1816.000000	15.770615
1815.000000	15.759606
1814.000000	15.751350
1813.000000	15.741082
1812.000000	15.717583
1811.000000	15.686674
1810.000000	15.672172
1809.000000	15.646238
1808.000000	15.609719
1807.000000	15.574999
1806.000000	15.537527
1805.000000	15.486506
1804.000000	15.435061
1803.000000	15.410186
1802.000000	15.372819
1801.000000	15.325186
1800.000000	15.267390
1799.000000	15.222932
1798.000000	15.184084
1797.000000	15.138779
1796.000000	15.102683
1795.000000	15.071244
1794.000000	15.033878
1793.000000	14.982857
1792.000000	14.935329
1791.000000	14.899339
1790.000000	14.854775
1789.000000	14.804918
1788.000000	14.757496
1787.000000	14.707428
1786.000000	14.644868
1785.000000	14.595858
1784.000000	14.555423
1783.000000	14.493710
1782.000000	14.432104
1781.000000	14.375261
1780.000000	14.341917
1779.000000	14.289943
1778.000000	14.224950
1777.000000	14.166201
1776.000000	14.092527
1775.000000	14.036425
1774.000000	13.969950
1773.000000	13.894159
1772.000000	13.808206
1771.000000	13.720137
1770.000000	13.654825
1769.000000	13.574906
1768.000000	13.495305
1767.000000	13.414116
1766.000000	13.357378
1765.000000	13.302229
1764.000000	13.249938
1763.000000	13.219346
1762.000000	13.218605
1761.000000	13.226756
1760.000000	13.244116
1759.000000	13.280529
1758.000000	13.334620
1757.000000	13.389875
1756.000000	13.443437
1755.000000	13.489060
1754.000000	13.539128
1753.000000	13.581257
1752.000000	13.597241
1751.000000	13.617247
1750.000000	13.632914
1749.000000	13.623069
1748.000000	13.590784
1747.000000	13.571307
1746.000000	13.536058
1745.000000	13.473711
1744.000000	13.402154
1743.000000	13.314084
1742.000000	13.202939
1741.000000	13.079197
1740.000000	12.955666
1739.000000	12.809166
1738.000000	12.679919
1737.000000	12.538817
1736.000000	12.424708
1735.000000	12.327323
1734.000000	12.242323
1733.000000	12.203792
1732.000000	12.202310
1731.000000	12.220835
1730.000000	12.248992
1729.000000	12.304353
1728.000000	12.378767
1727.000000	12.461544
1726.000000	12.528655
1725.000000	12.597566
1724.000000	12.655150
1723.000000	12.713475
1722.000000	12.776881
1721.000000	12.811071
1720.000000	12.832030
1719.000000	12.850131
1718.000000	12.891202
1717.000000	12.912055
1716.000000	12.972179
1715.000000	13.027329
1714.000000	13.066177
1713.000000	13.107989
1712.000000	13.177322
1711.000000	13.217864
1710.000000	13.247291
1709.000000	13.253642
1708.000000	13.255230
1707.000000	13.259147
1706.000000	13.245280
1705.000000	13.227708
1704.000000	13.174253
1703.000000	13.124184
1702.000000	13.065436
1701.000000	12.981389
1700.000000	12.885909
1699.000000	12.798898
1698.000000	12.668064
1697.000000	12.556812
1696.000000	12.488219
1695.000000	12.434340
1694.000000	12.402902
1693.000000	12.440797
1692.000000	12.478163
1691.000000	12.593331
1690.000000	12.695691
1689.000000	12.787889
1688.000000	12.877653
1687.000000	12.957042
1686.000000	13.040984
1685.000000	13.067553
1684.000000	13.082478
1683.000000	13.176899
1682.000000	13.314614
1681.000000	13.503032
1680.000000	13.768617
1679.000000	14.131164
1678.000000	14.531923
1677.000000	14.908972
1676.000000	15.283903
1675.000000	15.664656
1674.000000	15.987508
1673.000000	16.277757
1672.000000	16.542707
1671.000000	16.751872
1670.000000	16.937856
1669.000000	17.100870
1668.000000	17.238479
1667.000000	17.376723
1666.000000	17.513591
1665.000000	17.601978
1664.000000	17.693541
1663.000000	17.746255
1662.000000	17.823740
1661.000000	17.863435
1660.000000	17.897837
1659.000000	17.956374
1658.000000	17.984531
1657.000000	18.010041
1656.000000	18.005913
1655.000000	18.032164
1654.000000	18.036399
1653.000000	18.004854
1652.000000	18.002631
1651.000000	18.005172
1650.000000	17.959655
1649.000000	17.941343
1648.000000	17.886405
1647.000000	17.849250
1646.000000	17.803310
1645.000000	17.765309
1644.000000	17.721380
1643.000000	17.656704
1642.000000	17.608964
1641.000000	17.567152
1640.000000	17.518777
1639.000000	17.447538
1638.000000	17.405197
1637.000000	17.341579
1636.000000	17.268541
1635.000000	17.193491
1634.000000	17.146598
1633.000000	17.078005
1632.000000	17.034500
1631.000000	16.956275
1630.000000	16.892339
1629.000000	16.817713
1628.000000	16.743192
1627.000000	16.678199
1626.000000	16.619344
1625.000000	16.540696
1624.000000	16.475278
1623.000000	16.398006
1622.000000	16.310889
1621.000000	16.257645
1620.000000	16.194345
1619.000000	16.127446
1618.000000	16.039164
1617.000000	15.995235
1616.000000	15.933840
1615.000000	15.860696
1614.000000	15.803641
1613.000000	15.738224
1612.000000	15.664339
1611.000000	15.615540
1610.000000	15.543349
1609.000000	15.491057
1608.000000	15.420983
1607.000000	15.377054
1606.000000	15.328996
1605.000000	15.259239
1604.000000	15.199856
1603.000000	15.142060
1602.000000	15.064787
1601.000000	14.999582
1600.000000	14.951313
1599.000000	14.900503
1598.000000	14.831593
1597.000000	14.763741
1596.000000	14.729233
1595.000000	14.658312
1594.000000	14.600516
1593.000000	14.559022
1592.000000	14.511176
1591.000000	14.469893
1590.000000	14.415273
1589.000000	14.349962
1588.000000	14.302857
1587.000000	14.277982
1586.000000	14.225796
1585.000000	14.185678
1584.000000	14.151382
1583.000000	14.105230
1582.000000	14.072627
1581.000000	14.010386
1580.000000	13.989321
