PE UV       SUBTECH     SPECTRUM    ASCII       PEDS        4.00        
   -1
CICIMAUCR0247-1.ASC
24/06/27
12:42:33.00
24/06/27
12:42:33.00
Vinicio Soto Monge
C. resplendens. Sex M. Ventral
250,000000
1
Lambda 1050
1050L1511233
PerkinElmer UV WinLab 6.3.2.0749 / 2.02.05 Lambda 900 UV/VIS/NIR, Aug  7 2015 09:38:08

0
0
3350/servo 860,8/2
0
0
UV/VIS
1
1
1
DoubleDePol,CommonBeamDepol,RBeamAtt,SBeamAtt,60mm sphere, WB InGaAs Detector
0
0
0
0
Program
Program
3350/servo 860,8/2
3350/0,2 860,8/0,2
3350/0,2 860,8/0,2
0
15.00
 
 
 
0
 
860,8
319,2
860,8
Front
100
on
S:100 R:100
0
0
0
0
 
0
 
 
 
0
 
 
0
0
0
0
0
 
 
 
 
0
0


0
0
#HDR
-1
-1
#GR
nm
%R
1.0
0.0
2500,000000
-1,000000
2251
8
61,553100
3,472600
#DATA
2482.000000	6.526823
2481.000000	6.603074
2480.000000	6.435800
2479.000000	6.512571
2478.000000	6.520789
2477.000000	6.570306
2476.000000	6.576964
2475.000000	6.560215
2474.000000	6.569994
2473.000000	6.544507
2472.000000	6.512467
2471.000000	6.526511
2470.000000	6.513404
2469.000000	6.526719
2468.000000	6.537538
2467.000000	6.569786
2466.000000	6.600058
2465.000000	6.574987
2464.000000	6.603282
2463.000000	6.624192
2462.000000	6.659665
2461.000000	6.718127
2460.000000	6.679014
2459.000000	6.678910
2458.000000	6.701275
2457.000000	6.744342
2456.000000	6.744446
2455.000000	6.781792
2454.000000	6.768788
2453.000000	6.809463
2452.000000	6.868758
2451.000000	6.906103
2450.000000	6.947090
2449.000000	6.969559
2448.000000	7.023653
2447.000000	7.045811
2446.000000	7.079203
2445.000000	7.118941
2444.000000	7.146404
2443.000000	7.207051
2442.000000	7.272172
2441.000000	7.299323
2440.000000	7.324081
2439.000000	7.343222
2438.000000	7.416248
2437.000000	7.435909
2436.000000	7.471174
2435.000000	7.512369
2434.000000	7.567919
2433.000000	7.597670
2432.000000	7.645419
2431.000000	7.671425
2430.000000	7.712620
2429.000000	7.735713
2428.000000	7.773371
2427.000000	7.779405
2426.000000	7.824240
2425.000000	7.867723
2424.000000	7.884159
2423.000000	7.930763
2422.000000	7.969253
2421.000000	7.982984
2420.000000	8.000981
2419.000000	8.042071
2418.000000	8.075360
2417.000000	8.096165
2416.000000	8.129869
2415.000000	8.149010
2414.000000	8.177201
2413.000000	8.199983
2412.000000	8.228278
2411.000000	8.251684
2410.000000	8.269369
2409.000000	8.301409
2408.000000	8.329080
2407.000000	8.343228
2406.000000	8.355191
2405.000000	8.372355
2404.000000	8.403771
2403.000000	8.424056
2402.000000	8.437996
2401.000000	8.452663
2400.000000	8.481479
2399.000000	8.489489
2398.000000	8.486472
2397.000000	8.497291
2396.000000	8.497811
2395.000000	8.489281
2394.000000	8.495418
2393.000000	8.512895
2392.000000	8.523921
2391.000000	8.546495
2390.000000	8.558354
2389.000000	8.552008
2388.000000	8.556586
2387.000000	8.552321
2386.000000	8.561787
2385.000000	8.581032
2384.000000	8.575726
2383.000000	8.586753
2382.000000	8.599965
2381.000000	8.595595
2380.000000	8.582176
2379.000000	8.587481
2378.000000	8.576975
2377.000000	8.566988
2376.000000	8.565948
2375.000000	8.564492
2374.000000	8.563763
2373.000000	8.559914
2372.000000	8.535364
2371.000000	8.519136
2370.000000	8.515391
2369.000000	8.524962
2368.000000	8.518824
2367.000000	8.501452
2366.000000	8.495626
2365.000000	8.481999
2364.000000	8.465250
2363.000000	8.450063
2362.000000	8.446734
2361.000000	8.425824
2360.000000	8.405643
2359.000000	8.391808
2358.000000	8.370899
2357.000000	8.351862
2356.000000	8.338026
2355.000000	8.328768
2354.000000	8.312020
2353.000000	8.293295
2352.000000	8.281436
2351.000000	8.279251
2350.000000	8.286221
2349.000000	8.305882
2348.000000	8.311187
2347.000000	8.312852
2346.000000	8.312124
2345.000000	8.320342
2344.000000	8.325127
2343.000000	8.325023
2342.000000	8.330744
2341.000000	8.348221
2340.000000	8.353526
2339.000000	8.368298
2338.000000	8.387855
2337.000000	8.385774
2336.000000	8.378388
2335.000000	8.379117
2334.000000	8.397529
2333.000000	8.405435
2332.000000	8.410949
2331.000000	8.400130
2330.000000	8.379845
2329.000000	8.387647
2328.000000	8.369962
2327.000000	8.347805
2326.000000	8.330640
2325.000000	8.329912
2324.000000	8.310979
2323.000000	8.281124
2322.000000	8.255221
2321.000000	8.227550
2320.000000	8.205497
2319.000000	8.174705
2318.000000	8.133822
2317.000000	8.101782
2316.000000	8.057363
2315.000000	8.015232
2314.000000	7.985897
2313.000000	7.943974
2312.000000	7.887384
2311.000000	7.837243
2310.000000	7.806555
2309.000000	7.788663
2308.000000	7.751942
2307.000000	7.723126
2306.000000	7.693479
2305.000000	7.678811
2304.000000	7.652700
2303.000000	7.647603
2302.000000	7.663831
2301.000000	7.675066
2300.000000	7.690774
2299.000000	7.703673
2298.000000	7.735401
2297.000000	7.768170
2296.000000	7.791055
2295.000000	7.815606
2294.000000	7.857216
2293.000000	7.877501
2292.000000	7.908397
2291.000000	7.942622
2290.000000	7.973310
2289.000000	8.003061
2288.000000	8.003997
2287.000000	8.013152
2286.000000	8.036246
2285.000000	8.039575
2284.000000	8.035205
2283.000000	8.045088
2282.000000	8.031356
2281.000000	8.035830
2280.000000	8.025427
2279.000000	8.012736
2278.000000	7.985793
2277.000000	7.986417
2276.000000	7.984232
2275.000000	7.962907
2274.000000	7.935756
2273.000000	7.926394
2272.000000	7.922337
2271.000000	7.915887
2270.000000	7.895706
2269.000000	7.922545
2268.000000	7.941686
2267.000000	7.953233
2266.000000	7.976535
2265.000000	8.034165
2264.000000	8.081393
2263.000000	8.151923
2262.000000	8.215067
2261.000000	8.294543
2260.000000	8.401794
2259.000000	8.486680
2258.000000	8.593931
2257.000000	8.713145
2256.000000	8.844323
2255.000000	8.949285
2254.000000	9.069020
2253.000000	9.227348
2252.000000	9.324404
2251.000000	9.441538
2250.000000	9.583326
2249.000000	9.680174
2248.000000	9.805006
2247.000000	9.909241
2246.000000	10.028559
2245.000000	10.125303
2244.000000	10.229850
2243.000000	10.290081
2242.000000	10.388906
2241.000000	10.451114
2240.000000	10.529654
2239.000000	10.581979
2238.000000	10.628583
2237.000000	10.673834
2236.000000	10.724599
2235.000000	10.758824
2234.000000	10.776508
2233.000000	10.805636
2232.000000	10.829874
2231.000000	10.854008
2230.000000	10.859938
2229.000000	10.871797
2228.000000	10.857545
2227.000000	10.873565
2226.000000	10.856193
2225.000000	10.831018
2224.000000	10.843710
2223.000000	10.798354
2222.000000	10.777861
2221.000000	10.759032
2220.000000	10.723559
2219.000000	10.695056
2218.000000	10.673418
2217.000000	10.656670
2216.000000	10.600704
2215.000000	10.565751
2214.000000	10.526533
2213.000000	10.486691
2212.000000	10.477849
2211.000000	10.439359
2210.000000	10.398997
2209.000000	10.377255
2208.000000	10.355826
2207.000000	10.317128
2206.000000	10.324098
2205.000000	10.285920
2204.000000	10.274269
2203.000000	10.255440
2202.000000	10.245454
2201.000000	10.234427
2200.000000	10.195417
2199.000000	10.176900
2198.000000	10.176380
2197.000000	10.145693
2196.000000	10.161088
2195.000000	10.133521
2194.000000	10.111988
2193.000000	10.102626
2192.000000	10.106163
2191.000000	10.097736
2190.000000	10.077035
2189.000000	10.071106
2188.000000	10.052797
2187.000000	10.035945
2186.000000	10.020653
2185.000000	9.997871
2184.000000	10.007858
2183.000000	9.972073
2182.000000	9.967495
2181.000000	9.972593
2180.000000	9.969680
2179.000000	9.945546
2178.000000	9.939304
2177.000000	9.919123
2176.000000	9.908408
2175.000000	9.896861
2174.000000	9.919851
2173.000000	9.906744
2172.000000	9.901959
2171.000000	9.895301
2170.000000	9.903727
2169.000000	9.903311
2168.000000	9.914962
2167.000000	9.912673
2166.000000	9.936391
2165.000000	9.966247
2164.000000	9.958029
2163.000000	9.973425
2162.000000	9.996519
2161.000000	10.000264
2160.000000	10.027206
2159.000000	10.044475
2158.000000	10.080260
2157.000000	10.125823
2156.000000	10.140595
2155.000000	10.161088
2154.000000	10.194273
2153.000000	10.238796
2152.000000	10.272501
2151.000000	10.311199
2150.000000	10.353641
2149.000000	10.392651
2148.000000	10.427604
2147.000000	10.455587
2146.000000	10.496053
2145.000000	10.545050
2144.000000	10.597791
2143.000000	10.624526
2142.000000	10.655214
2141.000000	10.690791
2140.000000	10.727304
2139.000000	10.751958
2138.000000	10.775468
2137.000000	10.815934
2136.000000	10.839652
2135.000000	10.868572
2134.000000	10.924642
2133.000000	10.939102
2132.000000	10.954914
2131.000000	10.985602
2130.000000	11.000997
2129.000000	11.028044
2128.000000	11.035014
2127.000000	11.045105
2126.000000	11.058628
2125.000000	11.054363
2124.000000	11.061229
2123.000000	11.061125
2122.000000	11.065702
2121.000000	11.080786
2120.000000	11.090252
2119.000000	11.095869
2118.000000	11.092125
2117.000000	11.078809
2116.000000	11.061749
2115.000000	11.058940
2114.000000	11.043232
2113.000000	11.038031
2112.000000	11.034910
2111.000000	11.014105
2110.000000	10.997565
2109.000000	10.987890
2108.000000	10.971662
2107.000000	10.961779
2106.000000	10.956682
2105.000000	10.944303
2104.000000	10.919649
2103.000000	10.895723
2102.000000	10.866699
2101.000000	10.840589
2100.000000	10.845894
2099.000000	10.822904
2098.000000	10.807404
2097.000000	10.797522
2096.000000	10.772660
2095.000000	10.764025
2094.000000	10.749774
2093.000000	10.735106
2092.000000	10.721583
2091.000000	10.693808
2090.000000	10.676227
2089.000000	10.689750
2088.000000	10.679660
2087.000000	10.649076
2086.000000	10.621821
2085.000000	10.610482
2084.000000	10.604241
2083.000000	10.584060
2082.000000	10.563150
2081.000000	10.522996
2080.000000	10.489292
2079.000000	10.467238
2078.000000	10.427084
2077.000000	10.384121
2076.000000	10.349480
2075.000000	10.310470
2074.000000	10.268548
2073.000000	10.227561
2072.000000	10.178253
2071.000000	10.120310
2070.000000	10.071314
2069.000000	10.022421
2068.000000	9.958029
2067.000000	9.899982
2066.000000	9.852130
2065.000000	9.809583
2064.000000	9.769013
2063.000000	9.728755
2062.000000	9.682463
2061.000000	9.623792
2060.000000	9.561792
2059.000000	9.524239
2058.000000	9.497088
2057.000000	9.461927
2056.000000	9.436441
2055.000000	9.424166
2054.000000	9.420733
2053.000000	9.405649
2052.000000	9.411682
2051.000000	9.444035
2050.000000	9.445699
2049.000000	9.444971
2048.000000	9.478883
2047.000000	9.527152
2046.000000	9.555031
2045.000000	9.602779
2044.000000	9.662802
2043.000000	9.695154
2042.000000	9.743319
2041.000000	9.796476
2040.000000	9.860348
2039.000000	9.917043
2038.000000	9.931294
2037.000000	9.962398
2036.000000	10.015764
2035.000000	10.038441
2034.000000	10.078283
2033.000000	10.108867
2032.000000	10.133105
2031.000000	10.159528
2030.000000	10.187095
2029.000000	10.221216
2028.000000	10.238900
2027.000000	10.247846
2026.000000	10.261786
2025.000000	10.277494
2024.000000	10.278742
2023.000000	10.285088
2022.000000	10.283007
2021.000000	10.282799
2020.000000	10.306309
2019.000000	10.296323
2018.000000	10.289457
2017.000000	10.279679
2016.000000	10.265531
2015.000000	10.272605
2014.000000	10.259081
2013.000000	10.266051
2012.000000	10.239108
2011.000000	10.200098
2010.000000	10.192816
2009.000000	10.182726
2008.000000	10.148293
2007.000000	10.135290
2006.000000	10.107723
2005.000000	10.064864
2004.000000	10.028455
2003.000000	10.006297
2002.000000	9.967183
2001.000000	9.921204
2000.000000	9.900814
1999.000000	9.850674
1998.000000	9.806983
1997.000000	9.773070
1996.000000	9.705973
1995.000000	9.672164
1994.000000	9.620359
1993.000000	9.589255
1992.000000	9.545044
1991.000000	9.485957
1990.000000	9.433632
1989.000000	9.381307
1988.000000	9.343337
1987.000000	9.271559
1986.000000	9.224227
1985.000000	9.167949
1984.000000	9.100019
1983.000000	9.072869
1982.000000	9.013365
1981.000000	8.971027
1980.000000	8.913084
1979.000000	8.858366
1978.000000	8.805001
1977.000000	8.771400
1976.000000	8.717618
1975.000000	8.665709
1974.000000	8.601317
1973.000000	8.555233
1972.000000	8.503636
1971.000000	8.454536
1970.000000	8.400650
1969.000000	8.359976
1968.000000	8.332721
1967.000000	8.276235
1966.000000	8.250228
1965.000000	8.194054
1964.000000	8.128517
1963.000000	8.129349
1962.000000	8.061316
1961.000000	8.014088
1960.000000	7.994011
1959.000000	7.943038
1958.000000	7.902884
1957.000000	7.858881
1956.000000	7.826424
1955.000000	7.768586
1954.000000	7.752254
1953.000000	7.733425
1952.000000	7.675066
1951.000000	7.654157
1950.000000	7.608177
1949.000000	7.579362
1948.000000	7.573224
1947.000000	7.526724
1946.000000	7.507896
1945.000000	7.482409
1944.000000	7.448809
1943.000000	7.413128
1942.000000	7.397420
1941.000000	7.406782
1940.000000	7.375886
1939.000000	7.379631
1938.000000	7.354353
1937.000000	7.345615
1936.000000	7.349255
1935.000000	7.356121
1934.000000	7.367044
1933.000000	7.369957
1932.000000	7.391282
1931.000000	7.396067
1930.000000	7.434765
1929.000000	7.454530
1928.000000	7.481057
1927.000000	7.513825
1926.000000	7.538583
1925.000000	7.561469
1924.000000	7.623365
1923.000000	7.657590
1922.000000	7.732385
1921.000000	7.807284
1920.000000	7.881662
1919.000000	7.947823
1918.000000	7.990682
1917.000000	8.095957
1916.000000	8.160661
1915.000000	8.279043
1914.000000	8.356855
1913.000000	8.454640
1912.000000	8.601421
1911.000000	8.708672
1910.000000	8.825078
1909.000000	8.945540
1908.000000	9.058721
1907.000000	9.178351
1906.000000	9.353324
1905.000000	9.523719
1904.000000	9.718144
1903.000000	9.901855
1902.000000	10.093887
1901.000000	10.289873
1900.000000	10.488876
1899.000000	10.746965
1898.000000	11.022115
1897.000000	11.312660
1896.000000	11.568357
1895.000000	11.823846
1894.000000	12.095251
1893.000000	12.383404
1892.000000	12.717641
1891.000000	13.109612
1890.000000	13.504600
1889.000000	13.893243
1888.000000	14.260976
1887.000000	14.659501
1886.000000	15.045855
1885.000000	15.504611
1884.000000	15.937049
1883.000000	16.417443
1882.000000	16.877343
1881.000000	17.325177
1880.000000	17.773115
1879.000000	18.183395
1878.000000	18.582856
1877.000000	19.015085
1876.000000	19.451788
1875.000000	19.853122
1874.000000	20.275053
1873.000000	20.679820
1872.000000	21.086563
1871.000000	21.461786
1870.000000	21.812459
1869.000000	22.165004
1868.000000	22.519318
1867.000000	22.789370
1866.000000	23.021765
1865.000000	23.238452
1864.000000	23.438287
1863.000000	23.620333
1862.000000	23.781262
1861.000000	23.973607
1860.000000	24.180827
1859.000000	24.357880
1858.000000	24.552826
1857.000000	24.693365
1856.000000	24.817573
1855.000000	24.911925
1854.000000	25.024377
1853.000000	25.136622
1852.000000	25.199246
1851.000000	25.266447
1850.000000	25.311386
1849.000000	25.352372
1848.000000	25.417181
1847.000000	25.486670
1846.000000	25.537851
1845.000000	25.540036
1844.000000	25.509140
1843.000000	25.478244
1842.000000	25.487399
1841.000000	25.529321
1840.000000	25.553247
1839.000000	25.561673
1838.000000	25.552103
1837.000000	25.535355
1836.000000	25.530778
1835.000000	25.510596
1834.000000	25.470650
1833.000000	25.417285
1832.000000	25.352164
1831.000000	25.317732
1830.000000	25.302336
1829.000000	25.292557
1828.000000	25.261037
1827.000000	25.201846
1826.000000	25.155971
1825.000000	25.129340
1824.000000	25.082840
1823.000000	25.036652
1822.000000	25.019488
1821.000000	25.031763
1820.000000	25.034988
1819.000000	25.020424
1818.000000	24.974965
1817.000000	24.930025
1816.000000	24.903915
1815.000000	24.901314
1814.000000	24.885918
1813.000000	24.851901
1812.000000	24.831408
1811.000000	24.804361
1810.000000	24.788861
1809.000000	24.757758
1808.000000	24.700751
1807.000000	24.670271
1806.000000	24.642496
1805.000000	24.606711
1804.000000	24.561252
1803.000000	24.515584
1802.000000	24.478031
1801.000000	24.447343
1800.000000	24.409373
1799.000000	24.357256
1798.000000	24.317206
1797.000000	24.284958
1796.000000	24.237418
1795.000000	24.197263
1794.000000	24.167928
1793.000000	24.133599
1792.000000	24.092197
1791.000000	24.061093
1790.000000	24.031029
1789.000000	24.001070
1788.000000	23.972462
1787.000000	23.946040
1786.000000	23.917953
1785.000000	23.883208
1784.000000	23.853664
1783.000000	23.825161
1782.000000	23.780638
1781.000000	23.740380
1780.000000	23.712188
1779.000000	23.677756
1778.000000	23.644467
1777.000000	23.601296
1776.000000	23.542417
1775.000000	23.495293
1774.000000	23.448794
1773.000000	23.398237
1772.000000	23.347472
1771.000000	23.289113
1770.000000	23.242509
1769.000000	23.173436
1768.000000	23.111956
1767.000000	23.061295
1766.000000	23.009906
1765.000000	22.970792
1764.000000	22.913578
1763.000000	22.871343
1762.000000	22.872488
1761.000000	22.863021
1760.000000	22.875192
1759.000000	22.884347
1758.000000	22.917531
1757.000000	22.969128
1756.000000	23.009906
1755.000000	23.036433
1754.000000	23.084597
1753.000000	23.136819
1752.000000	23.154399
1751.000000	23.160224
1750.000000	23.170627
1749.000000	23.165114
1748.000000	23.166362
1747.000000	23.154295
1746.000000	23.115701
1745.000000	23.058487
1744.000000	23.021349
1743.000000	22.949259
1742.000000	22.873008
1741.000000	22.789370
1740.000000	22.696475
1739.000000	22.587663
1738.000000	22.463560
1737.000000	22.378154
1736.000000	22.274544
1735.000000	22.174991
1734.000000	22.105501
1733.000000	22.057649
1732.000000	22.001059
1731.000000	21.975052
1730.000000	21.972659
1729.000000	21.990760
1728.000000	22.015206
1727.000000	22.041213
1726.000000	22.055568
1725.000000	22.107061
1724.000000	22.153353
1723.000000	22.186746
1722.000000	22.235014
1721.000000	22.292645
1720.000000	22.374409
1719.000000	22.473858
1718.000000	22.584959
1717.000000	22.686592
1716.000000	22.794884
1715.000000	22.914514
1714.000000	23.049540
1713.000000	23.168026
1712.000000	23.272157
1711.000000	23.373895
1710.000000	23.457844
1709.000000	23.527750
1708.000000	23.584652
1707.000000	23.625743
1706.000000	23.645195
1705.000000	23.651021
1704.000000	23.638330
1703.000000	23.626991
1702.000000	23.571857
1701.000000	23.530662
1700.000000	23.473448
1699.000000	23.410720
1698.000000	23.344975
1697.000000	23.240013
1696.000000	23.169067
1695.000000	23.123191
1694.000000	23.059111
1693.000000	23.042779
1692.000000	23.027383
1691.000000	23.037889
1690.000000	23.082101
1689.000000	23.147013
1688.000000	23.205684
1687.000000	23.268204
1686.000000	23.365052
1685.000000	23.452331
1684.000000	23.589541
1683.000000	23.724984
1682.000000	23.862715
1681.000000	24.063381
1680.000000	24.313045
1679.000000	24.570926
1678.000000	24.863032
1677.000000	25.175319
1676.000000	25.463681
1675.000000	25.768894
1674.000000	26.059440
1673.000000	26.300469
1672.000000	26.558558
1671.000000	26.727809
1670.000000	26.935030
1669.000000	27.115515
1668.000000	27.276132
1667.000000	27.448400
1666.000000	27.557732
1665.000000	27.666855
1664.000000	27.798241
1663.000000	27.889992
1662.000000	27.988193
1661.000000	28.056850
1660.000000	28.146937
1659.000000	28.201863
1658.000000	28.235359
1657.000000	28.296215
1656.000000	28.345627
1655.000000	28.347188
1654.000000	28.379956
1653.000000	28.394104
1652.000000	28.394000
1651.000000	28.369969
1650.000000	28.364352
1649.000000	28.353741
1648.000000	28.338762
1647.000000	28.307346
1646.000000	28.282379
1645.000000	28.232967
1644.000000	28.189276
1643.000000	28.155571
1642.000000	28.114169
1641.000000	28.062155
1640.000000	28.030219
1639.000000	27.984448
1638.000000	27.951471
1637.000000	27.900498
1636.000000	27.857119
1635.000000	27.809267
1634.000000	27.754029
1633.000000	27.666647
1632.000000	27.627949
1631.000000	27.573648
1630.000000	27.507279
1629.000000	27.450792
1628.000000	27.359457
1627.000000	27.319407
1626.000000	27.231505
1625.000000	27.162847
1624.000000	27.093254
1623.000000	27.023036
1622.000000	26.939503
1621.000000	26.875735
1620.000000	26.808638
1619.000000	26.729682
1618.000000	26.661336
1617.000000	26.602665
1616.000000	26.536817
1615.000000	26.469928
1614.000000	26.413857
1613.000000	26.341455
1612.000000	26.252513
1611.000000	26.184375
1610.000000	26.129657
1609.000000	26.052366
1608.000000	25.971017
1607.000000	25.894766
1606.000000	25.831622
1605.000000	25.754018
1604.000000	25.661851
1603.000000	25.581959
1602.000000	25.494368
1601.000000	25.405634
1600.000000	25.334584
1599.000000	25.254796
1598.000000	25.159820
1597.000000	25.081384
1596.000000	25.000763
1595.000000	24.930337
1594.000000	24.855958
1593.000000	24.783972
1592.000000	24.701271
1591.000000	24.623772
1590.000000	24.559795
1589.000000	24.491138
