PE UV       SUBTECH     SPECTRUM    ASCII       PEDS        4.00        
   -1
CICIMAUCR0015-3.Sample.ASC
24/04/12
11:43:14.00
24/04/12
11:43:14.00
Vinicio Soto Monge
C. resplendens
250,000000
1
Lambda 1050
1050L1511233
PerkinElmer UV WinLab 6.3.2.0749 / 2.02.05 Lambda 900 UV/VIS/NIR, Aug  7 2015 09:38:08

0
0
3350/servo 860,8/2
0
0
UV/VIS
1
1
1
DoubleDePol,CommonBeamDepol,RBeamAtt,SBeamAtt,60mm sphere, WB InGaAs Detector
0
0
0
0
Program
Program
3350/servo 860,8/2
3350/0,2 860,8/0,2
3350/0,2 860,8/0,2
0
15.00
 
 
 
0
 
860,8
319,2
860,8
Front
100
on
S:100 R:100
0
0
0
0
 
0
 
 
 
0
 
 
0
0
0
0
0
 
 
 
 
0
0


0
0
#HDR
-1
-1
#GR
nm
%R
1.0
0.0
2500,000000
-1,000000
2251
8
93,394800
5,535300
#DATA
2482.000000	8.105323
2481.000000	8.114807
2480.000000	8.113815
2479.000000	8.077533
2478.000000	8.072019
2477.000000	8.107639
2476.000000	8.090436
2475.000000	8.089333
2474.000000	8.054926
2473.000000	8.075438
2472.000000	8.086355
2471.000000	8.055808
2470.000000	8.089774
2469.000000	8.102015
2468.000000	8.113263
2467.000000	8.098817
2466.000000	8.134657
2465.000000	8.140502
2464.000000	8.122968
2463.000000	8.193546
2462.000000	8.222108
2461.000000	8.263021
2460.000000	8.290700
2459.000000	8.341098
2458.000000	8.383775
2457.000000	8.432077
2456.000000	8.492399
2455.000000	8.516440
2454.000000	8.595178
2453.000000	8.670167
2452.000000	8.738429
2451.000000	8.829519
2450.000000	8.895244
2449.000000	8.968249
2448.000000	9.049193
2447.000000	9.131019
2446.000000	9.181416
2445.000000	9.251001
2444.000000	9.330622
2443.000000	9.392709
2442.000000	9.480049
2441.000000	9.555920
2440.000000	9.635982
2439.000000	9.698620
2438.000000	9.778682
2437.000000	9.843304
2436.000000	9.898444
2435.000000	9.965603
2434.000000	10.018316
2433.000000	10.096723
2432.000000	10.147010
2431.000000	10.212846
2430.000000	10.241739
2429.000000	10.293680
2428.000000	10.340327
2427.000000	10.414434
2426.000000	10.473654
2425.000000	10.548202
2424.000000	10.623632
2423.000000	10.659913
2422.000000	10.672705
2421.000000	10.702150
2420.000000	10.746922
2419.000000	10.794563
2418.000000	10.818162
2417.000000	10.856759
2416.000000	10.891166
2415.000000	10.928771
2414.000000	10.974867
2413.000000	11.006958
2412.000000	11.025595
2411.000000	11.063531
2410.000000	11.086910
2409.000000	11.124404
2408.000000	11.144475
2407.000000	11.182962
2406.000000	11.224867
2405.000000	11.265229
2404.000000	11.298423
2403.000000	11.327426
2402.000000	11.351687
2401.000000	11.390946
2400.000000	11.423478
2399.000000	11.460201
2398.000000	11.486667
2397.000000	11.501775
2396.000000	11.540262
2395.000000	11.590218
2394.000000	11.619111
2393.000000	11.645688
2392.000000	11.663774
2391.000000	11.680095
2390.000000	11.706121
2389.000000	11.747806
2388.000000	11.754863
2387.000000	11.770964
2386.000000	11.776147
2385.000000	11.787285
2384.000000	11.809451
2383.000000	11.802614
2382.000000	11.773611
2381.000000	11.770854
2380.000000	11.762142
2379.000000	11.728507
2378.000000	11.727515
2377.000000	11.727184
2376.000000	11.696637
2375.000000	11.675243
2374.000000	11.645468
2373.000000	11.603893
2372.000000	11.579191
2371.000000	11.548864
2370.000000	11.509826
2369.000000	11.468692
2368.000000	11.416200
2367.000000	11.353121
2366.000000	11.291475
2365.000000	11.236336
2364.000000	11.183182
2363.000000	11.121757
2362.000000	11.058237
2361.000000	10.979278
2360.000000	10.895246
2359.000000	10.843526
2358.000000	10.785079
2357.000000	10.731153
2356.000000	10.673808
2355.000000	10.646349
2354.000000	10.633557
2353.000000	10.608303
2352.000000	10.603892
2351.000000	10.626168
2350.000000	10.652304
2349.000000	10.675903
2348.000000	10.690460
2347.000000	10.751554
2346.000000	10.811766
2345.000000	10.841982
2344.000000	10.892710
2343.000000	10.944430
2342.000000	10.978065
2341.000000	11.021515
2340.000000	11.061325
2339.000000	11.068383
2338.000000	11.082388
2337.000000	11.074779
2336.000000	11.064744
2335.000000	11.053275
2334.000000	11.040924
2333.000000	11.016883
2332.000000	10.967699
2331.000000	10.937262
2330.000000	10.871757
2329.000000	10.827977
2328.000000	10.777469
2327.000000	10.713288
2326.000000	10.627712
2325.000000	10.553936
2324.000000	10.472220
2323.000000	10.399878
2322.000000	10.312648
2321.000000	10.210199
2320.000000	10.094959
2319.000000	9.972661
2318.000000	9.863926
2317.000000	9.774050
2316.000000	9.645245
2315.000000	9.505854
2314.000000	9.404839
2313.000000	9.292797
2312.000000	9.197075
2311.000000	9.110066
2310.000000	9.032541
2309.000000	8.981813
2308.000000	8.930423
2307.000000	8.917521
2306.000000	8.910132
2305.000000	8.932849
2304.000000	8.962183
2303.000000	9.019087
2302.000000	9.096281
2301.000000	9.162779
2300.000000	9.269969
2299.000000	9.367675
2298.000000	9.460530
2297.000000	9.559339
2296.000000	9.645355
2295.000000	9.725748
2294.000000	9.803274
2293.000000	9.882233
2292.000000	9.925351
2291.000000	9.963287
2290.000000	9.989974
2289.000000	10.025594
2288.000000	10.015338
2287.000000	10.011920
2286.000000	9.976961
2285.000000	9.950605
2284.000000	9.935717
2283.000000	9.891386
2282.000000	9.847716
2281.000000	9.830181
2280.000000	9.738320
2279.000000	9.700494
2278.000000	9.662559
2277.000000	9.624844
2276.000000	9.562206
2275.000000	9.551840
2274.000000	9.532210
2273.000000	9.533203
2272.000000	9.535960
2271.000000	9.531769
2270.000000	9.573564
2269.000000	9.623631
2268.000000	9.693657
2267.000000	9.780556
2266.000000	9.880358
2265.000000	10.023499
2264.000000	10.185277
2263.000000	10.359957
2262.000000	10.555259
2261.000000	10.787395
2260.000000	11.029455
2259.000000	11.278683
2258.000000	11.534859
2257.000000	11.823677
2256.000000	12.064193
2255.000000	12.358305
2254.000000	12.630581
2253.000000	12.898667
2252.000000	13.142712
2251.000000	13.390617
2250.000000	13.628487
2249.000000	13.841544
2248.000000	14.059343
2247.000000	14.235677
2246.000000	14.422488
2245.000000	14.590773
2244.000000	14.777694
2243.000000	14.902639
2242.000000	15.057138
2241.000000	15.214174
2240.000000	15.319931
2239.000000	15.426239
2238.000000	15.519424
2237.000000	15.613822
2236.000000	15.708440
2235.000000	15.779239
2234.000000	15.854228
2233.000000	15.932305
2232.000000	15.955022
2231.000000	16.007404
2230.000000	16.045119
2229.000000	16.076438
2228.000000	16.114484
2227.000000	16.111947
2226.000000	16.121762
2225.000000	16.122865
2224.000000	16.092980
2223.000000	16.097170
2222.000000	16.090664
2221.000000	16.079085
2220.000000	16.055044
2219.000000	16.013138
2218.000000	15.999795
2217.000000	15.958551
2216.000000	15.926680
2215.000000	15.899773
2214.000000	15.862829
2213.000000	15.846619
2212.000000	15.792362
2211.000000	15.755529
2210.000000	15.755860
2209.000000	15.705904
2208.000000	15.705904
2207.000000	15.697082
2206.000000	15.684069
2205.000000	15.662785
2204.000000	15.635436
2203.000000	15.637642
2202.000000	15.609631
2201.000000	15.589561
2200.000000	15.575114
2199.000000	15.570593
2198.000000	15.543795
2197.000000	15.539384
2196.000000	15.552948
2195.000000	15.535304
2194.000000	15.531003
2193.000000	15.502000
2192.000000	15.515013
2191.000000	15.493288
2190.000000	15.478621
2189.000000	15.482811
2188.000000	15.471563
2187.000000	15.472997
2186.000000	15.460535
2185.000000	15.448405
2184.000000	15.409256
2183.000000	15.398780
2182.000000	15.405176
2181.000000	15.373416
2180.000000	15.369997
2179.000000	15.352904
2178.000000	15.336693
2177.000000	15.332723
2176.000000	15.313755
2175.000000	15.305043
2174.000000	15.310557
2173.000000	15.307359
2172.000000	15.331179
2171.000000	15.348052
2170.000000	15.368122
2169.000000	15.383671
2168.000000	15.398780
2167.000000	15.412013
2166.000000	15.438590
2165.000000	15.462851
2164.000000	15.483583
2163.000000	15.520527
2162.000000	15.549199
2161.000000	15.585260
2160.000000	15.629261
2159.000000	15.674695
2158.000000	15.702485
2157.000000	15.733584
2156.000000	15.796883
2155.000000	15.860734
2154.000000	15.893376
2153.000000	15.937157
2152.000000	15.996597
2151.000000	16.047325
2150.000000	16.101692
2149.000000	16.152530
2148.000000	16.213513
2147.000000	16.256522
2146.000000	16.302177
2145.000000	16.355110
2144.000000	16.404184
2143.000000	16.451493
2142.000000	16.489760
2141.000000	16.531555
2140.000000	16.589120
2139.000000	16.620108
2138.000000	16.663117
2137.000000	16.696862
2136.000000	16.730166
2135.000000	16.773395
2134.000000	16.801516
2133.000000	16.833938
2132.000000	16.849156
2131.000000	16.870991
2130.000000	16.884886
2129.000000	16.898230
2128.000000	16.920506
2127.000000	16.918631
2126.000000	16.919072
2125.000000	16.925909
2124.000000	16.924586
2123.000000	16.918741
2122.000000	16.911132
2121.000000	16.887974
2120.000000	16.856765
2119.000000	16.840223
2118.000000	16.825887
2117.000000	16.805155
2116.000000	16.781776
2115.000000	16.767991
2114.000000	16.749134
2113.000000	16.723880
2112.000000	16.693113
2111.000000	16.679548
2110.000000	16.652089
2109.000000	16.616138
2108.000000	16.590003
2107.000000	16.561110
2106.000000	16.538944
2105.000000	16.510492
2104.000000	16.469910
2103.000000	16.445097
2102.000000	16.426129
2101.000000	16.384665
2100.000000	16.346840
2099.000000	16.328533
2098.000000	16.309014
2097.000000	16.297325
2096.000000	16.295119
2095.000000	16.265344
2094.000000	16.226306
2093.000000	16.210426
2092.000000	16.206345
2091.000000	16.193333
2090.000000	16.168300
2089.000000	16.154735
2088.000000	16.156831
2087.000000	16.152089
2086.000000	16.149993
2085.000000	16.130033
2084.000000	16.100809
2083.000000	16.089892
2082.000000	16.074894
2081.000000	16.055485
2080.000000	16.031334
2079.000000	15.996376
2078.000000	15.972666
2077.000000	15.955242
2076.000000	15.927783
2075.000000	15.879371
2074.000000	15.840002
2073.000000	15.812543
2072.000000	15.780121
2071.000000	15.750236
2070.000000	15.721894
2069.000000	15.679658
2068.000000	15.637201
2067.000000	15.610293
2066.000000	15.571034
2065.000000	15.529569
2064.000000	15.495824
2063.000000	15.465167
2062.000000	15.432966
2061.000000	15.418409
2060.000000	15.423261
2059.000000	15.409918
2058.000000	15.409477
2057.000000	15.424695
2056.000000	15.452154
2055.000000	15.489538
2054.000000	15.535083
2053.000000	15.594854
2052.000000	15.665983
2051.000000	15.755308
2050.000000	15.854007
2049.000000	15.961969
2048.000000	16.095516
2047.000000	16.238767
2046.000000	16.402089
2045.000000	16.543134
2044.000000	16.676350
2043.000000	16.842098
2042.000000	17.015455
2041.000000	17.183078
2040.000000	17.352244
2039.000000	17.495716
2038.000000	17.648230
2037.000000	17.817507
2036.000000	17.954142
2035.000000	18.085042
2034.000000	18.226087
2033.000000	18.354561
2032.000000	18.473330
2031.000000	18.594416
2030.000000	18.722228
2029.000000	18.820044
2028.000000	18.907495
2027.000000	19.008068
2026.000000	19.116361
2025.000000	19.210208
2024.000000	19.305929
2023.000000	19.394152
2022.000000	19.472229
2021.000000	19.568391
2020.000000	19.638418
2019.000000	19.735021
2018.000000	19.793579
2017.000000	19.842322
2016.000000	19.916428
2015.000000	19.982375
2014.000000	20.042035
2013.000000	20.083500
2012.000000	20.122759
2011.000000	20.167201
2010.000000	20.206349
2009.000000	20.231162
2008.000000	20.257518
2007.000000	20.268656
2006.000000	20.279464
2005.000000	20.290381
2004.000000	20.293910
2003.000000	20.287845
2002.000000	20.271854
2001.000000	20.276265
2000.000000	20.214510
1999.000000	20.208555
1998.000000	20.188043
1997.000000	20.171942
1996.000000	20.114818
1995.000000	20.078758
1994.000000	20.026706
1993.000000	19.983698
1992.000000	19.956459
1991.000000	19.884779
1990.000000	19.822692
1989.000000	19.754981
1988.000000	19.678779
1987.000000	19.613605
1986.000000	19.541483
1985.000000	19.460760
1984.000000	19.399666
1983.000000	19.331514
1982.000000	19.241527
1981.000000	19.153856
1980.000000	19.097724
1979.000000	19.002885
1978.000000	18.913119
1977.000000	18.829198
1976.000000	18.767993
1975.000000	18.667309
1974.000000	18.607649
1973.000000	18.529462
1972.000000	18.439806
1971.000000	18.380587
1970.000000	18.273507
1969.000000	18.229395
1968.000000	18.138085
1967.000000	18.074124
1966.000000	17.998694
1965.000000	17.926131
1964.000000	17.833387
1963.000000	17.793025
1962.000000	17.699289
1961.000000	17.616360
1960.000000	17.545892
1959.000000	17.483034
1958.000000	17.386761
1957.000000	17.327542
1956.000000	17.261596
1955.000000	17.182637
1954.000000	17.124189
1953.000000	17.041040
1952.000000	16.945318
1951.000000	16.902420
1950.000000	16.836584
1949.000000	16.752442
1948.000000	16.710647
1947.000000	16.665874
1946.000000	16.607757
1945.000000	16.547546
1944.000000	16.527585
1943.000000	16.497700
1942.000000	16.495715
1941.000000	16.459544
1940.000000	16.454581
1939.000000	16.460867
1938.000000	16.457669
1937.000000	16.440907
1936.000000	16.463955
1935.000000	16.502001
1934.000000	16.563756
1933.000000	16.602574
1932.000000	16.665212
1931.000000	16.731379
1930.000000	16.825998
1929.000000	16.897237
1928.000000	17.003545
1927.000000	17.117352
1926.000000	17.250788
1925.000000	17.367132
1924.000000	17.496929
1923.000000	17.652752
1922.000000	17.822139
1921.000000	17.993731
1920.000000	18.205024
1919.000000	18.377719
1918.000000	18.579969
1917.000000	18.767221
1916.000000	18.965501
1915.000000	19.184954
1914.000000	19.430654
1913.000000	19.712855
1912.000000	19.946645
1911.000000	20.203261
1910.000000	20.475648
1909.000000	20.694219
1908.000000	20.932309
1907.000000	21.217378
1906.000000	21.535199
1905.000000	21.873201
1904.000000	22.193669
1903.000000	22.461534
1902.000000	22.751455
1901.000000	23.039501
1900.000000	23.366365
1899.000000	23.703375
1898.000000	24.025828
1897.000000	24.364051
1896.000000	24.628277
1895.000000	24.905074
1894.000000	25.205472
1893.000000	25.516676
1892.000000	25.841776
1891.000000	26.178896
1890.000000	26.489108
1889.000000	26.783771
1888.000000	27.112509
1887.000000	27.415002
1886.000000	27.768774
1885.000000	28.180221
1884.000000	28.623869
1883.000000	29.079207
1882.000000	29.527598
1881.000000	29.998926
1880.000000	30.459447
1879.000000	30.885671
1878.000000	31.300537
1877.000000	31.684415
1876.000000	32.042157
1875.000000	32.389974
1874.000000	32.696216
1873.000000	32.973675
1872.000000	33.218492
1871.000000	33.453495
1870.000000	33.630050
1869.000000	33.786203
1868.000000	33.922617
1867.000000	33.999261
1866.000000	34.052304
1865.000000	34.095643
1864.000000	34.136887
1863.000000	34.181881
1862.000000	34.218052
1861.000000	34.268670
1860.000000	34.303297
1859.000000	34.293703
1858.000000	34.289512
1857.000000	34.257421
1856.000000	34.209671
1855.000000	34.187064
1854.000000	34.135564
1853.000000	34.033557
1852.000000	33.965626
1851.000000	33.915118
1850.000000	33.875970
1849.000000	33.849393
1848.000000	33.767456
1847.000000	33.681219
1846.000000	33.570059
1845.000000	33.472683
1844.000000	33.411479
1843.000000	33.387548
1842.000000	33.389754
1841.000000	33.358214
1840.000000	33.304509
1839.000000	33.223786
1838.000000	33.160927
1837.000000	33.119683
1836.000000	33.061236
1835.000000	32.962427
1834.000000	32.842334
1833.000000	32.752678
1832.000000	32.674711
1831.000000	32.597958
1830.000000	32.511059
1829.000000	32.420079
1828.000000	32.325681
1827.000000	32.238341
1826.000000	32.159493
1825.000000	32.073035
1824.000000	32.005655
1823.000000	31.987569
1822.000000	32.000582
1821.000000	31.994627
1820.000000	31.959779
1819.000000	31.894605
1818.000000	31.858764
1817.000000	31.859977
1816.000000	31.859426
1815.000000	31.831195
1814.000000	31.818513
1813.000000	31.818844
1812.000000	31.792708
1811.000000	31.751023
1810.000000	31.708345
1809.000000	31.658941
1808.000000	31.602258
1807.000000	31.572372
1806.000000	31.514587
1805.000000	31.458455
1804.000000	31.410043
1803.000000	31.352919
1802.000000	31.297560
1801.000000	31.251905
1800.000000	31.176805
1799.000000	31.109977
1798.000000	31.075901
1797.000000	31.037634
1796.000000	30.984150
1795.000000	30.935186
1794.000000	30.874643
1793.000000	30.817189
1792.000000	30.751904
1791.000000	30.698309
1790.000000	30.634237
1789.000000	30.567519
1788.000000	30.498595
1787.000000	30.435737
1786.000000	30.358322
1785.000000	30.268997
1784.000000	30.175040
1783.000000	30.077003
1782.000000	29.991206
1781.000000	29.913019
1780.000000	29.816857
1779.000000	29.724995
1778.000000	29.632913
1777.000000	29.527598
1776.000000	29.388206
1775.000000	29.242750
1774.000000	29.098065
1773.000000	28.957460
1772.000000	28.788514
1771.000000	28.637323
1770.000000	28.489551
1769.000000	28.363503
1768.000000	28.225986
1767.000000	28.094645
1766.000000	28.003997
1765.000000	27.913789
1764.000000	27.872215
1763.000000	27.847953
1762.000000	27.871222
1761.000000	27.912687
1760.000000	27.967384
1759.000000	28.034433
1758.000000	28.109092
1757.000000	28.171178
1756.000000	28.213966
1755.000000	28.255541
1754.000000	28.278479
1753.000000	28.260062
1752.000000	28.234147
1751.000000	28.182316
1750.000000	28.125964
1749.000000	28.064319
1748.000000	27.964297
1747.000000	27.855452
1746.000000	27.736021
1745.000000	27.572148
1744.000000	27.381588
1743.000000	27.154636
1742.000000	26.943563
1741.000000	26.707127
1740.000000	26.437167
1739.000000	26.162685
1738.000000	25.921066
1737.000000	25.727528
1736.000000	25.566632
1735.000000	25.470580
1734.000000	25.430549
1733.000000	25.414559
1732.000000	25.464846
1731.000000	25.561118
1730.000000	25.654303
1729.000000	25.783329
1728.000000	25.908604
1727.000000	26.015353
1726.000000	26.097952
1725.000000	26.173161
1724.000000	26.241534
1723.000000	26.261935
1722.000000	26.265354
1721.000000	26.313876
1720.000000	26.353797
1719.000000	26.372985
1718.000000	26.402098
1717.000000	26.485689
1716.000000	26.548989
1715.000000	26.632359
1714.000000	26.718707
1713.000000	26.782668
1712.000000	26.853687
1711.000000	26.876184
1710.000000	26.897688
1709.000000	26.913788
1708.000000	26.904635
1707.000000	26.889196
1706.000000	26.865487
1705.000000	26.804613
1704.000000	26.738116
1703.000000	26.651988
1702.000000	26.530793
1701.000000	26.388865
1700.000000	26.228411
1699.000000	26.065089
1698.000000	25.891732
1697.000000	25.773624
1696.000000	25.686394
1695.000000	25.685071
1694.000000	25.722455
1693.000000	25.809464
1692.000000	25.973117
1691.000000	26.151657
1690.000000	26.318508
1689.000000	26.444886
1688.000000	26.497709
1687.000000	26.528146
1686.000000	26.532778
1685.000000	26.542482
1684.000000	26.655628
1683.000000	26.896364
1682.000000	27.245174
1681.000000	27.722678
1680.000000	28.316855
1679.000000	28.912798
1678.000000	29.492419
1677.000000	30.048110
1676.000000	30.561895
1675.000000	31.008962
1674.000000	31.379055
1673.000000	31.695443
1672.000000	31.979739
1671.000000	32.233158
1670.000000	32.466837
1669.000000	32.659934
1668.000000	32.818293
1667.000000	32.951619
1666.000000	33.078439
1665.000000	33.187394
1664.000000	33.282674
1663.000000	33.357884
1662.000000	33.428131
1661.000000	33.504443
1660.000000	33.553186
1659.000000	33.597628
1658.000000	33.643945
1657.000000	33.651995
1656.000000	33.663354
1655.000000	33.671294
1654.000000	33.690813
1653.000000	33.653760
1652.000000	33.655965
1651.000000	33.622882
1650.000000	33.604024
1649.000000	33.581307
1648.000000	33.522088
1647.000000	33.492864
1646.000000	33.433314
1645.000000	33.390857
1644.000000	33.345091
1643.000000	33.288739
1642.000000	33.236909
1641.000000	33.168426
1640.000000	33.108876
1639.000000	33.053957
1638.000000	32.981725
1637.000000	32.916441
1636.000000	32.837482
1635.000000	32.792157
1634.000000	32.700186
1633.000000	32.620565
1632.000000	32.541165
1631.000000	32.450626
1630.000000	32.373873
1629.000000	32.315315
1628.000000	32.214742
1627.000000	32.136996
1626.000000	32.041826
1625.000000	31.943458
1624.000000	31.860639
1623.000000	31.782121
1622.000000	31.706801
1621.000000	31.613947
1620.000000	31.528372
1619.000000	31.439377
1618.000000	31.367807
1617.000000	31.294472
1616.000000	31.219042
1615.000000	31.132143
1614.000000	31.048883
1613.000000	30.990325
1612.000000	30.904198
1611.000000	30.834282
1610.000000	30.775834
1609.000000	30.696986
1608.000000	30.619901
1607.000000	30.545243
1606.000000	30.473011
1605.000000	30.394934
1604.000000	30.325018
1603.000000	30.236354
1602.000000	30.168975
