PE UV       SUBTECH     SPECTRUM    ASCII       PEDS        4.00        
   -1
C.BOUC.INB5423-TX3.ASC
23/11/30
16:47:56.00
23/11/30
16:47:56.00
Vinicio Soto Monge
C.BOUCARDI_INB0040G5423_COBRE
250,000000
1
Lambda 1050
1050L1511233
PerkinElmer UV WinLab 6.3.2.0749 / 2.02.05 Lambda 900 UV/VIS/NIR, Aug  7 2015 09:38:08

0
0
3350/servo 860,8/2
0
0
UV/VIS
1
1
1
DoubleDePol,CommonBeamDepol,RBeamAtt,SBeamAtt,60mm sphere, WB InGaAs Detector
0
0
0
0
Program
Program
3350/servo 860,8/2
3350/0,4 860,8/0,4
3350/0,4 860,8/0,4
0
20.00
 
 
 
0
 
860,8
319,2
860,8
Front
100
on
S:100 R:100
0
0
0
0
 
0
 
 
 
0
 
 
0
0
0
0
0
 
 
 
 
0
0


0
0
#HDR
-1
-1
#GR
nm
%A
1.0
0.0
2200,000000
-1,000000
1951
8
49,250288
0,338038
#DATA
284.000000	93.760516
285.000000	93.776377
286.000000	93.792143
287.000000	93.805166
288.000000	93.816377
289.000000	93.829534
290.000000	93.839093
291.000000	93.846789
292.000000	93.856299
293.000000	93.866277
294.000000	93.875615
295.000000	93.880900
296.000000	93.888040
297.000000	93.892955
298.000000	93.896618
299.000000	93.901448
300.000000	93.906640
301.000000	93.911999
302.000000	93.917701
303.000000	93.924529
304.000000	93.930494
305.000000	93.936030
306.000000	93.941263
307.000000	93.947762
308.000000	93.956260
309.000000	93.963804
310.000000	93.970462
311.000000	93.978088
312.000000	93.987035
313.000000	93.994015
314.000000	93.999117
315.000000	94.006288
316.000000	94.010846
317.000000	94.017797
318.000000	94.029769
319.000000	94.035536
320.000000	94.035791
321.000000	94.041635
322.000000	94.049360
323.000000	94.052889
324.000000	94.058441
325.000000	94.063654
326.000000	94.069706
327.000000	94.075845
328.000000	94.080477
329.000000	94.087608
330.000000	94.100720
331.000000	94.107797
332.000000	94.111593
333.000000	94.121052
334.000000	94.133918
335.000000	94.145073
336.000000	94.154419
337.000000	94.158816
338.000000	94.164297
339.000000	94.171046
340.000000	94.179927
341.000000	94.187559
342.000000	94.193617
343.000000	94.198685
344.000000	94.204150
345.000000	94.208400
346.000000	94.215443
347.000000	94.221822
348.000000	94.225426
349.000000	94.229586
350.000000	94.234235
351.000000	94.240490
352.000000	94.245468
353.000000	94.248438
354.000000	94.258542
355.000000	94.271473
356.000000	94.278154
357.000000	94.284106
358.000000	94.292081
359.000000	94.298488
360.000000	94.307816
361.000000	94.313992
362.000000	94.320112
363.000000	94.329308
364.000000	94.333051
365.000000	94.334510
366.000000	94.339439
367.000000	94.348685
368.000000	94.354368
369.000000	94.354954
370.000000	94.355365
371.000000	94.357420
372.000000	94.364242
373.000000	94.366619
374.000000	94.371231
375.000000	94.375932
376.000000	94.382156
377.000000	94.388784
378.000000	94.393266
379.000000	94.397088
380.000000	94.402378
381.000000	94.404777
382.000000	94.407558
383.000000	94.411159
384.000000	94.413898
385.000000	94.416921
386.000000	94.418686
387.000000	94.419078
388.000000	94.416852
389.000000	94.414300
390.000000	94.410302
391.000000	94.407524
392.000000	94.402279
393.000000	94.399268
394.000000	94.393532
395.000000	94.385546
396.000000	94.378854
397.000000	94.371570
398.000000	94.360212
399.000000	94.349412
400.000000	94.337121
401.000000	94.323046
402.000000	94.307620
403.000000	94.290074
404.000000	94.272944
405.000000	94.256090
406.000000	94.237767
407.000000	94.216537
408.000000	94.195164
409.000000	94.171242
410.000000	94.144692
411.000000	94.115249
412.000000	94.084338
413.000000	94.051765
414.000000	94.018192
415.000000	93.982864
416.000000	93.945832
417.000000	93.907510
418.000000	93.868120
419.000000	93.827691
420.000000	93.785478
421.000000	93.741737
422.000000	93.696882
423.000000	93.650676
424.000000	93.603258
425.000000	93.554490
426.000000	93.504413
427.000000	93.453266
428.000000	93.400730
429.000000	93.346526
430.000000	93.291389
431.000000	93.235220
432.000000	93.177709
433.000000	93.119611
434.000000	93.061047
435.000000	93.001276
436.000000	92.940237
437.000000	92.878780
438.000000	92.816565
439.000000	92.753410
440.000000	92.689402
441.000000	92.624423
442.000000	92.558265
443.000000	92.491495
444.000000	92.423904
445.000000	92.355856
446.000000	92.287385
447.000000	92.218512
448.000000	92.149165
449.000000	92.079100
450.000000	92.009075
451.000000	91.939574
452.000000	91.869967
453.000000	91.800220
454.000000	91.730098
455.000000	91.660187
456.000000	91.590408
457.000000	91.520881
458.000000	91.451334
459.000000	91.381798
460.000000	91.312739
461.000000	91.244120
462.000000	91.175744
463.000000	91.107743
464.000000	91.040335
465.000000	90.973483
466.000000	90.907391
467.000000	90.842475
468.000000	90.778505
469.000000	90.715608
470.000000	90.654375
471.000000	90.594489
472.000000	90.535558
473.000000	90.477852
474.000000	90.421115
475.000000	90.365974
476.000000	90.312874
477.000000	90.261196
478.000000	90.211163
479.000000	90.162499
480.000000	90.115600
481.000000	90.070178
482.000000	90.026442
483.000000	89.984864
484.000000	89.945264
485.000000	89.907303
486.000000	89.870836
487.000000	89.835886
488.000000	89.802285
489.000000	89.770351
490.000000	89.739563
491.000000	89.710234
492.000000	89.681947
493.000000	89.655114
494.000000	89.629508
495.000000	89.604502
496.000000	89.579846
497.000000	89.556457
498.000000	89.534018
499.000000	89.512088
500.000000	89.490702
501.000000	89.469898
502.000000	89.448354
503.000000	89.426198
504.000000	89.403530
505.000000	89.379835
506.000000	89.355799
507.000000	89.331333
508.000000	89.305760
509.000000	89.279517
510.000000	89.251658
511.000000	89.221390
512.000000	89.189705
513.000000	89.156024
514.000000	89.120519
515.000000	89.082681
516.000000	89.042724
517.000000	89.000546
518.000000	88.955764
519.000000	88.908117
520.000000	88.857676
521.000000	88.804442
522.000000	88.748350
523.000000	88.689150
524.000000	88.627185
525.000000	88.562907
526.000000	88.496097
527.000000	88.426608
528.000000	88.353719
529.000000	88.278152
530.000000	88.199848
531.000000	88.119376
532.000000	88.035507
533.000000	87.948641
534.000000	87.859252
535.000000	87.767219
536.000000	87.672128
537.000000	87.574708
538.000000	87.475106
539.000000	87.373708
540.000000	87.270188
541.000000	87.164026
542.000000	87.055594
543.000000	86.945107
544.000000	86.832670
545.000000	86.718301
546.000000	86.602619
547.000000	86.485231
548.000000	86.365945
549.000000	86.245395
550.000000	86.123253
551.000000	85.999665
552.000000	85.874346
553.000000	85.747466
554.000000	85.619539
555.000000	85.489898
556.000000	85.358877
557.000000	85.226391
558.000000	85.093915
559.000000	84.960709
560.000000	84.825248
561.000000	84.688541
562.000000	84.551291
563.000000	84.413347
564.000000	84.274633
565.000000	84.135078
566.000000	83.993994
567.000000	83.852523
568.000000	83.710257
569.000000	83.567643
570.000000	83.424873
571.000000	83.281845
572.000000	83.138466
573.000000	82.994469
574.000000	82.849660
575.000000	82.704911
576.000000	82.560434
577.000000	82.416481
578.000000	82.272923
579.000000	82.129681
580.000000	81.987002
581.000000	81.844930
582.000000	81.703051
583.000000	81.562844
584.000000	81.423637
585.000000	81.285592
586.000000	81.148241
587.000000	81.011569
588.000000	80.876639
589.000000	80.743004
590.000000	80.612802
591.000000	80.484511
592.000000	80.358719
593.000000	80.234872
594.000000	80.113721
595.000000	79.995960
596.000000	79.879979
597.000000	79.767822
598.000000	79.658089
599.000000	79.551448
600.000000	79.448355
601.000000	79.349034
602.000000	79.252733
603.000000	79.159864
604.000000	79.070270
605.000000	78.983854
606.000000	78.901580
607.000000	78.822735
608.000000	78.748269
609.000000	78.677445
610.000000	78.609663
611.000000	78.546175
612.000000	78.485996
613.000000	78.429848
614.000000	78.377311
615.000000	78.328240
616.000000	78.283224
617.000000	78.243061
618.000000	78.206077
619.000000	78.171663
620.000000	78.140939
621.000000	78.113050
622.000000	78.089091
623.000000	78.067863
624.000000	78.050394
625.000000	78.034356
626.000000	78.021254
627.000000	78.011583
628.000000	78.002745
629.000000	77.995208
630.000000	77.990111
631.000000	77.987824
632.000000	77.985369
633.000000	77.985255
634.000000	77.986647
635.000000	77.988744
636.000000	77.991436
637.000000	77.994446
638.000000	77.998059
639.000000	78.001453
640.000000	78.004950
641.000000	78.007122
642.000000	78.008666
643.000000	78.008874
644.000000	78.008542
645.000000	78.008044
646.000000	78.005088
647.000000	77.999948
648.000000	77.991701
649.000000	77.980291
650.000000	77.965566
651.000000	77.947859
652.000000	77.926456
653.000000	77.900792
654.000000	77.871331
655.000000	77.837514
656.000000	77.800363
657.000000	77.757846
658.000000	77.711006
659.000000	77.659051
660.000000	77.601696
661.000000	77.537503
662.000000	77.465231
663.000000	77.387467
664.000000	77.303708
665.000000	77.211919
666.000000	77.112394
667.000000	77.005780
668.000000	76.890608
669.000000	76.765795
670.000000	76.632186
671.000000	76.489132
672.000000	76.336523
673.000000	76.172683
674.000000	75.996997
675.000000	75.808787
676.000000	75.609799
677.000000	75.399437
678.000000	75.175228
679.000000	74.936483
680.000000	74.683008
681.000000	74.415006
682.000000	74.131726
683.000000	73.832525
684.000000	73.517963
685.000000	73.187893
686.000000	72.841865
687.000000	72.479244
688.000000	72.099645
689.000000	71.703648
690.000000	71.290887
691.000000	70.861551
692.000000	70.416764
693.000000	69.954807
694.000000	69.476158
695.000000	68.981631
696.000000	68.472782
697.000000	67.952303
698.000000	67.418348
699.000000	66.871747
700.000000	66.315188
701.000000	65.747985
702.000000	65.170172
703.000000	64.585525
704.000000	63.996173
705.000000	63.402861
706.000000	62.807200
707.000000	62.209928
708.000000	61.612833
709.000000	61.016548
710.000000	60.422803
711.000000	59.832471
712.000000	59.245832
713.000000	58.666912
714.000000	58.096425
715.000000	57.535006
716.000000	56.983782
717.000000	56.444205
718.000000	55.917576
719.000000	55.404391
720.000000	54.904938
721.000000	54.420863
722.000000	53.951785
723.000000	53.497906
724.000000	53.061894
725.000000	52.644211
726.000000	52.243060
727.000000	51.858733
728.000000	51.493069
729.000000	51.146886
730.000000	50.818924
731.000000	50.507484
732.000000	50.212156
733.000000	49.933352
734.000000	49.667277
735.000000	49.415634
736.000000	49.180825
737.000000	48.962351
738.000000	48.755325
739.000000	48.559745
740.000000	48.374472
741.000000	48.198289
742.000000	48.032917
743.000000	47.877494
744.000000	47.732753
745.000000	47.594668
746.000000	47.462575
747.000000	47.338748
748.000000	47.217504
749.000000	47.101762
750.000000	46.988886
751.000000	46.881071
752.000000	46.778141
753.000000	46.679082
754.000000	46.582386
755.000000	46.487835
756.000000	46.395775
757.000000	46.305154
758.000000	46.217205
759.000000	46.128928
760.000000	46.041410
761.000000	45.957266
762.000000	45.874839
763.000000	45.792272
764.000000	45.708657
765.000000	45.627105
766.000000	45.546910
767.000000	45.466101
768.000000	45.387031
769.000000	45.312475
770.000000	45.239904
771.000000	45.167033
772.000000	45.092963
773.000000	45.019556
774.000000	44.947266
775.000000	44.875963
776.000000	44.807318
777.000000	44.737562
778.000000	44.668080
779.000000	44.600586
780.000000	44.534148
781.000000	44.470802
782.000000	44.406328
783.000000	44.343790
784.000000	44.284129
785.000000	44.227912
786.000000	44.170527
787.000000	44.111004
788.000000	44.051706
789.000000	43.989888
790.000000	43.930988
791.000000	43.872904
792.000000	43.812194
793.000000	43.750888
794.000000	43.691727
795.000000	43.629204
796.000000	43.562675
797.000000	43.497741
798.000000	43.433489
799.000000	43.367293
800.000000	43.302114
801.000000	43.237627
802.000000	43.174990
803.000000	43.105535
804.000000	43.029547
805.000000	42.953495
806.000000	42.875540
807.000000	42.800394
808.000000	42.723990
809.000000	42.647581
810.000000	42.571496
811.000000	42.490699
812.000000	42.405779
813.000000	42.319526
814.000000	42.229790
815.000000	42.138831
816.000000	42.042186
817.000000	41.946310
818.000000	41.853122
819.000000	41.752813
820.000000	41.650589
821.000000	41.544468
822.000000	41.444071
823.000000	41.338789
824.000000	41.238802
825.000000	41.140322
826.000000	41.036477
827.000000	40.932621
828.000000	40.834952
829.000000	40.732407
830.000000	40.631187
831.000000	40.533279
832.000000	40.436063
833.000000	40.336920
834.000000	40.239600
835.000000	40.143739
836.000000	40.049479
837.000000	39.953190
838.000000	39.868851
839.000000	39.780384
840.000000	39.696541
841.000000	39.606229
842.000000	39.523677
843.000000	39.441146
844.000000	39.360801
845.000000	39.277398
846.000000	39.206905
847.000000	39.134819
848.000000	39.062331
849.000000	38.997653
850.000000	38.943930
851.000000	38.883822
852.000000	38.818725
853.000000	38.745310
854.000000	38.681557
855.000000	38.620073
856.000000	38.575904
857.000000	38.529036
858.000000	38.508390
859.000000	38.426215
860.000000	38.358168
861.000000	38.273023
862.000000	38.177745
863.000000	38.059782
864.000000	37.974139
865.000000	37.885483
866.000000	37.809036
867.000000	37.702266
868.000000	37.667062
869.000000	37.554420
870.000000	37.489570
871.000000	37.426363
872.000000	37.343990
873.000000	37.311447
874.000000	37.208758
875.000000	37.119186
876.000000	37.043777
877.000000	36.949267
878.000000	36.848140
879.000000	36.764213
880.000000	36.684273
881.000000	36.640712
882.000000	36.560028
883.000000	36.480529
884.000000	36.411339
885.000000	36.319706
886.000000	36.291726
887.000000	36.238844
888.000000	36.175663
889.000000	36.101414
890.000000	36.063388
891.000000	36.010096
892.000000	35.949653
893.000000	35.867983
894.000000	35.799623
895.000000	35.727814
896.000000	35.708398
897.000000	35.649114
898.000000	35.638112
899.000000	35.623335
900.000000	35.582759
901.000000	35.578723
902.000000	35.589852
903.000000	35.501177
904.000000	35.519551
905.000000	35.497320
906.000000	35.449928
907.000000	35.408101
908.000000	35.331049
909.000000	35.331074
910.000000	35.308481
911.000000	35.278391
912.000000	35.283953
913.000000	35.295136
914.000000	35.272282
915.000000	35.245475
916.000000	35.178750
917.000000	35.127502
918.000000	35.141201
919.000000	35.099089
920.000000	35.045911
921.000000	34.942144
922.000000	34.876953
923.000000	34.829237
924.000000	34.772703
925.000000	34.706338
926.000000	34.628912
927.000000	34.575071
928.000000	34.478873
929.000000	34.455863
930.000000	34.450799
931.000000	34.357598
932.000000	34.325689
933.000000	34.282998
934.000000	34.215417
935.000000	34.162988
936.000000	34.059037
937.000000	34.002833
938.000000	33.974839
939.000000	33.889059
940.000000	33.823558
941.000000	33.784800
942.000000	33.726357
943.000000	33.670383
944.000000	33.596187
945.000000	33.504758
946.000000	33.396983
947.000000	33.316145
948.000000	33.207675
949.000000	33.122286
950.000000	33.044005
951.000000	32.965878
952.000000	32.886401
953.000000	32.718368
954.000000	32.615231
955.000000	32.560976
956.000000	32.476238
957.000000	32.403078
958.000000	32.308300
959.000000	32.185663
960.000000	32.044615
961.000000	31.981673
962.000000	31.913358
963.000000	31.866017
964.000000	31.798563
965.000000	31.666492
966.000000	31.549254
967.000000	31.428198
968.000000	31.315435
969.000000	31.186428
970.000000	31.053918
971.000000	30.920295
972.000000	30.772472
973.000000	30.653656
974.000000	30.553459
975.000000	30.424663
976.000000	30.264255
977.000000	30.135762
978.000000	29.998029
979.000000	29.862628
980.000000	29.759843
981.000000	29.678844
982.000000	29.501395
983.000000	29.368299
984.000000	29.240643
985.000000	29.106150
986.000000	28.959676
987.000000	28.824220
988.000000	28.713743
989.000000	28.567535
990.000000	28.387507
991.000000	28.262549
992.000000	28.085218
993.000000	27.942971
994.000000	27.857430
995.000000	27.752312
996.000000	27.583753
997.000000	27.376478
998.000000	27.198700
999.000000	26.994628
1000.000000	26.803161
1001.000000	26.677265
1002.000000	26.564476
1003.000000	26.418602
1004.000000	26.279022
1005.000000	26.164771
1006.000000	26.048288
1007.000000	25.894629
1008.000000	25.725807
1009.000000	25.585036
1010.000000	25.424401
1011.000000	25.276787
1012.000000	25.110594
1013.000000	24.933035
1014.000000	24.786056
1015.000000	24.620957
1016.000000	24.465265
1017.000000	24.365861
1018.000000	24.237923
1019.000000	24.072480
1020.000000	23.908904
1021.000000	23.724680
1022.000000	23.570646
1023.000000	23.428839
1024.000000	23.329867
1025.000000	23.236652
1026.000000	23.111444
1027.000000	22.996717
1028.000000	22.846657
1029.000000	22.695513
1030.000000	22.560943
1031.000000	22.417915
1032.000000	22.284914
1033.000000	22.152988
1034.000000	22.062407
1035.000000	21.983396
1036.000000	21.858647
1037.000000	21.679451
1038.000000	21.486034
1039.000000	21.364877
1040.000000	21.239105
1041.000000	21.090599
1042.000000	21.004506
1043.000000	20.893358
1044.000000	20.745879
1045.000000	20.631544
1046.000000	20.515605
1047.000000	20.411779
1048.000000	20.318136
1049.000000	20.186976
1050.000000	20.098259
1051.000000	19.991926
1052.000000	19.884173
1053.000000	19.757612
1054.000000	19.640597
1055.000000	19.561338
1056.000000	19.484522
1057.000000	19.377100
1058.000000	19.296004
1059.000000	19.187446
1060.000000	19.051287
1061.000000	18.923931
1062.000000	18.801094
1063.000000	18.686603
1064.000000	18.551130
1065.000000	18.393460
1066.000000	18.286606
1067.000000	18.160922
1068.000000	18.030254
1069.000000	17.896666
1070.000000	17.777618
1071.000000	17.669010
1072.000000	17.578882
1073.000000	17.487590
1074.000000	17.379838
1075.000000	17.259543
1076.000000	17.168066
1077.000000	17.045162
1078.000000	16.929031
1079.000000	16.814530
1080.000000	16.688855
1081.000000	16.540189
1082.000000	16.416403
1083.000000	16.280829
1084.000000	16.155531
1085.000000	16.026766
1086.000000	15.942249
1087.000000	15.823946
1088.000000	15.672774
1089.000000	15.551635
1090.000000	15.413183
1091.000000	15.312208
1092.000000	15.211261
1093.000000	15.057896
1094.000000	14.879128
1095.000000	14.744742
1096.000000	14.626996
1097.000000	14.545837
1098.000000	14.425955
1099.000000	14.315567
1100.000000	14.224788
1101.000000	14.082026
1102.000000	14.002854
1103.000000	13.885186
1104.000000	13.812893
1105.000000	13.668084
1106.000000	13.565429
1107.000000	13.464593
1108.000000	13.444343
1109.000000	13.350116
1110.000000	13.264052
1111.000000	13.139362
1112.000000	12.998254
1113.000000	12.857412
1114.000000	12.749051
1115.000000	12.675484
1116.000000	12.573243
1117.000000	12.478950
1118.000000	12.401564
1119.000000	12.336379
1120.000000	12.243723
1121.000000	12.080314
1122.000000	11.957794
1123.000000	11.932283
1124.000000	11.866483
1125.000000	11.682551
1126.000000	11.599553
1127.000000	11.532448
1128.000000	11.473355
1129.000000	11.490676
1130.000000	11.439024
1131.000000	11.350268
1132.000000	11.266747
1133.000000	11.213347
1134.000000	11.181475
1135.000000	11.104325
1136.000000	11.082220
1137.000000	10.952444
1138.000000	10.881251
1139.000000	10.768070
1140.000000	10.708116
1141.000000	10.628757
1142.000000	10.567647
1143.000000	10.459709
1144.000000	10.418838
1145.000000	10.348351
1146.000000	10.362925
1147.000000	10.365897
1148.000000	10.343065
1149.000000	10.319029
1150.000000	10.260393
1151.000000	10.255384
1152.000000	10.219962
1153.000000	10.191181
1154.000000	10.151269
1155.000000	10.116858
1156.000000	10.092515
1157.000000	10.046326
1158.000000	9.987037
1159.000000	9.957366
1160.000000	10.054579
1161.000000	10.007993
1162.000000	9.966244
1163.000000	9.974676
1164.000000	9.862973
1165.000000	9.844995
1166.000000	9.832719
1167.000000	9.812423
1168.000000	9.825252
1169.000000	9.813827
1170.000000	9.830988
1171.000000	9.805054
1172.000000	9.828121
1173.000000	9.886989
1174.000000	9.905606
1175.000000	9.926349
1176.000000	9.889672
1177.000000	9.891834
1178.000000	9.862023
1179.000000	9.829304
1180.000000	9.814177
1181.000000	9.763447
1182.000000	9.718435
1183.000000	9.691889
1184.000000	9.656592
1185.000000	9.658922
1186.000000	9.610540
1187.000000	9.540764
1188.000000	9.527253
1189.000000	9.518556
1190.000000	9.492161
1191.000000	9.523488
1192.000000	9.520729
1193.000000	9.523500
