PE UV       SUBTECH     SPECTRUM    ASCII       PEDS        4.00        
   -1
S.BELT.1063-TX3.ASC
23/11/29
16:25:54.00
23/11/29
16:25:54.00
Vinicio Soto Monge
STRIGIDA BELTI INBIO0004211063
250,000000
1
Lambda 1050
1050L1511233
PerkinElmer UV WinLab 6.3.2.0749 / 2.02.05 Lambda 900 UV/VIS/NIR, Aug  7 2015 09:38:08

0
0
3350/servo 860,8/2
0
0
UV/VIS
1
1
1
DoubleDePol,CommonBeamDepol,RBeamAtt,SBeamAtt,60mm sphere, WB InGaAs Detector
0
0
0
0
Program
Program
3350/servo 860,8/2
3350/0,4 860,8/0,4
3350/0,4 860,8/0,4
0
20.00
 
 
 
0
 
860,8
319,2
860,8
Front
100
on
S:100 R:100
0
0
0
0
 
0
 
 
 
0
 
 
0
0
0
0
0
 
 
 
 
0
0


0
0
#HDR
-1
-1
#GR
nm
%A
1.0
0.0
2200,000000
-1,000000
1951
8
69,176726
0,292731
#DATA
284.000000	90.947341
285.000000	90.987924
286.000000	91.028064
287.000000	91.066504
288.000000	91.103005
289.000000	91.138622
290.000000	91.172567
291.000000	91.204757
292.000000	91.235830
293.000000	91.266781
294.000000	91.294902
295.000000	91.324183
296.000000	91.351746
297.000000	91.378713
298.000000	91.403533
299.000000	91.426958
300.000000	91.449635
301.000000	91.471736
302.000000	91.493427
303.000000	91.514458
304.000000	91.534188
305.000000	91.554439
306.000000	91.574121
307.000000	91.593841
308.000000	91.613130
309.000000	91.632827
310.000000	91.652300
311.000000	91.671965
312.000000	91.690175
313.000000	91.710446
314.000000	91.729442
315.000000	91.748983
316.000000	91.767803
317.000000	91.780975
318.000000	91.792972
319.000000	91.802717
320.000000	91.814866
321.000000	91.827997
322.000000	91.836578
323.000000	91.850662
324.000000	91.863776
325.000000	91.873032
326.000000	91.885530
327.000000	91.898255
328.000000	91.910219
329.000000	91.922608
330.000000	91.932875
331.000000	91.944324
332.000000	91.956459
333.000000	91.967548
334.000000	91.980215
335.000000	91.993097
336.000000	92.005281
337.000000	92.016217
338.000000	92.025941
339.000000	92.039192
340.000000	92.050769
341.000000	92.059432
342.000000	92.067409
343.000000	92.077308
344.000000	92.087437
345.000000	92.095305
346.000000	92.101547
347.000000	92.108804
348.000000	92.114448
349.000000	92.120564
350.000000	92.125265
351.000000	92.130187
352.000000	92.139873
353.000000	92.150527
354.000000	92.163924
355.000000	92.172775
356.000000	92.180558
357.000000	92.193464
358.000000	92.198629
359.000000	92.204986
360.000000	92.213528
361.000000	92.220419
362.000000	92.228090
363.000000	92.235783
364.000000	92.242698
365.000000	92.250275
366.000000	92.256153
367.000000	92.259988
368.000000	92.265527
369.000000	92.269345
370.000000	92.273167
371.000000	92.277922
372.000000	92.282730
373.000000	92.288442
374.000000	92.292854
375.000000	92.298940
376.000000	92.308270
377.000000	92.321155
378.000000	92.332424
379.000000	92.342568
380.000000	92.354100
381.000000	92.366322
382.000000	92.378501
383.000000	92.390818
384.000000	92.403558
385.000000	92.416149
386.000000	92.429184
387.000000	92.442936
388.000000	92.455802
389.000000	92.467902
390.000000	92.481422
391.000000	92.494355
392.000000	92.507257
393.000000	92.521209
394.000000	92.534369
395.000000	92.548110
396.000000	92.561805
397.000000	92.574405
398.000000	92.586515
399.000000	92.598938
400.000000	92.611222
401.000000	92.624289
402.000000	92.638502
403.000000	92.651998
404.000000	92.664992
405.000000	92.677864
406.000000	92.689742
407.000000	92.702584
408.000000	92.714582
409.000000	92.724493
410.000000	92.734456
411.000000	92.742538
412.000000	92.747825
413.000000	92.752801
414.000000	92.757695
415.000000	92.762201
416.000000	92.766357
417.000000	92.770187
418.000000	92.773783
419.000000	92.777268
420.000000	92.780665
421.000000	92.783835
422.000000	92.786916
423.000000	92.789789
424.000000	92.792238
425.000000	92.794542
426.000000	92.796860
427.000000	92.798631
428.000000	92.800085
429.000000	92.801663
430.000000	92.803018
431.000000	92.804045
432.000000	92.805176
433.000000	92.806236
434.000000	92.806856
435.000000	92.807418
436.000000	92.807757
437.000000	92.807950
438.000000	92.808216
439.000000	92.808431
440.000000	92.808250
441.000000	92.807934
442.000000	92.807363
443.000000	92.806973
444.000000	92.806259
445.000000	92.805049
446.000000	92.803526
447.000000	92.801615
448.000000	92.799694
449.000000	92.797703
450.000000	92.796133
451.000000	92.794229
452.000000	92.791812
453.000000	92.789137
454.000000	92.786375
455.000000	92.783579
456.000000	92.780828
457.000000	92.777431
458.000000	92.773580
459.000000	92.769948
460.000000	92.766595
461.000000	92.762929
462.000000	92.759137
463.000000	92.755031
464.000000	92.750456
465.000000	92.745667
466.000000	92.740433
467.000000	92.734767
468.000000	92.728940
469.000000	92.722701
470.000000	92.716038
471.000000	92.708921
472.000000	92.701093
473.000000	92.692643
474.000000	92.683347
475.000000	92.673383
476.000000	92.662558
477.000000	92.651016
478.000000	92.638647
479.000000	92.625585
480.000000	92.612021
481.000000	92.597601
482.000000	92.582330
483.000000	92.565657
484.000000	92.547568
485.000000	92.528148
486.000000	92.507568
487.000000	92.485962
488.000000	92.462911
489.000000	92.438052
490.000000	92.411587
491.000000	92.383379
492.000000	92.353413
493.000000	92.321638
494.000000	92.287745
495.000000	92.251469
496.000000	92.213193
497.000000	92.172722
498.000000	92.129887
499.000000	92.084210
500.000000	92.035964
501.000000	91.985200
502.000000	91.931186
503.000000	91.873718
504.000000	91.813096
505.000000	91.749089
506.000000	91.681508
507.000000	91.610466
508.000000	91.535520
509.000000	91.456470
510.000000	91.373352
511.000000	91.286134
512.000000	91.194151
513.000000	91.097363
514.000000	90.995559
515.000000	90.888362
516.000000	90.776232
517.000000	90.659058
518.000000	90.536915
519.000000	90.409770
520.000000	90.276859
521.000000	90.138385
522.000000	89.994556
523.000000	89.845548
524.000000	89.691532
525.000000	89.532648
526.000000	89.369099
527.000000	89.201051
528.000000	89.028904
529.000000	88.853062
530.000000	88.673574
531.000000	88.490745
532.000000	88.305281
533.000000	88.117777
534.000000	87.928894
535.000000	87.738422
536.000000	87.547376
537.000000	87.356247
538.000000	87.165709
539.000000	86.975701
540.000000	86.787341
541.000000	86.601283
542.000000	86.418216
543.000000	86.238743
544.000000	86.063390
545.000000	85.892714
546.000000	85.726951
547.000000	85.566722
548.000000	85.413330
549.000000	85.267075
550.000000	85.128422
551.000000	84.997213
552.000000	84.874493
553.000000	84.760270
554.000000	84.654345
555.000000	84.557032
556.000000	84.468322
557.000000	84.388269
558.000000	84.316732
559.000000	84.252662
560.000000	84.195099
561.000000	84.143800
562.000000	84.099008
563.000000	84.059299
564.000000	84.023830
565.000000	83.992485
566.000000	83.963725
567.000000	83.936678
568.000000	83.910276
569.000000	83.883410
570.000000	83.855673
571.000000	83.825562
572.000000	83.792073
573.000000	83.754450
574.000000	83.712059
575.000000	83.663618
576.000000	83.608670
577.000000	83.545870
578.000000	83.474881
579.000000	83.395585
580.000000	83.307216
581.000000	83.210311
582.000000	83.103798
583.000000	82.986903
584.000000	82.859751
585.000000	82.722711
586.000000	82.574916
587.000000	82.417010
588.000000	82.248749
589.000000	82.070586
590.000000	81.882932
591.000000	81.685836
592.000000	81.479057
593.000000	81.262998
594.000000	81.038664
595.000000	80.806486
596.000000	80.566486
597.000000	80.318554
598.000000	80.063628
599.000000	79.802435
600.000000	79.535398
601.000000	79.261649
602.000000	78.982396
603.000000	78.697725
604.000000	78.408668
605.000000	78.115511
606.000000	77.818939
607.000000	77.519066
608.000000	77.216627
609.000000	76.912637
610.000000	76.606756
611.000000	76.299396
612.000000	75.990908
613.000000	75.681762
614.000000	75.372056
615.000000	75.061447
616.000000	74.750589
617.000000	74.439728
618.000000	74.128770
619.000000	73.818103
620.000000	73.506650
621.000000	73.194723
622.000000	72.881706
623.000000	72.567908
624.000000	72.253454
625.000000	71.937708
626.000000	71.620327
627.000000	71.301793
628.000000	70.982319
629.000000	70.661371
630.000000	70.338890
631.000000	70.014744
632.000000	69.689966
633.000000	69.363258
634.000000	69.035333
635.000000	68.705227
636.000000	68.374489
637.000000	68.042634
638.000000	67.710511
639.000000	67.377744
640.000000	67.044058
641.000000	66.708995
642.000000	66.373190
643.000000	66.036615
644.000000	65.698640
645.000000	65.360654
646.000000	65.023089
647.000000	64.684707
648.000000	64.345182
649.000000	64.005329
650.000000	63.665580
651.000000	63.323685
652.000000	62.981828
653.000000	62.638727
654.000000	62.293910
655.000000	61.948382
656.000000	61.602997
657.000000	61.256586
658.000000	60.908306
659.000000	60.558959
660.000000	60.208819
661.000000	59.858260
662.000000	59.506699
663.000000	59.153307
664.000000	58.799001
665.000000	58.443657
666.000000	58.088534
667.000000	57.732629
668.000000	57.376791
669.000000	57.019472
670.000000	56.661383
671.000000	56.304039
672.000000	55.946595
673.000000	55.589567
674.000000	55.233584
675.000000	54.878808
676.000000	54.525436
677.000000	54.172956
678.000000	53.822009
679.000000	53.473236
680.000000	53.125150
681.000000	52.778066
682.000000	52.433085
683.000000	52.089403
684.000000	51.746658
685.000000	51.404798
686.000000	51.065402
687.000000	50.727332
688.000000	50.392334
689.000000	50.058800
690.000000	49.726627
691.000000	49.393825
692.000000	49.062355
693.000000	48.734187
694.000000	48.407145
695.000000	48.080696
696.000000	47.755095
697.000000	47.432340
698.000000	47.111751
699.000000	46.791794
700.000000	46.473562
701.000000	46.156898
702.000000	45.842274
703.000000	45.530289
704.000000	45.221582
705.000000	44.914627
706.000000	44.608377
707.000000	44.305612
708.000000	44.005500
709.000000	43.705868
710.000000	43.407144
711.000000	43.109474
712.000000	42.815282
713.000000	42.522715
714.000000	42.230407
715.000000	41.940165
716.000000	41.650866
717.000000	41.364606
718.000000	41.081648
719.000000	40.801064
720.000000	40.521554
721.000000	40.242354
722.000000	39.964636
723.000000	39.686542
724.000000	39.410668
725.000000	39.137210
726.000000	38.865692
727.000000	38.594484
728.000000	38.324237
729.000000	38.057982
730.000000	37.794578
731.000000	37.532203
732.000000	37.269816
733.000000	37.008886
734.000000	36.751631
735.000000	36.496634
736.000000	36.241404
737.000000	35.987695
738.000000	35.735696
739.000000	35.484958
740.000000	35.236209
741.000000	34.990347
742.000000	34.744055
743.000000	34.497796
744.000000	34.253934
745.000000	34.011903
746.000000	33.772811
747.000000	33.534283
748.000000	33.295832
749.000000	33.059655
750.000000	32.824786
751.000000	32.591869
752.000000	32.357809
753.000000	32.122005
754.000000	31.887542
755.000000	31.656537
756.000000	31.426875
757.000000	31.199499
758.000000	30.976337
759.000000	30.753551
760.000000	30.530787
761.000000	30.309462
762.000000	30.090259
763.000000	29.871912
764.000000	29.652076
765.000000	29.433597
766.000000	29.217507
767.000000	29.001766
768.000000	28.788356
769.000000	28.574577
770.000000	28.362049
771.000000	28.152341
772.000000	27.940669
773.000000	27.727645
774.000000	27.516924
775.000000	27.309080
776.000000	27.102793
777.000000	26.896016
778.000000	26.691788
779.000000	26.488120
780.000000	26.285648
781.000000	26.083949
782.000000	25.882688
783.000000	25.683809
784.000000	25.486566
785.000000	25.289220
786.000000	25.091294
787.000000	24.896559
788.000000	24.706583
789.000000	24.518988
790.000000	24.326978
791.000000	24.133477
792.000000	23.942808
793.000000	23.751948
794.000000	23.563633
795.000000	23.375859
796.000000	23.191350
797.000000	23.007496
798.000000	22.824198
799.000000	22.639112
800.000000	22.454375
801.000000	22.271235
802.000000	22.088471
803.000000	21.904896
804.000000	21.724531
805.000000	21.544883
806.000000	21.367205
807.000000	21.191744
808.000000	21.020229
809.000000	20.844095
810.000000	20.668619
811.000000	20.492510
812.000000	20.319860
813.000000	20.145792
814.000000	19.975552
815.000000	19.810148
816.000000	19.643404
817.000000	19.477330
818.000000	19.310052
819.000000	19.145146
820.000000	18.980260
821.000000	18.817289
822.000000	18.654770
823.000000	18.493495
824.000000	18.330357
825.000000	18.169195
826.000000	18.012660
827.000000	17.851321
828.000000	17.690797
829.000000	17.528413
830.000000	17.376528
831.000000	17.225752
832.000000	17.071600
833.000000	16.920239
834.000000	16.777766
835.000000	16.633171
836.000000	16.488667
837.000000	16.348251
838.000000	16.207429
839.000000	16.067183
840.000000	15.927430
841.000000	15.786429
842.000000	15.648998
843.000000	15.510953
844.000000	15.372122
845.000000	15.230934
846.000000	15.095710
847.000000	14.963598
848.000000	14.840589
849.000000	14.700659
850.000000	14.559893
851.000000	14.425876
852.000000	14.296883
853.000000	14.169822
854.000000	14.041726
855.000000	13.915277
856.000000	13.785106
857.000000	13.672531
858.000000	13.561780
859.000000	13.417632
860.000000	13.264796
861.000000	13.093534
862.000000	12.970084
863.000000	12.843325
864.000000	12.709523
865.000000	12.597609
866.000000	12.479809
867.000000	12.342050
868.000000	12.213758
869.000000	12.072364
870.000000	11.909542
871.000000	11.772565
872.000000	11.656650
873.000000	11.548262
874.000000	11.436955
875.000000	11.290494
876.000000	11.167976
877.000000	11.034537
878.000000	10.906656
879.000000	10.800355
880.000000	10.688564
881.000000	10.541168
882.000000	10.384510
883.000000	10.256785
884.000000	10.127132
885.000000	10.006671
886.000000	9.877655
887.000000	9.774563
888.000000	9.650486
889.000000	9.508463
890.000000	9.368180
891.000000	9.251290
892.000000	9.149537
893.000000	9.056856
894.000000	8.958426
895.000000	8.869726
896.000000	8.806281
897.000000	8.700343
898.000000	8.580669
899.000000	8.477644
900.000000	8.371643
901.000000	8.264490
902.000000	8.179233
903.000000	8.093944
904.000000	8.005174
905.000000	7.931663
906.000000	7.828866
907.000000	7.728667
908.000000	7.615877
909.000000	7.495925
910.000000	7.432352
911.000000	7.349885
912.000000	7.294024
913.000000	7.215879
914.000000	7.117913
915.000000	7.047391
916.000000	6.997298
917.000000	6.953201
918.000000	6.889710
919.000000	6.829354
920.000000	6.765768
921.000000	6.710104
922.000000	6.631534
923.000000	6.569862
924.000000	6.521885
925.000000	6.474046
926.000000	6.398925
927.000000	6.317869
928.000000	6.213553
929.000000	6.156506
930.000000	6.116130
931.000000	6.048380
932.000000	5.998826
933.000000	5.954864
934.000000	5.875597
935.000000	5.798024
936.000000	5.730504
937.000000	5.685054
938.000000	5.633645
939.000000	5.596808
940.000000	5.539601
941.000000	5.487219
942.000000	5.423940
943.000000	5.367043
944.000000	5.336935
945.000000	5.284958
946.000000	5.202704
947.000000	5.109177
948.000000	5.054030
949.000000	5.015751
950.000000	4.958352
951.000000	4.932968
952.000000	4.914936
953.000000	4.856565
954.000000	4.794939
955.000000	4.741694
956.000000	4.691254
957.000000	4.648263
958.000000	4.589040
959.000000	4.539922
960.000000	4.506890
961.000000	4.510141
962.000000	4.457686
963.000000	4.416899
964.000000	4.373052
965.000000	4.299699
966.000000	4.270364
967.000000	4.233031
968.000000	4.202310
969.000000	4.199659
970.000000	4.177157
971.000000	4.144281
972.000000	4.084558
973.000000	4.042225
974.000000	4.003642
975.000000	3.994756
976.000000	3.986487
977.000000	3.966005
978.000000	3.947628
979.000000	3.915918
980.000000	3.862695
981.000000	3.845989
982.000000	3.823627
983.000000	3.785473
984.000000	3.734012
985.000000	3.677920
986.000000	3.619115
987.000000	3.548927
988.000000	3.502968
989.000000	3.478706
990.000000	3.454220
991.000000	3.418243
992.000000	3.348907
993.000000	3.303970
994.000000	3.284514
995.000000	3.258159
996.000000	3.204431
997.000000	3.178365
998.000000	3.130899
999.000000	3.071822
1000.000000	3.040497
1001.000000	3.001200
1002.000000	2.992435
1003.000000	2.981140
1004.000000	2.953908
1005.000000	2.911478
1006.000000	2.880405
1007.000000	2.859694
1008.000000	2.815251
1009.000000	2.782940
1010.000000	2.737225
1011.000000	2.704615
1012.000000	2.663996
1013.000000	2.628626
1014.000000	2.578851
1015.000000	2.540732
1016.000000	2.520096
1017.000000	2.500506
1018.000000	2.461055
1019.000000	2.437921
1020.000000	2.431542
1021.000000	2.381367
1022.000000	2.342924
1023.000000	2.314240
1024.000000	2.277185
1025.000000	2.256312
1026.000000	2.246362
1027.000000	2.234397
1028.000000	2.248202
1029.000000	2.249238
1030.000000	2.222601
1031.000000	2.197812
1032.000000	2.177767
1033.000000	2.188243
1034.000000	2.203133
1035.000000	2.194562
1036.000000	2.158230
1037.000000	2.105724
1038.000000	2.062663
1039.000000	2.024234
1040.000000	2.003665
1041.000000	1.995063
1042.000000	1.962870
1043.000000	1.911529
1044.000000	1.872780
1045.000000	1.870173
1046.000000	1.855098
1047.000000	1.839341
1048.000000	1.816039
1049.000000	1.824024
1050.000000	1.835612
1051.000000	1.815317
1052.000000	1.802393
1053.000000	1.810614
1054.000000	1.818682
1055.000000	1.797532
1056.000000	1.814726
1057.000000	1.821325
1058.000000	1.828403
1059.000000	1.846285
1060.000000	1.821386
1061.000000	1.786582
1062.000000	1.787443
1063.000000	1.766284
1064.000000	1.730281
1065.000000	1.690176
1066.000000	1.656612
1067.000000	1.616377
1068.000000	1.575127
1069.000000	1.548595
1070.000000	1.535990
1071.000000	1.546617
1072.000000	1.534444
1073.000000	1.534661
1074.000000	1.545440
1075.000000	1.567306
1076.000000	1.552324
1077.000000	1.564961
1078.000000	1.596646
1079.000000	1.577312
1080.000000	1.554698
1081.000000	1.538736
1082.000000	1.534815
1083.000000	1.526792
1084.000000	1.498388
1085.000000	1.474415
1086.000000	1.447558
1087.000000	1.448161
1088.000000	1.417826
1089.000000	1.385002
1090.000000	1.363942
1091.000000	1.334388
1092.000000	1.341282
1093.000000	1.324141
1094.000000	1.301998
1095.000000	1.269273
1096.000000	1.254861
1097.000000	1.238189
1098.000000	1.204397
1099.000000	1.184556
1100.000000	1.181386
1101.000000	1.179634
1102.000000	1.180162
1103.000000	1.157076
1104.000000	1.152372
1105.000000	1.172073
1106.000000	1.159669
1107.000000	1.138515
1108.000000	1.119850
1109.000000	1.090205
1110.000000	1.027154
1111.000000	1.014892
1112.000000	0.996419
1113.000000	0.949868
1114.000000	0.942030
1115.000000	0.939449
1116.000000	0.955662
1117.000000	0.933420
1118.000000	0.918541
1119.000000	0.928065
1120.000000	0.914688
1121.000000	0.941007
1122.000000	0.896106
1123.000000	0.882208
1124.000000	0.873829
1125.000000	0.866747
1126.000000	0.885695
1127.000000	0.830340
1128.000000	0.789880
1129.000000	0.766740
1130.000000	0.796984
1131.000000	0.789815
1132.000000	0.771334
1133.000000	0.765006
1134.000000	0.707415
1135.000000	0.713229
1136.000000	0.719737
1137.000000	0.688061
1138.000000	0.688058
1139.000000	0.673749
1140.000000	0.643186
1141.000000	0.631992
1142.000000	0.643182
1143.000000	0.648440
1144.000000	0.647209
1145.000000	0.708188
1146.000000	0.697560
1147.000000	0.700702
1148.000000	0.745810
1149.000000	0.752989
1150.000000	0.772625
1151.000000	0.744129
1152.000000	0.718727
1153.000000	0.715517
1154.000000	0.704177
1155.000000	0.696171
1156.000000	0.679054
1157.000000	0.706817
1158.000000	0.750539
1159.000000	0.777077
1160.000000	0.807192
1161.000000	0.794671
1162.000000	0.838574
1163.000000	0.892991
1164.000000	0.942305
1165.000000	0.961563
1166.000000	1.007174
1167.000000	1.035814
1168.000000	1.043992
1169.000000	1.127772
1170.000000	1.176156
1171.000000	1.196695
1172.000000	1.243122
1173.000000	1.270734
1174.000000	1.301698
1175.000000	1.337325
1176.000000	1.390835
1177.000000	1.418975
1178.000000	1.451966
1179.000000	1.472114
1180.000000	1.439394
1181.000000	1.466236
1182.000000	1.489866
1183.000000	1.487360
1184.000000	1.506901
1185.000000	1.528405
1186.000000	1.555796
1187.000000	1.612042
1188.000000	1.631200
1189.000000	1.648943
1190.000000	1.695334
1191.000000	1.725593
1192.000000	1.735786
1193.000000	1.719314
1194.000000	1.720950
1195.000000	1.712535
1196.000000	1.724868
1197.000000	1.750065
1198.000000	1.761879
1199.000000	1.722732
1200.000000	1.703848
1201.000000	1.697104
1202.000000	1.712760
1203.000000	1.754139
1204.000000	1.740567
1205.000000	1.702571
1206.000000	1.690736
