PE UV       SUBTECH     SPECTRUM    ASCII       PEDS        4.00        
   -1
C.CHRY.6713-TX3.ASC
23/11/29
14:23:42.00
23/11/29
14:23:42.00
Vinicio Soto Monge
C. CHRYSARGYREA INBIOCRI002426713
250,000000
1
Lambda 1050
1050L1511233
PerkinElmer UV WinLab 6.3.2.0749 / 2.02.05 Lambda 900 UV/VIS/NIR, Aug  7 2015 09:38:08

0
0
3350/servo 860,8/2
0
0
UV/VIS
1
1
1
DoubleDePol,CommonBeamDepol,RBeamAtt,SBeamAtt,60mm sphere, WB InGaAs Detector
0
0
0
0
Program
Program
3350/servo 860,8/2
3350/0,4 860,8/0,4
3350/0,4 860,8/0,4
0
20.00
 
 
 
0
 
860,8
319,2
860,8
Front
100
on
S:100 R:100
0
0
0
0
 
0
 
 
 
0
 
 
0
0
0
0
0
 
 
 
 
0
0


0
0
#HDR
-1
-1
#GR
nm
%A
1.0
0.0
2200,000000
-1,000000
1951
8
49,319150
0,212376
#DATA
284.000000	94.412079
285.000000	94.423820
286.000000	94.434983
287.000000	94.445294
288.000000	94.454558
289.000000	94.462874
290.000000	94.471566
291.000000	94.478959
292.000000	94.485559
293.000000	94.490803
294.000000	94.494300
295.000000	94.497337
296.000000	94.502029
297.000000	94.507047
298.000000	94.510354
299.000000	94.513954
300.000000	94.515594
301.000000	94.518206
302.000000	94.520270
303.000000	94.521347
304.000000	94.522245
305.000000	94.523122
306.000000	94.525440
307.000000	94.526001
308.000000	94.525400
309.000000	94.526620
310.000000	94.527996
311.000000	94.528491
312.000000	94.528644
313.000000	94.530464
314.000000	94.533284
315.000000	94.535157
316.000000	94.537672
317.000000	94.544516
318.000000	94.549550
319.000000	94.555222
320.000000	94.560647
321.000000	94.565881
322.000000	94.568826
323.000000	94.574884
324.000000	94.580475
325.000000	94.583793
326.000000	94.587391
327.000000	94.589786
328.000000	94.593157
329.000000	94.598637
330.000000	94.604728
331.000000	94.610161
332.000000	94.615087
333.000000	94.619552
334.000000	94.622225
335.000000	94.626902
336.000000	94.629510
337.000000	94.633835
338.000000	94.637688
339.000000	94.640069
340.000000	94.643850
341.000000	94.645367
342.000000	94.648682
343.000000	94.651077
344.000000	94.652084
345.000000	94.652577
346.000000	94.651423
347.000000	94.651050
348.000000	94.651102
349.000000	94.650048
350.000000	94.648863
351.000000	94.645893
352.000000	94.638868
353.000000	94.633643
354.000000	94.628886
355.000000	94.622555
356.000000	94.615484
357.000000	94.612035
358.000000	94.604572
359.000000	94.597579
360.000000	94.591716
361.000000	94.586682
362.000000	94.583658
363.000000	94.578583
364.000000	94.571251
365.000000	94.564290
366.000000	94.557005
367.000000	94.550298
368.000000	94.543273
369.000000	94.537474
370.000000	94.532078
371.000000	94.527308
372.000000	94.522067
373.000000	94.516908
374.000000	94.513223
375.000000	94.507632
376.000000	94.502348
377.000000	94.496617
378.000000	94.491237
379.000000	94.485707
380.000000	94.480704
381.000000	94.477444
382.000000	94.473422
383.000000	94.468189
384.000000	94.463076
385.000000	94.458560
386.000000	94.454753
387.000000	94.451491
388.000000	94.447167
389.000000	94.442644
390.000000	94.439280
391.000000	94.436040
392.000000	94.432183
393.000000	94.429401
394.000000	94.426665
395.000000	94.424547
396.000000	94.421279
397.000000	94.417338
398.000000	94.414871
399.000000	94.412766
400.000000	94.409790
401.000000	94.406789
402.000000	94.403924
403.000000	94.401426
404.000000	94.398750
405.000000	94.395094
406.000000	94.391547
407.000000	94.387668
408.000000	94.383556
409.000000	94.379109
410.000000	94.375467
411.000000	94.371708
412.000000	94.368421
413.000000	94.365214
414.000000	94.361810
415.000000	94.358253
416.000000	94.354634
417.000000	94.350640
418.000000	94.346282
419.000000	94.341655
420.000000	94.337112
421.000000	94.332467
422.000000	94.327397
423.000000	94.322443
424.000000	94.317508
425.000000	94.312323
426.000000	94.306793
427.000000	94.301307
428.000000	94.295769
429.000000	94.290151
430.000000	94.284306
431.000000	94.278064
432.000000	94.271910
433.000000	94.265484
434.000000	94.258828
435.000000	94.252189
436.000000	94.245436
437.000000	94.238159
438.000000	94.230630
439.000000	94.223038
440.000000	94.215310
441.000000	94.207222
442.000000	94.199034
443.000000	94.190902
444.000000	94.182586
445.000000	94.173934
446.000000	94.165515
447.000000	94.156944
448.000000	94.148095
449.000000	94.139378
450.000000	94.130830
451.000000	94.122102
452.000000	94.113153
453.000000	94.104393
454.000000	94.095671
455.000000	94.086678
456.000000	94.077656
457.000000	94.068450
458.000000	94.058982
459.000000	94.049117
460.000000	94.039230
461.000000	94.029196
462.000000	94.019209
463.000000	94.009078
464.000000	93.998665
465.000000	93.987892
466.000000	93.977156
467.000000	93.966124
468.000000	93.954759
469.000000	93.943006
470.000000	93.930734
471.000000	93.918214
472.000000	93.905537
473.000000	93.892431
474.000000	93.879004
475.000000	93.865222
476.000000	93.850717
477.000000	93.835457
478.000000	93.819336
479.000000	93.802593
480.000000	93.785542
481.000000	93.767626
482.000000	93.748850
483.000000	93.729279
484.000000	93.708261
485.000000	93.685946
486.000000	93.662721
487.000000	93.638071
488.000000	93.612004
489.000000	93.584606
490.000000	93.555493
491.000000	93.524434
492.000000	93.491397
493.000000	93.456452
494.000000	93.419113
495.000000	93.379018
496.000000	93.336525
497.000000	93.291094
498.000000	93.242403
499.000000	93.190355
500.000000	93.134312
501.000000	93.073595
502.000000	93.007506
503.000000	92.935386
504.000000	92.856738
505.000000	92.770654
506.000000	92.676679
507.000000	92.573855
508.000000	92.461114
509.000000	92.336828
510.000000	92.199387
511.000000	92.046574
512.000000	91.874704
513.000000	91.679523
514.000000	91.455424
515.000000	91.195885
516.000000	90.893885
517.000000	90.540896
518.000000	90.128557
519.000000	89.649129
520.000000	89.096642
521.000000	88.468461
522.000000	87.767019
523.000000	86.998709
524.000000	86.172767
525.000000	85.300654
526.000000	84.393026
527.000000	83.458853
528.000000	82.504711
529.000000	81.536367
530.000000	80.558327
531.000000	79.573150
532.000000	78.583245
533.000000	77.591277
534.000000	76.597722
535.000000	75.603504
536.000000	74.610013
537.000000	73.619387
538.000000	72.631865
539.000000	71.649018
540.000000	70.671962
541.000000	69.700955
542.000000	68.737522
543.000000	67.782792
544.000000	66.837889
545.000000	65.903682
546.000000	64.982064
547.000000	64.076539
548.000000	63.192177
549.000000	62.334729
550.000000	61.510896
551.000000	60.727675
552.000000	59.994106
553.000000	59.318173
554.000000	58.708381
555.000000	58.171283
556.000000	57.709130
557.000000	57.319232
558.000000	56.996451
559.000000	56.731622
560.000000	56.511470
561.000000	56.327956
562.000000	56.172086
563.000000	56.036505
564.000000	55.915335
565.000000	55.804750
566.000000	55.701756
567.000000	55.604792
568.000000	55.511294
569.000000	55.421645
570.000000	55.335985
571.000000	55.253343
572.000000	55.172218
573.000000	55.092921
574.000000	55.014568
575.000000	54.937707
576.000000	54.863836
577.000000	54.791907
578.000000	54.721728
579.000000	54.654734
580.000000	54.591847
581.000000	54.535027
582.000000	54.483815
583.000000	54.438563
584.000000	54.399732
585.000000	54.368343
586.000000	54.346022
587.000000	54.335074
588.000000	54.337345
589.000000	54.352468
590.000000	54.378996
591.000000	54.413042
592.000000	54.447556
593.000000	54.473943
594.000000	54.486413
595.000000	54.485363
596.000000	54.470255
597.000000	54.446922
598.000000	54.421381
599.000000	54.399847
600.000000	54.388266
601.000000	54.389415
602.000000	54.407570
603.000000	54.446778
604.000000	54.508244
605.000000	54.593618
606.000000	54.700014
607.000000	54.822251
608.000000	54.952111
609.000000	55.077504
610.000000	55.184135
611.000000	55.263353
612.000000	55.312423
613.000000	55.335681
614.000000	55.339758
615.000000	55.334306
616.000000	55.326396
617.000000	55.324426
618.000000	55.332934
619.000000	55.356053
620.000000	55.394939
621.000000	55.449800
622.000000	55.518055
623.000000	55.594547
624.000000	55.672995
625.000000	55.744514
626.000000	55.802761
627.000000	55.842684
628.000000	55.864501
629.000000	55.868397
630.000000	55.857455
631.000000	55.835333
632.000000	55.807038
633.000000	55.773902
634.000000	55.739685
635.000000	55.704818
636.000000	55.670491
637.000000	55.636194
638.000000	55.600463
639.000000	55.562327
640.000000	55.518572
641.000000	55.468653
642.000000	55.413561
643.000000	55.352931
644.000000	55.289055
645.000000	55.225864
646.000000	55.164470
647.000000	55.104040
648.000000	55.040070
649.000000	54.969074
650.000000	54.885632
651.000000	54.788385
652.000000	54.676780
653.000000	54.549575
654.000000	54.406066
655.000000	54.247024
656.000000	54.074487
657.000000	53.889583
658.000000	53.696754
659.000000	53.503141
660.000000	53.317541
661.000000	53.148111
662.000000	53.003765
663.000000	52.885078
664.000000	52.791426
665.000000	52.715620
666.000000	52.647888
667.000000	52.574022
668.000000	52.485584
669.000000	52.374421
670.000000	52.235338
671.000000	52.069729
672.000000	51.876758
673.000000	51.656088
674.000000	51.411907
675.000000	51.149189
676.000000	50.873726
677.000000	50.592286
678.000000	50.316009
679.000000	50.056717
680.000000	49.823818
681.000000	49.624250
682.000000	49.460640
683.000000	49.329010
684.000000	49.220243
685.000000	49.125379
686.000000	49.033681
687.000000	48.932212
688.000000	48.814693
689.000000	48.674379
690.000000	48.507883
691.000000	48.312397
692.000000	48.090139
693.000000	47.844239
694.000000	47.576577
695.000000	47.292118
696.000000	46.995954
697.000000	46.695207
698.000000	46.396316
699.000000	46.106708
700.000000	45.834606
701.000000	45.583227
702.000000	45.357546
703.000000	45.158446
704.000000	44.982174
705.000000	44.824012
706.000000	44.676189
707.000000	44.533723
708.000000	44.390846
709.000000	44.240290
710.000000	44.077361
711.000000	43.897899
712.000000	43.701303
713.000000	43.487995
714.000000	43.255406
715.000000	43.006579
716.000000	42.743239
717.000000	42.469050
718.000000	42.189076
719.000000	41.909162
720.000000	41.634285
721.000000	41.368212
722.000000	41.115988
723.000000	40.880817
724.000000	40.665956
725.000000	40.471601
726.000000	40.292716
727.000000	40.125401
728.000000	39.966115
729.000000	39.812766
730.000000	39.658540
731.000000	39.499443
732.000000	39.331477
733.000000	39.154862
734.000000	38.969514
735.000000	38.773236
736.000000	38.567872
737.000000	38.353954
738.000000	38.133665
739.000000	37.909422
740.000000	37.682881
741.000000	37.458585
742.000000	37.238964
743.000000	37.026457
744.000000	36.823265
745.000000	36.631988
746.000000	36.453823
747.000000	36.287488
748.000000	36.129654
749.000000	35.979549
750.000000	35.834290
751.000000	35.691866
752.000000	35.548349
753.000000	35.399333
754.000000	35.246554
755.000000	35.090828
756.000000	34.929821
757.000000	34.765365
758.000000	34.596710
759.000000	34.423369
760.000000	34.244364
761.000000	34.064324
762.000000	33.884248
763.000000	33.705572
764.000000	33.529205
765.000000	33.356756
766.000000	33.188144
767.000000	33.026656
768.000000	32.873776
769.000000	32.725913
770.000000	32.582552
771.000000	32.442372
772.000000	32.302759
773.000000	32.163711
774.000000	32.024456
775.000000	31.885006
776.000000	31.745092
777.000000	31.600537
778.000000	31.453236
779.000000	31.304293
780.000000	31.153051
781.000000	31.000052
782.000000	30.842492
783.000000	30.683414
784.000000	30.525758
785.000000	30.369364
786.000000	30.213291
787.000000	30.059778
788.000000	29.912840
789.000000	29.772214
790.000000	29.633105
791.000000	29.496586
792.000000	29.365836
793.000000	29.237262
794.000000	29.112523
795.000000	28.988123
796.000000	28.864200
797.000000	28.738675
798.000000	28.612662
799.000000	28.481299
800.000000	28.345300
801.000000	28.208642
802.000000	28.069973
803.000000	27.927647
804.000000	27.781124
805.000000	27.633682
806.000000	27.488714
807.000000	27.348147
808.000000	27.205370
809.000000	27.062156
810.000000	26.921868
811.000000	26.782337
812.000000	26.649055
813.000000	26.516571
814.000000	26.385697
815.000000	26.254893
816.000000	26.126465
817.000000	25.998515
818.000000	25.869983
819.000000	25.741956
820.000000	25.608397
821.000000	25.474595
822.000000	25.337299
823.000000	25.202145
824.000000	25.066877
825.000000	24.929827
826.000000	24.795476
827.000000	24.653078
828.000000	24.510897
829.000000	24.367756
830.000000	24.230422
831.000000	24.100452
832.000000	23.965336
833.000000	23.829750
834.000000	23.699565
835.000000	23.574336
836.000000	23.452354
837.000000	23.331034
838.000000	23.204961
839.000000	23.082733
840.000000	22.966429
841.000000	22.846314
842.000000	22.720677
843.000000	22.601050
844.000000	22.480631
845.000000	22.356603
846.000000	22.231382
847.000000	22.103096
848.000000	21.982147
849.000000	21.859747
850.000000	21.743678
851.000000	21.620997
852.000000	21.510651
853.000000	21.397418
854.000000	21.283083
855.000000	21.174367
856.000000	21.061172
857.000000	20.968346
858.000000	20.882459
859.000000	20.741046
860.000000	20.606785
861.000000	20.479178
862.000000	20.378970
863.000000	20.255124
864.000000	20.138242
865.000000	20.015257
866.000000	19.904986
867.000000	19.756944
868.000000	19.635497
869.000000	19.481952
870.000000	19.345327
871.000000	19.224997
872.000000	19.127696
873.000000	19.011030
874.000000	18.891329
875.000000	18.753103
876.000000	18.633997
877.000000	18.507744
878.000000	18.355760
879.000000	18.224371
880.000000	18.121446
881.000000	17.995561
882.000000	17.870158
883.000000	17.737721
884.000000	17.623457
885.000000	17.503081
886.000000	17.380211
887.000000	17.270580
888.000000	17.150896
889.000000	17.031833
890.000000	16.906056
891.000000	16.779161
892.000000	16.670472
893.000000	16.539728
894.000000	16.435609
895.000000	16.345274
896.000000	16.223781
897.000000	16.101619
898.000000	15.995337
899.000000	15.901997
900.000000	15.791037
901.000000	15.677653
902.000000	15.614748
903.000000	15.523914
904.000000	15.455402
905.000000	15.359335
906.000000	15.255710
907.000000	15.139182
908.000000	15.021934
909.000000	14.924427
910.000000	14.839074
911.000000	14.742102
912.000000	14.674234
913.000000	14.626253
914.000000	14.551582
915.000000	14.435662
916.000000	14.349039
917.000000	14.252845
918.000000	14.188263
919.000000	14.106315
920.000000	14.024549
921.000000	13.946214
922.000000	13.862610
923.000000	13.774026
924.000000	13.679303
925.000000	13.581823
926.000000	13.498700
927.000000	13.393790
928.000000	13.301233
929.000000	13.250923
930.000000	13.174109
931.000000	13.101992
932.000000	13.008903
933.000000	12.924948
934.000000	12.816929
935.000000	12.752277
936.000000	12.655739
937.000000	12.563536
938.000000	12.495632
939.000000	12.414377
940.000000	12.337047
941.000000	12.257197
942.000000	12.171016
943.000000	12.109701
944.000000	12.027027
945.000000	11.966868
946.000000	11.888213
947.000000	11.772211
948.000000	11.672528
949.000000	11.602175
950.000000	11.533757
951.000000	11.452329
952.000000	11.390621
953.000000	11.283214
954.000000	11.187542
955.000000	11.080276
956.000000	10.963348
957.000000	10.864170
958.000000	10.778641
959.000000	10.704445
960.000000	10.653516
961.000000	10.618274
962.000000	10.538486
963.000000	10.448272
964.000000	10.341249
965.000000	10.234365
966.000000	10.172137
967.000000	10.109750
968.000000	10.030934
969.000000	9.966998
970.000000	9.880040
971.000000	9.814115
972.000000	9.732639
973.000000	9.631667
974.000000	9.535966
975.000000	9.453525
976.000000	9.364576
977.000000	9.286634
978.000000	9.223251
979.000000	9.159383
980.000000	9.064447
981.000000	8.985659
982.000000	8.921512
983.000000	8.863318
984.000000	8.777141
985.000000	8.683247
986.000000	8.605230
987.000000	8.508321
988.000000	8.444680
989.000000	8.370111
990.000000	8.304529
991.000000	8.260132
992.000000	8.164818
993.000000	8.077899
994.000000	8.008492
995.000000	7.930981
996.000000	7.827763
997.000000	7.747343
998.000000	7.660195
999.000000	7.566433
1000.000000	7.487232
1001.000000	7.404585
1002.000000	7.346249
1003.000000	7.289868
1004.000000	7.222324
1005.000000	7.165342
1006.000000	7.093915
1007.000000	7.030888
1008.000000	6.946159
1009.000000	6.900972
1010.000000	6.853487
1011.000000	6.806270
1012.000000	6.752931
1013.000000	6.677983
1014.000000	6.609076
1015.000000	6.545961
1016.000000	6.498780
1017.000000	6.451853
1018.000000	6.371170
1019.000000	6.309540
1020.000000	6.270791
1021.000000	6.200297
1022.000000	6.146103
1023.000000	6.099912
1024.000000	6.058055
1025.000000	6.021295
1026.000000	5.977437
1027.000000	5.928575
1028.000000	5.887037
1029.000000	5.833664
1030.000000	5.772717
1031.000000	5.717603
1032.000000	5.682928
1033.000000	5.642130
1034.000000	5.598604
1035.000000	5.561115
1036.000000	5.500057
1037.000000	5.425051
1038.000000	5.351209
1039.000000	5.285227
1040.000000	5.220048
1041.000000	5.169473
1042.000000	5.107492
1043.000000	5.053096
1044.000000	4.994415
1045.000000	4.960373
1046.000000	4.920910
1047.000000	4.858830
1048.000000	4.820061
1049.000000	4.794886
1050.000000	4.768439
1051.000000	4.700176
1052.000000	4.646785
1053.000000	4.609020
1054.000000	4.571324
1055.000000	4.528336
1056.000000	4.513565
1057.000000	4.490387
1058.000000	4.451399
1059.000000	4.403931
1060.000000	4.347630
1061.000000	4.285648
1062.000000	4.283050
1063.000000	4.251406
1064.000000	4.200292
1065.000000	4.135942
1066.000000	4.086948
1067.000000	4.022258
1068.000000	3.991473
1069.000000	3.976334
1070.000000	3.941067
1071.000000	3.923906
1072.000000	3.899366
1073.000000	3.889255
1074.000000	3.875175
1075.000000	3.867009
1076.000000	3.838725
1077.000000	3.829366
1078.000000	3.835832
1079.000000	3.816630
1080.000000	3.759665
1081.000000	3.708300
1082.000000	3.698179
1083.000000	3.656813
1084.000000	3.610846
1085.000000	3.564975
1086.000000	3.531862
1087.000000	3.487143
1088.000000	3.472048
1089.000000	3.447920
1090.000000	3.405063
1091.000000	3.372412
1092.000000	3.347596
1093.000000	3.326583
1094.000000	3.308575
1095.000000	3.275201
1096.000000	3.287058
1097.000000	3.235573
1098.000000	3.205485
1099.000000	3.182288
1100.000000	3.172655
1101.000000	3.135823
1102.000000	3.103352
1103.000000	3.083457
1104.000000	3.048128
1105.000000	3.014555
1106.000000	3.001650
1107.000000	2.983888
1108.000000	2.969085
1109.000000	2.951513
1110.000000	2.883256
1111.000000	2.851821
1112.000000	2.829828
1113.000000	2.773564
1114.000000	2.765882
1115.000000	2.760214
1116.000000	2.786975
1117.000000	2.760107
1118.000000	2.724425
1119.000000	2.716602
1120.000000	2.683417
1121.000000	2.685340
1122.000000	2.638712
1123.000000	2.582324
1124.000000	2.521096
1125.000000	2.513113
1126.000000	2.525445
1127.000000	2.502126
1128.000000	2.453052
1129.000000	2.408207
1130.000000	2.428027
1131.000000	2.383516
1132.000000	2.380907
1133.000000	2.374436
1134.000000	2.288532
1135.000000	2.317759
1136.000000	2.347066
1137.000000	2.342956
1138.000000	2.324315
1139.000000	2.319216
1140.000000	2.346730
1141.000000	2.335227
1142.000000	2.353743
1143.000000	2.355649
1144.000000	2.343950
1145.000000	2.363303
1146.000000	2.371881
1147.000000	2.346492
1148.000000	2.366192
1149.000000	2.326833
1150.000000	2.342402
1151.000000	2.321107
1152.000000	2.292074
1153.000000	2.321213
1154.000000	2.338651
1155.000000	2.362555
1156.000000	2.377238
1157.000000	2.431982
1158.000000	2.472372
1159.000000	2.501587
1160.000000	2.524142
1161.000000	2.500207
1162.000000	2.522682
1163.000000	2.567032
1164.000000	2.630907
1165.000000	2.628155
1166.000000	2.672797
1167.000000	2.697459
1168.000000	2.687307
1169.000000	2.814888
1170.000000	2.825302
1171.000000	2.847651
1172.000000	2.904513
1173.000000	2.941891
1174.000000	3.001640
1175.000000	3.063380
1176.000000	3.093286
1177.000000	3.089691
1178.000000	3.102898
1179.000000	3.119920
1180.000000	3.167934
1181.000000	3.203586
1182.000000	3.247501
1183.000000	3.281932
1184.000000	3.352261
1185.000000	3.397987
1186.000000	3.427737
1187.000000	3.493909
1188.000000	3.512609
1189.000000	3.514186
1190.000000	3.560491
1191.000000	3.587147
1192.000000	3.610567
1193.000000	3.617298
1194.000000	3.666224
1195.000000	3.696975
1196.000000	3.729990
1197.000000	3.773335
1198.000000	3.797598
1199.000000	3.776758
1200.000000	3.775621
1201.000000	3.744987
1202.000000	3.724334
