PE UV       SUBTECH     SPECTRUM    ASCII       PEDS        4.00        
   -1
MACRASPIS.SP-TX3.ASC
23/11/30
13:55:33.00
23/11/30
13:55:33.00
Vinicio Soto Monge
MACRASPIS ?
250,000000
1
Lambda 1050
1050L1511233
PerkinElmer UV WinLab 6.3.2.0749 / 2.02.05 Lambda 900 UV/VIS/NIR, Aug  7 2015 09:38:08

0
0
3350/servo 860,8/2
0
0
UV/VIS
1
1
1
DoubleDePol,CommonBeamDepol,RBeamAtt,SBeamAtt,60mm sphere, WB InGaAs Detector
0
0
0
0
Program
Program
3350/servo 860,8/2
3350/0,4 860,8/0,4
3350/0,4 860,8/0,4
0
20.00
 
 
 
0
 
860,8
319,2
860,8
Front
100
on
S:100 R:100
0
0
0
0
 
0
 
 
 
0
 
 
0
0
0
0
0
 
 
 
 
0
0


0
0
#HDR
-1
-1
#GR
nm
%A
1.0
0.0
2200,000000
-1,000000
1951
8
80,438291
0,396740
#DATA
284.000000	92.447746
285.000000	92.478063
286.000000	92.508819
287.000000	92.535919
288.000000	92.560853
289.000000	92.583978
290.000000	92.605733
291.000000	92.626759
292.000000	92.645817
293.000000	92.665352
294.000000	92.680935
295.000000	92.698075
296.000000	92.714798
297.000000	92.727768
298.000000	92.739858
299.000000	92.751570
300.000000	92.764827
301.000000	92.774339
302.000000	92.782212
303.000000	92.792827
304.000000	92.800376
305.000000	92.809372
306.000000	92.819458
307.000000	92.829283
308.000000	92.837736
309.000000	92.847348
310.000000	92.857378
311.000000	92.866991
312.000000	92.876428
313.000000	92.885092
314.000000	92.893450
315.000000	92.903527
316.000000	92.911923
317.000000	92.920568
318.000000	92.932676
319.000000	92.944617
320.000000	92.955488
321.000000	92.963771
322.000000	92.973692
323.000000	92.988861
324.000000	93.001197
325.000000	93.015798
326.000000	93.032458
327.000000	93.041929
328.000000	93.054467
329.000000	93.070111
330.000000	93.084571
331.000000	93.100668
332.000000	93.119316
333.000000	93.139297
334.000000	93.154717
335.000000	93.169767
336.000000	93.183823
337.000000	93.199553
338.000000	93.212603
339.000000	93.230396
340.000000	93.248794
341.000000	93.265103
342.000000	93.279508
343.000000	93.294757
344.000000	93.309020
345.000000	93.319784
346.000000	93.331812
347.000000	93.345710
348.000000	93.359410
349.000000	93.371624
350.000000	93.383059
351.000000	93.394489
352.000000	93.407731
353.000000	93.416266
354.000000	93.426622
355.000000	93.437086
356.000000	93.449339
357.000000	93.462560
358.000000	93.471814
359.000000	93.480898
360.000000	93.489210
361.000000	93.495998
362.000000	93.510353
363.000000	93.522377
364.000000	93.532890
365.000000	93.542525
366.000000	93.550150
367.000000	93.555993
368.000000	93.563800
369.000000	93.575400
370.000000	93.585932
371.000000	93.598237
372.000000	93.606725
373.000000	93.616000
374.000000	93.626007
375.000000	93.633258
376.000000	93.642517
377.000000	93.654860
378.000000	93.667795
379.000000	93.679736
380.000000	93.693620
381.000000	93.706480
382.000000	93.718080
383.000000	93.730118
384.000000	93.743951
385.000000	93.757848
386.000000	93.771607
387.000000	93.784661
388.000000	93.798089
389.000000	93.810704
390.000000	93.824261
391.000000	93.838047
392.000000	93.850590
393.000000	93.862369
394.000000	93.876374
395.000000	93.889701
396.000000	93.902476
397.000000	93.914014
398.000000	93.926058
399.000000	93.938112
400.000000	93.949646
401.000000	93.962507
402.000000	93.975044
403.000000	93.986254
404.000000	93.996386
405.000000	94.006243
406.000000	94.017074
407.000000	94.029916
408.000000	94.041688
409.000000	94.051415
410.000000	94.061382
411.000000	94.070364
412.000000	94.077984
413.000000	94.085401
414.000000	94.092733
415.000000	94.099775
416.000000	94.106707
417.000000	94.113377
418.000000	94.119729
419.000000	94.126002
420.000000	94.131993
421.000000	94.137946
422.000000	94.143514
423.000000	94.148947
424.000000	94.154158
425.000000	94.159504
426.000000	94.164652
427.000000	94.169355
428.000000	94.174282
429.000000	94.179048
430.000000	94.184003
431.000000	94.188756
432.000000	94.193362
433.000000	94.197582
434.000000	94.201970
435.000000	94.206373
436.000000	94.210276
437.000000	94.214230
438.000000	94.218241
439.000000	94.222350
440.000000	94.226256
441.000000	94.229865
442.000000	94.233308
443.000000	94.236843
444.000000	94.240166
445.000000	94.243423
446.000000	94.246980
447.000000	94.250447
448.000000	94.253822
449.000000	94.256837
450.000000	94.260082
451.000000	94.263597
452.000000	94.266938
453.000000	94.270229
454.000000	94.273442
455.000000	94.276922
456.000000	94.280692
457.000000	94.284404
458.000000	94.288010
459.000000	94.291433
460.000000	94.294878
461.000000	94.298241
462.000000	94.301630
463.000000	94.304966
464.000000	94.308225
465.000000	94.311387
466.000000	94.314539
467.000000	94.317696
468.000000	94.320998
469.000000	94.323888
470.000000	94.326859
471.000000	94.330164
472.000000	94.332988
473.000000	94.335494
474.000000	94.337835
475.000000	94.340192
476.000000	94.342398
477.000000	94.344411
478.000000	94.346080
479.000000	94.347482
480.000000	94.348743
481.000000	94.349645
482.000000	94.350182
483.000000	94.350174
484.000000	94.349841
485.000000	94.349126
486.000000	94.347756
487.000000	94.345952
488.000000	94.343560
489.000000	94.340534
490.000000	94.336826
491.000000	94.332392
492.000000	94.327604
493.000000	94.322309
494.000000	94.316460
495.000000	94.309947
496.000000	94.302545
497.000000	94.294624
498.000000	94.285969
499.000000	94.276407
500.000000	94.266143
501.000000	94.255529
502.000000	94.244254
503.000000	94.232250
504.000000	94.219693
505.000000	94.206284
506.000000	94.191718
507.000000	94.176543
508.000000	94.160547
509.000000	94.143824
510.000000	94.126221
511.000000	94.107743
512.000000	94.088286
513.000000	94.067671
514.000000	94.045744
515.000000	94.022558
516.000000	93.998196
517.000000	93.972592
518.000000	93.945389
519.000000	93.917050
520.000000	93.887137
521.000000	93.855362
522.000000	93.821912
523.000000	93.786734
524.000000	93.749754
525.000000	93.710724
526.000000	93.669625
527.000000	93.626216
528.000000	93.580248
529.000000	93.531862
530.000000	93.480888
531.000000	93.427027
532.000000	93.369976
533.000000	93.309555
534.000000	93.245375
535.000000	93.177411
536.000000	93.105362
537.000000	93.028771
538.000000	92.947303
539.000000	92.860941
540.000000	92.769568
541.000000	92.672830
542.000000	92.570305
543.000000	92.461759
544.000000	92.346546
545.000000	92.225055
546.000000	92.096929
547.000000	91.961740
548.000000	91.819537
549.000000	91.670042
550.000000	91.513043
551.000000	91.348212
552.000000	91.175153
553.000000	90.993950
554.000000	90.804722
555.000000	90.607502
556.000000	90.402714
557.000000	90.190153
558.000000	89.969758
559.000000	89.741704
560.000000	89.504228
561.000000	89.259610
562.000000	89.008437
563.000000	88.750950
564.000000	88.487304
565.000000	88.217968
566.000000	87.943715
567.000000	87.664929
568.000000	87.382683
569.000000	87.098129
570.000000	86.810878
571.000000	86.521348
572.000000	86.230875
573.000000	85.940287
574.000000	85.649093
575.000000	85.358467
576.000000	85.069497
577.000000	84.782667
578.000000	84.498806
579.000000	84.219419
580.000000	83.945351
581.000000	83.677796
582.000000	83.417902
583.000000	83.166241
584.000000	82.924001
585.000000	82.692773
586.000000	82.473376
587.000000	82.266575
588.000000	82.074162
589.000000	81.896231
590.000000	81.733721
591.000000	81.587364
592.000000	81.457249
593.000000	81.343728
594.000000	81.246919
595.000000	81.168932
596.000000	81.107825
597.000000	81.063396
598.000000	81.035634
599.000000	81.024589
600.000000	81.030681
601.000000	81.052632
602.000000	81.090803
603.000000	81.144666
604.000000	81.213116
605.000000	81.296291
606.000000	81.393894
607.000000	81.505207
608.000000	81.629284
609.000000	81.766438
610.000000	81.916272
611.000000	82.077954
612.000000	82.251542
613.000000	82.436285
614.000000	82.631085
615.000000	82.834762
616.000000	83.047131
617.000000	83.267192
618.000000	83.494006
619.000000	83.726796
620.000000	83.963960
621.000000	84.205181
622.000000	84.450147
623.000000	84.696751
624.000000	84.944270
625.000000	85.192141
626.000000	85.439166
627.000000	85.685490
628.000000	85.930217
629.000000	86.173217
630.000000	86.414232
631.000000	86.652872
632.000000	86.888426
633.000000	87.120750
634.000000	87.349244
635.000000	87.573473
636.000000	87.793635
637.000000	88.008481
638.000000	88.218090
639.000000	88.422654
640.000000	88.621825
641.000000	88.815567
642.000000	89.003167
643.000000	89.185341
644.000000	89.361601
645.000000	89.531503
646.000000	89.694803
647.000000	89.851652
648.000000	90.002050
649.000000	90.145620
650.000000	90.282592
651.000000	90.412177
652.000000	90.534260
653.000000	90.649468
654.000000	90.757585
655.000000	90.858525
656.000000	90.952139
657.000000	91.038167
658.000000	91.117215
659.000000	91.189107
660.000000	91.253810
661.000000	91.311948
662.000000	91.363085
663.000000	91.407749
664.000000	91.446157
665.000000	91.478166
666.000000	91.504044
667.000000	91.523717
668.000000	91.537731
669.000000	91.546224
670.000000	91.548994
671.000000	91.546704
672.000000	91.539845
673.000000	91.527563
674.000000	91.510689
675.000000	91.489447
676.000000	91.464190
677.000000	91.435339
678.000000	91.402657
679.000000	91.366851
680.000000	91.327681
681.000000	91.285632
682.000000	91.240235
683.000000	91.191651
684.000000	91.140636
685.000000	91.087343
686.000000	91.031448
687.000000	90.973431
688.000000	90.913443
689.000000	90.851167
690.000000	90.786967
691.000000	90.720643
692.000000	90.652859
693.000000	90.583691
694.000000	90.513092
695.000000	90.441243
696.000000	90.367774
697.000000	90.293395
698.000000	90.217342
699.000000	90.139273
700.000000	90.060156
701.000000	89.979648
702.000000	89.898284
703.000000	89.815347
704.000000	89.731036
705.000000	89.645684
706.000000	89.559101
707.000000	89.470988
708.000000	89.381661
709.000000	89.291680
710.000000	89.200842
711.000000	89.108413
712.000000	89.014534
713.000000	88.919641
714.000000	88.823668
715.000000	88.726617
716.000000	88.628699
717.000000	88.530084
718.000000	88.429965
719.000000	88.328481
720.000000	88.225620
721.000000	88.121735
722.000000	88.016554
723.000000	87.909773
724.000000	87.802889
725.000000	87.695106
726.000000	87.586173
727.000000	87.475897
728.000000	87.364455
729.000000	87.251558
730.000000	87.137366
731.000000	87.022025
732.000000	86.905154
733.000000	86.787748
734.000000	86.670144
735.000000	86.550259
736.000000	86.429156
737.000000	86.306795
738.000000	86.183151
739.000000	86.058479
740.000000	85.932304
741.000000	85.805121
742.000000	85.677365
743.000000	85.548742
744.000000	85.418544
745.000000	85.287126
746.000000	85.154445
747.000000	85.021706
748.000000	84.887938
749.000000	84.752351
750.000000	84.615286
751.000000	84.476651
752.000000	84.336974
753.000000	84.196989
754.000000	84.055760
755.000000	83.913489
756.000000	83.769769
757.000000	83.624526
758.000000	83.478737
759.000000	83.331084
760.000000	83.182866
761.000000	83.032964
762.000000	82.881943
763.000000	82.729720
764.000000	82.576515
765.000000	82.422434
766.000000	82.267365
767.000000	82.111547
768.000000	81.954520
769.000000	81.795251
770.000000	81.636084
771.000000	81.475701
772.000000	81.313862
773.000000	81.151638
774.000000	80.988572
775.000000	80.824143
776.000000	80.658350
777.000000	80.491683
778.000000	80.324087
779.000000	80.155578
780.000000	79.985817
781.000000	79.815787
782.000000	79.642438
783.000000	79.467953
784.000000	79.294439
785.000000	79.119259
786.000000	78.943338
787.000000	78.766567
788.000000	78.588527
789.000000	78.409326
790.000000	78.229000
791.000000	78.046703
792.000000	77.866086
793.000000	77.684690
794.000000	77.501978
795.000000	77.317893
796.000000	77.133337
797.000000	76.947670
798.000000	76.760742
799.000000	76.574130
800.000000	76.385891
801.000000	76.195657
802.000000	76.003218
803.000000	75.810686
804.000000	75.617670
805.000000	75.423510
806.000000	75.229152
807.000000	75.033657
808.000000	74.837865
809.000000	74.640622
810.000000	74.443542
811.000000	74.246328
812.000000	74.047876
813.000000	73.847642
814.000000	73.646775
815.000000	73.445640
816.000000	73.244469
817.000000	73.044158
818.000000	72.841960
819.000000	72.639443
820.000000	72.436868
821.000000	72.230949
822.000000	72.026468
823.000000	71.820233
824.000000	71.614994
825.000000	71.409816
826.000000	71.202664
827.000000	70.993079
828.000000	70.782742
829.000000	70.570934
830.000000	70.359809
831.000000	70.149925
832.000000	69.938568
833.000000	69.726373
834.000000	69.516131
835.000000	69.303721
836.000000	69.094375
837.000000	68.883906
838.000000	68.670785
839.000000	68.455348
840.000000	68.242293
841.000000	68.030161
842.000000	67.815869
843.000000	67.604123
844.000000	67.386540
845.000000	67.170186
846.000000	66.956135
847.000000	66.737419
848.000000	66.523836
849.000000	66.309040
850.000000	66.090558
851.000000	65.874152
852.000000	65.659281
853.000000	65.442284
854.000000	65.228525
855.000000	65.012702
856.000000	64.795415
857.000000	64.578529
858.000000	64.363150
859.000000	64.127928
860.000000	63.903337
861.000000	63.647558
862.000000	63.423876
863.000000	63.211665
864.000000	62.992759
865.000000	62.780991
866.000000	62.583320
867.000000	62.358094
868.000000	62.134713
869.000000	61.916326
870.000000	61.692992
871.000000	61.476576
872.000000	61.245165
873.000000	61.020483
874.000000	60.826022
875.000000	60.593612
876.000000	60.387625
877.000000	60.173596
878.000000	59.939305
879.000000	59.758704
880.000000	59.530417
881.000000	59.289370
882.000000	59.079217
883.000000	58.847072
884.000000	58.620525
885.000000	58.378981
886.000000	58.156880
887.000000	57.929140
888.000000	57.710765
889.000000	57.436149
890.000000	57.207718
891.000000	56.983817
892.000000	56.759153
893.000000	56.561135
894.000000	56.361221
895.000000	56.149638
896.000000	56.000203
897.000000	55.786932
898.000000	55.559075
899.000000	55.345048
900.000000	55.114386
901.000000	54.879516
902.000000	54.682309
903.000000	54.469407
904.000000	54.246065
905.000000	54.023626
906.000000	53.823698
907.000000	53.617901
908.000000	53.405406
909.000000	53.170378
910.000000	52.972723
911.000000	52.758423
912.000000	52.546844
913.000000	52.310679
914.000000	52.062554
915.000000	51.848416
916.000000	51.673976
917.000000	51.449412
918.000000	51.252442
919.000000	51.021269
920.000000	50.852229
921.000000	50.643331
922.000000	50.458970
923.000000	50.251676
924.000000	50.113206
925.000000	49.922294
926.000000	49.728023
927.000000	49.526325
928.000000	49.305778
929.000000	49.124791
930.000000	48.953787
931.000000	48.751527
932.000000	48.562708
933.000000	48.374385
934.000000	48.170006
935.000000	47.990410
936.000000	47.818341
937.000000	47.598439
938.000000	47.410578
939.000000	47.223411
940.000000	47.039602
941.000000	46.806433
942.000000	46.626234
943.000000	46.442802
944.000000	46.259719
945.000000	46.073961
946.000000	45.863167
947.000000	45.661793
948.000000	45.535998
949.000000	45.375625
950.000000	45.213274
951.000000	45.023210
952.000000	44.866522
953.000000	44.685692
954.000000	44.526116
955.000000	44.352923
956.000000	44.189656
957.000000	44.000134
958.000000	43.813252
959.000000	43.621493
960.000000	43.424520
961.000000	43.246071
962.000000	43.049681
963.000000	42.861470
964.000000	42.667969
965.000000	42.436112
966.000000	42.231165
967.000000	42.053206
968.000000	41.891851
969.000000	41.721928
970.000000	41.523840
971.000000	41.334298
972.000000	41.163448
973.000000	40.986979
974.000000	40.807043
975.000000	40.647044
976.000000	40.481779
977.000000	40.280777
978.000000	40.108662
979.000000	39.936794
980.000000	39.754751
981.000000	39.592464
982.000000	39.419544
983.000000	39.208981
984.000000	39.001288
985.000000	38.796344
986.000000	38.592842
987.000000	38.384117
988.000000	38.201617
989.000000	38.034078
990.000000	37.830627
991.000000	37.632363
992.000000	37.432604
993.000000	37.256853
994.000000	37.103617
995.000000	36.964820
996.000000	36.788746
997.000000	36.621059
998.000000	36.458061
999.000000	36.284648
1000.000000	36.145159
1001.000000	36.001809
1002.000000	35.844577
1003.000000	35.648144
1004.000000	35.467549
1005.000000	35.330582
1006.000000	35.186348
1007.000000	35.031290
1008.000000	34.857906
1009.000000	34.707907
1010.000000	34.538745
1011.000000	34.381653
1012.000000	34.249581
1013.000000	34.093742
1014.000000	33.922061
1015.000000	33.764228
1016.000000	33.603262
1017.000000	33.444740
1018.000000	33.297139
1019.000000	33.148652
1020.000000	33.016419
1021.000000	32.881287
1022.000000	32.737980
1023.000000	32.587217
1024.000000	32.432840
1025.000000	32.320663
1026.000000	32.213425
1027.000000	32.089729
1028.000000	31.962941
1029.000000	31.813215
1030.000000	31.655325
1031.000000	31.524225
1032.000000	31.412248
1033.000000	31.289514
1034.000000	31.166596
1035.000000	31.039674
1036.000000	30.876319
1037.000000	30.720377
1038.000000	30.610886
1039.000000	30.491720
1040.000000	30.344683
1041.000000	30.200490
1042.000000	30.080120
1043.000000	29.935316
1044.000000	29.768810
1045.000000	29.612698
1046.000000	29.496571
1047.000000	29.371930
1048.000000	29.240608
1049.000000	29.118858
1050.000000	28.987046
1051.000000	28.865795
1052.000000	28.742196
1053.000000	28.619050
1054.000000	28.483022
1055.000000	28.350623
1056.000000	28.217937
1057.000000	28.104982
1058.000000	27.983862
1059.000000	27.857171
1060.000000	27.711747
1061.000000	27.576632
1062.000000	27.453407
1063.000000	27.326575
1064.000000	27.196681
1065.000000	27.059511
1066.000000	26.912026
1067.000000	26.766916
1068.000000	26.638248
1069.000000	26.480405
1070.000000	26.336587
1071.000000	26.235358
1072.000000	26.155292
1073.000000	26.034325
1074.000000	25.916747
1075.000000	25.780360
1076.000000	25.640213
1077.000000	25.524579
1078.000000	25.416288
1079.000000	25.305197
1080.000000	25.196190
1081.000000	25.086834
1082.000000	24.965213
1083.000000	24.855368
1084.000000	24.700268
1085.000000	24.605246
1086.000000	24.485413
1087.000000	24.400112
1088.000000	24.292362
1089.000000	24.214548
1090.000000	24.107373
1091.000000	23.992733
1092.000000	23.859365
1093.000000	23.732876
1094.000000	23.638934
1095.000000	23.526897
1096.000000	23.415115
1097.000000	23.316478
1098.000000	23.215636
1099.000000	23.099015
1100.000000	23.012807
1101.000000	22.922073
1102.000000	22.816103
1103.000000	22.709132
1104.000000	22.615336
1105.000000	22.535080
1106.000000	22.413359
1107.000000	22.280748
1108.000000	22.189597
1109.000000	22.081106
1110.000000	21.989938
1111.000000	21.877293
1112.000000	21.760321
1113.000000	21.656787
1114.000000	21.572314
1115.000000	21.460965
1116.000000	21.350502
1117.000000	21.238061
1118.000000	21.132951
1119.000000	21.076807
1120.000000	20.965626
1121.000000	20.857987
1122.000000	20.712592
1123.000000	20.563709
1124.000000	20.431027
1125.000000	20.331910
1126.000000	20.270077
1127.000000	20.173661
1128.000000	20.079269
1129.000000	19.951918
1130.000000	19.837278
1131.000000	19.694600
1132.000000	19.590377
1133.000000	19.472758
1134.000000	19.338071
1135.000000	19.223407
1136.000000	19.110372
1137.000000	19.007235
1138.000000	18.893015
1139.000000	18.811579
1140.000000	18.699418
1141.000000	18.611399
1142.000000	18.492627
1143.000000	18.372946
1144.000000	18.260858
1145.000000	18.165294
1146.000000	18.072559
1147.000000	17.993156
1148.000000	17.906949
1149.000000	17.812301
1150.000000	17.747523
1151.000000	17.640302
1152.000000	17.546304
1153.000000	17.445605
1154.000000	17.349713
1155.000000	17.250661
1156.000000	17.149712
1157.000000	17.088535
1158.000000	17.060990
1159.000000	17.010602
1160.000000	16.934954
1161.000000	16.825703
1162.000000	16.771011
1163.000000	16.721488
1164.000000	16.670083
1165.000000	16.613700
1166.000000	16.567154
1167.000000	16.497016
1168.000000	16.454706
1169.000000	16.448504
1170.000000	16.416469
1171.000000	16.378687
1172.000000	16.344836
1173.000000	16.277972
1174.000000	16.194697
1175.000000	16.139425
1176.000000	16.087418
1177.000000	16.022733
1178.000000	15.957108
1179.000000	15.896095
1180.000000	15.835425
1181.000000	15.778523
1182.000000	15.717680
1183.000000	15.647842
1184.000000	15.575258
1185.000000	15.478064
1186.000000	15.443594
1187.000000	15.406100
1188.000000	15.365045
1189.000000	15.313629
1190.000000	15.276934
1191.000000	15.231651
1192.000000	15.181464
1193.000000	15.126886
