PE UV       SUBTECH     SPECTRUM    ASCII       PEDS        4.00        
   -1
S.GLAB.0620-TX3.ASC
23/11/30
12:29:55.00
23/11/30
12:29:55.00
Vinicio Soto Monge
STRIGIDA GLABRA INBIOCRI0003420620
250,000000
1
Lambda 1050
1050L1511233
PerkinElmer UV WinLab 6.3.2.0749 / 2.02.05 Lambda 900 UV/VIS/NIR, Aug  7 2015 09:38:08

0
0
3350/servo 860,8/2
0
0
UV/VIS
1
1
1
DoubleDePol,CommonBeamDepol,RBeamAtt,SBeamAtt,60mm sphere, WB InGaAs Detector
0
0
0
0
Program
Program
3350/servo 860,8/2
3350/0,4 860,8/0,4
3350/0,4 860,8/0,4
0
20.00
 
 
 
0
 
860,8
319,2
860,8
Front
100
on
S:100 R:100
0
0
0
0
 
0
 
 
 
0
 
 
0
0
0
0
0
 
 
 
 
0
0


0
0
#HDR
-1
-1
#GR
nm
%A
1.0
0.0
2200,000000
-1,000000
1951
8
56,969429
0,360001
#DATA
284.000000	93.603438
285.000000	93.622487
286.000000	93.642163
287.000000	93.659206
288.000000	93.675297
289.000000	93.690971
290.000000	93.704926
291.000000	93.718548
292.000000	93.730500
293.000000	93.741711
294.000000	93.752306
295.000000	93.764248
296.000000	93.774261
297.000000	93.783241
298.000000	93.789739
299.000000	93.796063
300.000000	93.803640
301.000000	93.807143
302.000000	93.811605
303.000000	93.816893
304.000000	93.820982
305.000000	93.824504
306.000000	93.829231
307.000000	93.834066
308.000000	93.835052
309.000000	93.837594
310.000000	93.840667
311.000000	93.843407
312.000000	93.846729
313.000000	93.849569
314.000000	93.852413
315.000000	93.855145
316.000000	93.858988
317.000000	93.868675
318.000000	93.876720
319.000000	93.882952
320.000000	93.888592
321.000000	93.893070
322.000000	93.897154
323.000000	93.907358
324.000000	93.912528
325.000000	93.923668
326.000000	93.934005
327.000000	93.941301
328.000000	93.948946
329.000000	93.959282
330.000000	93.966092
331.000000	93.975348
332.000000	93.987698
333.000000	93.997481
334.000000	94.008484
335.000000	94.018589
336.000000	94.031513
337.000000	94.041493
338.000000	94.050322
339.000000	94.062412
340.000000	94.073838
341.000000	94.084056
342.000000	94.093555
343.000000	94.105792
344.000000	94.114841
345.000000	94.124582
346.000000	94.134529
347.000000	94.144907
348.000000	94.154257
349.000000	94.162492
350.000000	94.170749
351.000000	94.178184
352.000000	94.182336
353.000000	94.187632
354.000000	94.193612
355.000000	94.200267
356.000000	94.205828
357.000000	94.213845
358.000000	94.214959
359.000000	94.221125
360.000000	94.222479
361.000000	94.223706
362.000000	94.229428
363.000000	94.234283
364.000000	94.237007
365.000000	94.241253
366.000000	94.243138
367.000000	94.244002
368.000000	94.248359
369.000000	94.250905
370.000000	94.254401
371.000000	94.257464
372.000000	94.261166
373.000000	94.266357
374.000000	94.268617
375.000000	94.271707
376.000000	94.276591
377.000000	94.279239
378.000000	94.282144
379.000000	94.287003
380.000000	94.290055
381.000000	94.293827
382.000000	94.297269
383.000000	94.301886
384.000000	94.306728
385.000000	94.311516
386.000000	94.316938
387.000000	94.320658
388.000000	94.323478
389.000000	94.327969
390.000000	94.332495
391.000000	94.337860
392.000000	94.342478
393.000000	94.348383
394.000000	94.354025
395.000000	94.358236
396.000000	94.363779
397.000000	94.367780
398.000000	94.372274
399.000000	94.376847
400.000000	94.382318
401.000000	94.387901
402.000000	94.392305
403.000000	94.396756
404.000000	94.401068
405.000000	94.404561
406.000000	94.408521
407.000000	94.413518
408.000000	94.417238
409.000000	94.421049
410.000000	94.424525
411.000000	94.427058
412.000000	94.430540
413.000000	94.433738
414.000000	94.436894
415.000000	94.440143
416.000000	94.443082
417.000000	94.445530
418.000000	94.448048
419.000000	94.450676
420.000000	94.453103
421.000000	94.454841
422.000000	94.456569
423.000000	94.458509
424.000000	94.460086
425.000000	94.461420
426.000000	94.462632
427.000000	94.463753
428.000000	94.464980
429.000000	94.466224
430.000000	94.467119
431.000000	94.467637
432.000000	94.468286
433.000000	94.468544
434.000000	94.468979
435.000000	94.469272
436.000000	94.469286
437.000000	94.469494
438.000000	94.469447
439.000000	94.469500
440.000000	94.469323
441.000000	94.468919
442.000000	94.468282
443.000000	94.467729
444.000000	94.467074
445.000000	94.466591
446.000000	94.465993
447.000000	94.465129
448.000000	94.464331
449.000000	94.463398
450.000000	94.462426
451.000000	94.461366
452.000000	94.460117
453.000000	94.458733
454.000000	94.457302
455.000000	94.456181
456.000000	94.455491
457.000000	94.454567
458.000000	94.453128
459.000000	94.451648
460.000000	94.450109
461.000000	94.448593
462.000000	94.446942
463.000000	94.445092
464.000000	94.443256
465.000000	94.441480
466.000000	94.439599
467.000000	94.437452
468.000000	94.435088
469.000000	94.432319
470.000000	94.429557
471.000000	94.426772
472.000000	94.423661
473.000000	94.420311
474.000000	94.416663
475.000000	94.412980
476.000000	94.409340
477.000000	94.405239
478.000000	94.400722
479.000000	94.395829
480.000000	94.390667
481.000000	94.385535
482.000000	94.380622
483.000000	94.375296
484.000000	94.369379
485.000000	94.362718
486.000000	94.355280
487.000000	94.347039
488.000000	94.337826
489.000000	94.327468
490.000000	94.315569
491.000000	94.302184
492.000000	94.287460
493.000000	94.271609
494.000000	94.254092
495.000000	94.234648
496.000000	94.213237
497.000000	94.190304
498.000000	94.165349
499.000000	94.138391
500.000000	94.109805
501.000000	94.079732
502.000000	94.047880
503.000000	94.014223
504.000000	93.978912
505.000000	93.941877
506.000000	93.902802
507.000000	93.861543
508.000000	93.818341
509.000000	93.772439
510.000000	93.723803
511.000000	93.672402
512.000000	93.617633
513.000000	93.559182
514.000000	93.496553
515.000000	93.429392
516.000000	93.357353
517.000000	93.280095
518.000000	93.197514
519.000000	93.109316
520.000000	93.015333
521.000000	92.915167
522.000000	92.808315
523.000000	92.694688
524.000000	92.574189
525.000000	92.446989
526.000000	92.312684
527.000000	92.170952
528.000000	92.021324
529.000000	91.864110
530.000000	91.699107
531.000000	91.526140
532.000000	91.344813
533.000000	91.155427
534.000000	90.957530
535.000000	90.751173
536.000000	90.535798
537.000000	90.311860
538.000000	90.079501
539.000000	89.838577
540.000000	89.589315
541.000000	89.331997
542.000000	89.066750
543.000000	88.793943
544.000000	88.514019
545.000000	88.227654
546.000000	87.935003
547.000000	87.637749
548.000000	87.335836
549.000000	87.030750
550.000000	86.722931
551.000000	86.413517
552.000000	86.103367
553.000000	85.793335
554.000000	85.484885
555.000000	85.179187
556.000000	84.877383
557.000000	84.580675
558.000000	84.290561
559.000000	84.007933
560.000000	83.734062
561.000000	83.469911
562.000000	83.216426
563.000000	82.974747
564.000000	82.746050
565.000000	82.531147
566.000000	82.330422
567.000000	82.144192
568.000000	81.973303
569.000000	81.818523
570.000000	81.679819
571.000000	81.557128
572.000000	81.450767
573.000000	81.360450
574.000000	81.285567
575.000000	81.225813
576.000000	81.180812
577.000000	81.149979
578.000000	81.132219
579.000000	81.127125
580.000000	81.133314
581.000000	81.150477
582.000000	81.176716
583.000000	81.211234
584.000000	81.252350
585.000000	81.299478
586.000000	81.350407
587.000000	81.403862
588.000000	81.458764
589.000000	81.513791
590.000000	81.567652
591.000000	81.618443
592.000000	81.666276
593.000000	81.709021
594.000000	81.745937
595.000000	81.775884
596.000000	81.798357
597.000000	81.813052
598.000000	81.819836
599.000000	81.817258
600.000000	81.805527
601.000000	81.784321
602.000000	81.753409
603.000000	81.712763
604.000000	81.661327
605.000000	81.599553
606.000000	81.527572
607.000000	81.444990
608.000000	81.352199
609.000000	81.249189
610.000000	81.136513
611.000000	81.013778
612.000000	80.881209
613.000000	80.739633
614.000000	80.589246
615.000000	80.429994
616.000000	80.262782
617.000000	80.088170
618.000000	79.906284
619.000000	79.718203
620.000000	79.523430
621.000000	79.323984
622.000000	79.120117
623.000000	78.912609
624.000000	78.702041
625.000000	78.489438
626.000000	78.275250
627.000000	78.058807
628.000000	77.841404
629.000000	77.623263
630.000000	77.404097
631.000000	77.183849
632.000000	76.962828
633.000000	76.739927
634.000000	76.515884
635.000000	76.290178
636.000000	76.061778
637.000000	75.830463
638.000000	75.596352
639.000000	75.359797
640.000000	75.118536
641.000000	74.873598
642.000000	74.624500
643.000000	74.370287
644.000000	74.111403
645.000000	73.847665
646.000000	73.579169
647.000000	73.306539
648.000000	73.029594
649.000000	72.748180
650.000000	72.462768
651.000000	72.172155
652.000000	71.876923
653.000000	71.578086
654.000000	71.275127
655.000000	70.969334
656.000000	70.660388
657.000000	70.348631
658.000000	70.034129
659.000000	69.715623
660.000000	69.392130
661.000000	69.065222
662.000000	68.735584
663.000000	68.402095
664.000000	68.065026
665.000000	67.725220
666.000000	67.382137
667.000000	67.035364
668.000000	66.684145
669.000000	66.328998
670.000000	65.970415
671.000000	65.608918
672.000000	65.244480
673.000000	64.876550
674.000000	64.506302
675.000000	64.134957
676.000000	63.760822
677.000000	63.385338
678.000000	63.008780
679.000000	62.631645
680.000000	62.252843
681.000000	61.874016
682.000000	61.494552
683.000000	61.113747
684.000000	60.733125
685.000000	60.353358
686.000000	59.974041
687.000000	59.595000
688.000000	59.218430
689.000000	58.841971
690.000000	58.466928
691.000000	58.091622
692.000000	57.716453
693.000000	57.341420
694.000000	56.967731
695.000000	56.595815
696.000000	56.224655
697.000000	55.854867
698.000000	55.486693
699.000000	55.117841
700.000000	54.749192
701.000000	54.380648
702.000000	54.011776
703.000000	53.645153
704.000000	53.278710
705.000000	52.912622
706.000000	52.547296
707.000000	52.182377
708.000000	51.817458
709.000000	51.451894
710.000000	51.087054
711.000000	50.721547
712.000000	50.355313
713.000000	49.990446
714.000000	49.625052
715.000000	49.260701
716.000000	48.896259
717.000000	48.532952
718.000000	48.170498
719.000000	47.809063
720.000000	47.446353
721.000000	47.083461
722.000000	46.722245
723.000000	46.359661
724.000000	45.997904
725.000000	45.636759
726.000000	45.275502
727.000000	44.914508
728.000000	44.553986
729.000000	44.195555
730.000000	43.837576
731.000000	43.479635
732.000000	43.122170
733.000000	42.765704
734.000000	42.411783
735.000000	42.058253
736.000000	41.704155
737.000000	41.352481
738.000000	41.001728
739.000000	40.654162
740.000000	40.308427
741.000000	39.964840
742.000000	39.624557
743.000000	39.286575
744.000000	38.954578
745.000000	38.625437
746.000000	38.300190
747.000000	37.980887
748.000000	37.664312
749.000000	37.353356
750.000000	37.048248
751.000000	36.747678
752.000000	36.451909
753.000000	36.161256
754.000000	35.875032
755.000000	35.595054
756.000000	35.321089
757.000000	35.052155
758.000000	34.789479
759.000000	34.534211
760.000000	34.284264
761.000000	34.040094
762.000000	33.801361
763.000000	33.568649
764.000000	33.337391
765.000000	33.111633
766.000000	32.895187
767.000000	32.683968
768.000000	32.478147
769.000000	32.277104
770.000000	32.083552
771.000000	31.895732
772.000000	31.710412
773.000000	31.531294
774.000000	31.356602
775.000000	31.185321
776.000000	31.017508
777.000000	30.854780
778.000000	30.695621
779.000000	30.537265
780.000000	30.377874
781.000000	30.224476
782.000000	30.069818
783.000000	29.916116
784.000000	29.762672
785.000000	29.608151
786.000000	29.455938
787.000000	29.305859
788.000000	29.156829
789.000000	29.004259
790.000000	28.850441
791.000000	28.695582
792.000000	28.539549
793.000000	28.386360
794.000000	28.230607
795.000000	28.071611
796.000000	27.910165
797.000000	27.748600
798.000000	27.583984
799.000000	27.421397
800.000000	27.259748
801.000000	27.090657
802.000000	26.917315
803.000000	26.739693
804.000000	26.563112
805.000000	26.387659
806.000000	26.210797
807.000000	26.031738
808.000000	25.851494
809.000000	25.668150
810.000000	25.481819
811.000000	25.293484
812.000000	25.101178
813.000000	24.908416
814.000000	24.713221
815.000000	24.521888
816.000000	24.329485
817.000000	24.131750
818.000000	23.934367
819.000000	23.740544
820.000000	23.549513
821.000000	23.349657
822.000000	23.153173
823.000000	22.954844
824.000000	22.760224
825.000000	22.565767
826.000000	22.371110
827.000000	22.176374
828.000000	21.974703
829.000000	21.777000
830.000000	21.583265
831.000000	21.395475
832.000000	21.203991
833.000000	21.015939
834.000000	20.824524
835.000000	20.629053
836.000000	20.443497
837.000000	20.256323
838.000000	20.068191
839.000000	19.887027
840.000000	19.701672
841.000000	19.519453
842.000000	19.337952
843.000000	19.165192
844.000000	18.989391
845.000000	18.805469
846.000000	18.634235
847.000000	18.462428
848.000000	18.292388
849.000000	18.125740
850.000000	17.954623
851.000000	17.780592
852.000000	17.607608
853.000000	17.440389
854.000000	17.275108
855.000000	17.110289
856.000000	16.956083
857.000000	16.800745
858.000000	16.647923
859.000000	16.444131
860.000000	16.260499
861.000000	16.065129
862.000000	15.898703
863.000000	15.726114
864.000000	15.539815
865.000000	15.376007
866.000000	15.209873
867.000000	15.023693
868.000000	14.855649
869.000000	14.702945
870.000000	14.545046
871.000000	14.369738
872.000000	14.215066
873.000000	14.046835
874.000000	13.878293
875.000000	13.698316
876.000000	13.535815
877.000000	13.375333
878.000000	13.201188
879.000000	13.049449
880.000000	12.902624
881.000000	12.728212
882.000000	12.574251
883.000000	12.426270
884.000000	12.258888
885.000000	12.093449
886.000000	11.941007
887.000000	11.788446
888.000000	11.660998
889.000000	11.508766
890.000000	11.386291
891.000000	11.248664
892.000000	11.099054
893.000000	10.944994
894.000000	10.831811
895.000000	10.714778
896.000000	10.612437
897.000000	10.498586
898.000000	10.378604
899.000000	10.300452
900.000000	10.161275
901.000000	10.046297
902.000000	9.955056
903.000000	9.845675
904.000000	9.721703
905.000000	9.631072
906.000000	9.521005
907.000000	9.419982
908.000000	9.322139
909.000000	9.205366
910.000000	9.115152
911.000000	9.005314
912.000000	8.913769
913.000000	8.812843
914.000000	8.690395
915.000000	8.582281
916.000000	8.521594
917.000000	8.447639
918.000000	8.353881
919.000000	8.249924
920.000000	8.195366
921.000000	8.092059
922.000000	8.023420
923.000000	7.929127
924.000000	7.877698
925.000000	7.789381
926.000000	7.698312
927.000000	7.629220
928.000000	7.556578
929.000000	7.512914
930.000000	7.439120
931.000000	7.371027
932.000000	7.289086
933.000000	7.212644
934.000000	7.100182
935.000000	7.053348
936.000000	6.981121
937.000000	6.898421
938.000000	6.833001
939.000000	6.776095
940.000000	6.679227
941.000000	6.625175
942.000000	6.544611
943.000000	6.495765
944.000000	6.439906
945.000000	6.378166
946.000000	6.300535
947.000000	6.221580
948.000000	6.162531
949.000000	6.104034
950.000000	6.050549
951.000000	5.989164
952.000000	5.931019
953.000000	5.878230
954.000000	5.837286
955.000000	5.788241
956.000000	5.764508
957.000000	5.716027
958.000000	5.676723
959.000000	5.609633
960.000000	5.532592
961.000000	5.495015
962.000000	5.402095
963.000000	5.327068
964.000000	5.247453
965.000000	5.157748
966.000000	5.091011
967.000000	5.031659
968.000000	4.990112
969.000000	4.947317
970.000000	4.893798
971.000000	4.839631
972.000000	4.792193
973.000000	4.745624
974.000000	4.692299
975.000000	4.663110
976.000000	4.611445
977.000000	4.562098
978.000000	4.489542
979.000000	4.456124
980.000000	4.407075
981.000000	4.386696
982.000000	4.345514
983.000000	4.301129
984.000000	4.256485
985.000000	4.183925
986.000000	4.110493
987.000000	4.036297
988.000000	3.977317
989.000000	3.961865
990.000000	3.911767
991.000000	3.862745
992.000000	3.779735
993.000000	3.702306
994.000000	3.651750
995.000000	3.602146
996.000000	3.515852
997.000000	3.497539
998.000000	3.497205
999.000000	3.462829
1000.000000	3.461968
1001.000000	3.451300
1002.000000	3.439515
1003.000000	3.417292
1004.000000	3.416599
1005.000000	3.393636
1006.000000	3.364152
1007.000000	3.330197
1008.000000	3.265300
1009.000000	3.213162
1010.000000	3.149945
1011.000000	3.116740
1012.000000	3.095414
1013.000000	3.090500
1014.000000	3.047453
1015.000000	3.007631
1016.000000	2.953249
1017.000000	2.929162
1018.000000	2.894691
1019.000000	2.879058
1020.000000	2.896515
1021.000000	2.883202
1022.000000	2.854481
1023.000000	2.834973
1024.000000	2.792757
1025.000000	2.765096
1026.000000	2.759097
1027.000000	2.765761
1028.000000	2.756484
1029.000000	2.760504
1030.000000	2.748673
1031.000000	2.747759
1032.000000	2.732802
1033.000000	2.690079
1034.000000	2.676383
1035.000000	2.659108
1036.000000	2.620173
1037.000000	2.560174
1038.000000	2.517250
1039.000000	2.466063
1040.000000	2.420097
1041.000000	2.409021
1042.000000	2.396935
1043.000000	2.365455
1044.000000	2.339698
1045.000000	2.324964
1046.000000	2.305961
1047.000000	2.270653
1048.000000	2.231387
1049.000000	2.242689
1050.000000	2.257857
1051.000000	2.269349
1052.000000	2.261295
1053.000000	2.254947
1054.000000	2.242591
1055.000000	2.185303
1056.000000	2.155216
1057.000000	2.154297
1058.000000	2.122423
1059.000000	2.090525
1060.000000	2.019535
1061.000000	1.973568
1062.000000	1.945377
1063.000000	1.917053
1064.000000	1.864815
1065.000000	1.842612
1066.000000	1.799156
1067.000000	1.748322
1068.000000	1.732642
1069.000000	1.704677
1070.000000	1.679794
1071.000000	1.673621
1072.000000	1.699653
1073.000000	1.703280
1074.000000	1.682717
1075.000000	1.639706
1076.000000	1.599537
1077.000000	1.577231
1078.000000	1.592205
1079.000000	1.603127
1080.000000	1.596844
1081.000000	1.576503
1082.000000	1.566278
1083.000000	1.536078
1084.000000	1.481861
1085.000000	1.448811
1086.000000	1.411751
1087.000000	1.393985
1088.000000	1.366344
1089.000000	1.332023
1090.000000	1.353768
1091.000000	1.342827
1092.000000	1.311038
1093.000000	1.296200
1094.000000	1.285126
1095.000000	1.291631
1096.000000	1.275539
1097.000000	1.251748
1098.000000	1.238994
1099.000000	1.206979
1100.000000	1.223220
1101.000000	1.233661
1102.000000	1.237670
1103.000000	1.239695
1104.000000	1.222138
1105.000000	1.232002
1106.000000	1.195773
1107.000000	1.150045
1108.000000	1.144467
1109.000000	1.142005
1110.000000	1.160057
1111.000000	1.145778
1112.000000	1.178445
1113.000000	1.187796
1114.000000	1.152012
1115.000000	1.127634
1116.000000	1.136457
1117.000000	1.159584
1118.000000	1.145806
1119.000000	1.158186
1120.000000	1.143937
1121.000000	1.144128
1122.000000	1.098411
1123.000000	1.072851
1124.000000	1.033887
1125.000000	0.979448
1126.000000	0.977842
1127.000000	0.973935
1128.000000	0.961350
1129.000000	0.949635
1130.000000	0.959478
1131.000000	0.945073
1132.000000	0.966673
1133.000000	0.967113
1134.000000	0.914833
1135.000000	0.891590
1136.000000	0.865650
1137.000000	0.869168
1138.000000	0.839204
1139.000000	0.831198
1140.000000	0.819995
1141.000000	0.870732
1142.000000	0.892655
1143.000000	0.884244
1144.000000	0.871309
1145.000000	0.893216
1146.000000	0.901097
1147.000000	0.861755
1148.000000	0.845813
1149.000000	0.872308
1150.000000	0.915423
1151.000000	0.931015
1152.000000	0.900434
1153.000000	0.958633
1154.000000	0.972573
1155.000000	0.977555
1156.000000	0.989327
1157.000000	1.024987
1158.000000	1.092975
1159.000000	1.159457
1160.000000	1.218298
1161.000000	1.242717
1162.000000	1.306184
1163.000000	1.369158
1164.000000	1.439583
1165.000000	1.475749
1166.000000	1.520360
1167.000000	1.518846
1168.000000	1.588971
1169.000000	1.733451
1170.000000	1.789193
1171.000000	1.857788
1172.000000	1.905701
1173.000000	1.952564
1174.000000	1.994170
1175.000000	2.039535
1176.000000	2.072759
1177.000000	2.108738
1178.000000	2.159902
1179.000000	2.234178
1180.000000	2.268788
1181.000000	2.311806
1182.000000	2.371945
1183.000000	2.414528
1184.000000	2.432383
1185.000000	2.458686
1186.000000	2.517369
1187.000000	2.579072
1188.000000	2.590120
1189.000000	2.644378
1190.000000	2.699181
1191.000000	2.729110
1192.000000	2.765501
1193.000000	2.783925
1194.000000	2.814104
1195.000000	2.855745
1196.000000	2.902159
1197.000000	2.911831
1198.000000	2.889242
1199.000000	2.844543
1200.000000	2.830624
1201.000000	2.828875
1202.000000	2.861399
1203.000000	2.849865
1204.000000	2.823275
1205.000000	2.816262
