PE UV       SUBTECH     SPECTRUM    ASCII       PEDS        4.00        
   -1
CICIMAUCR0008-1.Sample.ASC
24/03/08
13:07:07.00
24/03/08
13:07:07.00
Vinicio Soto Monge
C. kalinini
250,000000
1
Lambda 1050
1050L1511233
PerkinElmer UV WinLab 6.3.2.0749 / 2.02.05 Lambda 900 UV/VIS/NIR, Aug  7 2015 09:38:08

0
0
3350/servo 860,8/2
0
0
UV/VIS
1
1
1
DoubleDePol,CommonBeamDepol,RBeamAtt,SBeamAtt,60mm sphere, WB InGaAs Detector
0
0
0
0
Program
Program
3350/servo 860,8/2
3350/0,2 860,8/0,2
3350/0,2 860,8/0,2
0
15.00
 
 
 
0
 
860,8
319,2
860,8
Front
100
on
S:100 R:100
0
0
0
0
 
0
 
 
 
0
 
 
0
0
0
0
0
 
 
 
 
0
0


0
0
#HDR
-1
-1
#GR
nm
%R
1.0
0.0
2500,000000
-1,000000
2251
8
36,165400
2,347300
#DATA

250.000000	nan
251.000000	nan
252.000000	nan
253.000000	nan
254.000000	nan
255.000000	nan
256.000000	nan
257.000000	nan
258.000000	nan
259.000000	2.680586
260.000000	2.680824
261.000000	2.677777
262.000000	2.669531
263.000000	2.663637
264.000000	2.655496
265.000000	2.650830
266.000000	2.645793
267.000000	2.631519
268.000000	2.617513
269.000000	2.607315
270.000000	2.593003
271.000000	2.581786
272.000000	2.574502
273.000000	2.565104
274.000000	2.562085
275.000000	2.553915
276.000000	2.546717
277.000000	2.544127
278.000000	2.542698
279.000000	2.538918
280.000000	2.538499
281.000000	2.536823
282.000000	2.532586
283.000000	2.531291
284.000000	2.526482
285.000000	2.518560
286.000000	2.513951
287.000000	2.507134
288.000000	2.506353
289.000000	2.500935
290.000000	2.497974
291.000000	2.494165
292.000000	2.489842
293.000000	2.488994
294.000000	2.485557
295.000000	2.486148
296.000000	2.479939
297.000000	2.479587
298.000000	2.474893
299.000000	2.471684
300.000000	2.467618
301.000000	2.460857
302.000000	2.456944
303.000000	2.446555
304.000000	2.443670
305.000000	2.445070
306.000000	2.444784
307.000000	2.440871
308.000000	2.436986
309.000000	2.441318
310.000000	2.437947
311.000000	2.440423
312.000000	2.440147
313.000000	2.441813
314.000000	2.439242
315.000000	2.434319
316.000000	2.435662
317.000000	2.475854
318.000000	2.514456
319.000000	2.582519
320.000000	2.622759
321.000000	2.680119
322.000000	2.737223
323.000000	2.759809
324.000000	2.793859
325.000000	2.815189
326.000000	2.838603
327.000000	2.829291
328.000000	2.827377
329.000000	2.770340
330.000000	2.743755
331.000000	2.698811
332.000000	2.664503
333.000000	2.659400
334.000000	2.655153
335.000000	2.645917
336.000000	2.651182
337.000000	2.635737
338.000000	2.623530
339.000000	2.625006
340.000000	2.625911
341.000000	2.637223
342.000000	2.631681
343.000000	2.635337
344.000000	2.633147
345.000000	2.641850
346.000000	2.629862
347.000000	2.635338
348.000000	2.631805
349.000000	2.634566
350.000000	2.640480
351.000000	2.640127
352.000000	2.653325
353.000000	2.661228
354.000000	2.662380
355.000000	2.670274
356.000000	2.689089
357.000000	2.702011
358.000000	2.717874
359.000000	2.728187
360.000000	2.745516
361.000000	2.748554
362.000000	2.750792
363.000000	2.761237
364.000000	2.773378
365.000000	2.791279
366.000000	2.798649
367.000000	2.797173
368.000000	2.795088
369.000000	2.798221
370.000000	2.789327
371.000000	2.795554
372.000000	2.797392
373.000000	2.795507
374.000000	2.784680
375.000000	2.779034
376.000000	2.780948
377.000000	2.762075
378.000000	2.744336
379.000000	2.728938
380.000000	2.718912
381.000000	2.705876
382.000000	2.696507
383.000000	2.686471
384.000000	2.684185
385.000000	2.671083
386.000000	2.656467
387.000000	2.677330
388.000000	2.697088
389.000000	2.717646
390.000000	2.740774
391.000000	2.764951
392.000000	2.791336
393.000000	2.820616
394.000000	2.850772
395.000000	2.885080
396.000000	2.923177
397.000000	2.963760
398.000000	3.008837
399.000000	3.057627
400.000000	3.111093
401.000000	3.171339
402.000000	3.236831
403.000000	3.308636
404.000000	3.389411
405.000000	3.478546
406.000000	3.573947
407.000000	3.677488
408.000000	3.789914
409.000000	3.912291
410.000000	4.044760
411.000000	4.185152
412.000000	4.334847
413.000000	4.493740
414.000000	4.661212
415.000000	4.836721
416.000000	5.020181
417.000000	5.211210
418.000000	5.408715
419.000000	5.610057
420.000000	5.814827
421.000000	6.024415
422.000000	6.236584
423.000000	6.450799
424.000000	6.664424
425.000000	6.875555
426.000000	7.084372
427.000000	7.289694
428.000000	7.490684
429.000000	7.687293
430.000000	7.877990
431.000000	8.062306
432.000000	8.239624
433.000000	8.409753
434.000000	8.574160
435.000000	8.731710
436.000000	8.882176
437.000000	9.027834
438.000000	9.168978
439.000000	9.304599
440.000000	9.434955
441.000000	9.559064
442.000000	9.677023
443.000000	9.789287
444.000000	9.895485
445.000000	9.998798
446.000000	10.097846
447.000000	10.189076
448.000000	10.273821
449.000000	10.353892
450.000000	10.430696
451.000000	10.503472
452.000000	10.572326
453.000000	10.636637
454.000000	10.696749
455.000000	10.752043
456.000000	10.802186
457.000000	10.849339
458.000000	10.890721
459.000000	10.925638
460.000000	10.953776
461.000000	10.974153
462.000000	10.988769
463.000000	10.996348
464.000000	10.994653
465.000000	10.983427
466.000000	10.963231
467.000000	10.932627
468.000000	10.893149
469.000000	10.844273
470.000000	10.784684
471.000000	10.716478
472.000000	10.638875
473.000000	10.553786
474.000000	10.464442
475.000000	10.370469
476.000000	10.275450
477.000000	10.183001
478.000000	10.094970
479.000000	10.015548
480.000000	9.947713
481.000000	9.893657
482.000000	9.856826
483.000000	9.841181
484.000000	9.849732
485.000000	9.887077
486.000000	9.953388
487.000000	10.046770
488.000000	10.168699
489.000000	10.317022
490.000000	10.490075
491.000000	10.686408
492.000000	10.901224
493.000000	11.129313
494.000000	11.364505
495.000000	11.600984
496.000000	11.835233
497.000000	12.064684
498.000000	12.283937
499.000000	12.490621
500.000000	12.682336
501.000000	12.856703
502.000000	13.014691
503.000000	13.157178
504.000000	13.284220
505.000000	13.396646
506.000000	13.495379
507.000000	13.582391
508.000000	13.661195
509.000000	13.734438
510.000000	13.805557
511.000000	13.877705
512.000000	13.952891
513.000000	14.034122
514.000000	14.127504
515.000000	14.235931
516.000000	14.361478
517.000000	14.507745
518.000000	14.674103
519.000000	14.863467
520.000000	15.075949
521.000000	15.313608
522.000000	15.576091
523.000000	15.860750
524.000000	16.163872
525.000000	16.484877
526.000000	16.822973
527.000000	17.174191
528.000000	17.540463
529.000000	17.918009
530.000000	18.305724
531.000000	18.697087
532.000000	19.092420
533.000000	19.489495
534.000000	19.886457
535.000000	20.280447
536.000000	20.668429
537.000000	21.048641
538.000000	21.419493
539.000000	21.778748
540.000000	22.125366
541.000000	22.460920
542.000000	22.783724
543.000000	23.092141
544.000000	23.388198
545.000000	23.673200
546.000000	23.944786
547.000000	24.207801
548.000000	24.460362
549.000000	24.703553
550.000000	24.940241
551.000000	25.170939
552.000000	25.396676
553.000000	25.617205
554.000000	25.833496
555.000000	26.041065
556.000000	26.246321
557.000000	26.444711
558.000000	26.639807
559.000000	26.829865
560.000000	26.943567
561.000000	27.041805
562.000000	27.130893
563.000000	27.215048
564.000000	27.291585
565.000000	27.363076
566.000000	27.423817
567.000000	27.474321
568.000000	27.513942
569.000000	27.547564
570.000000	27.640908
571.000000	27.737470
572.000000	27.830700
573.000000	27.922025
574.000000	28.007666
575.000000	28.087917
576.000000	28.166635
577.000000	28.244239
578.000000	28.319282
579.000000	28.387421
580.000000	28.449180
581.000000	28.506217
582.000000	28.559378
583.000000	28.603969
584.000000	28.644733
585.000000	28.682078
586.000000	28.713643
587.000000	28.736306
588.000000	28.747332
589.000000	28.747999
590.000000	28.738696
591.000000	28.710920
592.000000	28.668014
593.000000	28.610797
594.000000	28.536583
595.000000	28.448133
596.000000	28.345686
597.000000	28.232451
598.000000	28.110398
599.000000	27.978176
600.000000	27.837518
601.000000	27.685109
602.000000	27.518170
603.000000	27.338767
604.000000	27.149137
605.000000	26.946414
606.000000	26.736988
607.000000	26.520192
608.000000	26.296207
609.000000	26.066565
610.000000	25.834677
611.000000	25.604645
612.000000	25.375585
613.000000	25.147476
614.000000	24.917645
615.000000	24.690174
616.000000	24.459724
617.000000	24.231368
618.000000	24.000517
619.000000	23.772276
620.000000	23.542273
621.000000	23.312517
622.000000	23.087218
623.000000	22.861795
624.000000	22.644046
625.000000	22.434297
626.000000	22.235688
627.000000	22.047210
628.000000	21.875453
629.000000	21.716731
630.000000	21.576558
631.000000	21.455734
632.000000	21.353001
633.000000	21.275664
634.000000	21.220113
635.000000	21.184110
636.000000	21.171398
637.000000	21.179102
638.000000	21.204668
639.000000	21.250945
640.000000	21.316047
641.000000	21.402230
642.000000	21.504838
643.000000	21.625663
644.000000	21.762265
645.000000	21.914493
646.000000	22.075642
647.000000	22.247485
648.000000	22.432802
649.000000	22.623984
650.000000	22.818822
651.000000	23.015499
652.000000	23.214051
653.000000	23.411765
654.000000	23.604718
655.000000	23.789692
656.000000	23.967686
657.000000	24.137691
658.000000	24.297060
659.000000	24.444889
660.000000	24.584776
661.000000	24.713380
662.000000	24.825443
663.000000	24.922749
664.000000	25.008151
665.000000	25.087317
666.000000	25.154913
667.000000	25.213378
668.000000	25.263435
669.000000	25.311549
670.000000	25.356055
671.000000	25.398371
672.000000	25.447723
673.000000	25.501236
674.000000	25.564291
675.000000	25.635144
676.000000	25.719947
677.000000	25.820746
678.000000	25.938342
679.000000	26.075554
680.000000	26.232971
681.000000	26.412146
682.000000	26.612250
683.000000	26.829789
684.000000	27.066019
685.000000	27.324103
686.000000	27.599116
687.000000	27.885251
688.000000	28.184346
689.000000	28.490858
690.000000	28.798161
691.000000	29.105758
692.000000	29.410042
693.000000	29.710308
694.000000	30.004127
695.000000	30.284825
696.000000	30.550307
697.000000	30.801640
698.000000	31.031862
699.000000	31.241964
700.000000	31.439497
701.000000	31.620005
702.000000	31.782536
703.000000	31.928688
704.000000	32.054826
705.000000	32.164719
706.000000	32.262157
707.000000	32.346274
708.000000	32.423269
709.000000	32.491693
710.000000	32.545435
711.000000	32.592226
712.000000	32.632057
713.000000	32.666622
714.000000	32.699929
715.000000	32.727810
716.000000	32.752414
717.000000	32.772725
718.000000	32.787731
719.000000	32.802243
720.000000	32.820801
721.000000	32.836417
722.000000	32.852338
723.000000	32.869392
724.000000	32.881799
725.000000	32.896586
726.000000	32.913355
727.000000	32.933427
728.000000	32.959469
729.000000	32.983693
730.000000	33.005880
731.000000	33.032217
732.000000	33.062307
733.000000	33.094586
734.000000	33.130446
735.000000	33.167848
736.000000	33.210459
737.000000	33.257954
738.000000	33.305679
739.000000	33.353831
740.000000	33.404602
741.000000	33.452707
742.000000	33.497185
743.000000	33.545708
744.000000	33.596051
745.000000	33.642785
746.000000	33.686405
747.000000	33.732958
748.000000	33.776254
749.000000	33.819360
750.000000	33.863104
751.000000	33.914199
752.000000	33.971959
753.000000	34.022226
754.000000	34.071569
755.000000	34.121502
756.000000	34.170073
757.000000	34.205400
758.000000	34.239441
759.000000	34.279109
760.000000	34.313941
761.000000	34.338393
762.000000	34.354866
763.000000	34.371967
764.000000	34.384660
765.000000	34.396096
766.000000	34.400533
767.000000	34.405856
768.000000	34.409398
769.000000	34.401152
770.000000	34.389916
771.000000	34.377347
772.000000	34.362188
773.000000	34.342554
774.000000	34.316493
775.000000	34.287051
776.000000	34.254819
777.000000	34.218750
778.000000	34.177177
779.000000	34.133014
780.000000	34.081624
781.000000	34.026101
782.000000	33.968884
783.000000	33.903487
784.000000	33.833129
785.000000	33.756163
786.000000	33.671379
787.000000	33.579778
788.000000	33.484682
789.000000	33.383616
790.000000	33.278522
791.000000	33.170743
792.000000	33.049395
793.000000	32.917249
794.000000	32.784322
795.000000	32.640369
796.000000	32.499082
797.000000	32.359719
798.000000	32.207682
799.000000	32.053464
800.000000	31.896808
801.000000	31.722661
802.000000	31.551942
803.000000	31.389973
804.000000	31.216959
805.000000	31.042945
806.000000	30.860361
807.000000	30.664085
808.000000	30.477635
809.000000	30.292681
810.000000	30.101584
811.000000	29.915049
812.000000	29.727019
813.000000	29.527953
814.000000	29.336409
815.000000	29.139704
816.000000	28.935905
817.000000	28.738591
818.000000	28.540020
819.000000	28.345001
820.000000	28.145401
821.000000	27.945802
822.000000	27.743307
823.000000	27.549764
824.000000	27.358296
825.000000	27.179493
826.000000	27.025161
827.000000	26.871657
828.000000	26.724228
829.000000	26.573124
830.000000	26.432523
831.000000	26.308395
832.000000	26.197264
833.000000	26.099607
834.000000	26.010681
835.000000	25.941447
836.000000	25.859939
837.000000	25.798598
838.000000	25.727269
839.000000	25.662834
840.000000	25.626984
841.000000	25.599008
842.000000	25.571347
843.000000	25.534173
844.000000	25.503436
845.000000	25.478774
846.000000	25.457950
847.000000	25.443238
848.000000	25.437849
849.000000	25.439829
850.000000	25.433878
851.000000	25.421128
852.000000	25.418224
853.000000	25.407931
854.000000	25.400561
855.000000	25.387392
856.000000	25.384688
857.000000	25.381812
858.000000	25.319291
859.000000	25.369763
860.000000	25.422051
861.000000	25.491909
862.000000	25.567959
863.000000	25.672081
864.000000	25.785204
865.000000	25.904858
866.000000	26.030717
867.000000	26.158620
868.000000	26.360850
869.000000	26.458530
870.000000	26.555010
871.000000	26.650070
872.000000	26.739170
873.000000	26.828300
874.000000	26.911410
875.000000	26.993270
876.000000	27.076210
877.000000	27.152270
878.000000	27.225280
879.000000	27.299160
880.000000	27.375120
881.000000	27.441870
882.000000	27.510720
883.000000	27.575850
884.000000	27.632820
885.000000	27.680190
886.000000	27.726270
887.000000	27.769990
888.000000	27.808130
889.000000	27.838030
890.000000	27.857350
891.000000	27.871820
892.000000	27.882030
893.000000	27.884180
894.000000	27.884330
895.000000	27.881250
896.000000	27.869860
897.000000	27.853200
898.000000	27.832320
899.000000	27.806670
900.000000	27.779670
901.000000	27.752060
902.000000	27.716120
903.000000	27.680620
904.000000	27.641820
905.000000	27.601340
906.000000	27.561260
907.000000	27.519160
908.000000	27.476390
909.000000	27.434170
910.000000	27.393930
911.000000	27.352860
912.000000	27.314180
913.000000	27.270900
914.000000	27.232920
915.000000	27.193250
916.000000	27.152360
917.000000	27.114580
918.000000	27.078230
919.000000	27.044820
920.000000	27.008820
921.000000	26.971060
922.000000	26.935630
923.000000	26.900640
924.000000	26.859250
925.000000	26.819570
926.000000	26.778370
927.000000	26.737960
928.000000	26.699480
929.000000	26.657260
930.000000	26.615400
931.000000	26.572920
932.000000	26.527320
933.000000	26.484460
934.000000	26.445470
935.000000	26.403270
936.000000	26.363580
937.000000	26.322340
938.000000	26.280160
939.000000	26.237420
940.000000	26.194260
941.000000	26.153930
942.000000	26.113810
943.000000	26.072320
944.000000	26.030810
945.000000	25.990870
946.000000	25.949940
947.000000	25.909750
948.000000	25.872100
949.000000	25.832490
950.000000	25.794520
951.000000	25.757830
952.000000	25.719060
953.000000	25.680700
954.000000	25.641510
955.000000	25.603900
956.000000	25.565460
957.000000	25.526210
958.000000	25.485180
959.000000	25.443330
960.000000	25.399140
961.000000	25.353290
962.000000	25.308380
963.000000	25.261970
964.000000	25.216880
965.000000	25.171120
966.000000	25.126620
967.000000	25.082550
968.000000	25.039440
969.000000	24.999080
970.000000	24.962120
971.000000	24.927100
972.000000	24.894470
973.000000	24.862840
974.000000	24.832170
975.000000	24.801650
976.000000	24.773790
977.000000	24.746470
978.000000	24.719150
979.000000	24.694930
980.000000	24.671830
981.000000	24.648460
982.000000	24.625800
983.000000	24.606220
984.000000	24.587360
985.000000	24.569210
986.000000	24.550450
987.000000	24.532240
988.000000	24.515380
989.000000	24.499070
990.000000	24.483690
991.000000	24.469120
992.000000	24.455670
993.000000	24.441700
994.000000	24.429050
995.000000	24.419570
996.000000	24.411200
997.000000	24.402340
998.000000	24.393730
999.000000	24.385670
1000.000000	24.377210
1001.000000	24.368760
1002.000000	24.360630
1003.000000	24.353980
1004.000000	24.347780
1005.000000	24.341140
1006.000000	24.334360
1007.000000	24.329200
1008.000000	24.325130
1009.000000	24.322460
1010.000000	24.318800
1011.000000	24.316050
1012.000000	24.313600
1013.000000	24.313090
1014.000000	24.314870
1015.000000	24.317460
1016.000000	24.322460
1017.000000	24.331190
1018.000000	24.342450
1019.000000	24.356230
1020.000000	24.375520
1021.000000	24.397320
1022.000000	24.421180
1023.000000	24.448170
1024.000000	24.476690
1025.000000	24.507710
1026.000000	24.539670
1027.000000	24.573460
1028.000000	24.610130
1029.000000	24.645110
1030.000000	24.678210
1031.000000	24.713280
1032.000000	24.750110
1033.000000	24.785360
1034.000000	24.820000
1035.000000	24.855060
1036.000000	24.889300
1037.000000	24.921650
1038.000000	24.953340
1039.000000	24.985900
1040.000000	25.018140
1041.000000	25.046930
1042.000000	25.074230
1043.000000	25.102040
1044.000000	25.128320
1045.000000	25.152770
1046.000000	25.178420
1047.000000	25.204250
1048.000000	25.226980
1049.000000	25.247650
1050.000000	25.269180
1051.000000	25.293850
1052.000000	25.317990
1053.000000	25.340520
1054.000000	25.364110
1055.000000	25.389610
1056.000000	25.413850
1057.000000	25.439040
1058.000000	25.466330
1059.000000	25.494680
1060.000000	25.524030
1061.000000	25.552980
1062.000000	25.582340
1063.000000	25.613910
1064.000000	25.645780
1065.000000	25.675510
1066.000000	25.706690
1067.000000	25.737520
1068.000000	25.766730
1069.000000	25.797150
1070.000000	25.829170
1071.000000	25.861050
1072.000000	25.892890
1073.000000	25.923140
1074.000000	25.953260
1075.000000	25.985080
1076.000000	26.015760
1077.000000	26.046160
1078.000000	26.077070
1079.000000	26.108540
1080.000000	26.138050
1081.000000	26.166370
1082.000000	26.195470
1083.000000	26.224880
1084.000000	26.254140
1085.000000	26.282770
1086.000000	26.312980
1087.000000	26.342540
1088.000000	26.372860
1089.000000	26.401920
1090.000000	26.430200
1091.000000	26.459360
1092.000000	26.488230
1093.000000	26.515500
1094.000000	26.540490
1095.000000	26.565120
1096.000000	26.586050
1097.000000	26.607110
1098.000000	26.626070
1099.000000	26.643910
1100.000000	26.661250
1101.000000	26.676370
1102.000000	26.689650
1103.000000	26.701040
1104.000000	26.714620
1105.000000	26.726100
1106.000000	26.737930
1107.000000	26.745880
1108.000000	26.753820
1109.000000	26.763190
1110.000000	26.772050
1111.000000	26.779210
1112.000000	26.784870
1113.000000	26.791940
1114.000000	26.797290
1115.000000	26.799980
1116.000000	26.803540
1117.000000	26.805920
1118.000000	26.809460
1119.000000	26.809860
1120.000000	26.805030
1121.000000	26.800510
1122.000000	26.793840
1123.000000	26.783990
1124.000000	26.767800
1125.000000	26.748870
1126.000000	26.726110
1127.000000	26.696980
1128.000000	26.659530
1129.000000	26.611340
1130.000000	26.555720
1131.000000	26.485210
1132.000000	26.399210
1133.000000	26.298850
1134.000000	26.186910
1135.000000	26.063780
1136.000000	25.921510
1137.000000	25.765070
1138.000000	25.596300
1139.000000	25.416640
1140.000000	25.228810
1141.000000	25.040090
1142.000000	24.852030
1143.000000	24.663090
1144.000000	24.475310
1145.000000	24.291780
1146.000000	24.120690
1147.000000	23.965480
1148.000000	23.827310
1149.000000	23.708380
1150.000000	23.607630
1151.000000	23.523420
1152.000000	23.454470
1153.000000	23.400350
1154.000000	23.355940
1155.000000	23.316440
1156.000000	23.276280
1157.000000	23.228610
1158.000000	23.169500
1159.000000	23.095130
1160.000000	23.005420
1161.000000	22.898420
1162.000000	22.776220
1163.000000	22.639660
1164.000000	22.489880
1165.000000	22.329660
1166.000000	22.163650
1167.000000	21.995360
1168.000000	21.822540
1169.000000	21.652180
1170.000000	21.483750
1171.000000	21.317210
