PE UV       SUBTECH     SPECTRUM    ASCII       PEDS        4.00        
   -1
CICIMAUCR0015-1.Sample.ASC
24/03/08
11:15:04.00
24/03/08
11:15:04.00
Vinicio Soto Monge
C. resplendens
250,000000
1
Lambda 1050
1050L1511233
PerkinElmer UV WinLab 6.3.2.0749 / 2.02.05 Lambda 900 UV/VIS/NIR, Aug  7 2015 09:38:08

0
0
3350/servo 860,8/2
0
0
UV/VIS
1
1
1
DoubleDePol,CommonBeamDepol,RBeamAtt,SBeamAtt,60mm sphere, WB InGaAs Detector
0
0
0
0
Program
Program
3350/servo 860,8/2
3350/0,2 860,8/0,2
3350/0,2 860,8/0,2
0
15.00
 
 
 
0
 
860,8
319,2
860,8
Front
100
on
S:100 R:100
0
0
0
0
 
0
 
 
 
0
 
 
0
0
0
0
0
 
 
 
 
0
0


0
0
#HDR
-1
-1
#GR
nm
%R
1.0
0.0
2500,000000
-1,000000
2251
8
23,608200
1,584400
#DATA

250.000000	nan
251.000000	nan
252.000000	nan
253.000000	nan
254.000000	nan
255.000000	nan
256.000000	nan
257.000000	nan
258.000000	nan
259.000000	2.081459
260.000000	2.079510
261.000000	2.076079
262.000000	2.079302
263.000000	2.076642
264.000000	2.072316
265.000000	2.071054
266.000000	2.065956
267.000000	2.063958
268.000000	2.060318
269.000000	2.053247
270.000000	2.045783
271.000000	2.042560
272.000000	2.043823
273.000000	2.038038
274.000000	2.039141
275.000000	2.030624
276.000000	2.025783
277.000000	2.020256
278.000000	2.011603
279.000000	2.015488
280.000000	2.010954
281.000000	2.009115
282.000000	1.999287
283.000000	1.995255
284.000000	1.987264
285.000000	1.988956
286.000000	1.987938
287.000000	1.985218
288.000000	1.984789
289.000000	1.985156
290.000000	1.982215
291.000000	1.976320
292.000000	1.970536
293.000000	1.972938
294.000000	1.973281
295.000000	1.969469
296.000000	1.972411
297.000000	1.978122
298.000000	1.977668
299.000000	1.971553
300.000000	1.978967
301.000000	1.983600
302.000000	1.984114
303.000000	1.981296
304.000000	1.980401
305.000000	1.983869
306.000000	1.983244
307.000000	1.981235
308.000000	1.985365
309.000000	1.990733
310.000000	1.990389
311.000000	1.988747
312.000000	1.991162
313.000000	1.990855
314.000000	1.990242
315.000000	1.992154
316.000000	2.001015
317.000000	2.053725
318.000000	2.097035
319.000000	2.136559
320.000000	2.164770
321.000000	2.202198
322.000000	2.245080
323.000000	2.297177
324.000000	2.339740
325.000000	2.377511
326.000000	2.399620
327.000000	2.374913
328.000000	2.342375
329.000000	2.323563
330.000000	2.327950
331.000000	2.329482
332.000000	2.306871
333.000000	2.288746
334.000000	2.266257
335.000000	2.244075
336.000000	2.219809
337.000000	2.204809
338.000000	2.213718
339.000000	2.211574
340.000000	2.203485
341.000000	2.186597
342.000000	2.197149
343.000000	2.197615
344.000000	2.204882
345.000000	2.208841
346.000000	2.217726
347.000000	2.223645
348.000000	2.226439
349.000000	2.229209
350.000000	2.218436
351.000000	2.214196
352.000000	2.202419
353.000000	2.195115
354.000000	2.188460
355.000000	2.191107
356.000000	2.199992
357.000000	2.203939
358.000000	2.202676
359.000000	2.195997
360.000000	2.201953
361.000000	2.206806
362.000000	2.212775
363.000000	2.209037
364.000000	2.219883
365.000000	2.221096
366.000000	2.224491
367.000000	2.229160
368.000000	2.232567
369.000000	2.239013
370.000000	2.239026
371.000000	2.241170
372.000000	2.236746
373.000000	2.233045
374.000000	2.225618
375.000000	2.224479
376.000000	2.222444
377.000000	2.202039
378.000000	2.186377
379.000000	2.172271
380.000000	2.165861
381.000000	2.160248
382.000000	2.159881
383.000000	2.167271
384.000000	2.173582
385.000000	2.179342
386.000000	2.185225
387.000000	2.213743
388.000000	2.242886
389.000000	2.274909
390.000000	2.307594
391.000000	2.340108
392.000000	2.374129
393.000000	2.411336
394.000000	2.449572
395.000000	2.490628
396.000000	2.533411
397.000000	2.578315
398.000000	2.625767
399.000000	2.674960
400.000000	2.725121
401.000000	2.776643
402.000000	2.830333
403.000000	2.883681
404.000000	2.937984
405.000000	2.993672
406.000000	3.050476
407.000000	3.108787
408.000000	3.166755
409.000000	3.223043
410.000000	3.280876
411.000000	3.340229
412.000000	3.400047
413.000000	3.460748
414.000000	3.521412
415.000000	3.580470
416.000000	3.637985
417.000000	3.692888
418.000000	3.748136
419.000000	3.805662
420.000000	3.861792
421.000000	3.916095
422.000000	3.969467
423.000000	4.021736
424.000000	4.072694
425.000000	4.123382
426.000000	4.172918
427.000000	4.222000
428.000000	4.269355
429.000000	4.312690
430.000000	4.352949
431.000000	4.391749
432.000000	4.429496
433.000000	4.464546
434.000000	4.497549
435.000000	4.527808
436.000000	4.555566
437.000000	4.581621
438.000000	4.605286
439.000000	4.626635
440.000000	4.645091
441.000000	4.660889
442.000000	4.673352
443.000000	4.681894
444.000000	4.687127
445.000000	4.691294
446.000000	4.694725
447.000000	4.695154
448.000000	4.693708
449.000000	4.690117
450.000000	4.684578
451.000000	4.677887
452.000000	4.670203
453.000000	4.663229
454.000000	4.655876
455.000000	4.646856
456.000000	4.637665
457.000000	4.629478
458.000000	4.623044
459.000000	4.620654
460.000000	4.621537
461.000000	4.625397
462.000000	4.633853
463.000000	4.647003
464.000000	4.665313
465.000000	4.688610
466.000000	4.715682
467.000000	4.747803
468.000000	4.783650
469.000000	4.821740
470.000000	4.865491
471.000000	4.913557
472.000000	4.962750
473.000000	5.012151
474.000000	5.062851
475.000000	5.114569
476.000000	5.166960
477.000000	5.218850
478.000000	5.270212
479.000000	5.321157
480.000000	5.366097
481.000000	5.403243
482.000000	5.434360
483.000000	5.463160
484.000000	5.490906
485.000000	5.518247
486.000000	5.545932
487.000000	5.572061
488.000000	5.597037
489.000000	5.620396
490.000000	5.645053
491.000000	5.673890
492.000000	5.706109
493.000000	5.738942
494.000000	5.768930
495.000000	5.796358
496.000000	5.822082
497.000000	5.847352
498.000000	5.871201
499.000000	5.895013
500.000000	5.920014
501.000000	5.945934
502.000000	5.972614
503.000000	6.000875
504.000000	6.030827
505.000000	6.062629
506.000000	6.097214
507.000000	6.135230
508.000000	6.177585
509.000000	6.223873
510.000000	6.272551
511.000000	6.324833
512.000000	6.381648
513.000000	6.443415
514.000000	6.511886
515.000000	6.586521
516.000000	6.666769
517.000000	6.752348
518.000000	6.844863
519.000000	6.945296
520.000000	7.056684
521.000000	7.177730
522.000000	7.309132
523.000000	7.448806
524.000000	7.597512
525.000000	7.755974
526.000000	7.924975
527.000000	8.104062
528.000000	8.293199
529.000000	8.489137
530.000000	8.689524
531.000000	8.896149
532.000000	9.108118
533.000000	9.325233
534.000000	9.548194
535.000000	9.776009
536.000000	10.007537
537.000000	10.242128
538.000000	10.478730
539.000000	10.717354
540.000000	10.957007
541.000000	11.196537
542.000000	11.435112
543.000000	11.670084
544.000000	11.899025
545.000000	12.122122
546.000000	12.337791
547.000000	12.543828
548.000000	12.740673
549.000000	12.929320
550.000000	13.110858
551.000000	13.282077
552.000000	13.444791
553.000000	13.599687
554.000000	13.750194
555.000000	13.893545
556.000000	14.027900
557.000000	14.156716
558.000000	14.277688
559.000000	14.390254
560.000000	14.484987
561.000000	14.569427
562.000000	14.644442
563.000000	14.713170
564.000000	14.771235
565.000000	14.821764
566.000000	14.867697
567.000000	14.906436
568.000000	14.944391
569.000000	14.977211
570.000000	15.015227
571.000000	15.053182
572.000000	15.092509
573.000000	15.133417
574.000000	15.176458
575.000000	15.218935
576.000000	15.259145
577.000000	15.301230
578.000000	15.338155
579.000000	15.376551
580.000000	15.413979
581.000000	15.449605
582.000000	15.481592
583.000000	15.514093
584.000000	15.541802
585.000000	15.566717
586.000000	15.589218
587.000000	15.610873
588.000000	15.632761
589.000000	15.649612
590.000000	15.662407
591.000000	15.676709
592.000000	15.692518
593.000000	15.701783
594.000000	15.710962
595.000000	15.718696
596.000000	15.723696
597.000000	15.727017
598.000000	15.725558
599.000000	15.724982
600.000000	15.723463
601.000000	15.719774
602.000000	15.711146
603.000000	15.696293
604.000000	15.680974
605.000000	15.661708
606.000000	15.639269
607.000000	15.611020
608.000000	15.579561
609.000000	15.540135
610.000000	15.499693
611.000000	15.454997
612.000000	15.405339
613.000000	15.354259
614.000000	15.293153
615.000000	15.227820
616.000000	15.162610
617.000000	15.093612
618.000000	15.019565
619.000000	14.942945
620.000000	14.862354
621.000000	14.773515
622.000000	14.676134
623.000000	14.569427
624.000000	14.457266
625.000000	14.336391
626.000000	14.207330
627.000000	14.069458
628.000000	13.923313
629.000000	13.769889
630.000000	13.607493
631.000000	13.438639
632.000000	13.265042
633.000000	13.090416
634.000000	12.915643
635.000000	12.742646
636.000000	12.569331
637.000000	12.400343
638.000000	12.237567
639.000000	12.085258
640.000000	11.942373
641.000000	11.812037
642.000000	11.697389
643.000000	11.597017
644.000000	11.511034
645.000000	11.442784
646.000000	11.392978
647.000000	11.361592
648.000000	11.349656
649.000000	11.355121
650.000000	11.378554
651.000000	11.420393
652.000000	11.479881
653.000000	11.559994
654.000000	11.654752
655.000000	11.760553
656.000000	11.875263
657.000000	11.999863
658.000000	12.133323
659.000000	12.269958
660.000000	12.409509
661.000000	12.549306
662.000000	12.686039
663.000000	12.818838
664.000000	12.950080
665.000000	13.076678
666.000000	13.199917
667.000000	13.315448
668.000000	13.422438
669.000000	13.525382
670.000000	13.623033
671.000000	13.714654
672.000000	13.802831
673.000000	13.885444
674.000000	13.961868
675.000000	14.037864
676.000000	14.112585
677.000000	14.184217
678.000000	14.254477
679.000000	14.321759
680.000000	14.390009
681.000000	14.457425
682.000000	14.523531
683.000000	14.585224
684.000000	14.642665
685.000000	14.696221
686.000000	14.742644
687.000000	14.788405
688.000000	14.832831
689.000000	14.872685
690.000000	14.907061
691.000000	14.938778
692.000000	14.964000
693.000000	14.985103
694.000000	15.003168
695.000000	15.016244
696.000000	15.026220
697.000000	15.034321
698.000000	15.040877
699.000000	15.048047
700.000000	15.054003
701.000000	15.060560
702.000000	15.068244
703.000000	15.077337
704.000000	15.088367
705.000000	15.102522
706.000000	15.125795
707.000000	15.150759
708.000000	15.176066
709.000000	15.206398
710.000000	15.238556
711.000000	15.273569
712.000000	15.315961
713.000000	15.363989
714.000000	15.420143
715.000000	15.484472
716.000000	15.548849
717.000000	15.619182
718.000000	15.698119
719.000000	15.783980
720.000000	15.876900
721.000000	15.973325
722.000000	16.072507
723.000000	16.174606
724.000000	16.277772
725.000000	16.378192
726.000000	16.479201
727.000000	16.578947
728.000000	16.674514
729.000000	16.764934
730.000000	16.851322
731.000000	16.934915
732.000000	17.015420
733.000000	17.097311
734.000000	17.175684
735.000000	17.250539
736.000000	17.323434
737.000000	17.392358
738.000000	17.462336
739.000000	17.529385
740.000000	17.593640
741.000000	17.659696
742.000000	17.724159
743.000000	17.778879
744.000000	17.832153
745.000000	17.887645
746.000000	17.941508
747.000000	17.996338
748.000000	18.048521
749.000000	18.101685
750.000000	18.157949
751.000000	18.212645
752.000000	18.267941
753.000000	18.329095
754.000000	18.391903
755.000000	18.453646
756.000000	18.515731
757.000000	18.576665
758.000000	18.633615
759.000000	18.688115
760.000000	18.740604
761.000000	18.790557
762.000000	18.836135
763.000000	18.877337
764.000000	18.917228
765.000000	18.954962
766.000000	18.989241
767.000000	19.020761
768.000000	19.051265
769.000000	19.077651
770.000000	19.097688
771.000000	19.121145
772.000000	19.148315
773.000000	19.173904
774.000000	19.196062
775.000000	19.218060
776.000000	19.246443
777.000000	19.276628
778.000000	19.312561
779.000000	19.354511
780.000000	19.401902
781.000000	19.447235
782.000000	19.493376
783.000000	19.549775
784.000000	19.617253
785.000000	19.690760
786.000000	19.760714
787.000000	19.830655
788.000000	19.905204
789.000000	19.986053
790.000000	20.068519
791.000000	20.146733
792.000000	20.220056
793.000000	20.289385
794.000000	20.349387
795.000000	20.408507
796.000000	20.468668
797.000000	20.526391
798.000000	20.580694
799.000000	20.624789
800.000000	20.663700
801.000000	20.698517
802.000000	20.728947
803.000000	20.748788
804.000000	20.768372
805.000000	20.779402
806.000000	20.789562
807.000000	20.804869
808.000000	20.815310
809.000000	20.827002
810.000000	20.844172
811.000000	20.865668
812.000000	20.886465
813.000000	20.913476
814.000000	20.943060
815.000000	20.973625
816.000000	21.000746
817.000000	21.027254
818.000000	21.055392
819.000000	21.080577
820.000000	21.102796
821.000000	21.122735
822.000000	21.144501
823.000000	21.159698
824.000000	21.177345
825.000000	21.189405
826.000000	21.207677
827.000000	21.223707
828.000000	21.240693
829.000000	21.255669
830.000000	21.255461
831.000000	21.249223
832.000000	21.257728
833.000000	21.265633
834.000000	21.262814
835.000000	21.259039
836.000000	21.247764
837.000000	21.231195
838.000000	21.220153
839.000000	21.208020
840.000000	21.201476
841.000000	21.200839
842.000000	21.187713
843.000000	21.171205
844.000000	21.166389
845.000000	21.171377
846.000000	21.173411
847.000000	21.180593
848.000000	21.196611
849.000000	21.207800
850.000000	21.227371
851.000000	21.243916
852.000000	21.239958
853.000000	21.249002
854.000000	21.276074
855.000000	21.286798
856.000000	21.311811
857.000000	21.334949
858.000000	21.811644
859.000000	21.880988
860.000000	21.946520
861.000000	22.011552
862.000000	22.095328
863.000000	22.170531
864.000000	22.214895
865.000000	22.267698
866.000000	22.303452
867.000000	22.330650
868.000000	21.878020
869.000000	21.836890
870.000000	21.793370
871.000000	21.747510
872.000000	21.696590
873.000000	21.645400
874.000000	21.593190
875.000000	21.539210
876.000000	21.487390
877.000000	21.439780
878.000000	21.396210
879.000000	21.353570
880.000000	21.313560
881.000000	21.274520
882.000000	21.239020
883.000000	21.205550
884.000000	21.175500
885.000000	21.146960
886.000000	21.118530
887.000000	21.089150
888.000000	21.060380
889.000000	21.030630
890.000000	20.996600
891.000000	20.967180
892.000000	20.935180
893.000000	20.901320
894.000000	20.863870
895.000000	20.826060
896.000000	20.788830
897.000000	20.749030
898.000000	20.706300
899.000000	20.663930
900.000000	20.624870
901.000000	20.578510
902.000000	20.534970
903.000000	20.492450
904.000000	20.452120
905.000000	20.412990
906.000000	20.376600
907.000000	20.342910
908.000000	20.312990
909.000000	20.284700
910.000000	20.258580
911.000000	20.243340
912.000000	20.230970
913.000000	20.221900
914.000000	20.215310
915.000000	20.213730
916.000000	20.214270
917.000000	20.220260
918.000000	20.228780
919.000000	20.237910
920.000000	20.248820
921.000000	20.257670
922.000000	20.266890
923.000000	20.275910
924.000000	20.284180
925.000000	20.290160
926.000000	20.295670
927.000000	20.300180
928.000000	20.303480
929.000000	20.307930
930.000000	20.311740
931.000000	20.318150
932.000000	20.327800
933.000000	20.337490
934.000000	20.347580
935.000000	20.361450
936.000000	20.378780
937.000000	20.394060
938.000000	20.411210
939.000000	20.430220
940.000000	20.450890
941.000000	20.469730
942.000000	20.483500
943.000000	20.500220
944.000000	20.520740
945.000000	20.541510
946.000000	20.561100
947.000000	20.583600
948.000000	20.606410
949.000000	20.631910
950.000000	20.657390
951.000000	20.683610
952.000000	20.714520
953.000000	20.745450
954.000000	20.774780
955.000000	20.801620
956.000000	20.828920
957.000000	20.853450
958.000000	20.874950
959.000000	20.893190
960.000000	20.909800
961.000000	20.923630
962.000000	20.933310
963.000000	20.939420
964.000000	20.944650
965.000000	20.950910
966.000000	20.953720
967.000000	20.957920
968.000000	20.963340
969.000000	20.968350
970.000000	20.974120
971.000000	20.981460
972.000000	20.989840
973.000000	20.998490
974.000000	21.006060
975.000000	21.012110
976.000000	21.017510
977.000000	21.023530
978.000000	21.029410
979.000000	21.032770
980.000000	21.035940
981.000000	21.038190
982.000000	21.039480
983.000000	21.039850
984.000000	21.041370
985.000000	21.041540
986.000000	21.041250
987.000000	21.041170
988.000000	21.039610
989.000000	21.038730
990.000000	21.035600
991.000000	21.033290
992.000000	21.031550
993.000000	21.030540
994.000000	21.028130
995.000000	21.027740
996.000000	21.027520
997.000000	21.024710
998.000000	21.023950
999.000000	21.024670
1000.000000	21.023710
1001.000000	21.023130
1002.000000	21.021760
1003.000000	21.020360
1004.000000	21.019930
1005.000000	21.018330
1006.000000	21.015820
1007.000000	21.012660
1008.000000	21.007600
1009.000000	21.002010
1010.000000	20.999510
1011.000000	20.995930
1012.000000	20.992850
1013.000000	20.990720
1014.000000	20.989430
1015.000000	20.989120
1016.000000	20.994290
1017.000000	21.003780
1018.000000	21.016950
1019.000000	21.033580
1020.000000	21.052930
1021.000000	21.076790
1022.000000	21.104140
1023.000000	21.134560
1024.000000	21.167610
1025.000000	21.204070
1026.000000	21.241510
1027.000000	21.281120
1028.000000	21.322180
1029.000000	21.363890
1030.000000	21.405790
1031.000000	21.447240
1032.000000	21.488210
1033.000000	21.528860
1034.000000	21.568150
1035.000000	21.606080
1036.000000	21.641800
1037.000000	21.675040
1038.000000	21.706190
1039.000000	21.737460
1040.000000	21.767690
1041.000000	21.794160
1042.000000	21.820340
1043.000000	21.844630
1044.000000	21.867070
1045.000000	21.887970
1046.000000	21.908000
1047.000000	21.928760
1048.000000	21.949210
1049.000000	21.969070
1050.000000	21.988970
1051.000000	22.010860
1052.000000	22.032880
1053.000000	22.055050
1054.000000	22.078460
1055.000000	22.103970
1056.000000	22.131550
1057.000000	22.161200
1058.000000	22.192200
1059.000000	22.222790
1060.000000	22.254310
1061.000000	22.285950
1062.000000	22.318150
1063.000000	22.352430
1064.000000	22.389210
1065.000000	22.424270
1066.000000	22.458330
1067.000000	22.491150
1068.000000	22.522320
1069.000000	22.552690
1070.000000	22.582530
1071.000000	22.612730
1072.000000	22.643670
1073.000000	22.674860
1074.000000	22.702490
1075.000000	22.731700
1076.000000	22.760890
1077.000000	22.788550
1078.000000	22.817280
1079.000000	22.846340
1080.000000	22.875740
1081.000000	22.906740
1082.000000	22.936250
1083.000000	22.964460
1084.000000	22.993640
1085.000000	23.021750
1086.000000	23.051350
1087.000000	23.082750
1088.000000	23.114760
1089.000000	23.146250
1090.000000	23.177830
1091.000000	23.207590
1092.000000	23.236030
1093.000000	23.262790
1094.000000	23.291510
1095.000000	23.319190
1096.000000	23.345060
1097.000000	23.368570
1098.000000	23.391520
1099.000000	23.412940
1100.000000	23.432670
1101.000000	23.451600
1102.000000	23.471280
1103.000000	23.488580
1104.000000	23.503510
1105.000000	23.519230
1106.000000	23.533410
1107.000000	23.546620
1108.000000	23.556640
1109.000000	23.566620
1110.000000	23.574660
1111.000000	23.580560
1112.000000	23.584860
1113.000000	23.590880
1114.000000	23.594590
1115.000000	23.596790
1116.000000	23.597190
1117.000000	23.598290
1118.000000	23.597830
1119.000000	23.598760
1120.000000	23.598660
1121.000000	23.595700
1122.000000	23.587310
1123.000000	23.576830
1124.000000	23.561470
1125.000000	23.541030
1126.000000	23.514600
1127.000000	23.482180
1128.000000	23.443470
1129.000000	23.393450
1130.000000	23.332950
1131.000000	23.261580
1132.000000	23.178830
1133.000000	23.077550
1134.000000	22.961950
1135.000000	22.836040
1136.000000	22.694970
1137.000000	22.534360
1138.000000	22.356640
1139.000000	22.165040
1140.000000	21.963900
1141.000000	21.757780
1142.000000	21.545160
1143.000000	21.332070
1144.000000	21.119980
1145.000000	20.908100
1146.000000	20.706190
1147.000000	20.522950
1148.000000	20.361500
1149.000000	20.222430
1150.000000	20.105370
1151.000000	20.012160
1152.000000	19.943050
1153.000000	19.895300
1154.000000	19.864460
1155.000000	19.843340
1156.000000	19.826540
1157.000000	19.803270
1158.000000	19.769420
1159.000000	19.721830
1160.000000	19.655930
1161.000000	19.564110
1162.000000	19.446580
1163.000000	19.308830
1164.000000	19.150090
1165.000000	18.972730
1166.000000	18.781700
1167.000000	18.582580
1168.000000	18.377780
1169.000000	18.164820
1170.000000	17.951110
1171.000000	17.736400
1172.000000	17.527970
1173.000000	17.321720
1174.000000	17.118310
1175.000000	16.922510
