PE UV       SUBTECH     SPECTRUM    ASCII       PEDS        4.00        
   -1
CICIMAUCR0158-1.ASC
24/04/03
16:46:49.00
24/04/03
16:46:49.00
Vinicio Soto Monge
C. cupreomarginata
250,000000
1
Lambda 1050
1050L1511233
PerkinElmer UV WinLab 6.3.2.0749 / 2.02.05 Lambda 900 UV/VIS/NIR, Aug  7 2015 09:38:08

0
0
3350/servo 860,8/2
0
0
UV/VIS
1
1
1
DoubleDePol,CommonBeamDepol,RBeamAtt,SBeamAtt,60mm sphere, WB InGaAs Detector
0
0
0
0
Program
Program
3350/servo 860,8/2
3350/0,2 860,8/0,2
3350/0,2 860,8/0,2
0
15.00
 
 
 
0
 
860,8
319,2
860,8
Front
100
on
S:100 R:100
0
0
0
0
 
0
 
 
 
0
 
 
0
0
0
0
0
 
 
 
 
0
0


0
0
#HDR
-1
-1
#GR
nm
%R
1.0
0.0
2500,000000
-1,000000
2251
8
61,268000
5,280400
#DATA

250.000000	nan
251.000000	nan
252.000000	nan
253.000000	nan
254.000000	nan
255.000000	nan
256.000000	nan
257.000000	nan
258.000000	nan
259.000000	5.812504
260.000000	5.804676
261.000000	5.792659
262.000000	5.780977
263.000000	5.763311
264.000000	5.737039
265.000000	5.709810
266.000000	5.679250
267.000000	5.649369
268.000000	5.623334
269.000000	5.601222
270.000000	5.578272
271.000000	5.557954
272.000000	5.532333
273.000000	5.507657
274.000000	5.490829
275.000000	5.473627
276.000000	5.455892
277.000000	5.445511
278.000000	5.430537
279.000000	5.416636
280.000000	5.400587
281.000000	5.385307
282.000000	5.374759
283.000000	5.374305
284.000000	5.367286
285.000000	5.360188
286.000000	5.352124
287.000000	5.347047
288.000000	5.347264
289.000000	5.340422
290.000000	5.339870
291.000000	5.336617
292.000000	5.332871
293.000000	5.330653
294.000000	5.325832
295.000000	5.326650
296.000000	5.328563
297.000000	5.326867
298.000000	5.324452
299.000000	5.321978
300.000000	5.319937
301.000000	5.319631
302.000000	5.321287
303.000000	5.318813
304.000000	5.313302
305.000000	5.310365
306.000000	5.313016
307.000000	5.309694
308.000000	5.306007
309.000000	5.308846
310.000000	5.303612
311.000000	5.305830
312.000000	5.306244
313.000000	5.306185
314.000000	5.314811
315.000000	5.320450
316.000000	5.323259
317.000000	5.378347
318.000000	5.422384
319.000000	5.450342
320.000000	5.486610
321.000000	5.499702
322.000000	5.513819
323.000000	5.539519
324.000000	5.561977
325.000000	5.578341
326.000000	5.585498
327.000000	5.549683
328.000000	5.515583
329.000000	5.483357
330.000000	5.452570
331.000000	5.455734
332.000000	5.443056
333.000000	5.408740
334.000000	5.373822
335.000000	5.355042
336.000000	5.343863
337.000000	5.341024
338.000000	5.346475
339.000000	5.357142
340.000000	5.373635
341.000000	5.369337
342.000000	5.379244
343.000000	5.393745
344.000000	5.410081
345.000000	5.409134
346.000000	5.420451
347.000000	5.428003
348.000000	5.418874
349.000000	5.418036
350.000000	5.415650
351.000000	5.409253
352.000000	5.412496
353.000000	5.423015
354.000000	5.433307
355.000000	5.442928
356.000000	5.456631
357.000000	5.456818
358.000000	5.476170
359.000000	5.496951
360.000000	5.510832
361.000000	5.530361
362.000000	5.544093
363.000000	5.565900
364.000000	5.592123
365.000000	5.619164
366.000000	5.634286
367.000000	5.661958
368.000000	5.684849
369.000000	5.712778
370.000000	5.745783
371.000000	5.791230
372.000000	5.831067
373.000000	5.864427
374.000000	5.907448
375.000000	5.971891
376.000000	6.053498
377.000000	6.132926
378.000000	6.224430
379.000000	6.321021
380.000000	6.427500
381.000000	6.538247
382.000000	6.667962
383.000000	6.808422
384.000000	6.952293
385.000000	7.095504
386.000000	7.236802
387.000000	7.389791
388.000000	7.550146
389.000000	7.715182
390.000000	7.882270
391.000000	8.050934
392.000000	8.224498
393.000000	8.401414
394.000000	8.581622
395.000000	8.761841
396.000000	8.939496
397.000000	9.116718
398.000000	9.293062
399.000000	9.465807
400.000000	9.635477
401.000000	9.801332
402.000000	9.960730
403.000000	10.115702
404.000000	10.264827
405.000000	10.405642
406.000000	10.541153
407.000000	10.672169
408.000000	10.794628
409.000000	10.910650
410.000000	11.019031
411.000000	11.119713
412.000000	11.214619
413.000000	11.301657
414.000000	11.380227
415.000000	11.452636
416.000000	11.517927
417.000000	11.573754
418.000000	11.622641
419.000000	11.663632
420.000000	11.696065
421.000000	11.721391
422.000000	11.736178
423.000000	11.740279
424.000000	11.735843
425.000000	11.723944
426.000000	11.704129
427.000000	11.676398
428.000000	11.641884
429.000000	11.603220
430.000000	11.561717
431.000000	11.515246
432.000000	11.466911
433.000000	11.420429
434.000000	11.376008
435.000000	11.336733
436.000000	11.306359
437.000000	11.287244
438.000000	11.280521
439.000000	11.285687
440.000000	11.307454
441.000000	11.350840
442.000000	11.415825
443.000000	11.501917
444.000000	11.609717
445.000000	11.739096
446.000000	11.888715
447.000000	12.058070
448.000000	12.244922
449.000000	12.449205
450.000000	12.669142
451.000000	12.902289
452.000000	13.145443
453.000000	13.396098
454.000000	13.653220
455.000000	13.912591
456.000000	14.171438
457.000000	14.428452
458.000000	14.682282
459.000000	14.930680
460.000000	15.170876
461.000000	15.400228
462.000000	15.618479
463.000000	15.826301
464.000000	16.021996
465.000000	16.206809
466.000000	16.381161
467.000000	16.544503
468.000000	16.698380
469.000000	16.844656
470.000000	16.985530
471.000000	17.124206
472.000000	17.263966
473.000000	17.405284
474.000000	17.552546
475.000000	17.705990
476.000000	17.865999
477.000000	18.034999
478.000000	18.215818
479.000000	18.408192
480.000000	18.611301
481.000000	18.824988
482.000000	19.048041
483.000000	19.281424
484.000000	19.521798
485.000000	19.769249
486.000000	20.023178
487.000000	20.282775
488.000000	20.544678
489.000000	20.810653
490.000000	21.080128
491.000000	21.350993
492.000000	21.625141
493.000000	21.900136
494.000000	22.174668
495.000000	22.446509
496.000000	22.718015
497.000000	22.989284
498.000000	23.259301
499.000000	23.525986
500.000000	23.789555
501.000000	24.052938
502.000000	24.312712
503.000000	24.569292
504.000000	24.823221
505.000000	25.076301
506.000000	25.330141
507.000000	25.583695
508.000000	25.840285
509.000000	26.100050
510.000000	26.366616
511.000000	26.640320
512.000000	26.921950
513.000000	27.214434
514.000000	27.522583
515.000000	27.848999
516.000000	28.193041
517.000000	28.556879
518.000000	28.942021
519.000000	29.354154
520.000000	29.788557
521.000000	30.246304
522.000000	30.730984
523.000000	31.239502
524.000000	31.772931
525.000000	32.330749
526.000000	32.912316
527.000000	33.519396
528.000000	34.150421
529.000000	34.804614
530.000000	35.484053
531.000000	36.185506
532.000000	36.909091
533.000000	37.659736
534.000000	38.432809
535.000000	39.225815
536.000000	40.039110
537.000000	40.861503
538.000000	41.692483
539.000000	42.521304
540.000000	43.343264
541.000000	44.156805
542.000000	44.952927
543.000000	45.723486
544.000000	46.465889
545.000000	47.175278
546.000000	47.841507
547.000000	48.470354
548.000000	49.058142
549.000000	49.603361
550.000000	50.108349
551.000000	50.569192
552.000000	50.988877
553.000000	51.367719
554.000000	51.704910
555.000000	52.002767
556.000000	52.268239
557.000000	52.496171
558.000000	52.690093
559.000000	52.856214
560.000000	53.009154
561.000000	53.140170
562.000000	53.251351
563.000000	53.346198
564.000000	53.431186
565.000000	53.504767
566.000000	53.569339
567.000000	53.630075
568.000000	53.682649
569.000000	53.729022
570.000000	53.753086
571.000000	53.766257
572.000000	53.772862
573.000000	53.775553
574.000000	53.768751
575.000000	53.756902
576.000000	53.739038
577.000000	53.713653
578.000000	53.685015
579.000000	53.658398
580.000000	53.631081
581.000000	53.602482
582.000000	53.564400
583.000000	53.514527
584.000000	53.456580
585.000000	53.387090
586.000000	53.305769
587.000000	53.215280
588.000000	53.115850
589.000000	52.995964
590.000000	52.864199
591.000000	52.729959
592.000000	52.592427
593.000000	52.455368
594.000000	52.317107
595.000000	52.178411
596.000000	52.041993
597.000000	51.908808
598.000000	51.773267
599.000000	51.638771
600.000000	51.502678
601.000000	51.357368
602.000000	51.200908
603.000000	51.027492
604.000000	50.834014
605.000000	50.621894
606.000000	50.383739
607.000000	50.120406
608.000000	49.835246
609.000000	49.530075
610.000000	49.200110
611.000000	48.840235
612.000000	48.462921
613.000000	48.066817
614.000000	47.655216
615.000000	47.229065
616.000000	46.796643
617.000000	46.355951
618.000000	45.913424
619.000000	45.462026
620.000000	45.012924
621.000000	44.567430
622.000000	44.119699
623.000000	43.678237
624.000000	43.236352
625.000000	42.798094
626.000000	42.363829
627.000000	41.933872
628.000000	41.507523
629.000000	41.095212
630.000000	40.690177
631.000000	40.302186
632.000000	39.940015
633.000000	39.603474
634.000000	39.307274
635.000000	39.051719
636.000000	38.840654
637.000000	38.682005
638.000000	38.576108
639.000000	38.524559
640.000000	38.526787
641.000000	38.585424
642.000000	38.695294
643.000000	38.849201
644.000000	39.039455
645.000000	39.266746
646.000000	39.521030
647.000000	39.793630
648.000000	40.082752
649.000000	40.379110
650.000000	40.686441
651.000000	40.992963
652.000000	41.299090
653.000000	41.602123
654.000000	41.906979
655.000000	42.203505
656.000000	42.491444
657.000000	42.770383
658.000000	43.042332
659.000000	43.306937
660.000000	43.562285
661.000000	43.811097
662.000000	44.048966
663.000000	44.276474
664.000000	44.490280
665.000000	44.691240
666.000000	44.885605
667.000000	45.070881
668.000000	45.237051
669.000000	45.390208
670.000000	45.530669
671.000000	45.656006
672.000000	45.764368
673.000000	45.862851
674.000000	45.947425
675.000000	46.021825
676.000000	46.083390
677.000000	46.134742
678.000000	46.178837
679.000000	46.215007
680.000000	46.243813
681.000000	46.266152
682.000000	46.286263
683.000000	46.307783
684.000000	46.326997
685.000000	46.344061
686.000000	46.357439
687.000000	46.369505
688.000000	46.386955
689.000000	46.405064
690.000000	46.422976
691.000000	46.446478
692.000000	46.471992
693.000000	46.495661
694.000000	46.525305
695.000000	46.557591
696.000000	46.603225
697.000000	46.658795
698.000000	46.717127
699.000000	46.783344
700.000000	46.854442
701.000000	46.929493
702.000000	47.012085
703.000000	47.104200
704.000000	47.204212
705.000000	47.310799
706.000000	47.418264
707.000000	47.527119
708.000000	47.641494
709.000000	47.759270
710.000000	47.882892
711.000000	48.010064
712.000000	48.136417
713.000000	48.266516
714.000000	48.397857
715.000000	48.528459
716.000000	48.654940
717.000000	48.784477
718.000000	48.910436
719.000000	49.029080
720.000000	49.143307
721.000000	49.251087
722.000000	49.356166
723.000000	49.450904
724.000000	49.538208
725.000000	49.625306
726.000000	49.708667
727.000000	49.781933
728.000000	49.852144
729.000000	49.931236
730.000000	50.006267
731.000000	50.073964
732.000000	50.140694
733.000000	50.204329
734.000000	50.260699
735.000000	50.313746
736.000000	50.362376
737.000000	50.410859
738.000000	50.460978
739.000000	50.504907
740.000000	50.549722
741.000000	50.602612
742.000000	50.651873
743.000000	50.700938
744.000000	50.755454
745.000000	50.810137
746.000000	50.875980
747.000000	50.946299
748.000000	51.015514
749.000000	51.090091
750.000000	51.164699
751.000000	51.238783
752.000000	51.322903
753.000000	51.411736
754.000000	51.504896
755.000000	51.603173
756.000000	51.696866
757.000000	51.789918
758.000000	51.885227
759.000000	51.981009
760.000000	52.080597
761.000000	52.189817
762.000000	52.299391
763.000000	52.402587
764.000000	52.514222
765.000000	52.628055
766.000000	52.742962
767.000000	52.860887
768.000000	52.973389
769.000000	53.083998
770.000000	53.204929
771.000000	53.322715
772.000000	53.438155
773.000000	53.561570
774.000000	53.671046
775.000000	53.787107
776.000000	53.904164
777.000000	54.015000
778.000000	54.133772
779.000000	54.255344
780.000000	54.366909
781.000000	54.482428
782.000000	54.601269
783.000000	54.718306
784.000000	54.834012
785.000000	54.940846
786.000000	55.054906
787.000000	55.176093
788.000000	55.292479
789.000000	55.400102
790.000000	55.516695
791.000000	55.623479
792.000000	55.720435
793.000000	55.825652
794.000000	55.936458
795.000000	56.045165
796.000000	56.151368
797.000000	56.246864
798.000000	56.348059
799.000000	56.457821
800.000000	56.550331
801.000000	56.644733
802.000000	56.741413
803.000000	56.819815
804.000000	56.893131
805.000000	56.964426
806.000000	57.041359
807.000000	57.120393
808.000000	57.195138
809.000000	57.256555
810.000000	57.319509
811.000000	57.382543
812.000000	57.449224
813.000000	57.512031
814.000000	57.581029
815.000000	57.655794
816.000000	57.705134
817.000000	57.746617
818.000000	57.788071
819.000000	57.841631
820.000000	57.885264
821.000000	57.921483
822.000000	57.951333
823.000000	58.006333
824.000000	58.048684
825.000000	58.088018
826.000000	58.148074
827.000000	58.213415
828.000000	58.252946
829.000000	58.291117
830.000000	58.341394
831.000000	58.382661
832.000000	58.442136
833.000000	58.470311
834.000000	58.512238
835.000000	58.535572
836.000000	58.552203
837.000000	58.571663
838.000000	58.611757
839.000000	58.616281
840.000000	58.599306
841.000000	58.603968
842.000000	58.576888
843.000000	58.573063
844.000000	58.546150
845.000000	58.512139
846.000000	58.505524
847.000000	58.471622
848.000000	58.413626
849.000000	58.395151
850.000000	58.373838
851.000000	58.323788
852.000000	58.325405
853.000000	58.275137
854.000000	58.271076
855.000000	58.249733
856.000000	58.142948
857.000000	58.075331
858.000000	58.053593
859.000000	58.106693
860.000000	58.183423
861.000000	58.275184
862.000000	58.326235
863.000000	58.415279
864.000000	58.467243
865.000000	58.549890
866.000000	58.679134
867.000000	58.786154
868.000000	58.865210
869.000000	58.849740
870.000000	58.826380
871.000000	58.801740
872.000000	58.774500
873.000000	58.745260
874.000000	58.714690
875.000000	58.686200
876.000000	58.656230
877.000000	58.630910
878.000000	58.607490
879.000000	58.586280
880.000000	58.566700
881.000000	58.547930
882.000000	58.527210
883.000000	58.510560
884.000000	58.494260
885.000000	58.479390
886.000000	58.465390
887.000000	58.454030
888.000000	58.442860
889.000000	58.432070
890.000000	58.420210
891.000000	58.405990
892.000000	58.394520
893.000000	58.381840
894.000000	58.369370
895.000000	58.353920
896.000000	58.337870
897.000000	58.320280
898.000000	58.300220
899.000000	58.277240
900.000000	58.255560
901.000000	58.233410
902.000000	58.209320
903.000000	58.185730
904.000000	58.159210
905.000000	58.133520
906.000000	58.108300
907.000000	58.081530
908.000000	58.053010
909.000000	58.025510
910.000000	57.994580
911.000000	57.965700
912.000000	57.937050
913.000000	57.902980
914.000000	57.874950
915.000000	57.846050
916.000000	57.815060
917.000000	57.782350
918.000000	57.752730
919.000000	57.723980
920.000000	57.695110
921.000000	57.666210
922.000000	57.637890
923.000000	57.615430
924.000000	57.587040
925.000000	57.558470
926.000000	57.534610
927.000000	57.516660
928.000000	57.496190
929.000000	57.477570
930.000000	57.463350
931.000000	57.449110
932.000000	57.434240
933.000000	57.419600
934.000000	57.410010
935.000000	57.398570
936.000000	57.388100
937.000000	57.371320
938.000000	57.358670
939.000000	57.344300
940.000000	57.326290
941.000000	57.309280
942.000000	57.294350
943.000000	57.279150
944.000000	57.262410
945.000000	57.249890
946.000000	57.237860
947.000000	57.228900
948.000000	57.223050
949.000000	57.216910
950.000000	57.216070
951.000000	57.217250
952.000000	57.220760
953.000000	57.222750
954.000000	57.226260
955.000000	57.231620
956.000000	57.234830
957.000000	57.240000
958.000000	57.243880
959.000000	57.249400
960.000000	57.251360
961.000000	57.251170
962.000000	57.251180
963.000000	57.252730
964.000000	57.254890
965.000000	57.255160
966.000000	57.256820
967.000000	57.259570
968.000000	57.260670
969.000000	57.263130
970.000000	57.270320
971.000000	57.278930
972.000000	57.285850
973.000000	57.292860
974.000000	57.301400
975.000000	57.311670
976.000000	57.323720
977.000000	57.334130
978.000000	57.346700
979.000000	57.358720
980.000000	57.371430
981.000000	57.382960
982.000000	57.397240
983.000000	57.412600
984.000000	57.428370
985.000000	57.443420
986.000000	57.456990
987.000000	57.473360
988.000000	57.490330
989.000000	57.508550
990.000000	57.525820
991.000000	57.545970
992.000000	57.566910
993.000000	57.589620
994.000000	57.612400
995.000000	57.636640
996.000000	57.663810
997.000000	57.691220
998.000000	57.718570
999.000000	57.747550
1000.000000	57.775930
1001.000000	57.804760
1002.000000	57.833730
1003.000000	57.862660
1004.000000	57.891610
1005.000000	57.920130
1006.000000	57.948230
1007.000000	57.976360
1008.000000	58.004700
1009.000000	58.033540
1010.000000	58.063900
1011.000000	58.093030
1012.000000	58.121720
1013.000000	58.149330
1014.000000	58.178120
1015.000000	58.208110
1016.000000	58.238360
1017.000000	58.269660
1018.000000	58.299510
1019.000000	58.328870
1020.000000	58.359710
1021.000000	58.391500
1022.000000	58.424950
1023.000000	58.461750
1024.000000	58.498570
1025.000000	58.537030
1026.000000	58.575810
1027.000000	58.612270
1028.000000	58.651680
1029.000000	58.692830
1030.000000	58.731890
1031.000000	58.771590
1032.000000	58.811060
1033.000000	58.848360
1034.000000	58.885760
1035.000000	58.923270
1036.000000	58.961450
1037.000000	59.000470
1038.000000	59.037440
1039.000000	59.073250
1040.000000	59.110610
1041.000000	59.146980
1042.000000	59.182200
1043.000000	59.218110
1044.000000	59.252910
1045.000000	59.286490
1046.000000	59.317840
1047.000000	59.349890
1048.000000	59.383620
1049.000000	59.416980
1050.000000	59.447980
1051.000000	59.478490
1052.000000	59.510790
1053.000000	59.544120
1054.000000	59.577030
1055.000000	59.609610
1056.000000	59.644090
1057.000000	59.678820
1058.000000	59.711910
1059.000000	59.744230
1060.000000	59.779510
1061.000000	59.816420
1062.000000	59.851310
1063.000000	59.885140
1064.000000	59.920140
1065.000000	59.956410
1066.000000	59.992410
1067.000000	60.027570
1068.000000	60.063310
1069.000000	60.100340
1070.000000	60.137800
1071.000000	60.174520
1072.000000	60.210940
1073.000000	60.246110
1074.000000	60.279790
1075.000000	60.313360
1076.000000	60.347050
1077.000000	60.381470
1078.000000	60.414390
1079.000000	60.447290
1080.000000	60.478040
1081.000000	60.508470
1082.000000	60.538080
1083.000000	60.567460
1084.000000	60.599650
1085.000000	60.630950
1086.000000	60.661440
1087.000000	60.689490
1088.000000	60.719390
1089.000000	60.748020
1090.000000	60.775360
1091.000000	60.800620
1092.000000	60.826590
1093.000000	60.854020
1094.000000	60.879280
1095.000000	60.902970
1096.000000	60.923500
1097.000000	60.945570
1098.000000	60.966420
1099.000000	60.986140
1100.000000	61.006210
1101.000000	61.026400
1102.000000	61.044470
1103.000000	61.060600
1104.000000	61.074730
1105.000000	61.089080
1106.000000	61.103770
1107.000000	61.116050
1108.000000	61.126770
1109.000000	61.138080
1110.000000	61.147730
1111.000000	61.157910
1112.000000	61.167900
1113.000000	61.176470
1114.000000	61.185590
1115.000000	61.193530
1116.000000	61.203020
1117.000000	61.213240
1118.000000	61.223230
1119.000000	61.231550
1120.000000	61.237980
1121.000000	61.242380
1122.000000	61.246980
1123.000000	61.248960
1124.000000	61.248040
1125.000000	61.244100
1126.000000	61.236220
1127.000000	61.221480
1128.000000	61.199850
1129.000000	61.173220
1130.000000	61.141000
1131.000000	61.099620
1132.000000	61.048980
1133.000000	60.992820
1134.000000	60.935570
1135.000000	60.872840
1136.000000	60.801030
1137.000000	60.720090
1138.000000	60.634770
1139.000000	60.542040
1140.000000	60.446740
1141.000000	60.352050
1142.000000	60.255680
1143.000000	60.160680
1144.000000	60.061960
1145.000000	59.963480
1146.000000	59.870020
1147.000000	59.782560
1148.000000	59.699090
1149.000000	59.619550
1150.000000	59.543570
1151.000000	59.468640
1152.000000	59.398020
1153.000000	59.326790
1154.000000	59.254730
1155.000000	59.181400
1156.000000	59.104050
1157.000000	59.025640
1158.000000	58.945940
1159.000000	58.860960
1160.000000	58.770510
1161.000000	58.676590
1162.000000	58.577330
1163.000000	58.469250
1164.000000	58.356630
1165.000000	58.243560
1166.000000	58.128030
1167.000000	58.010020
1168.000000	57.889940
1169.000000	57.771830
