PE UV       SUBTECH     SPECTRUM    ASCII       PEDS        4.00        
   -1
CICIMAUCR0020-1.Sample.ASC
24/03/08
12:01:00.00
24/03/08
12:01:00.00
Vinicio Soto Monge
C. resplendens
250,000000
1
Lambda 1050
1050L1511233
PerkinElmer UV WinLab 6.3.2.0749 / 2.02.05 Lambda 900 UV/VIS/NIR, Aug  7 2015 09:38:08

0
0
3350/servo 860,8/2
0
0
UV/VIS
1
1
1
DoubleDePol,CommonBeamDepol,RBeamAtt,SBeamAtt,60mm sphere, WB InGaAs Detector
0
0
0
0
Program
Program
3350/servo 860,8/2
3350/0,2 860,8/0,2
3350/0,2 860,8/0,2
0
15.00
 
 
 
0
 
860,8
319,2
860,8
Front
100
on
S:100 R:100
0
0
0
0
 
0
 
 
 
0
 
 
0
0
0
0
0
 
 
 
 
0
0


0
0
#HDR
-1
-1
#GR
nm
%R
1.0
0.0
2500,000000
-1,000000
2251
8
26,391500
2,064300
#DATA

250.000000	nan
251.000000	nan
252.000000	nan
253.000000	nan
254.000000	nan
255.000000	nan
256.000000	nan
257.000000	nan
258.000000	nan
259.000000	2.364444
260.000000	2.359700
261.000000	2.354277
262.000000	2.351203
263.000000	2.349299
264.000000	2.349831
265.000000	2.345162
266.000000	2.335548
267.000000	2.330422
268.000000	2.327114
269.000000	2.315575
270.000000	2.307747
271.000000	2.301579
272.000000	2.296899
273.000000	2.294783
274.000000	2.288423
275.000000	2.280500
276.000000	2.277745
277.000000	2.279521
278.000000	2.276905
279.000000	2.277713
280.000000	2.280712
281.000000	2.282265
282.000000	2.284041
283.000000	2.279713
284.000000	2.278873
285.000000	2.282999
286.000000	2.283233
287.000000	2.275661
288.000000	2.276139
289.000000	2.276895
290.000000	2.272385
291.000000	2.271853
292.000000	2.268408
293.000000	2.268684
294.000000	2.269301
295.000000	2.266897
296.000000	2.260984
297.000000	2.262314
298.000000	2.258028
299.000000	2.253582
300.000000	2.248871
301.000000	2.244712
302.000000	2.243798
303.000000	2.240118
304.000000	2.237576
305.000000	2.238214
306.000000	2.241798
307.000000	2.235502
308.000000	2.239756
309.000000	2.243872
310.000000	2.250147
311.000000	2.247286
312.000000	2.248679
313.000000	2.252274
314.000000	2.256401
315.000000	2.256050
316.000000	2.264292
317.000000	2.339876
318.000000	2.393138
319.000000	2.427809
320.000000	2.492035
321.000000	2.560387
322.000000	2.595026
323.000000	2.629718
324.000000	2.671802
325.000000	2.722744
326.000000	2.734071
327.000000	2.688552
328.000000	2.667260
329.000000	2.664974
330.000000	2.634791
331.000000	2.593016
332.000000	2.582668
333.000000	2.565375
334.000000	2.544126
335.000000	2.523334
336.000000	2.533863
337.000000	2.534926
338.000000	2.520484
339.000000	2.506722
340.000000	2.492332
341.000000	2.490481
342.000000	2.491120
343.000000	2.505541
344.000000	2.504042
345.000000	2.498288
346.000000	2.495087
347.000000	2.492534
348.000000	2.499032
349.000000	2.501000
350.000000	2.508700
351.000000	2.511571
352.000000	2.506190
353.000000	2.491683
354.000000	2.491524
355.000000	2.491992
356.000000	2.487216
357.000000	2.488216
358.000000	2.491343
359.000000	2.495523
360.000000	2.499692
361.000000	2.510135
362.000000	2.518835
363.000000	2.525344
364.000000	2.535330
365.000000	2.547316
366.000000	2.561227
367.000000	2.575287
368.000000	2.587422
369.000000	2.591782
370.000000	2.593282
371.000000	2.589655
372.000000	2.588007
373.000000	2.591410
374.000000	2.584891
375.000000	2.562216
376.000000	2.550922
377.000000	2.519814
378.000000	2.489641
379.000000	2.469924
380.000000	2.447494
381.000000	2.428021
382.000000	2.412972
383.000000	2.397126
384.000000	2.385820
385.000000	2.385140
386.000000	2.375685
387.000000	2.385235
388.000000	2.393956
389.000000	2.403390
390.000000	2.413812
391.000000	2.424990
392.000000	2.436083
393.000000	2.445910
394.000000	2.456385
395.000000	2.468818
396.000000	2.482399
397.000000	2.496576
398.000000	2.511848
399.000000	2.527110
400.000000	2.543392
401.000000	2.561121
402.000000	2.581104
403.000000	2.603524
404.000000	2.626772
405.000000	2.650648
406.000000	2.676162
407.000000	2.704388
408.000000	2.736251
409.000000	2.770539
410.000000	2.806699
411.000000	2.846634
412.000000	2.890004
413.000000	2.936629
414.000000	2.987859
415.000000	3.043917
416.000000	3.105559
417.000000	3.171008
418.000000	3.239924
419.000000	3.314073
420.000000	3.394497
421.000000	3.479940
422.000000	3.570648
423.000000	3.667503
424.000000	3.769261
425.000000	3.876719
426.000000	3.989846
427.000000	4.108184
428.000000	4.232424
429.000000	4.361430
430.000000	4.493944
431.000000	4.630852
432.000000	4.770886
433.000000	4.913142
434.000000	5.058037
435.000000	5.204080
436.000000	5.351016
437.000000	5.499048
438.000000	5.646207
439.000000	5.792675
440.000000	5.938655
441.000000	6.082836
442.000000	6.225433
443.000000	6.364712
444.000000	6.499737
445.000000	6.631528
446.000000	6.760725
447.000000	6.885891
448.000000	7.007388
449.000000	7.125215
450.000000	7.237991
451.000000	7.344971
452.000000	7.446984
453.000000	7.546040
454.000000	7.641949
455.000000	7.733167
456.000000	7.818643
457.000000	7.898119
458.000000	7.972470
459.000000	8.042259
460.000000	8.107601
461.000000	8.169530
462.000000	8.227780
463.000000	8.280988
464.000000	8.330293
465.000000	8.375205
466.000000	8.415481
467.000000	8.453129
468.000000	8.487407
469.000000	8.516898
470.000000	8.541572
471.000000	8.561162
472.000000	8.576062
473.000000	8.585463
474.000000	8.588388
475.000000	8.586548
476.000000	8.579912
477.000000	8.567224
478.000000	8.548676
479.000000	8.526321
480.000000	8.498977
481.000000	8.462892
482.000000	8.418331
483.000000	8.369026
484.000000	8.317636
485.000000	8.264471
486.000000	8.208859
487.000000	8.153216
488.000000	8.097423
489.000000	8.041408
490.000000	7.988019
491.000000	7.944617
492.000000	7.910158
493.000000	7.883900
494.000000	7.865033
495.000000	7.853951
496.000000	7.852579
497.000000	7.861726
498.000000	7.882284
499.000000	7.914806
500.000000	7.959687
501.000000	8.015522
502.000000	8.083396
503.000000	8.161969
504.000000	8.252496
505.000000	8.353934
506.000000	8.463754
507.000000	8.580252
508.000000	8.702865
509.000000	8.831328
510.000000	8.964162
511.000000	9.098049
512.000000	9.232170
513.000000	9.366184
514.000000	9.497210
515.000000	9.624620
516.000000	9.749435
517.000000	9.873303
518.000000	9.997204
519.000000	10.121178
520.000000	10.243930
521.000000	10.369022
522.000000	10.497729
523.000000	10.631244
524.000000	10.771969
525.000000	10.920745
526.000000	11.079412
527.000000	11.247651
528.000000	11.423344
529.000000	11.608142
530.000000	11.804702
531.000000	12.013355
532.000000	12.235120
533.000000	12.469956
534.000000	12.716906
535.000000	12.977405
536.000000	13.251060
537.000000	13.537531
538.000000	13.840262
539.000000	14.156905
540.000000	14.489170
541.000000	14.836059
542.000000	15.194828
543.000000	15.565051
544.000000	15.948269
545.000000	16.340230
546.000000	16.740359
547.000000	17.145093
548.000000	17.551954
549.000000	17.961889
550.000000	18.372611
551.000000	18.777706
552.000000	19.180345
553.000000	19.578177
554.000000	19.965331
555.000000	20.342796
556.000000	20.710222
557.000000	21.069128
558.000000	21.415847
559.000000	21.745880
560.000000	22.008261
561.000000	22.248415
562.000000	22.467873
563.000000	22.664965
564.000000	22.843775
565.000000	23.004771
566.000000	23.147761
567.000000	23.268864
568.000000	23.370558
569.000000	23.458033
570.000000	23.582646
571.000000	23.699325
572.000000	23.801381
573.000000	23.896545
574.000000	23.984945
575.000000	24.071717
576.000000	24.151077
577.000000	24.229501
578.000000	24.309393
579.000000	24.391306
580.000000	24.471432
581.000000	24.553886
582.000000	24.645360
583.000000	24.739822
584.000000	24.837985
585.000000	24.933702
586.000000	25.032663
587.000000	25.134527
588.000000	25.235913
589.000000	25.331374
590.000000	25.427910
591.000000	25.520139
592.000000	25.602753
593.000000	25.681114
594.000000	25.748499
595.000000	25.811385
596.000000	25.864380
597.000000	25.904390
598.000000	25.936731
599.000000	25.961713
600.000000	25.974369
601.000000	25.981070
602.000000	25.981899
603.000000	25.974805
604.000000	25.962118
605.000000	25.938242
606.000000	25.908739
607.000000	25.875419
608.000000	25.837515
609.000000	25.793656
610.000000	25.747658
611.000000	25.695705
612.000000	25.642029
613.000000	25.588949
614.000000	25.536528
615.000000	25.484234
616.000000	25.436546
617.000000	25.390740
618.000000	25.345923
619.000000	25.303967
620.000000	25.260225
621.000000	25.218641
622.000000	25.174111
623.000000	25.121329
624.000000	25.064047
625.000000	25.001523
626.000000	24.924960
627.000000	24.837826
628.000000	24.737195
629.000000	24.619208
630.000000	24.485481
631.000000	24.336694
632.000000	24.170614
633.000000	23.986700
634.000000	23.783673
635.000000	23.563652
636.000000	23.331857
637.000000	23.081908
638.000000	22.821909
639.000000	22.553423
640.000000	22.278130
641.000000	21.995531
642.000000	21.713974
643.000000	21.432693
644.000000	21.156922
645.000000	20.881087
646.000000	20.608006
647.000000	20.342296
648.000000	20.073821
649.000000	19.807259
650.000000	19.540188
651.000000	19.271851
652.000000	18.997239
653.000000	18.722074
654.000000	18.437518
655.000000	18.152228
656.000000	17.865609
657.000000	17.583254
658.000000	17.310429
659.000000	17.051397
660.000000	16.814423
661.000000	16.604346
662.000000	16.424993
663.000000	16.278961
664.000000	16.175587
665.000000	16.117859
666.000000	16.107128
667.000000	16.141841
668.000000	16.225104
669.000000	16.352312
670.000000	16.518668
671.000000	16.718217
672.000000	16.949001
673.000000	17.207660
674.000000	17.484910
675.000000	17.774082
676.000000	18.068964
677.000000	18.363922
678.000000	18.652689
679.000000	18.933544
680.000000	19.206295
681.000000	19.468698
682.000000	19.720242
683.000000	19.954664
684.000000	20.176812
685.000000	20.386007
686.000000	20.583131
687.000000	20.775969
688.000000	20.968020
689.000000	21.155167
690.000000	21.337370
691.000000	21.517860
692.000000	21.694426
693.000000	21.872779
694.000000	22.050504
695.000000	22.226028
696.000000	22.398404
697.000000	22.560867
698.000000	22.711271
699.000000	22.855357
700.000000	22.982756
701.000000	23.091076
702.000000	23.184283
703.000000	23.262409
704.000000	23.325465
705.000000	23.371101
706.000000	23.401847
707.000000	23.417736
708.000000	23.423905
709.000000	23.416790
710.000000	23.405825
711.000000	23.393807
712.000000	23.381683
713.000000	23.367251
714.000000	23.350362
715.000000	23.339387
716.000000	23.336366
717.000000	23.341259
718.000000	23.349235
719.000000	23.365804
720.000000	23.386203
721.000000	23.406920
722.000000	23.423235
723.000000	23.435806
724.000000	23.445473
725.000000	23.449599
726.000000	23.442463
727.000000	23.427425
728.000000	23.405559
729.000000	23.373334
730.000000	23.337419
731.000000	23.302472
732.000000	23.268046
733.000000	23.236417
734.000000	23.211722
735.000000	23.193695
736.000000	23.186782
737.000000	23.192557
738.000000	23.211870
739.000000	23.243074
740.000000	23.283052
741.000000	23.333825
742.000000	23.396243
743.000000	23.466222
744.000000	23.539265
745.000000	23.616253
746.000000	23.699017
747.000000	23.782003
748.000000	23.859183
749.000000	23.932503
750.000000	24.003429
751.000000	24.068612
752.000000	24.124309
753.000000	24.182047
754.000000	24.243827
755.000000	24.302608
756.000000	24.357263
757.000000	24.411704
758.000000	24.471676
759.000000	24.539019
760.000000	24.610424
761.000000	24.685072
762.000000	24.763220
763.000000	24.833635
764.000000	24.902254
765.000000	24.974999
766.000000	25.044106
767.000000	25.106025
768.000000	25.159275
769.000000	25.203262
770.000000	25.240507
771.000000	25.272817
772.000000	25.300277
773.000000	25.325185
774.000000	25.343871
775.000000	25.355112
776.000000	25.363907
777.000000	25.373639
778.000000	25.387294
779.000000	25.401716
780.000000	25.413446
781.000000	25.429463
782.000000	25.448691
783.000000	25.470653
784.000000	25.489105
785.000000	25.511269
786.000000	25.540005
787.000000	25.566753
788.000000	25.588959
789.000000	25.603636
790.000000	25.618259
791.000000	25.617291
792.000000	25.614633
793.000000	25.609996
794.000000	25.598999
795.000000	25.579877
796.000000	25.546897
797.000000	25.514130
798.000000	25.485819
799.000000	25.454913
800.000000	25.434334
801.000000	25.422220
802.000000	25.410075
803.000000	25.400982
804.000000	25.406948
805.000000	25.415244
806.000000	25.428219
807.000000	25.451882
808.000000	25.483756
809.000000	25.532774
810.000000	25.573932
811.000000	25.620546
812.000000	25.668213
813.000000	25.715678
814.000000	25.752901
815.000000	25.794581
816.000000	25.838579
817.000000	25.869793
818.000000	25.892967
819.000000	25.906665
820.000000	25.912504
821.000000	25.906623
822.000000	25.901975
823.000000	25.905687
824.000000	25.910696
825.000000	25.915471
826.000000	25.927787
827.000000	25.946771
828.000000	25.954535
829.000000	25.955949
830.000000	25.967403
831.000000	25.984600
832.000000	26.009774
833.000000	26.022728
834.000000	26.031183
835.000000	26.037223
836.000000	26.035192
837.000000	26.020303
838.000000	25.996129
839.000000	25.984526
840.000000	25.973391
841.000000	25.950089
842.000000	25.911600
843.000000	25.876504
844.000000	25.844875
845.000000	25.828241
846.000000	25.802323
847.000000	25.780978
848.000000	25.789625
849.000000	25.769365
850.000000	25.755177
851.000000	25.741458
852.000000	25.752231
853.000000	25.760963
854.000000	25.776161
855.000000	25.758368
856.000000	25.720017
857.000000	25.719422
858.000000	25.900667
859.000000	25.965781
860.000000	26.021754
861.000000	26.092282
862.000000	26.145476
863.000000	26.200939
864.000000	26.253859
865.000000	26.322198
866.000000	26.419965
867.000000	26.484121
868.000000	26.351690
869.000000	26.356290
870.000000	26.358680
871.000000	26.357580
872.000000	26.349830
873.000000	26.340150
874.000000	26.330660
875.000000	26.322780
876.000000	26.315030
877.000000	26.305590
878.000000	26.296520
879.000000	26.289980
880.000000	26.283690
881.000000	26.275410
882.000000	26.271020
883.000000	26.268390
884.000000	26.265460
885.000000	26.263050
886.000000	26.264460
887.000000	26.266290
888.000000	26.269650
889.000000	26.275470
890.000000	26.283420
891.000000	26.293680
892.000000	26.306340
893.000000	26.317070
894.000000	26.325860
895.000000	26.334880
896.000000	26.337620
897.000000	26.338750
898.000000	26.333680
899.000000	26.323350
900.000000	26.310920
901.000000	26.295190
902.000000	26.270860
903.000000	26.243370
904.000000	26.215870
905.000000	26.181400
906.000000	26.149050
907.000000	26.117630
908.000000	26.090050
909.000000	26.070840
910.000000	26.050160
911.000000	26.034310
912.000000	26.025730
913.000000	26.022130
914.000000	26.020870
915.000000	26.025630
916.000000	26.032080
917.000000	26.038070
918.000000	26.043950
919.000000	26.041060
920.000000	26.036160
921.000000	26.026140
922.000000	26.009970
923.000000	25.988860
924.000000	25.960590
925.000000	25.930260
926.000000	25.896190
927.000000	25.861220
928.000000	25.822990
929.000000	25.781840
930.000000	25.740660
931.000000	25.702010
932.000000	25.665200
933.000000	25.631580
934.000000	25.603290
935.000000	25.575950
936.000000	25.550230
937.000000	25.525010
938.000000	25.500190
939.000000	25.481170
940.000000	25.459710
941.000000	25.433520
942.000000	25.406650
943.000000	25.376830
944.000000	25.343620
945.000000	25.308640
946.000000	25.272030
947.000000	25.234010
948.000000	25.195700
949.000000	25.157500
950.000000	25.125680
951.000000	25.099550
952.000000	25.078640
953.000000	25.061210
954.000000	25.046970
955.000000	25.037500
956.000000	25.032550
957.000000	25.032340
958.000000	25.036600
959.000000	25.039120
960.000000	25.042320
961.000000	25.042740
962.000000	25.041570
963.000000	25.039460
964.000000	25.033920
965.000000	25.025090
966.000000	25.013000
967.000000	24.995420
968.000000	24.974400
969.000000	24.950870
970.000000	24.924520
971.000000	24.898100
972.000000	24.866620
973.000000	24.831890
974.000000	24.797220
975.000000	24.762310
976.000000	24.725210
977.000000	24.688810
978.000000	24.656270
979.000000	24.627430
980.000000	24.598310
981.000000	24.570660
982.000000	24.547690
983.000000	24.526400
984.000000	24.505810
985.000000	24.484110
986.000000	24.464990
987.000000	24.446900
988.000000	24.424360
989.000000	24.400510
990.000000	24.375180
991.000000	24.347170
992.000000	24.317840
993.000000	24.287560
994.000000	24.257710
995.000000	24.228130
996.000000	24.196030
997.000000	24.163080
998.000000	24.131040
999.000000	24.098760
1000.000000	24.069150
1001.000000	24.041450
1002.000000	24.013340
1003.000000	23.985050
1004.000000	23.956070
1005.000000	23.927630
1006.000000	23.901320
1007.000000	23.875440
1008.000000	23.847520
1009.000000	23.819300
1010.000000	23.789810
1011.000000	23.759560
1012.000000	23.728960
1013.000000	23.698240
1014.000000	23.668190
1015.000000	23.639250
1016.000000	23.611160
1017.000000	23.583170
1018.000000	23.557480
1019.000000	23.534420
1020.000000	23.515610
1021.000000	23.500430
1022.000000	23.489190
1023.000000	23.481930
1024.000000	23.478460
1025.000000	23.476760
1026.000000	23.478480
1027.000000	23.484750
1028.000000	23.494620
1029.000000	23.506930
1030.000000	23.520560
1031.000000	23.536800
1032.000000	23.554240
1033.000000	23.572470
1034.000000	23.591480
1035.000000	23.611900
1036.000000	23.631870
1037.000000	23.652370
1038.000000	23.673760
1039.000000	23.694900
1040.000000	23.714210
1041.000000	23.730690
1042.000000	23.745610
1043.000000	23.759610
1044.000000	23.772770
1045.000000	23.784410
1046.000000	23.795580
1047.000000	23.806120
1048.000000	23.815850
1049.000000	23.824250
1050.000000	23.832420
1051.000000	23.843090
1052.000000	23.856000
1053.000000	23.869170
1054.000000	23.881460
1055.000000	23.895420
1056.000000	23.911290
1057.000000	23.927910
1058.000000	23.943060
1059.000000	23.957870
1060.000000	23.974870
1061.000000	23.991810
1062.000000	24.008000
1063.000000	24.022970
1064.000000	24.039380
1065.000000	24.055530
1066.000000	24.068770
1067.000000	24.080540
1068.000000	24.093010
1069.000000	24.104210
1070.000000	24.115160
1071.000000	24.124930
1072.000000	24.133750
1073.000000	24.142730
1074.000000	24.151170
1075.000000	24.159580
1076.000000	24.167550
1077.000000	24.173860
1078.000000	24.179970
1079.000000	24.188520
1080.000000	24.196350
1081.000000	24.203750
1082.000000	24.211610
1083.000000	24.220450
1084.000000	24.228730
1085.000000	24.236520
1086.000000	24.244990
1087.000000	24.254160
1088.000000	24.266510
1089.000000	24.279750
1090.000000	24.292190
1091.000000	24.302520
1092.000000	24.310620
1093.000000	24.319490
1094.000000	24.328480
1095.000000	24.338340
1096.000000	24.347900
1097.000000	24.357300
1098.000000	24.362910
1099.000000	24.366410
1100.000000	24.369120
1101.000000	24.372730
1102.000000	24.377860
1103.000000	24.383240
1104.000000	24.387930
1105.000000	24.390770
1106.000000	24.393190
1107.000000	24.396710
1108.000000	24.401470
1109.000000	24.404910
1110.000000	24.407280
1111.000000	24.411490
1112.000000	24.415200
1113.000000	24.418080
1114.000000	24.419740
1115.000000	24.420360
1116.000000	24.423950
1117.000000	24.426380
1118.000000	24.425900
1119.000000	24.428510
1120.000000	24.429930
1121.000000	24.426920
1122.000000	24.423530
1123.000000	24.415700
1124.000000	24.408860
1125.000000	24.397670
1126.000000	24.380550
1127.000000	24.360090
1128.000000	24.332010
1129.000000	24.295100
1130.000000	24.252340
1131.000000	24.200760
1132.000000	24.136600
1133.000000	24.059980
1134.000000	23.970040
1135.000000	23.871480
1136.000000	23.759790
1137.000000	23.634050
1138.000000	23.496210
1139.000000	23.344360
1140.000000	23.182600
1141.000000	23.015550
1142.000000	22.842640
1143.000000	22.668620
1144.000000	22.493710
1145.000000	22.318050
1146.000000	22.149490
1147.000000	21.993250
1148.000000	21.855560
1149.000000	21.740280
1150.000000	21.643760
1151.000000	21.562940
1152.000000	21.502040
1153.000000	21.456110
1154.000000	21.422330
1155.000000	21.399030
1156.000000	21.375000
1157.000000	21.342780
1158.000000	21.298450
1159.000000	21.234180
1160.000000	21.152440
1161.000000	21.052180
1162.000000	20.932020
1163.000000	20.795190
1164.000000	20.640500
1165.000000	20.469940
1166.000000	20.289930
1167.000000	20.103440
1168.000000	19.911590
1169.000000	19.718670
1170.000000	19.526210
1171.000000	19.333100
1172.000000	19.140970
1173.000000	18.952230
1174.000000	18.767380
