PE UV       SUBTECH     SPECTRUM    ASCII       PEDS        4.00        
   -1
CICIMAUCR0071-1.ASC
24/04/03
15:28:35.00
24/04/03
15:28:35.00
Vinicio Soto Monge
C. resplendens
250,000000
1
Lambda 1050
1050L1511233
PerkinElmer UV WinLab 6.3.2.0749 / 2.02.05 Lambda 900 UV/VIS/NIR, Aug  7 2015 09:38:08

0
0
3350/servo 860,8/2
0
0
UV/VIS
1
1
1
DoubleDePol,CommonBeamDepol,RBeamAtt,SBeamAtt,60mm sphere, WB InGaAs Detector
0
0
0
0
Program
Program
3350/servo 860,8/2
3350/0,2 860,8/0,2
3350/0,2 860,8/0,2
0
15.00
 
 
 
0
 
860,8
319,2
860,8
Front
100
on
S:100 R:100
0
0
0
0
 
0
 
 
 
0
 
 
0
0
0
0
0
 
 
 
 
0
0


0
0
#HDR
-1
-1
#GR
nm
%R
1.0
0.0
2500,000000
-1,000000
2251
8
72,736100
5,101300
#DATA

250.000000	nan
251.000000	nan
252.000000	nan
253.000000	nan
254.000000	nan
255.000000	nan
256.000000	nan
257.000000	nan
258.000000	nan
259.000000	5.698116
260.000000	5.690745
261.000000	5.673951
262.000000	5.661600
263.000000	5.643158
264.000000	5.627276
265.000000	5.611215
266.000000	5.589758
267.000000	5.567983
268.000000	5.539135
269.000000	5.516765
270.000000	5.496558
271.000000	5.470993
272.000000	5.444507
273.000000	5.425569
274.000000	5.403318
275.000000	5.383458
276.000000	5.365304
277.000000	5.358578
278.000000	5.350632
279.000000	5.343072
280.000000	5.327369
281.000000	5.321556
282.000000	5.312320
283.000000	5.299860
284.000000	5.289980
285.000000	5.276707
286.000000	5.271032
287.000000	5.253136
288.000000	5.243831
289.000000	5.231610
290.000000	5.223396
291.000000	5.209606
292.000000	5.202712
293.000000	5.194567
294.000000	5.188248
295.000000	5.180719
296.000000	5.167575
297.000000	5.166503
298.000000	5.156682
299.000000	5.143706
300.000000	5.139421
301.000000	5.137437
302.000000	5.133886
303.000000	5.132239
304.000000	5.124213
305.000000	5.120176
306.000000	5.120305
307.000000	5.114045
308.000000	5.115960
309.000000	5.117993
310.000000	5.115712
311.000000	5.111506
312.000000	5.104512
313.000000	5.097498
314.000000	5.098203
315.000000	5.094830
316.000000	5.092737
317.000000	5.127051
318.000000	5.173467
319.000000	5.213436
320.000000	5.268760
321.000000	5.309354
322.000000	5.337289
323.000000	5.376484
324.000000	5.385005
325.000000	5.394043
326.000000	5.399737
327.000000	5.395064
328.000000	5.348549
329.000000	5.318272
330.000000	5.278254
331.000000	5.243027
332.000000	5.239863
333.000000	5.217850
334.000000	5.227314
335.000000	5.238196
336.000000	5.256906
337.000000	5.252799
338.000000	5.265021
339.000000	5.254079
340.000000	5.241946
341.000000	5.250954
342.000000	5.238425
343.000000	5.250686
344.000000	5.247095
345.000000	5.232661
346.000000	5.215549
347.000000	5.210866
348.000000	5.209130
349.000000	5.232205
350.000000	5.239149
351.000000	5.241530
352.000000	5.262233
353.000000	5.263989
354.000000	5.270933
355.000000	5.282887
356.000000	5.302529
357.000000	5.314890
358.000000	5.342537
359.000000	5.359808
360.000000	5.389886
361.000000	5.421383
362.000000	5.426908
363.000000	5.433356
364.000000	5.451233
365.000000	5.477868
366.000000	5.488939
367.000000	5.500625
368.000000	5.506518
369.000000	5.518670
370.000000	5.527777
371.000000	5.526626
372.000000	5.541457
373.000000	5.556843
374.000000	5.566793
375.000000	5.582080
376.000000	5.596930
377.000000	5.614886
378.000000	5.635688
379.000000	5.657622
380.000000	5.679843
381.000000	5.709663
382.000000	5.741041
383.000000	5.777894
384.000000	5.818071
385.000000	5.855510
386.000000	5.900250
387.000000	5.940089
388.000000	5.980435
389.000000	6.023429
390.000000	6.069399
391.000000	6.119189
392.000000	6.170625
393.000000	6.225275
394.000000	6.283794
395.000000	6.344536
396.000000	6.408481
397.000000	6.477268
398.000000	6.551104
399.000000	6.630445
400.000000	6.716820
401.000000	6.810606
402.000000	6.911415
403.000000	7.020954
404.000000	7.142069
405.000000	7.275129
406.000000	7.420330
407.000000	7.579321
408.000000	7.750256
409.000000	7.935367
410.000000	8.136528
411.000000	8.354395
412.000000	8.589166
413.000000	8.840633
414.000000	9.109817
415.000000	9.395082
416.000000	9.697638
417.000000	10.014836
418.000000	10.348809
419.000000	10.696433
420.000000	11.055166
421.000000	11.424684
422.000000	11.803178
423.000000	12.188865
424.000000	12.580405
425.000000	12.975199
426.000000	13.369159
427.000000	13.764241
428.000000	14.157249
429.000000	14.545833
430.000000	14.929406
431.000000	15.306235
432.000000	15.674631
433.000000	16.034495
434.000000	16.384281
435.000000	16.725466
436.000000	17.057525
437.000000	17.378592
438.000000	17.689431
439.000000	17.990032
440.000000	18.280704
441.000000	18.561455
442.000000	18.831830
443.000000	19.090618
444.000000	19.339069
445.000000	19.575377
446.000000	19.801657
447.000000	20.016122
448.000000	20.219079
449.000000	20.413653
450.000000	20.597970
451.000000	20.773032
452.000000	20.940058
453.000000	21.098077
454.000000	21.246155
455.000000	21.386020
456.000000	21.515389
457.000000	21.637785
458.000000	21.752730
459.000000	21.857576
460.000000	21.954338
461.000000	22.040703
462.000000	22.115898
463.000000	22.183693
464.000000	22.245019
465.000000	22.297547
466.000000	22.344122
467.000000	22.383872
468.000000	22.414833
469.000000	22.438046
470.000000	22.451786
471.000000	22.456666
472.000000	22.454752
473.000000	22.445079
474.000000	22.427263
475.000000	22.403742
476.000000	22.373277
477.000000	22.338547
478.000000	22.303985
479.000000	22.269730
480.000000	22.237946
481.000000	22.211161
482.000000	22.191420
483.000000	22.178028
484.000000	22.172701
485.000000	22.179715
486.000000	22.202204
487.000000	22.242708
488.000000	22.304818
489.000000	22.393653
490.000000	22.514481
491.000000	22.668333
492.000000	22.855815
493.000000	23.078950
494.000000	23.341408
495.000000	23.638161
496.000000	23.967551
497.000000	24.327346
498.000000	24.711942
499.000000	25.118679
500.000000	25.542787
501.000000	25.980297
502.000000	26.429632
503.000000	26.890603
504.000000	27.359015
505.000000	27.836503
506.000000	28.323624
507.000000	28.819762
508.000000	29.327914
509.000000	29.851303
510.000000	30.392539
511.000000	30.958763
512.000000	31.550959
513.000000	32.171844
514.000000	32.823203
515.000000	33.507438
516.000000	34.221196
517.000000	34.965745
518.000000	35.738439
519.000000	36.536091
520.000000	37.358108
521.000000	38.202961
522.000000	39.067703
523.000000	39.950134
524.000000	40.849300
525.000000	41.761104
526.000000	42.690844
527.000000	43.633381
528.000000	44.588705
529.000000	45.553909
530.000000	46.523617
531.000000	47.490042
532.000000	48.450961
533.000000	49.397853
534.000000	50.324716
535.000000	51.228048
536.000000	52.100023
537.000000	52.938557
538.000000	53.740366
539.000000	54.501522
540.000000	55.223662
541.000000	55.910923
542.000000	56.566855
543.000000	57.191579
544.000000	57.787068
545.000000	58.359423
546.000000	58.908555
547.000000	59.438363
548.000000	59.951603
549.000000	60.448793
550.000000	60.933127
551.000000	61.400189
552.000000	61.849196
553.000000	62.286210
554.000000	62.707273
555.000000	63.111223
556.000000	63.498338
557.000000	63.871754
558.000000	64.222046
559.000000	64.555314
560.000000	64.882333
561.000000	65.194740
562.000000	65.487733
563.000000	65.762373
564.000000	66.026260
565.000000	66.276398
566.000000	66.515385
567.000000	66.740533
568.000000	66.966724
569.000000	67.184343
570.000000	67.381477
571.000000	67.569345
572.000000	67.753533
573.000000	67.929726
574.000000	68.097010
575.000000	68.254106
576.000000	68.402373
577.000000	68.537526
578.000000	68.652471
579.000000	68.758071
580.000000	68.849367
581.000000	68.923242
582.000000	68.985789
583.000000	69.032851
584.000000	69.062343
585.000000	69.082809
586.000000	69.094197
587.000000	69.097580
588.000000	69.099862
589.000000	69.096032
590.000000	69.080854
591.000000	69.065925
592.000000	69.040281
593.000000	69.010659
594.000000	68.975592
595.000000	68.927320
596.000000	68.862729
597.000000	68.787038
598.000000	68.689503
599.000000	68.565223
600.000000	68.425308
601.000000	68.255624
602.000000	68.061505
603.000000	67.839025
604.000000	67.587201
605.000000	67.309337
606.000000	67.011483
607.000000	66.688700
608.000000	66.339282
609.000000	65.982086
610.000000	65.606616
611.000000	65.225979
612.000000	64.831929
613.000000	64.428525
614.000000	64.021073
615.000000	63.606905
616.000000	63.184354
617.000000	62.741884
618.000000	62.293601
619.000000	61.825904
620.000000	61.341193
621.000000	60.831970
622.000000	60.308879
623.000000	59.762693
624.000000	59.189604
625.000000	58.593470
626.000000	57.973052
627.000000	57.339519
628.000000	56.687544
629.000000	56.011027
630.000000	55.319074
631.000000	54.610892
632.000000	53.882224
633.000000	53.146642
634.000000	52.402459
635.000000	51.655777
636.000000	50.908459
637.000000	50.165159
638.000000	49.438099
639.000000	48.742079
640.000000	48.073974
641.000000	47.447950
642.000000	46.872282
643.000000	46.356283
644.000000	45.914686
645.000000	45.548532
646.000000	45.268088
647.000000	45.077432
648.000000	44.975869
649.000000	44.963052
650.000000	45.048654
651.000000	45.227425
652.000000	45.498088
653.000000	45.848925
654.000000	46.276684
655.000000	46.768794
656.000000	47.320278
657.000000	47.924427
658.000000	48.569517
659.000000	49.246381
660.000000	49.939723
661.000000	50.643322
662.000000	51.350979
663.000000	52.057912
664.000000	52.749319
665.000000	53.430489
666.000000	54.087274
667.000000	54.722791
668.000000	55.338210
669.000000	55.929245
670.000000	56.493555
671.000000	57.030207
672.000000	57.539827
673.000000	58.021988
674.000000	58.487860
675.000000	58.933088
676.000000	59.359805
677.000000	59.766661
678.000000	60.147577
679.000000	60.508116
680.000000	60.855541
681.000000	61.192609
682.000000	61.521364
683.000000	61.833880
684.000000	62.129075
685.000000	62.402286
686.000000	62.662116
687.000000	62.908008
688.000000	63.139822
689.000000	63.354356
690.000000	63.558077
691.000000	63.742047
692.000000	63.902744
693.000000	64.053105
694.000000	64.186065
695.000000	64.310167
696.000000	64.425271
697.000000	64.526357
698.000000	64.626095
699.000000	64.718710
700.000000	64.800165
701.000000	64.883881
702.000000	64.965891
703.000000	65.045947
704.000000	65.129108
705.000000	65.219967
706.000000	65.312929
707.000000	65.404820
708.000000	65.492931
709.000000	65.592252
710.000000	65.705292
711.000000	65.826497
712.000000	65.952850
713.000000	66.086664
714.000000	66.228840
715.000000	66.370322
716.000000	66.520077
717.000000	66.684504
718.000000	66.862631
719.000000	67.041780
720.000000	67.215899
721.000000	67.389244
722.000000	67.569554
723.000000	67.751658
724.000000	67.931273
725.000000	68.105621
726.000000	68.269641
727.000000	68.435447
728.000000	68.593664
729.000000	68.754351
730.000000	68.921824
731.000000	69.085696
732.000000	69.249289
733.000000	69.410750
734.000000	69.574513
735.000000	69.751945
736.000000	69.936689
737.000000	70.118169
738.000000	70.302784
739.000000	70.488073
740.000000	70.671765
741.000000	70.851052
742.000000	71.021650
743.000000	71.183686
744.000000	71.336824
745.000000	71.476550
746.000000	71.606991
747.000000	71.722868
748.000000	71.822368
749.000000	71.902632
750.000000	71.966161
751.000000	72.017756
752.000000	72.056930
753.000000	72.085332
754.000000	72.090967
755.000000	72.079142
756.000000	72.055928
757.000000	72.025255
758.000000	71.984404
759.000000	71.933295
760.000000	71.871383
761.000000	71.798440
762.000000	71.718563
763.000000	71.627545
764.000000	71.539603
765.000000	71.453833
766.000000	71.358470
767.000000	71.265022
768.000000	71.168459
769.000000	71.073830
770.000000	70.984330
771.000000	70.898124
772.000000	70.812254
773.000000	70.735066
774.000000	70.666170
775.000000	70.604833
776.000000	70.562672
777.000000	70.516881
778.000000	70.477438
779.000000	70.450971
780.000000	70.414891
781.000000	70.387363
782.000000	70.363029
783.000000	70.343406
784.000000	70.317168
785.000000	70.276167
786.000000	70.224453
787.000000	70.168027
788.000000	70.105411
789.000000	70.032200
790.000000	69.958414
791.000000	69.874410
792.000000	69.779335
793.000000	69.670302
794.000000	69.558194
795.000000	69.440590
796.000000	69.321131
797.000000	69.196067
798.000000	69.059100
799.000000	68.907846
800.000000	68.758022
801.000000	68.602374
802.000000	68.442312
803.000000	68.277785
804.000000	68.112297
805.000000	67.953286
806.000000	67.787619
807.000000	67.639163
808.000000	67.506005
809.000000	67.366477
810.000000	67.234301
811.000000	67.105864
812.000000	66.996127
813.000000	66.888632
814.000000	66.785998
815.000000	66.685744
816.000000	66.586126
817.000000	66.476061
818.000000	66.359162
819.000000	66.241429
820.000000	66.113915
821.000000	65.993712
822.000000	65.853321
823.000000	65.688011
824.000000	65.511779
825.000000	65.340626
826.000000	65.167846
827.000000	64.984392
828.000000	64.782586
829.000000	64.559511
830.000000	64.341395
831.000000	64.110027
832.000000	63.890295
833.000000	63.676475
834.000000	63.467129
835.000000	63.253726
836.000000	63.016911
837.000000	62.783400
838.000000	62.554254
839.000000	62.357090
840.000000	62.156305
841.000000	61.961244
842.000000	61.755063
843.000000	61.560132
844.000000	61.366787
845.000000	61.209572
846.000000	61.038856
847.000000	60.903614
848.000000	60.817517
849.000000	60.747539
850.000000	60.646215
851.000000	60.559820
852.000000	60.490250
853.000000	60.478613
854.000000	60.445341
855.000000	60.385512
856.000000	60.367676
857.000000	60.344978
858.000000	60.371931
859.000000	60.455397
860.000000	60.578367
861.000000	60.694532
862.000000	60.810330
863.000000	60.887479
864.000000	60.992863
865.000000	61.089607
866.000000	61.188959
867.000000	61.265363
868.000000	61.263180
869.000000	61.195870
870.000000	61.124820
871.000000	61.049780
872.000000	60.972800
873.000000	60.892150
874.000000	60.810880
875.000000	60.729800
876.000000	60.648090
877.000000	60.567010
878.000000	60.484880
879.000000	60.405410
880.000000	60.327130
881.000000	60.249040
882.000000	60.168460
883.000000	60.091620
884.000000	60.012650
885.000000	59.935530
886.000000	59.861100
887.000000	59.787450
888.000000	59.714150
889.000000	59.640580
890.000000	59.568630
891.000000	59.499640
892.000000	59.432180
893.000000	59.366160
894.000000	59.304070
895.000000	59.242730
896.000000	59.182780
897.000000	59.125010
898.000000	59.071240
899.000000	59.019940
900.000000	58.970860
901.000000	58.923270
902.000000	58.882420
903.000000	58.844910
904.000000	58.809900
905.000000	58.781170
906.000000	58.752030
907.000000	58.727130
908.000000	58.706580
909.000000	58.686460
910.000000	58.669890
911.000000	58.655760
912.000000	58.640390
913.000000	58.627170
914.000000	58.610990
915.000000	58.593860
916.000000	58.578140
917.000000	58.561500
918.000000	58.541720
919.000000	58.523940
920.000000	58.504850
921.000000	58.481240
922.000000	58.458580
923.000000	58.428490
924.000000	58.402410
925.000000	58.373300
926.000000	58.342360
927.000000	58.313370
928.000000	58.279420
929.000000	58.242630
930.000000	58.205140
931.000000	58.164040
932.000000	58.119490
933.000000	58.078660
934.000000	58.035940
935.000000	57.990040
936.000000	57.940730
937.000000	57.886510
938.000000	57.832020
939.000000	57.778240
940.000000	57.723600
941.000000	57.673940
942.000000	57.624720
943.000000	57.572620
944.000000	57.521020
945.000000	57.475050
946.000000	57.429450
947.000000	57.385170
948.000000	57.346980
949.000000	57.311430
950.000000	57.274350
951.000000	57.238210
952.000000	57.201440
953.000000	57.166540
954.000000	57.132690
955.000000	57.095410
956.000000	57.061010
957.000000	57.027130
958.000000	56.989410
959.000000	56.949280
960.000000	56.911540
961.000000	56.869330
962.000000	56.830590
963.000000	56.790820
964.000000	56.749020
965.000000	56.708970
966.000000	56.665930
967.000000	56.622530
968.000000	56.579170
969.000000	56.535810
970.000000	56.490380
971.000000	56.447800
972.000000	56.401050
973.000000	56.356050
974.000000	56.312180
975.000000	56.267120
976.000000	56.224260
977.000000	56.181100
978.000000	56.140530
979.000000	56.098290
980.000000	56.057360
981.000000	56.017740
982.000000	55.979880
983.000000	55.942950
984.000000	55.908680
985.000000	55.875400
986.000000	55.845910
987.000000	55.818100
988.000000	55.791380
989.000000	55.769010
990.000000	55.748510
991.000000	55.730780
992.000000	55.717290
993.000000	55.706940
994.000000	55.697380
995.000000	55.691190
996.000000	55.686580
997.000000	55.685610
998.000000	55.688950
999.000000	55.694300
1000.000000	55.701380
1001.000000	55.710300
1002.000000	55.720820
1003.000000	55.732540
1004.000000	55.745360
1005.000000	55.758000
1006.000000	55.773200
1007.000000	55.790120
1008.000000	55.806210
1009.000000	55.822810
1010.000000	55.841680
1011.000000	55.861200
1012.000000	55.881280
1013.000000	55.900520
1014.000000	55.921380
1015.000000	55.945070
1016.000000	55.967330
1017.000000	55.990440
1018.000000	56.015250
1019.000000	56.041710
1020.000000	56.068770
1021.000000	56.095940
1022.000000	56.124270
1023.000000	56.157220
1024.000000	56.191550
1025.000000	56.226610
1026.000000	56.264250
1027.000000	56.301310
1028.000000	56.339720
1029.000000	56.379710
1030.000000	56.419830
1031.000000	56.462100
1032.000000	56.505680
1033.000000	56.549760
1034.000000	56.594800
1035.000000	56.640450
1036.000000	56.687150
1037.000000	56.735350
1038.000000	56.784100
1039.000000	56.833300
1040.000000	56.882960
1041.000000	56.932250
1042.000000	56.982040
1043.000000	57.031750
1044.000000	57.080430
1045.000000	57.129130
1046.000000	57.178510
1047.000000	57.228070
1048.000000	57.276960
1049.000000	57.324470
1050.000000	57.373410
1051.000000	57.423600
1052.000000	57.472880
1053.000000	57.522050
1054.000000	57.572920
1055.000000	57.623490
1056.000000	57.672220
1057.000000	57.722300
1058.000000	57.773590
1059.000000	57.825600
1060.000000	57.878210
1061.000000	57.931010
1062.000000	57.984690
1063.000000	58.038230
1064.000000	58.092200
1065.000000	58.146740
1066.000000	58.202490
1067.000000	58.257670
1068.000000	58.313170
1069.000000	58.370070
1070.000000	58.426880
1071.000000	58.482920
1072.000000	58.539920
1073.000000	58.597240
1074.000000	58.653760
1075.000000	58.711280
1076.000000	58.769890
1077.000000	58.828350
1078.000000	58.887480
1079.000000	58.946550
1080.000000	59.006140
1081.000000	59.066280
1082.000000	59.125650
1083.000000	59.185660
1084.000000	59.246720
1085.000000	59.307520
1086.000000	59.366080
1087.000000	59.424750
1088.000000	59.481840
1089.000000	59.538240
1090.000000	59.592280
1091.000000	59.644470
1092.000000	59.696000
1093.000000	59.745400
1094.000000	59.791970
1095.000000	59.837580
1096.000000	59.882960
1097.000000	59.924310
1098.000000	59.963040
1099.000000	60.000520
1100.000000	60.034860
1101.000000	60.069000
1102.000000	60.098710
1103.000000	60.126420
1104.000000	60.153010
1105.000000	60.175640
1106.000000	60.194940
1107.000000	60.214510
1108.000000	60.232580
1109.000000	60.249370
1110.000000	60.264680
1111.000000	60.276210
1112.000000	60.289340
1113.000000	60.299390
1114.000000	60.306390
1115.000000	60.313490
1116.000000	60.318690
1117.000000	60.322490
1118.000000	60.324840
1119.000000	60.323430
1120.000000	60.322510
1121.000000	60.320830
1122.000000	60.315110
1123.000000	60.305870
1124.000000	60.294020
1125.000000	60.277210
1126.000000	60.253910
1127.000000	60.223310
1128.000000	60.186910
1129.000000	60.142670
1130.000000	60.088950
1131.000000	60.024470
1132.000000	59.948460
1133.000000	59.867810
1134.000000	59.779780
1135.000000	59.680830
1136.000000	59.576940
1137.000000	59.459590
1138.000000	59.329680
1139.000000	59.193720
1140.000000	59.050300
1141.000000	58.906870
1142.000000	58.762130
1143.000000	58.611320
1144.000000	58.457910
1145.000000	58.309150
1146.000000	58.159570
1147.000000	58.017490
1148.000000	57.881200
1149.000000	57.747180
1150.000000	57.617580
1151.000000	57.487600
1152.000000	57.355900
1153.000000	57.226110
1154.000000	57.097520
1155.000000	56.961150
1156.000000	56.823970
1157.000000	56.682260
1158.000000	56.537130
1159.000000	56.386750
1160.000000	56.229650
1161.000000	56.065370
1162.000000	55.899210
1163.000000	55.727170
1164.000000	55.549750
1165.000000	55.370560
1166.000000	55.190640
1167.000000	55.010500
1168.000000	54.832680
1169.000000	54.658130
1170.000000	54.490330
