PE UV       SUBTECH     SPECTRUM    ASCII       PEDS        4.00        
   -1
CICIMAUCR0113-1.ASC
24/04/03
16:15:49.00
24/04/03
16:15:49.00
Vinicio Soto Monge
C. kalinini
250,000000
1
Lambda 1050
1050L1511233
PerkinElmer UV WinLab 6.3.2.0749 / 2.02.05 Lambda 900 UV/VIS/NIR, Aug  7 2015 09:38:08

0
0
3350/servo 860,8/2
0
0
UV/VIS
1
1
1
DoubleDePol,CommonBeamDepol,RBeamAtt,SBeamAtt,60mm sphere, WB InGaAs Detector
0
0
0
0
Program
Program
3350/servo 860,8/2
3350/0,2 860,8/0,2
3350/0,2 860,8/0,2
0
15.00
 
 
 
0
 
860,8
319,2
860,8
Front
100
on
S:100 R:100
0
0
0
0
 
0
 
 
 
0
 
 
0
0
0
0
0
 
 
 
 
0
0


0
0
#HDR
-1
-1
#GR
nm
%R
1.0
0.0
2500,000000
-1,000000
2251
8
83,958100
4,718900
#DATA

250.000000	nan
251.000000	nan
252.000000	nan
253.000000	nan
254.000000	nan
255.000000	nan
256.000000	nan
257.000000	nan
258.000000	nan
259.000000	5.203376
260.000000	5.182838
261.000000	5.168381
262.000000	5.148665
263.000000	5.141413
264.000000	5.134237
265.000000	5.120284
266.000000	5.102854
267.000000	5.074327
268.000000	5.057739
269.000000	5.046226
270.000000	5.035923
271.000000	5.016856
272.000000	5.007154
273.000000	4.991157
274.000000	4.974753
275.000000	4.956713
276.000000	4.947350
277.000000	4.943902
278.000000	4.936737
279.000000	4.925310
280.000000	4.914552
281.000000	4.915201
282.000000	4.907609
283.000000	4.895612
284.000000	4.888310
285.000000	4.886064
286.000000	4.883013
287.000000	4.873330
288.000000	4.860287
289.000000	4.849587
290.000000	4.845384
291.000000	4.840242
292.000000	4.831266
293.000000	4.827392
294.000000	4.812548
295.000000	4.806031
296.000000	4.792058
297.000000	4.781435
298.000000	4.778153
299.000000	4.771549
300.000000	4.758796
301.000000	4.744116
302.000000	4.732409
303.000000	4.726909
304.000000	4.723645
305.000000	4.709459
306.000000	4.700134
307.000000	4.696522
308.000000	4.686355
309.000000	4.683111
310.000000	4.675907
311.000000	4.670184
312.000000	4.668276
313.000000	4.660452
314.000000	4.653151
315.000000	4.655669
316.000000	4.659988
317.000000	4.680661
318.000000	4.696697
319.000000	4.734714
320.000000	4.746779
321.000000	4.766630
322.000000	4.789831
323.000000	4.789221
324.000000	4.801955
325.000000	4.821389
326.000000	4.842053
327.000000	4.829126
328.000000	4.831925
329.000000	4.810766
330.000000	4.820973
331.000000	4.827761
332.000000	4.808104
333.000000	4.822173
334.000000	4.823239
335.000000	4.810515
336.000000	4.795399
337.000000	4.785716
338.000000	4.772604
339.000000	4.767279
340.000000	4.757034
341.000000	4.745878
342.000000	4.756462
343.000000	4.763018
344.000000	4.766804
345.000000	4.773776
346.000000	4.776478
347.000000	4.787613
348.000000	4.793065
349.000000	4.806380
350.000000	4.820508
351.000000	4.824701
352.000000	4.836301
353.000000	4.842169
354.000000	4.856733
355.000000	4.871994
356.000000	4.886422
357.000000	4.896532
358.000000	4.906128
359.000000	4.907483
360.000000	4.913351
361.000000	4.926850
362.000000	4.934403
363.000000	4.948628
364.000000	4.956742
365.000000	4.966096
366.000000	4.986015
367.000000	5.003735
368.000000	5.019897
369.000000	5.031246
370.000000	5.038808
371.000000	5.046226
372.000000	5.051222
373.000000	5.045132
374.000000	5.044008
375.000000	5.042808
376.000000	5.045015
377.000000	5.058446
378.000000	5.074637
379.000000	5.092377
380.000000	5.110823
381.000000	5.132059
382.000000	5.156451
383.000000	5.187496
384.000000	5.218860
385.000000	5.250379
386.000000	5.274926
387.000000	5.294244
388.000000	5.316371
389.000000	5.336348
390.000000	5.357932
391.000000	5.379709
392.000000	5.400935
393.000000	5.421870
394.000000	5.442796
395.000000	5.463693
396.000000	5.484434
397.000000	5.505486
398.000000	5.525966
399.000000	5.549341
400.000000	5.575167
401.000000	5.601535
402.000000	5.631233
403.000000	5.663769
404.000000	5.697738
405.000000	5.734080
406.000000	5.775166
407.000000	5.821297
408.000000	5.871060
409.000000	5.925848
410.000000	5.984887
411.000000	6.052525
412.000000	6.127503
413.000000	6.210751
414.000000	6.306044
415.000000	6.411050
416.000000	6.525991
417.000000	6.654547
418.000000	6.798499
419.000000	6.957586
420.000000	7.134258
421.000000	7.327701
422.000000	7.539882
423.000000	7.770616
424.000000	8.020000
425.000000	8.292256
426.000000	8.585718
427.000000	8.898286
428.000000	9.231092
429.000000	9.584581
430.000000	9.956614
431.000000	10.347684
432.000000	10.756320
433.000000	11.181398
434.000000	11.621882
435.000000	12.074558
436.000000	12.536868
437.000000	13.008601
438.000000	13.487208
439.000000	13.968188
440.000000	14.451908
441.000000	14.933256
442.000000	15.411631
443.000000	15.886248
444.000000	16.352267
445.000000	16.808439
446.000000	17.255246
447.000000	17.691692
448.000000	18.114834
449.000000	18.523644
450.000000	18.917706
451.000000	19.299848
452.000000	19.667746
453.000000	20.019599
454.000000	20.356511
455.000000	20.679808
456.000000	20.990845
457.000000	21.286883
458.000000	21.568794
459.000000	21.840779
460.000000	22.101163
461.000000	22.348320
462.000000	22.583682
463.000000	22.810727
464.000000	23.030567
465.000000	23.241228
466.000000	23.440956
467.000000	23.632617
468.000000	23.817220
469.000000	23.993931
470.000000	24.163767
471.000000	24.327366
472.000000	24.486104
473.000000	24.639275
474.000000	24.786442
475.000000	24.927247
476.000000	25.062998
477.000000	25.194875
478.000000	25.321474
479.000000	25.442457
480.000000	25.559141
481.000000	25.669425
482.000000	25.771322
483.000000	25.859586
484.000000	25.933237
485.000000	25.996876
486.000000	26.045951
487.000000	26.076821
488.000000	26.092663
489.000000	26.089448
490.000000	26.061522
491.000000	26.009784
492.000000	25.933363
493.000000	25.834458
494.000000	25.713339
495.000000	25.565184
496.000000	25.392337
497.000000	25.194565
498.000000	24.968130
499.000000	24.718930
500.000000	24.451710
501.000000	24.169548
502.000000	23.879978
503.000000	23.588074
504.000000	23.299192
505.000000	23.023673
506.000000	22.772565
507.000000	22.555049
508.000000	22.385794
509.000000	22.269962
510.000000	22.214951
511.000000	22.232372
512.000000	22.324160
513.000000	22.496358
514.000000	22.752714
515.000000	23.089355
516.000000	23.502096
517.000000	23.985981
518.000000	24.532149
519.000000	25.134557
520.000000	25.788907
521.000000	26.480993
522.000000	27.200482
523.000000	27.940045
524.000000	28.692622
525.000000	29.450225
526.000000	30.203558
527.000000	30.951613
528.000000	31.689743
529.000000	32.418258
530.000000	33.133574
531.000000	33.834704
532.000000	34.522916
533.000000	35.198666
534.000000	35.862254
535.000000	36.521920
536.000000	37.179320
537.000000	37.833873
538.000000	38.488968
539.000000	39.143521
540.000000	39.800389
541.000000	40.461130
542.000000	41.128029
543.000000	41.798628
544.000000	42.471589
545.000000	43.140957
546.000000	43.810926
547.000000	44.483790
548.000000	45.152830
549.000000	45.821743
550.000000	46.491267
551.000000	47.156559
552.000000	47.824814
553.000000	48.492982
554.000000	49.162544
555.000000	49.836270
556.000000	50.512224
557.000000	51.188138
558.000000	51.870173
559.000000	52.553040
560.000000	53.247537
561.000000	53.938809
562.000000	54.616331
563.000000	55.283192
564.000000	55.936699
565.000000	56.574645
566.000000	57.188422
567.000000	57.781428
568.000000	58.347205
569.000000	58.888192
570.000000	59.385169
571.000000	59.856969
572.000000	60.298780
573.000000	60.712615
574.000000	61.102940
575.000000	61.467420
576.000000	61.817036
577.000000	62.147508
578.000000	62.466263
579.000000	62.769719
580.000000	63.064701
581.000000	63.347038
582.000000	63.620078
583.000000	63.887396
584.000000	64.148022
585.000000	64.401599
586.000000	64.644698
587.000000	64.880293
588.000000	65.100502
589.000000	65.312188
590.000000	65.510387
591.000000	65.693924
592.000000	65.872068
593.000000	66.033634
594.000000	66.172783
595.000000	66.292837
596.000000	66.396874
597.000000	66.478098
598.000000	66.548438
599.000000	66.595440
600.000000	66.633651
601.000000	66.661461
602.000000	66.672268
603.000000	66.674379
604.000000	66.668656
605.000000	66.652988
606.000000	66.618477
607.000000	66.573682
608.000000	66.511196
609.000000	66.440236
610.000000	66.348700
611.000000	66.240082
612.000000	66.112582
613.000000	65.969375
614.000000	65.807645
615.000000	65.632813
616.000000	65.440454
617.000000	65.224545
618.000000	64.990441
619.000000	64.730357
620.000000	64.442530
621.000000	64.133274
622.000000	63.797428
623.000000	63.438623
624.000000	63.052733
625.000000	62.632080
626.000000	62.190705
627.000000	61.728859
628.000000	61.242205
629.000000	60.737095
630.000000	60.212191
631.000000	59.668929
632.000000	59.117144
633.000000	58.549847
634.000000	57.979500
635.000000	57.425867
636.000000	56.883698
637.000000	56.360208
638.000000	55.865323
639.000000	55.396816
640.000000	54.972803
641.000000	54.588288
642.000000	54.248530
643.000000	53.952211
644.000000	53.701607
645.000000	53.489803
646.000000	53.313364
647.000000	53.168356
648.000000	53.040846
649.000000	52.939433
650.000000	52.838746
651.000000	52.746987
652.000000	52.651936
653.000000	52.556410
654.000000	52.451365
655.000000	52.332309
656.000000	52.203898
657.000000	52.065960
658.000000	51.924409
659.000000	51.778404
660.000000	51.641463
661.000000	51.511522
662.000000	51.401907
663.000000	51.312056
664.000000	51.257761
665.000000	51.232149
666.000000	51.245570
667.000000	51.300290
668.000000	51.399419
669.000000	51.543158
670.000000	51.743021
671.000000	51.989210
672.000000	52.280329
673.000000	52.615313
674.000000	52.986552
675.000000	53.398374
676.000000	53.845597
677.000000	54.330141
678.000000	54.845332
679.000000	55.390880
680.000000	55.958215
681.000000	56.544917
682.000000	57.145932
683.000000	57.766526
684.000000	58.397761
685.000000	59.038467
686.000000	59.674516
687.000000	60.302730
688.000000	60.924718
689.000000	61.526178
690.000000	62.094192
691.000000	62.635189
692.000000	63.142420
693.000000	63.605137
694.000000	64.018692
695.000000	64.377410
696.000000	64.687276
697.000000	64.948880
698.000000	65.154961
699.000000	65.308761
700.000000	65.416110
701.000000	65.474122
702.000000	65.491523
703.000000	65.472757
704.000000	65.421010
705.000000	65.351484
706.000000	65.269524
707.000000	65.175170
708.000000	65.073698
709.000000	64.976149
710.000000	64.892979
711.000000	64.829243
712.000000	64.789164
713.000000	64.776624
714.000000	64.794983
715.000000	64.842112
716.000000	64.928603
717.000000	65.050187
718.000000	65.212247
719.000000	65.412372
720.000000	65.648664
721.000000	65.926469
722.000000	66.244633
723.000000	66.589630
724.000000	66.966001
725.000000	67.379130
726.000000	67.814966
727.000000	68.274111
728.000000	68.752011
729.000000	69.242180
730.000000	69.741142
731.000000	70.237722
732.000000	70.731251
733.000000	71.230668
734.000000	71.730888
735.000000	72.208130
736.000000	72.671070
737.000000	73.121015
738.000000	73.557965
739.000000	73.987972
740.000000	74.395474
741.000000	74.787716
742.000000	75.160001
743.000000	75.512929
744.000000	75.841967
745.000000	76.158622
746.000000	76.463075
747.000000	76.748655
748.000000	77.014404
749.000000	77.265473
750.000000	77.510344
751.000000	77.740216
752.000000	77.964075
753.000000	78.173080
754.000000	78.370348
755.000000	78.566193
756.000000	78.747339
757.000000	78.919353
758.000000	79.083698
759.000000	79.228628
760.000000	79.368262
761.000000	79.502085
762.000000	79.614073
763.000000	79.717674
764.000000	79.813529
765.000000	79.882465
766.000000	79.940904
767.000000	79.994269
768.000000	80.036343
769.000000	80.070776
770.000000	80.090027
771.000000	80.105733
772.000000	80.117314
773.000000	80.113925
774.000000	80.112299
775.000000	80.118767
776.000000	80.114661
777.000000	80.108532
778.000000	80.117731
779.000000	80.128780
780.000000	80.140864
781.000000	80.150538
782.000000	80.173788
783.000000	80.211369
784.000000	80.254295
785.000000	80.301830
786.000000	80.352174
787.000000	80.411174
788.000000	80.455872
789.000000	80.500977
790.000000	80.559464
791.000000	80.623297
792.000000	80.676690
793.000000	80.733483
794.000000	80.779721
795.000000	80.818173
796.000000	80.865321
797.000000	80.920971
798.000000	80.984019
799.000000	81.045247
800.000000	81.091698
801.000000	81.130412
802.000000	81.167886
803.000000	81.188715
804.000000	81.210338
805.000000	81.227545
806.000000	81.235960
807.000000	81.205680
808.000000	81.169706
809.000000	81.114628
810.000000	81.035970
811.000000	80.952413
812.000000	80.864111
813.000000	80.758601
814.000000	80.620198
815.000000	80.475878
816.000000	80.308279
817.000000	80.142782
818.000000	79.945126
819.000000	79.748603
820.000000	79.556273
821.000000	79.344364
822.000000	79.096345
823.000000	78.842923
824.000000	78.591418
825.000000	78.329698
826.000000	78.056173
827.000000	77.775125
828.000000	77.491036
829.000000	77.188006
830.000000	76.865281
831.000000	76.547591
832.000000	76.234026
833.000000	75.912888
834.000000	75.587500
835.000000	75.261986
836.000000	74.941758
837.000000	74.612313
838.000000	74.279371
839.000000	73.962930
840.000000	73.656579
841.000000	73.350800
842.000000	73.083356
843.000000	72.789749
844.000000	72.497932
845.000000	72.187911
846.000000	71.883662
847.000000	71.593685
848.000000	71.316123
849.000000	71.029574
850.000000	70.730157
851.000000	70.463778
852.000000	70.165455
853.000000	69.872670
854.000000	69.576564
855.000000	69.317933
856.000000	69.069749
857.000000	68.841843
858.000000	68.580539
859.000000	68.545124
860.000000	68.544881
861.000000	68.529766
862.000000	68.539456
863.000000	68.600941
864.000000	68.685499
865.000000	68.759843
866.000000	68.839729
867.000000	68.896449
868.000000	68.994610
869.000000	68.877150
870.000000	68.746250
871.000000	68.595110
872.000000	68.432370
873.000000	68.255960
874.000000	68.073970
875.000000	67.883620
876.000000	67.689440
877.000000	67.496490
878.000000	67.301310
879.000000	67.108620
880.000000	66.917250
881.000000	66.725510
882.000000	66.533120
883.000000	66.341670
884.000000	66.151170
885.000000	65.966880
886.000000	65.782810
887.000000	65.598480
888.000000	65.411970
889.000000	65.222670
890.000000	65.033820
891.000000	64.844600
892.000000	64.658800
893.000000	64.471670
894.000000	64.283800
895.000000	64.088680
896.000000	63.890890
897.000000	63.691500
898.000000	63.490240
899.000000	63.286930
900.000000	63.079450
901.000000	62.871600
902.000000	62.658590
903.000000	62.443300
904.000000	62.226820
905.000000	62.009940
906.000000	61.793690
907.000000	61.575560
908.000000	61.361030
909.000000	61.151910
910.000000	60.949770
911.000000	60.747250
912.000000	60.547500
913.000000	60.353640
914.000000	60.163520
915.000000	59.980880
916.000000	59.801370
917.000000	59.630150
918.000000	59.462130
919.000000	59.294140
920.000000	59.125690
921.000000	58.959780
922.000000	58.795330
923.000000	58.629160
924.000000	58.463390
925.000000	58.298240
926.000000	58.127550
927.000000	57.956180
928.000000	57.782130
929.000000	57.608430
930.000000	57.430000
931.000000	57.252880
932.000000	57.073220
933.000000	56.892520
934.000000	56.707040
935.000000	56.518900
936.000000	56.330900
937.000000	56.138650
938.000000	55.944090
939.000000	55.745920
940.000000	55.548670
941.000000	55.352240
942.000000	55.152080
943.000000	54.952030
944.000000	54.754150
945.000000	54.555810
946.000000	54.360640
947.000000	54.169500
948.000000	53.980170
949.000000	53.793890
950.000000	53.610240
951.000000	53.427310
952.000000	53.249380
953.000000	53.074440
954.000000	52.902030
955.000000	52.731840
956.000000	52.564130
957.000000	52.396050
958.000000	52.229650
959.000000	52.064500
960.000000	51.898480
961.000000	51.732630
962.000000	51.569160
963.000000	51.405980
964.000000	51.243480
965.000000	51.083970
966.000000	50.929010
967.000000	50.778110
968.000000	50.630520
969.000000	50.488020
970.000000	50.352480
971.000000	50.222440
972.000000	50.095670
973.000000	49.974680
974.000000	49.860890
975.000000	49.750240
976.000000	49.641460
977.000000	49.536270
978.000000	49.436180
979.000000	49.340210
980.000000	49.246910
981.000000	49.157880
982.000000	49.073050
983.000000	48.991360
984.000000	48.913100
985.000000	48.839050
986.000000	48.767810
987.000000	48.699240
988.000000	48.636390
989.000000	48.576220
990.000000	48.521380
991.000000	48.469880
992.000000	48.422290
993.000000	48.381400
994.000000	48.343380
995.000000	48.309100
996.000000	48.280780
997.000000	48.257170
998.000000	48.236030
999.000000	48.219150
1000.000000	48.204480
1001.000000	48.193640
1002.000000	48.186590
1003.000000	48.180990
1004.000000	48.178400
1005.000000	48.178420
1006.000000	48.180070
1007.000000	48.182250
1008.000000	48.184740
1009.000000	48.187940
1010.000000	48.193080
1011.000000	48.199830
1012.000000	48.208850
1013.000000	48.219920
1014.000000	48.236110
1015.000000	48.257350
1016.000000	48.283380
1017.000000	48.316600
1018.000000	48.357890
1019.000000	48.406750
1020.000000	48.462930
1021.000000	48.528320
1022.000000	48.600680
1023.000000	48.678630
1024.000000	48.760300
1025.000000	48.846050
1026.000000	48.937490
1027.000000	49.033410
1028.000000	49.130440
1029.000000	49.227790
1030.000000	49.326720
1031.000000	49.423880
1032.000000	49.519650
1033.000000	49.615960
1034.000000	49.712350
1035.000000	49.807530
1036.000000	49.901120
1037.000000	49.991360
1038.000000	50.078570
1039.000000	50.165060
1040.000000	50.250310
1041.000000	50.333880
1042.000000	50.414990
1043.000000	50.492190
1044.000000	50.567990
1045.000000	50.643060
1046.000000	50.715010
1047.000000	50.785400
1048.000000	50.853790
1049.000000	50.919390
1050.000000	50.981210
1051.000000	51.042560
1052.000000	51.105570
1053.000000	51.171150
1054.000000	51.238470
1055.000000	51.306020
1056.000000	51.376180
1057.000000	51.450130
1058.000000	51.529780
1059.000000	51.612260
1060.000000	51.697520
1061.000000	51.783590
1062.000000	51.870700
1063.000000	51.957460
1064.000000	52.041910
1065.000000	52.127900
1066.000000	52.213150
1067.000000	52.296550
1068.000000	52.378820
1069.000000	52.462230
1070.000000	52.545340
1071.000000	52.628470
1072.000000	52.710120
1073.000000	52.791790
1074.000000	52.875110
1075.000000	52.957960
1076.000000	53.040320
1077.000000	53.121870
1078.000000	53.201880
1079.000000	53.280120
1080.000000	53.359780
1081.000000	53.439160
1082.000000	53.518690
1083.000000	53.598350
1084.000000	53.675460
1085.000000	53.750120
1086.000000	53.823880
1087.000000	53.898400
1088.000000	53.974440
1089.000000	54.050810
1090.000000	54.124490
1091.000000	54.196700
1092.000000	54.266600
1093.000000	54.333490
1094.000000	54.399440
1095.000000	54.462560
1096.000000	54.523530
1097.000000	54.578750
1098.000000	54.629480
1099.000000	54.675420
1100.000000	54.716740
1101.000000	54.753890
1102.000000	54.789480
1103.000000	54.821140
1104.000000	54.850490
1105.000000	54.877780
1106.000000	54.900190
1107.000000	54.921000
1108.000000	54.939990
1109.000000	54.957550
1110.000000	54.976420
1111.000000	54.994580
1112.000000	55.011520
1113.000000	55.028450
1114.000000	55.043570
1115.000000	55.059760
1116.000000	55.076190
1117.000000	55.093370
1118.000000	55.106190
1119.000000	55.115970
1120.000000	55.118230
1121.000000	55.113330
1122.000000	55.098360
1123.000000	55.073640
1124.000000	55.038530
1125.000000	54.989750
1126.000000	54.927640
1127.000000	54.846930
1128.000000	54.747720
1129.000000	54.623590
1130.000000	54.472470
1131.000000	54.289500
1132.000000	54.072210
1133.000000	53.815260
1134.000000	53.522110
1135.000000	53.187000
1136.000000	52.810150
1137.000000	52.396750
1138.000000	51.952820
1139.000000	51.488470
1140.000000	51.008220
1141.000000	50.520540
1142.000000	50.030030
1143.000000	49.547750
1144.000000	49.070990
1145.000000	48.614970
1146.000000	48.189930
1147.000000	47.801960
1148.000000	47.453960
1149.000000	47.148550
1150.000000	46.884770
1151.000000	46.659820
1152.000000	46.472920
1153.000000	46.316160
1154.000000	46.182240
1155.000000	46.058780
1156.000000	45.929860
1157.000000	45.786560
1158.000000	45.619270
1159.000000	45.420370
1160.000000	45.185720
1161.000000	44.921800
1162.000000	44.623310
1163.000000	44.294490
1164.000000	43.941650
1165.000000	43.574140
1166.000000	43.195540
1167.000000	42.812700
1168.000000	42.428650
1169.000000	42.044920
1170.000000	41.669070
