PE UV       SUBTECH     SPECTRUM    ASCII       PEDS        4.00        
   -1
CICIMAUCR0019-1.Sample.ASC
24/03/08
13:32:45.00
24/03/08
13:32:45.00
Vinicio Soto Monge
C. cupreomarginata
250,000000
1
Lambda 1050
1050L1511233
PerkinElmer UV WinLab 6.3.2.0749 / 2.02.05 Lambda 900 UV/VIS/NIR, Aug  7 2015 09:38:08

0
0
3350/servo 860,8/2
0
0
UV/VIS
1
1
1
DoubleDePol,CommonBeamDepol,RBeamAtt,SBeamAtt,60mm sphere, WB InGaAs Detector
0
0
0
0
Program
Program
3350/servo 860,8/2
3350/0,2 860,8/0,2
3350/0,2 860,8/0,2
0
15.00
 
 
 
0
 
860,8
319,2
860,8
Front
100
on
S:100 R:100
0
0
0
0
 
0
 
 
 
0
 
 
0
0
0
0
0
 
 
 
 
0
0


0
0
#HDR
-1
-1
#GR
nm
%R
1.0
0.0
2500,000000
-1,000000
2251
8
27,863200
2,274800
#DATA

250.000000	nan
251.000000	nan
252.000000	nan
253.000000	nan
254.000000	nan
255.000000	nan
256.000000	nan
257.000000	nan
258.000000	nan
259.000000	2.207118
260.000000	2.203388
261.000000	2.202130
262.000000	2.195893
263.000000	2.190756
264.000000	2.186815
265.000000	2.178784
266.000000	2.175758
267.000000	2.164991
268.000000	2.159027
269.000000	2.153714
270.000000	2.149228
271.000000	2.137634
272.000000	2.130139
273.000000	2.127852
274.000000	2.123577
275.000000	2.121862
276.000000	2.116303
277.000000	2.114992
278.000000	2.112872
279.000000	2.111614
280.000000	2.107480
281.000000	2.100425
282.000000	2.099255
283.000000	2.096071
284.000000	2.093942
285.000000	2.093845
286.000000	2.088743
287.000000	2.088901
288.000000	2.083738
289.000000	2.076903
290.000000	2.075759
291.000000	2.082260
292.000000	2.083201
293.000000	2.079586
294.000000	2.079164
295.000000	2.075020
296.000000	2.076217
297.000000	2.071959
298.000000	2.069408
299.000000	2.065177
300.000000	2.063858
301.000000	2.058932
302.000000	2.056073
303.000000	2.054085
304.000000	2.052431
305.000000	2.051666
306.000000	2.051261
307.000000	2.052220
308.000000	2.047285
309.000000	2.050698
310.000000	2.048024
311.000000	2.045262
312.000000	2.041101
313.000000	2.042623
314.000000	2.041752
315.000000	2.042764
316.000000	2.053487
317.000000	2.128125
318.000000	2.191478
319.000000	2.236780
320.000000	2.265588
321.000000	2.277085
322.000000	2.312236
323.000000	2.324041
324.000000	2.343068
325.000000	2.354512
326.000000	2.379644
327.000000	2.310855
328.000000	2.264665
329.000000	2.229725
330.000000	2.231264
331.000000	2.235742
332.000000	2.220955
333.000000	2.220902
334.000000	2.215562
335.000000	2.232267
336.000000	2.217814
337.000000	2.220427
338.000000	2.217902
339.000000	2.229048
340.000000	2.206863
341.000000	2.212862
342.000000	2.209739
343.000000	2.227183
344.000000	2.240773
345.000000	2.229505
346.000000	2.223822
347.000000	2.224825
348.000000	2.236868
349.000000	2.228924
350.000000	2.228344
351.000000	2.226681
352.000000	2.230262
353.000000	2.218219
354.000000	2.206564
355.000000	2.203265
356.000000	2.201998
357.000000	2.209423
358.000000	2.205675
359.000000	2.212572
360.000000	2.220858
361.000000	2.220603
362.000000	2.219741
363.000000	2.217647
364.000000	2.221377
365.000000	2.225168
366.000000	2.230578
367.000000	2.228177
368.000000	2.227218
369.000000	2.222072
370.000000	2.222855
371.000000	2.227068
372.000000	2.226224
373.000000	2.227191
374.000000	2.228784
375.000000	2.229672
376.000000	2.233639
377.000000	2.225142
378.000000	2.217691
379.000000	2.214780
380.000000	2.215193
381.000000	2.213011
382.000000	2.217911
383.000000	2.227359
384.000000	2.236331
385.000000	2.248532
386.000000	2.261744
387.000000	2.297115
388.000000	2.335081
389.000000	2.374428
390.000000	2.415842
391.000000	2.460203
392.000000	2.506956
393.000000	2.555495
394.000000	2.605627
395.000000	2.657649
396.000000	2.711422
397.000000	2.765213
398.000000	2.818951
399.000000	2.874237
400.000000	2.930359
401.000000	2.986578
402.000000	3.042779
403.000000	3.098927
404.000000	3.154811
405.000000	3.211777
406.000000	3.267715
407.000000	3.322754
408.000000	3.378498
409.000000	3.433907
410.000000	3.487830
411.000000	3.539897
412.000000	3.590864
413.000000	3.640828
414.000000	3.689736
415.000000	3.735382
416.000000	3.780314
417.000000	3.826136
418.000000	3.868288
419.000000	3.907741
420.000000	3.946190
421.000000	3.983382
422.000000	4.019501
423.000000	4.054317
424.000000	4.086873
425.000000	4.118778
426.000000	4.148704
427.000000	4.175023
428.000000	4.199583
429.000000	4.222577
430.000000	4.244586
431.000000	4.265091
432.000000	4.282921
433.000000	4.298438
434.000000	4.312785
435.000000	4.325250
436.000000	4.335525
437.000000	4.346001
438.000000	4.355677
439.000000	4.363524
440.000000	4.368327
441.000000	4.371045
442.000000	4.373385
443.000000	4.374546
444.000000	4.374484
445.000000	4.373103
446.000000	4.371669
447.000000	4.369840
448.000000	4.368784
449.000000	4.368520
450.000000	4.369831
451.000000	4.373613
452.000000	4.379437
453.000000	4.389517
454.000000	4.404568
455.000000	4.425011
456.000000	4.450838
457.000000	4.481547
458.000000	4.517841
459.000000	4.561085
460.000000	4.611682
461.000000	4.668525
462.000000	4.731210
463.000000	4.798987
464.000000	4.872007
465.000000	4.951131
466.000000	5.035516
467.000000	5.124062
468.000000	5.215959
469.000000	5.310337
470.000000	5.405516
471.000000	5.502119
472.000000	5.600086
473.000000	5.698203
474.000000	5.795448
475.000000	5.890899
476.000000	5.983219
477.000000	6.073876
478.000000	6.162835
479.000000	6.250017
480.000000	6.336443
481.000000	6.422306
482.000000	6.506691
483.000000	6.590733
484.000000	6.676226
485.000000	6.763989
486.000000	6.856062
487.000000	6.951997
488.000000	7.052656
489.000000	7.158364
490.000000	7.269622
491.000000	7.385551
492.000000	7.507489
493.000000	7.635733
494.000000	7.768930
495.000000	7.907625
496.000000	8.048844
497.000000	8.194181
498.000000	8.342455
499.000000	8.493676
500.000000	8.646357
501.000000	8.801554
502.000000	8.959601
503.000000	9.118581
504.000000	9.278387
505.000000	9.439003
506.000000	9.602513
507.000000	9.766366
508.000000	9.932224
509.000000	10.099393
510.000000	10.269228
511.000000	10.441191
512.000000	10.614843
513.000000	10.790263
514.000000	10.968991
515.000000	11.149460
516.000000	11.332331
517.000000	11.517894
518.000000	11.704530
519.000000	11.894315
520.000000	12.085921
521.000000	12.279761
522.000000	12.475686
523.000000	12.675428
524.000000	12.877344
525.000000	13.082953
526.000000	13.291897
527.000000	13.506418
528.000000	13.727659
529.000000	13.954909
530.000000	14.190040
531.000000	14.432842
532.000000	14.684431
533.000000	14.944773
534.000000	15.214914
535.000000	15.493086
536.000000	15.778331
537.000000	16.071167
538.000000	16.369343
539.000000	16.670598
540.000000	16.972776
541.000000	17.274655
542.000000	17.574748
543.000000	17.870619
544.000000	18.161274
545.000000	18.444020
546.000000	18.718551
547.000000	18.980987
548.000000	19.232083
549.000000	19.471015
550.000000	19.695827
551.000000	19.904745
552.000000	20.097995
553.000000	20.275149
554.000000	20.432677
555.000000	20.575735
556.000000	20.701050
557.000000	20.810751
558.000000	20.904962
559.000000	20.983022
560.000000	20.992558
561.000000	20.985432
562.000000	20.968781
563.000000	20.944942
564.000000	20.917946
565.000000	20.885214
566.000000	20.850740
567.000000	20.812757
568.000000	20.773911
569.000000	20.736720
570.000000	20.754533
571.000000	20.777668
572.000000	20.799483
573.000000	20.815642
574.000000	20.826902
575.000000	20.831538
576.000000	20.831916
577.000000	20.828775
578.000000	20.818123
579.000000	20.799298
580.000000	20.774378
581.000000	20.744443
582.000000	20.706152
583.000000	20.663999
584.000000	20.618468
585.000000	20.570184
586.000000	20.518724
587.000000	20.464766
588.000000	20.408882
589.000000	20.353939
590.000000	20.300623
591.000000	20.246234
592.000000	20.191713
593.000000	20.139656
594.000000	20.088952
595.000000	20.039103
596.000000	19.991012
597.000000	19.939438
598.000000	19.884732
599.000000	19.825866
600.000000	19.757808
601.000000	19.684647
602.000000	19.606877
603.000000	19.519483
604.000000	19.418350
605.000000	19.307030
606.000000	19.181688
607.000000	19.043820
608.000000	18.894579
609.000000	18.733576
610.000000	18.564410
611.000000	18.384626
612.000000	18.195800
613.000000	18.000693
614.000000	17.804223
615.000000	17.605448
616.000000	17.407034
617.000000	17.211443
618.000000	17.020998
619.000000	16.833395
620.000000	16.649064
621.000000	16.470697
622.000000	16.297449
623.000000	16.125732
624.000000	15.957076
625.000000	15.791200
626.000000	15.626090
627.000000	15.462413
628.000000	15.296502
629.000000	15.131540
630.000000	14.969148
631.000000	14.807916
632.000000	14.648884
633.000000	14.495094
634.000000	14.346935
635.000000	14.203543
636.000000	14.070205
637.000000	13.947643
638.000000	13.840695
639.000000	13.747557
640.000000	13.669277
641.000000	13.607226
642.000000	13.561352
643.000000	13.533371
644.000000	13.520880
645.000000	13.527125
646.000000	13.547656
647.000000	13.584021
648.000000	13.631320
649.000000	13.692139
650.000000	13.765309
651.000000	13.847758
652.000000	13.941327
653.000000	14.041854
654.000000	14.150016
655.000000	14.262418
656.000000	14.378224
657.000000	14.495992
658.000000	14.616311
659.000000	14.735679
660.000000	14.852559
661.000000	14.968576
662.000000	15.079764
663.000000	15.187698
664.000000	15.291408
665.000000	15.390959
666.000000	15.485741
667.000000	15.576090
668.000000	15.661417
669.000000	15.742441
670.000000	15.819613
671.000000	15.892440
672.000000	15.959478
673.000000	16.023789
674.000000	16.082383
675.000000	16.136218
676.000000	16.185566
677.000000	16.228731
678.000000	16.268227
679.000000	16.305647
680.000000	16.338907
681.000000	16.365261
682.000000	16.390226
683.000000	16.409842
684.000000	16.427866
685.000000	16.442644
686.000000	16.454027
687.000000	16.465955
688.000000	16.476405
689.000000	16.484577
690.000000	16.490717
691.000000	16.498837
692.000000	16.506877
693.000000	16.518506
694.000000	16.530733
695.000000	16.547323
696.000000	16.567159
697.000000	16.589028
698.000000	16.610729
699.000000	16.632007
700.000000	16.659101
701.000000	16.688903
702.000000	16.721424
703.000000	16.752819
704.000000	16.787371
705.000000	16.822813
706.000000	16.859802
707.000000	16.897530
708.000000	16.939147
709.000000	16.984633
710.000000	17.030692
711.000000	17.076628
712.000000	17.120769
713.000000	17.166167
714.000000	17.209499
715.000000	17.250535
716.000000	17.292433
717.000000	17.335817
718.000000	17.381911
719.000000	17.425559
720.000000	17.467079
721.000000	17.509399
722.000000	17.552220
723.000000	17.596098
724.000000	17.638602
725.000000	17.680245
726.000000	17.720595
727.000000	17.757628
728.000000	17.791116
729.000000	17.822476
730.000000	17.850607
731.000000	17.876918
732.000000	17.901935
733.000000	17.923917
734.000000	17.945398
735.000000	17.965076
736.000000	17.983136
737.000000	18.003447
738.000000	18.020248
739.000000	18.035220
740.000000	18.053895
741.000000	18.070749
742.000000	18.082853
743.000000	18.094526
744.000000	18.105821
745.000000	18.116148
746.000000	18.126449
747.000000	18.133582
748.000000	18.139450
749.000000	18.149821
750.000000	18.157861
751.000000	18.164661
752.000000	18.176501
753.000000	18.188745
754.000000	18.202600
755.000000	18.219322
756.000000	18.235833
757.000000	18.252634
758.000000	18.270861
759.000000	18.285525
760.000000	18.296450
761.000000	18.311413
762.000000	18.328487
763.000000	18.346010
764.000000	18.363436
765.000000	18.381574
766.000000	18.400988
767.000000	18.419487
768.000000	18.436711
769.000000	18.456714
770.000000	18.484141
771.000000	18.508217
772.000000	18.527675
773.000000	18.548875
774.000000	18.564146
775.000000	18.577974
776.000000	18.591661
777.000000	18.603589
778.000000	18.620083
779.000000	18.634377
780.000000	18.641889
781.000000	18.646974
782.000000	18.651337
783.000000	18.657319
784.000000	18.669625
785.000000	18.678571
786.000000	18.684966
787.000000	18.693798
788.000000	18.702858
789.000000	18.714030
790.000000	18.726301
791.000000	18.748371
792.000000	18.775614
793.000000	18.800200
794.000000	18.822262
795.000000	18.852540
796.000000	18.887312
797.000000	18.919807
798.000000	18.955521
799.000000	18.996750
800.000000	19.038190
801.000000	19.074063
802.000000	19.113392
803.000000	19.154823
804.000000	19.200284
805.000000	19.244706
806.000000	19.286217
807.000000	19.334273
808.000000	19.388829
809.000000	19.438124
810.000000	19.489223
811.000000	19.540613
812.000000	19.593374
813.000000	19.645107
814.000000	19.701114
815.000000	19.746557
816.000000	19.791727
817.000000	19.838357
818.000000	19.876754
819.000000	19.917104
820.000000	19.955263
821.000000	19.993158
822.000000	20.022222
823.000000	20.042841
824.000000	20.057927
825.000000	20.079294
826.000000	20.102086
827.000000	20.116565
828.000000	20.134712
829.000000	20.158041
830.000000	20.188556
831.000000	20.206465
832.000000	20.224366
833.000000	20.247369
834.000000	20.277427
835.000000	20.302928
836.000000	20.329969
837.000000	20.353139
838.000000	20.378006
839.000000	20.389926
840.000000	20.390973
841.000000	20.418374
842.000000	20.436591
843.000000	20.443338
844.000000	20.439644
845.000000	20.447596
846.000000	20.454826
847.000000	20.471646
848.000000	20.469525
849.000000	20.466728
850.000000	20.458697
851.000000	20.433187
852.000000	20.430302
853.000000	20.440593
854.000000	20.467053
855.000000	20.443039
856.000000	20.401774
857.000000	20.399338
858.000000	20.205823
859.000000	20.239259
860.000000	20.301659
861.000000	20.379030
862.000000	20.463765
863.000000	20.567946
864.000000	20.675659
865.000000	20.841928
866.000000	21.039939
867.000000	21.207766
868.000000	21.592830
869.000000	21.767690
870.000000	21.939730
871.000000	22.112570
872.000000	22.285830
873.000000	22.449440
874.000000	22.608660
875.000000	22.766360
876.000000	22.921530
877.000000	23.076830
878.000000	23.223500
879.000000	23.365820
880.000000	23.498810
881.000000	23.632000
882.000000	23.752870
883.000000	23.873950
884.000000	23.990220
885.000000	24.099210
886.000000	24.196180
887.000000	24.283930
888.000000	24.368950
889.000000	24.454080
890.000000	24.538390
891.000000	24.612050
892.000000	24.677560
893.000000	24.735290
894.000000	24.789210
895.000000	24.835740
896.000000	24.882610
897.000000	24.931120
898.000000	24.974390
899.000000	25.009330
900.000000	25.041540
901.000000	25.069800
902.000000	25.100080
903.000000	25.127250
904.000000	25.146940
905.000000	25.167850
906.000000	25.187660
907.000000	25.202700
908.000000	25.217640
909.000000	25.233500
910.000000	25.250210
911.000000	25.269270
912.000000	25.286240
913.000000	25.304920
914.000000	25.325460
915.000000	25.343260
916.000000	25.360570
917.000000	25.377540
918.000000	25.394460
919.000000	25.411560
920.000000	25.423580
921.000000	25.434470
922.000000	25.444950
923.000000	25.453040
924.000000	25.458320
925.000000	25.466770
926.000000	25.471470
927.000000	25.477560
928.000000	25.478410
929.000000	25.478990
930.000000	25.482700
931.000000	25.484260
932.000000	25.482630
933.000000	25.483120
934.000000	25.485970
935.000000	25.485750
936.000000	25.485170
937.000000	25.482370
938.000000	25.483180
939.000000	25.485200
940.000000	25.485490
941.000000	25.484310
942.000000	25.487220
943.000000	25.486510
944.000000	25.485990
945.000000	25.488740
946.000000	25.492790
947.000000	25.497230
948.000000	25.503430
949.000000	25.510200
950.000000	25.515430
951.000000	25.525060
952.000000	25.531940
953.000000	25.539560
954.000000	25.549890
955.000000	25.558540
956.000000	25.568570
957.000000	25.578910
958.000000	25.585850
959.000000	25.590300
960.000000	25.597820
961.000000	25.604140
962.000000	25.612020
963.000000	25.618540
964.000000	25.623740
965.000000	25.627330
966.000000	25.630230
967.000000	25.633690
968.000000	25.638650
969.000000	25.643370
970.000000	25.642670
971.000000	25.642360
972.000000	25.643280
973.000000	25.643650
974.000000	25.642410
975.000000	25.641290
976.000000	25.640270
977.000000	25.638520
978.000000	25.637620
979.000000	25.634620
980.000000	25.632750
981.000000	25.628630
982.000000	25.625260
983.000000	25.623140
984.000000	25.619220
985.000000	25.616220
986.000000	25.611250
987.000000	25.604760
988.000000	25.597540
989.000000	25.592490
990.000000	25.590040
991.000000	25.587900
992.000000	25.582730
993.000000	25.579100
994.000000	25.577540
995.000000	25.574690
996.000000	25.573220
997.000000	25.572140
998.000000	25.571520
999.000000	25.572480
1000.000000	25.572460
1001.000000	25.572580
1002.000000	25.575330
1003.000000	25.578200
1004.000000	25.581090
1005.000000	25.585390
1006.000000	25.589630
1007.000000	25.594230
1008.000000	25.600700
1009.000000	25.607020
1010.000000	25.613930
1011.000000	25.621740
1012.000000	25.628600
1013.000000	25.636760
1014.000000	25.646530
1015.000000	25.658860
1016.000000	25.674580
1017.000000	25.691720
1018.000000	25.709420
1019.000000	25.729240
1020.000000	25.750290
1021.000000	25.774090
1022.000000	25.801460
1023.000000	25.828230
1024.000000	25.855630
1025.000000	25.886050
1026.000000	25.916500
1027.000000	25.948120
1028.000000	25.979640
1029.000000	26.010050
1030.000000	26.042240
1031.000000	26.074890
1032.000000	26.105930
1033.000000	26.137390
1034.000000	26.167690
1035.000000	26.195230
1036.000000	26.221550
1037.000000	26.247700
1038.000000	26.274010
1039.000000	26.299840
1040.000000	26.324090
1041.000000	26.346250
1042.000000	26.366960
1043.000000	26.386970
1044.000000	26.406110
1045.000000	26.424260
1046.000000	26.442200
1047.000000	26.458800
1048.000000	26.474360
1049.000000	26.491640
1050.000000	26.508380
1051.000000	26.524400
1052.000000	26.541410
1053.000000	26.557590
1054.000000	26.574230
1055.000000	26.591340
1056.000000	26.608950
1057.000000	26.628290
1058.000000	26.647160
1059.000000	26.665110
1060.000000	26.682420
1061.000000	26.699470
1062.000000	26.717320
1063.000000	26.736260
1064.000000	26.756600
1065.000000	26.775550
1066.000000	26.792770
1067.000000	26.808960
1068.000000	26.826420
1069.000000	26.844420
1070.000000	26.863150
1071.000000	26.884510
1072.000000	26.906070
1073.000000	26.927030
1074.000000	26.946680
1075.000000	26.967280
1076.000000	26.990230
1077.000000	27.014140
1078.000000	27.037890
1079.000000	27.059900
1080.000000	27.081490
1081.000000	27.103380
1082.000000	27.124840
1083.000000	27.148000
1084.000000	27.172410
1085.000000	27.197860
1086.000000	27.223640
1087.000000	27.248920
1088.000000	27.273590
1089.000000	27.299190
1090.000000	27.325200
1091.000000	27.349160
1092.000000	27.374460
1093.000000	27.399080
1094.000000	27.423450
1095.000000	27.448050
1096.000000	27.472020
1097.000000	27.497020
1098.000000	27.519660
1099.000000	27.542360
1100.000000	27.564650
1101.000000	27.587180
1102.000000	27.607630
1103.000000	27.627730
1104.000000	27.645060
1105.000000	27.660930
1106.000000	27.677190
1107.000000	27.691700
1108.000000	27.707860
1109.000000	27.721620
1110.000000	27.735650
1111.000000	27.749810
1112.000000	27.760500
1113.000000	27.771830
1114.000000	27.783510
1115.000000	27.795140
1116.000000	27.804870
1117.000000	27.814680
1118.000000	27.822840
1119.000000	27.831000
1120.000000	27.835600
1121.000000	27.837970
1122.000000	27.839940
1123.000000	27.838230
1124.000000	27.834950
1125.000000	27.828820
1126.000000	27.817970
1127.000000	27.799990
1128.000000	27.778710
1129.000000	27.752660
1130.000000	27.722410
1131.000000	27.684310
1132.000000	27.636560
1133.000000	27.580390
1134.000000	27.515700
1135.000000	27.443220
1136.000000	27.359680
1137.000000	27.268140
1138.000000	27.166610
1139.000000	27.057730
1140.000000	26.941390
1141.000000	26.819340
1142.000000	26.697230
1143.000000	26.570770
1144.000000	26.444450
1145.000000	26.318340
1146.000000	26.200320
1147.000000	26.092280
1148.000000	25.995500
1149.000000	25.908360
1150.000000	25.835550
1151.000000	25.778570
1152.000000	25.733610
1153.000000	25.701020
1154.000000	25.674140
1155.000000	25.651060
1156.000000	25.630770
1157.000000	25.603320
1158.000000	25.566940
1159.000000	25.518990
1160.000000	25.454330
1161.000000	25.375450
1162.000000	25.282320
1163.000000	25.174910
1164.000000	25.054500
1165.000000	24.922400
1166.000000	24.778910
1167.000000	24.631430
1168.000000	24.482620
1169.000000	24.331770
1170.000000	24.181780
1171.000000	24.029480
1172.000000	23.877160
1173.000000	23.728310
