PE UV       SUBTECH     SPECTRUM    ASCII       PEDS        4.00        
   -1
CICIMAUCR0006-1.Sample.ASC
24/03/08
11:34:28.00
24/03/08
11:34:28.00
Vinicio Soto Monge
C. kalinini
250,000000
1
Lambda 1050
1050L1511233
PerkinElmer UV WinLab 6.3.2.0749 / 2.02.05 Lambda 900 UV/VIS/NIR, Aug  7 2015 09:38:08

0
0
3350/servo 860,8/2
0
0
UV/VIS
1
1
1
DoubleDePol,CommonBeamDepol,RBeamAtt,SBeamAtt,60mm sphere, WB InGaAs Detector
0
0
0
0
Program
Program
3350/servo 860,8/2
3350/0,2 860,8/0,2
3350/0,2 860,8/0,2
0
15.00
 
 
 
0
 
860,8
319,2
860,8
Front
100
on
S:100 R:100
0
0
0
0
 
0
 
 
 
0
 
 
0
0
0
0
0
 
 
 
 
0
0


0
0
#HDR
-1
-1
#GR
nm
%R
1.0
0.0
2500,000000
-1,000000
2251
8
34,259900
1,836500
#DATA

250.000000	nan
251.000000	nan
252.000000	nan
253.000000	nan
254.000000	nan
255.000000	nan
256.000000	nan
257.000000	nan
258.000000	nan
259.000000	1.768553
260.000000	1.770274
261.000000	1.766764
262.000000	1.768844
263.000000	1.770939
264.000000	1.768737
265.000000	1.760439
266.000000	1.755966
267.000000	1.748885
268.000000	1.745122
269.000000	1.745451
270.000000	1.742797
271.000000	1.742514
272.000000	1.736443
273.000000	1.730707
274.000000	1.726272
275.000000	1.723649
276.000000	1.720315
277.000000	1.722609
278.000000	1.724658
279.000000	1.720812
280.000000	1.717600
281.000000	1.715925
282.000000	1.710587
283.000000	1.709463
284.000000	1.707727
285.000000	1.706404
286.000000	1.706718
287.000000	1.700753
288.000000	1.694589
289.000000	1.695224
290.000000	1.693587
291.000000	1.689741
292.000000	1.687240
293.000000	1.680610
294.000000	1.676396
295.000000	1.667571
296.000000	1.661324
297.000000	1.661729
298.000000	1.655366
299.000000	1.650900
300.000000	1.649799
301.000000	1.650641
302.000000	1.650013
303.000000	1.647153
304.000000	1.647444
305.000000	1.653218
306.000000	1.648866
307.000000	1.642274
308.000000	1.637541
309.000000	1.635644
310.000000	1.636088
311.000000	1.633006
312.000000	1.629649
313.000000	1.633962
314.000000	1.632884
315.000000	1.629091
316.000000	1.644270
317.000000	1.700363
318.000000	1.731655
319.000000	1.749282
320.000000	1.787901
321.000000	1.809894
322.000000	1.844766
323.000000	1.864847
324.000000	1.886336
325.000000	1.904888
326.000000	1.925100
327.000000	1.898258
328.000000	1.882291
329.000000	1.898449
330.000000	1.872020
331.000000	1.866032
332.000000	1.855128
333.000000	1.840628
334.000000	1.832553
335.000000	1.846746
336.000000	1.837975
337.000000	1.836285
338.000000	1.851671
339.000000	1.851212
340.000000	1.856519
341.000000	1.858599
342.000000	1.856474
343.000000	1.867417
344.000000	1.869183
345.000000	1.858814
346.000000	1.854776
347.000000	1.854462
348.000000	1.851151
349.000000	1.840613
350.000000	1.841791
351.000000	1.847412
352.000000	1.857651
353.000000	1.867363
354.000000	1.879140
355.000000	1.885938
356.000000	1.902747
357.000000	1.903963
358.000000	1.912352
359.000000	1.916726
360.000000	1.925681
361.000000	1.921483
362.000000	1.920099
363.000000	1.925444
364.000000	1.937458
365.000000	1.947399
366.000000	1.946887
367.000000	1.959184
368.000000	1.971419
369.000000	1.978241
370.000000	1.987043
371.000000	2.005862
372.000000	2.013318
373.000000	2.015414
374.000000	2.011628
375.000000	2.022327
376.000000	2.060433
377.000000	2.068394
378.000000	2.076821
379.000000	2.096123
380.000000	2.115929
381.000000	2.141165
382.000000	2.178231
383.000000	2.219648
384.000000	2.270288
385.000000	2.315606
386.000000	2.345254
387.000000	2.409583
388.000000	2.477054
389.000000	2.547807
390.000000	2.623132
391.000000	2.704392
392.000000	2.789398
393.000000	2.876898
394.000000	2.968542
395.000000	3.064530
396.000000	3.163034
397.000000	3.264957
398.000000	3.370749
399.000000	3.479852
400.000000	3.590224
401.000000	3.700291
402.000000	3.811795
403.000000	3.926886
404.000000	4.042833
405.000000	4.156770
406.000000	4.270706
407.000000	4.384061
408.000000	4.496383
409.000000	4.607666
410.000000	4.718283
411.000000	4.826996
412.000000	4.933423
413.000000	5.037165
414.000000	5.138101
415.000000	5.238173
416.000000	5.336623
417.000000	5.432550
418.000000	5.524455
419.000000	5.612482
420.000000	5.698192
421.000000	5.781563
422.000000	5.861178
423.000000	5.936916
424.000000	6.008999
425.000000	6.076769
426.000000	6.140164
427.000000	6.199690
428.000000	6.256463
429.000000	6.310239
430.000000	6.360206
431.000000	6.405714
432.000000	6.447935
433.000000	6.486668
434.000000	6.522044
435.000000	6.554147
436.000000	6.582748
437.000000	6.607265
438.000000	6.627782
439.000000	6.644981
440.000000	6.657951
441.000000	6.667694
442.000000	6.674415
443.000000	6.676794
444.000000	6.674676
445.000000	6.668810
446.000000	6.659251
447.000000	6.646159
448.000000	6.629825
449.000000	6.610309
450.000000	6.588851
451.000000	6.565932
452.000000	6.541476
453.000000	6.515988
454.000000	6.490209
455.000000	6.464958
456.000000	6.441419
457.000000	6.421521
458.000000	6.405845
459.000000	6.394924
460.000000	6.389640
461.000000	6.390757
462.000000	6.399880
463.000000	6.419143
464.000000	6.449648
465.000000	6.490844
466.000000	6.544688
467.000000	6.610729
468.000000	6.689404
469.000000	6.781041
470.000000	6.884324
471.000000	7.000119
472.000000	7.128661
473.000000	7.268216
474.000000	7.417321
475.000000	7.576216
476.000000	7.742543
477.000000	7.915447
478.000000	8.093414
479.000000	8.275800
480.000000	8.462240
481.000000	8.649895
482.000000	8.836633
483.000000	9.023769
484.000000	9.213229
485.000000	9.405557
486.000000	9.599797
487.000000	9.795474
488.000000	9.993132
489.000000	10.192633
490.000000	10.394429
491.000000	10.599573
492.000000	10.808198
493.000000	11.018787
494.000000	11.229744
495.000000	11.437359
496.000000	11.643306
497.000000	11.847931
498.000000	12.051516
499.000000	12.253089
500.000000	12.451267
501.000000	12.647916
502.000000	12.842469
503.000000	13.035027
504.000000	13.226123
505.000000	13.418795
506.000000	13.609839
507.000000	13.800010
508.000000	13.987566
509.000000	14.172889
510.000000	14.356163
511.000000	14.535789
512.000000	14.710047
513.000000	14.880282
514.000000	15.044720
515.000000	15.201764
516.000000	15.353967
517.000000	15.498576
518.000000	15.637266
519.000000	15.769862
520.000000	15.896584
521.000000	16.018290
522.000000	16.137128
523.000000	16.253266
524.000000	16.367478
525.000000	16.479257
526.000000	16.587428
527.000000	16.694894
528.000000	16.800816
529.000000	16.905759
530.000000	17.009142
531.000000	17.110682
532.000000	17.210822
533.000000	17.306925
534.000000	17.399824
535.000000	17.490061
536.000000	17.578494
537.000000	17.663286
538.000000	17.744110
539.000000	17.820911
540.000000	17.894417
541.000000	17.964427
542.000000	18.030331
543.000000	18.093329
544.000000	18.152182
545.000000	18.206875
546.000000	18.256743
547.000000	18.302121
548.000000	18.344709
549.000000	18.384016
550.000000	18.419040
551.000000	18.448413
552.000000	18.473832
553.000000	18.495581
554.000000	18.511954
555.000000	18.525252
556.000000	18.532127
557.000000	18.534941
558.000000	18.532479
559.000000	18.524204
560.000000	18.452841
561.000000	18.370059
562.000000	18.281818
563.000000	18.187741
564.000000	18.089107
565.000000	17.982750
566.000000	17.871827
567.000000	17.755948
568.000000	17.635382
569.000000	17.509141
570.000000	17.435185
571.000000	17.364325
572.000000	17.288710
573.000000	17.209163
574.000000	17.123759
575.000000	17.034852
576.000000	16.943269
577.000000	16.848412
578.000000	16.748035
579.000000	16.643275
580.000000	16.536665
581.000000	16.423983
582.000000	16.307493
583.000000	16.184510
584.000000	16.062873
585.000000	15.938376
586.000000	15.811019
587.000000	15.681636
588.000000	15.552596
589.000000	15.425323
590.000000	15.299526
591.000000	15.176513
592.000000	15.056918
593.000000	14.944748
594.000000	14.835469
595.000000	14.733646
596.000000	14.639960
597.000000	14.554708
598.000000	14.477785
599.000000	14.409671
600.000000	14.350894
601.000000	14.303550
602.000000	14.265895
603.000000	14.236790
604.000000	14.217404
605.000000	14.205948
606.000000	14.202331
607.000000	14.207073
608.000000	14.220968
609.000000	14.241600
610.000000	14.268426
611.000000	14.300889
612.000000	14.340700
613.000000	14.386706
614.000000	14.437400
615.000000	14.492689
616.000000	14.555182
617.000000	14.620711
618.000000	14.688672
619.000000	14.760182
620.000000	14.833840
621.000000	14.909762
622.000000	14.987909
623.000000	15.067111
624.000000	15.147132
625.000000	15.226633
626.000000	15.305682
627.000000	15.384494
628.000000	15.462833
629.000000	15.540781
630.000000	15.617926
631.000000	15.695920
632.000000	15.772760
633.000000	15.846517
634.000000	15.919908
635.000000	15.993918
636.000000	16.066597
637.000000	16.139651
638.000000	16.214632
639.000000	16.291365
640.000000	16.370590
641.000000	16.448707
642.000000	16.527427
643.000000	16.609811
644.000000	16.694940
645.000000	16.781415
646.000000	16.868616
647.000000	16.955504
648.000000	17.042507
649.000000	17.127804
650.000000	17.210371
651.000000	17.290430
652.000000	17.368470
653.000000	17.442388
654.000000	17.508254
655.000000	17.572216
656.000000	17.632017
657.000000	17.688973
658.000000	17.739315
659.000000	17.786866
660.000000	17.828979
661.000000	17.871108
662.000000	17.910981
663.000000	17.950012
664.000000	17.991728
665.000000	18.032839
666.000000	18.074983
667.000000	18.120515
668.000000	18.170596
669.000000	18.223332
670.000000	18.284234
671.000000	18.349182
672.000000	18.417870
673.000000	18.494335
674.000000	18.575938
675.000000	18.664906
676.000000	18.761621
677.000000	18.861264
678.000000	18.966421
679.000000	19.077887
680.000000	19.193812
681.000000	19.313162
682.000000	19.435977
683.000000	19.558669
684.000000	19.683174
685.000000	19.807334
686.000000	19.928902
687.000000	20.050172
688.000000	20.168483
689.000000	20.284690
690.000000	20.394665
691.000000	20.503263
692.000000	20.609116
693.000000	20.712668
694.000000	20.812303
695.000000	20.907710
696.000000	21.002574
697.000000	21.096054
698.000000	21.188387
699.000000	21.279863
700.000000	21.373962
701.000000	21.465951
702.000000	21.558483
703.000000	21.652261
704.000000	21.748348
705.000000	21.846470
706.000000	21.945540
707.000000	22.045971
708.000000	22.150011
709.000000	22.255918
710.000000	22.363147
711.000000	22.468779
712.000000	22.576949
713.000000	22.688774
714.000000	22.804951
715.000000	22.922650
716.000000	23.041572
717.000000	23.162031
718.000000	23.282200
719.000000	23.402988
720.000000	23.527462
721.000000	23.653925
722.000000	23.779874
723.000000	23.902506
724.000000	24.017673
725.000000	24.131900
726.000000	24.247901
727.000000	24.360514
728.000000	24.468210
729.000000	24.574621
730.000000	24.675266
731.000000	24.773602
732.000000	24.868367
733.000000	24.957809
734.000000	25.047893
735.000000	25.133336
736.000000	25.207468
737.000000	25.278488
738.000000	25.349018
739.000000	25.412758
740.000000	25.472888
741.000000	25.531734
742.000000	25.584469
743.000000	25.632226
744.000000	25.676878
745.000000	25.717416
746.000000	25.757572
747.000000	25.795571
748.000000	25.829081
749.000000	25.859739
750.000000	25.886298
751.000000	25.909255
752.000000	25.933833
753.000000	25.957685
754.000000	25.976780
755.000000	25.996655
756.000000	26.015597
757.000000	26.031419
758.000000	26.047815
759.000000	26.067568
760.000000	26.083291
761.000000	26.095626
762.000000	26.106057
763.000000	26.113367
764.000000	26.119462
765.000000	26.127843
766.000000	26.138794
767.000000	26.149317
768.000000	26.157278
769.000000	26.160482
770.000000	26.165713
771.000000	26.168863
772.000000	26.171020
773.000000	26.176717
774.000000	26.181114
775.000000	26.176044
776.000000	26.167005
777.000000	26.162562
778.000000	26.159580
779.000000	26.148721
780.000000	26.135873
781.000000	26.123951
782.000000	26.103854
783.000000	26.080790
784.000000	26.056548
785.000000	26.029378
786.000000	25.998154
787.000000	25.955590
788.000000	25.908146
789.000000	25.861559
790.000000	25.814773
791.000000	25.764837
792.000000	25.716957
793.000000	25.663052
794.000000	25.605338
795.000000	25.545437
796.000000	25.484160
797.000000	25.420115
798.000000	25.349913
799.000000	25.277578
800.000000	25.197014
801.000000	25.111480
802.000000	25.017289
803.000000	24.925369
804.000000	24.831362
805.000000	24.730219
806.000000	24.626240
807.000000	24.519125
808.000000	24.412155
809.000000	24.305828
810.000000	24.195425
811.000000	24.084433
812.000000	23.985715
813.000000	23.877706
814.000000	23.764832
815.000000	23.657909
816.000000	23.546856
817.000000	23.436453
818.000000	23.335257
819.000000	23.229075
820.000000	23.129324
821.000000	23.031822
822.000000	22.918956
823.000000	22.805663
824.000000	22.695711
825.000000	22.584703
826.000000	22.481726
827.000000	22.380354
828.000000	22.269270
829.000000	22.156099
830.000000	22.042346
831.000000	21.925802
832.000000	21.811361
833.000000	21.711381
834.000000	21.606063
835.000000	21.493244
836.000000	21.385334
837.000000	21.279756
838.000000	21.166569
839.000000	21.051738
840.000000	20.940884
841.000000	20.825503
842.000000	20.713754
843.000000	20.598349
844.000000	20.494775
845.000000	20.398428
846.000000	20.289355
847.000000	20.167213
848.000000	20.047442
849.000000	19.918984
850.000000	19.796842
851.000000	19.685070
852.000000	19.577650
853.000000	19.459676
854.000000	19.344302
855.000000	19.230955
856.000000	19.114250
857.000000	19.022116
858.000000	18.588250
859.000000	18.557846
860.000000	18.525267
861.000000	18.508415
862.000000	18.514786
863.000000	18.548659
864.000000	18.596429
865.000000	18.672807
866.000000	18.784461
867.000000	18.907429
868.000000	19.402560
869.000000	19.532300
870.000000	19.680430
871.000000	19.831790
872.000000	19.986480
873.000000	20.141370
874.000000	20.303360
875.000000	20.458040
876.000000	20.613040
877.000000	20.763550
878.000000	20.909730
879.000000	21.060690
880.000000	21.205670
881.000000	21.344010
882.000000	21.477610
883.000000	21.609210
884.000000	21.726210
885.000000	21.833540
886.000000	21.937400
887.000000	22.038090
888.000000	22.132430
889.000000	22.211160
890.000000	22.281590
891.000000	22.357080
892.000000	22.422850
893.000000	22.480710
894.000000	22.535160
895.000000	22.591870
896.000000	22.633290
897.000000	22.670690
898.000000	22.705040
899.000000	22.737450
900.000000	22.774760
901.000000	22.801540
902.000000	22.824610
903.000000	22.848030
904.000000	22.873470
905.000000	22.895790
906.000000	22.920180
907.000000	22.944150
908.000000	22.966440
909.000000	22.984780
910.000000	22.998250
911.000000	23.015420
912.000000	23.033180
913.000000	23.051550
914.000000	23.062360
915.000000	23.072380
916.000000	23.080340
917.000000	23.084630
918.000000	23.090260
919.000000	23.100140
920.000000	23.106710
921.000000	23.107630
922.000000	23.105580
923.000000	23.098290
924.000000	23.089740
925.000000	23.082030
926.000000	23.072740
927.000000	23.061990
928.000000	23.045270
929.000000	23.027310
930.000000	23.007140
931.000000	22.984210
932.000000	22.958960
933.000000	22.932260
934.000000	22.909490
935.000000	22.881500
936.000000	22.852570
937.000000	22.823610
938.000000	22.798170
939.000000	22.771300
940.000000	22.743850
941.000000	22.716280
942.000000	22.690940
943.000000	22.667120
944.000000	22.639540
945.000000	22.615230
946.000000	22.591290
947.000000	22.565650
948.000000	22.539770
949.000000	22.514730
950.000000	22.491130
951.000000	22.470900
952.000000	22.450180
953.000000	22.429530
954.000000	22.410010
955.000000	22.390290
956.000000	22.368900
957.000000	22.350800
958.000000	22.333140
959.000000	22.314330
960.000000	22.293180
961.000000	22.268730
962.000000	22.243460
963.000000	22.218260
964.000000	22.194050
965.000000	22.168770
966.000000	22.145230
967.000000	22.120660
968.000000	22.092160
969.000000	22.064750
970.000000	22.038380
971.000000	22.014760
972.000000	21.990450
973.000000	21.965200
974.000000	21.941090
975.000000	21.918750
976.000000	21.893640
977.000000	21.867630
978.000000	21.846430
979.000000	21.825140
980.000000	21.802000
981.000000	21.775640
982.000000	21.750860
983.000000	21.726750
984.000000	21.700840
985.000000	21.674230
986.000000	21.649200
987.000000	21.624510
988.000000	21.596210
989.000000	21.568000
990.000000	21.542550
991.000000	21.518520
992.000000	21.495060
993.000000	21.473080
994.000000	21.452500
995.000000	21.431010
996.000000	21.410360
997.000000	21.390740
998.000000	21.373680
999.000000	21.355990
1000.000000	21.337700
1001.000000	21.321710
1002.000000	21.304630
1003.000000	21.286670
1004.000000	21.268510
1005.000000	21.250310
1006.000000	21.232780
1007.000000	21.215660
1008.000000	21.197310
1009.000000	21.177530
1010.000000	21.159760
1011.000000	21.143290
1012.000000	21.126500
1013.000000	21.109660
1014.000000	21.095880
1015.000000	21.084260
1016.000000	21.073580
1017.000000	21.066360
1018.000000	21.063480
1019.000000	21.064780
1020.000000	21.067210
1021.000000	21.069950
1022.000000	21.075850
1023.000000	21.086990
1024.000000	21.099800
1025.000000	21.114020
1026.000000	21.130630
1027.000000	21.147100
1028.000000	21.162410
1029.000000	21.178070
1030.000000	21.194770
1031.000000	21.211500
1032.000000	21.228790
1033.000000	21.246030
1034.000000	21.263970
1035.000000	21.280730
1036.000000	21.295480
1037.000000	21.310690
1038.000000	21.326810
1039.000000	21.344080
1040.000000	21.360450
1041.000000	21.375220
1042.000000	21.389890
1043.000000	21.402570
1044.000000	21.414250
1045.000000	21.428110
1046.000000	21.442780
1047.000000	21.456940
1048.000000	21.469210
1049.000000	21.480400
1050.000000	21.492480
1051.000000	21.506180
1052.000000	21.518940
1053.000000	21.530610
1054.000000	21.542710
1055.000000	21.555760
1056.000000	21.569070
1057.000000	21.581340
1058.000000	21.595180
1059.000000	21.610700
1060.000000	21.625090
1061.000000	21.640230
1062.000000	21.655620
1063.000000	21.672390
1064.000000	21.690920
1065.000000	21.708190
1066.000000	21.725000
1067.000000	21.743400
1068.000000	21.762920
1069.000000	21.782410
1070.000000	21.803960
1071.000000	21.826240
1072.000000	21.852330
1073.000000	21.879350
1074.000000	21.905330
1075.000000	21.932920
1076.000000	21.962410
1077.000000	21.991320
1078.000000	22.021070
1079.000000	22.051970
1080.000000	22.083020
1081.000000	22.114220
1082.000000	22.145210
1083.000000	22.176120
1084.000000	22.206610
1085.000000	22.236390
1086.000000	22.265100
1087.000000	22.295610
1088.000000	22.324670
1089.000000	22.352730
1090.000000	22.378770
1091.000000	22.402730
1092.000000	22.423250
1093.000000	22.444520
1094.000000	22.464070
1095.000000	22.481710
1096.000000	22.498550
1097.000000	22.513330
1098.000000	22.528450
1099.000000	22.540010
1100.000000	22.550620
1101.000000	22.561210
1102.000000	22.571710
1103.000000	22.579730
1104.000000	22.587440
1105.000000	22.594060
1106.000000	22.600150
1107.000000	22.605380
1108.000000	22.608550
1109.000000	22.610560
1110.000000	22.613360
1111.000000	22.617020
1112.000000	22.620130
1113.000000	22.622130
1114.000000	22.623950
1115.000000	22.626490
1116.000000	22.628190
1117.000000	22.631020
1118.000000	22.633240
1119.000000	22.637470
1120.000000	22.638830
1121.000000	22.637810
1122.000000	22.635850
1123.000000	22.633710
1124.000000	22.626920
1125.000000	22.615900
1126.000000	22.603960
1127.000000	22.586000
1128.000000	22.563190
1129.000000	22.534930
1130.000000	22.501680
1131.000000	22.459700
1132.000000	22.407390
1133.000000	22.343330
1134.000000	22.270340
1135.000000	22.188230
1136.000000	22.097010
1137.000000	21.992190
1138.000000	21.879760
1139.000000	21.758770
1140.000000	21.632930
1141.000000	21.500660
1142.000000	21.366950
1143.000000	21.233310
1144.000000	21.101710
1145.000000	20.971000
1146.000000	20.843280
1147.000000	20.730030
1148.000000	20.624220
1149.000000	20.529730
1150.000000	20.443710
1151.000000	20.370560
1152.000000	20.310170
1153.000000	20.259440
1154.000000	20.216130
1155.000000	20.177420
1156.000000	20.139760
1157.000000	20.093780
1158.000000	20.043300
1159.000000	19.978600
1160.000000	19.906440
1161.000000	19.825900
1162.000000	19.729800
1163.000000	19.621470
1164.000000	19.502010
1165.000000	19.377120
1166.000000	19.244870
1167.000000	19.110440
1168.000000	18.975730
1169.000000	18.847680
1170.000000	18.716620
1171.000000	18.585290
1172.000000	18.457930
1173.000000	18.333870
