PE UV       SUBTECH     SPECTRUM    ASCII       PEDS        4.00        
   -1
CICIMAUCR0097-1.ASC
24/04/03
15:09:17.00
24/04/03
15:09:17.00
Vinicio Soto Monge
C. kalinini
250,000000
1
Lambda 1050
1050L1511233
PerkinElmer UV WinLab 6.3.2.0749 / 2.02.05 Lambda 900 UV/VIS/NIR, Aug  7 2015 09:38:08

0
0
3350/servo 860,8/2
0
0
UV/VIS
1
1
1
DoubleDePol,CommonBeamDepol,RBeamAtt,SBeamAtt,60mm sphere, WB InGaAs Detector
0
0
0
0
Program
Program
3350/servo 860,8/2
3350/0,2 860,8/0,2
3350/0,2 860,8/0,2
0
15.00
 
 
 
0
 
860,8
319,2
860,8
Front
100
on
S:100 R:100
0
0
0
0
 
0
 
 
 
0
 
 
0
0
0
0
0
 
 
 
 
0
0


0
0
#HDR
-1
-1
#GR
nm
%R
1.0
0.0
2500,000000
-1,000000
2251
8
71,118700
4,659200
#DATA

250.000000	nan
251.000000	nan
252.000000	nan
253.000000	nan
254.000000	nan
255.000000	nan
256.000000	nan
257.000000	nan
258.000000	nan
259.000000	5.712633
260.000000	5.693682
261.000000	5.670936
262.000000	5.651637
263.000000	5.634202
264.000000	5.612335
265.000000	5.595391
266.000000	5.576884
267.000000	5.547526
268.000000	5.524076
269.000000	5.496812
270.000000	5.475225
271.000000	5.450404
272.000000	5.427408
273.000000	5.401197
274.000000	5.385750
275.000000	5.363429
276.000000	5.341592
277.000000	5.327940
278.000000	5.306836
279.000000	5.296825
280.000000	5.279360
281.000000	5.268326
282.000000	5.258507
283.000000	5.246555
284.000000	5.233580
285.000000	5.221947
286.000000	5.210207
287.000000	5.202899
288.000000	5.195610
289.000000	5.190117
290.000000	5.182133
291.000000	5.177132
292.000000	5.167168
293.000000	5.166338
294.000000	5.161878
295.000000	5.162525
296.000000	5.158065
297.000000	5.148854
298.000000	5.146576
299.000000	5.135676
300.000000	5.133919
301.000000	5.135136
302.000000	5.136671
303.000000	5.127663
304.000000	5.123589
305.000000	5.117796
306.000000	5.113973
307.000000	5.109021
308.000000	5.100506
309.000000	5.102543
310.000000	5.102446
311.000000	5.099067
312.000000	5.098228
313.000000	5.099917
314.000000	5.095718
315.000000	5.088767
316.000000	5.092532
317.000000	5.119370
318.000000	5.154425
319.000000	5.206490
320.000000	5.215922
321.000000	5.228318
322.000000	5.258362
323.000000	5.277845
324.000000	5.311094
325.000000	5.365351
326.000000	5.390828
327.000000	5.408679
328.000000	5.382612
329.000000	5.318267
330.000000	5.310669
331.000000	5.310466
332.000000	5.296786
333.000000	5.294344
334.000000	5.280760
335.000000	5.248727
336.000000	5.239778
337.000000	5.207214
338.000000	5.214648
339.000000	5.245754
340.000000	5.255601
341.000000	5.252087
342.000000	5.238619
343.000000	5.242105
344.000000	5.242471
345.000000	5.237393
346.000000	5.237046
347.000000	5.236129
348.000000	5.239102
349.000000	5.227739
350.000000	5.225451
351.000000	5.228396
352.000000	5.230182
353.000000	5.225577
354.000000	5.225818
355.000000	5.238359
356.000000	5.250436
357.000000	5.267312
358.000000	5.267824
359.000000	5.275894
360.000000	5.283232
361.000000	5.286389
362.000000	5.298872
363.000000	5.313411
364.000000	5.319503
365.000000	5.317997
366.000000	5.314984
367.000000	5.313247
368.000000	5.318112
369.000000	5.320333
370.000000	5.330537
371.000000	5.345289
372.000000	5.351815
373.000000	5.340443
374.000000	5.334515
375.000000	5.343889
376.000000	5.361566
377.000000	5.367494
378.000000	5.377167
379.000000	5.388357
380.000000	5.390596
381.000000	5.392508
382.000000	5.403408
383.000000	5.427070
384.000000	5.453803
385.000000	5.466759
386.000000	5.471074
387.000000	5.495084
388.000000	5.521228
389.000000	5.548395
390.000000	5.578738
391.000000	5.612219
392.000000	5.647776
393.000000	5.683467
394.000000	5.722055
395.000000	5.764447
396.000000	5.810575
397.000000	5.860014
398.000000	5.913489
399.000000	5.971714
400.000000	6.032951
401.000000	6.097701
402.000000	6.167144
403.000000	6.244706
404.000000	6.328187
405.000000	6.418067
406.000000	6.514890
407.000000	6.618712
408.000000	6.729697
409.000000	6.846513
410.000000	6.971825
411.000000	7.106859
412.000000	7.250958
413.000000	7.401332
414.000000	7.560646
415.000000	7.728736
416.000000	7.906171
417.000000	8.093724
418.000000	8.291829
419.000000	8.500776
420.000000	8.718189
421.000000	8.943818
422.000000	9.179333
423.000000	9.423856
424.000000	9.676420
425.000000	9.936689
426.000000	10.203754
427.000000	10.477722
428.000000	10.756430
429.000000	11.039029
430.000000	11.326425
431.000000	11.617703
432.000000	11.911279
433.000000	12.205907
434.000000	12.501259
435.000000	12.797547
436.000000	13.091393
437.000000	13.381677
438.000000	13.669016
439.000000	13.953488
440.000000	14.234561
441.000000	14.510711
442.000000	14.780827
443.000000	15.044851
444.000000	15.302609
445.000000	15.551524
446.000000	15.793923
447.000000	16.029824
448.000000	16.254671
449.000000	16.470877
450.000000	16.680094
451.000000	16.878064
452.000000	17.063802
453.000000	17.242357
454.000000	17.411480
455.000000	17.572860
456.000000	17.725435
457.000000	17.866793
458.000000	18.000987
459.000000	18.126694
460.000000	18.241483
461.000000	18.348298
462.000000	18.448586
463.000000	18.539857
464.000000	18.624110
465.000000	18.698341
466.000000	18.762783
467.000000	18.821626
468.000000	18.873092
469.000000	18.916035
470.000000	18.951137
471.000000	18.978565
472.000000	18.997536
473.000000	19.008426
474.000000	19.011177
475.000000	19.007141
476.000000	18.996406
477.000000	18.978700
478.000000	18.956264
479.000000	18.929492
480.000000	18.897315
481.000000	18.861150
482.000000	18.821239
483.000000	18.777110
484.000000	18.729833
485.000000	18.680992
486.000000	18.633928
487.000000	18.587414
488.000000	18.542580
489.000000	18.501366
490.000000	18.466398
491.000000	18.438266
492.000000	18.419614
493.000000	18.414024
494.000000	18.422442
495.000000	18.445651
496.000000	18.483592
497.000000	18.539819
498.000000	18.613094
499.000000	18.704626
500.000000	18.817137
501.000000	18.950326
502.000000	19.106793
503.000000	19.281824
504.000000	19.474445
505.000000	19.688354
506.000000	19.923560
507.000000	20.175372
508.000000	20.444512
509.000000	20.728549
510.000000	21.025649
511.000000	21.335289
512.000000	21.652962
513.000000	21.979487
514.000000	22.314344
515.000000	22.651287
516.000000	22.988934
517.000000	23.326890
518.000000	23.664441
519.000000	23.999877
520.000000	24.329376
521.000000	24.654309
522.000000	24.974810
523.000000	25.290407
524.000000	25.601669
525.000000	25.911522
526.000000	26.219376
527.000000	26.526207
528.000000	26.833018
529.000000	27.143286
530.000000	27.461654
531.000000	27.787002
532.000000	28.121588
533.000000	28.470126
534.000000	28.833666
535.000000	29.214708
536.000000	29.615292
537.000000	30.038813
538.000000	30.485756
539.000000	30.958041
540.000000	31.454781
541.000000	31.975858
542.000000	32.522008
543.000000	33.092419
544.000000	33.686425
545.000000	34.297209
546.000000	34.923171
547.000000	35.558274
548.000000	36.203583
549.000000	36.852685
550.000000	37.502348
551.000000	38.154723
552.000000	38.806818
553.000000	39.450167
554.000000	40.082249
555.000000	40.703180
556.000000	41.316967
557.000000	41.920733
558.000000	42.512355
559.000000	43.091088
560.000000	43.653591
561.000000	44.200156
562.000000	44.730657
563.000000	45.245343
564.000000	45.745519
565.000000	46.228617
566.000000	46.690949
567.000000	47.138104
568.000000	47.564802
569.000000	47.972336
570.000000	48.365283
571.000000	48.740234
572.000000	49.091117
573.000000	49.424594
574.000000	49.738887
575.000000	50.038053
576.000000	50.320352
577.000000	50.587002
578.000000	50.839596
579.000000	51.084128
580.000000	51.315144
581.000000	51.539547
582.000000	51.754866
583.000000	51.967046
584.000000	52.167989
585.000000	52.367388
586.000000	52.560067
587.000000	52.747775
588.000000	52.929013
589.000000	53.101419
590.000000	53.269943
591.000000	53.429064
592.000000	53.585366
593.000000	53.727283
594.000000	53.866314
595.000000	53.986326
596.000000	54.097041
597.000000	54.189567
598.000000	54.268297
599.000000	54.327796
600.000000	54.373934
601.000000	54.397316
602.000000	54.406410
603.000000	54.400618
604.000000	54.377255
605.000000	54.342471
606.000000	54.292056
607.000000	54.229892
608.000000	54.160865
609.000000	54.083235
610.000000	53.990120
611.000000	53.892525
612.000000	53.781357
613.000000	53.667746
614.000000	53.547521
615.000000	53.422596
616.000000	53.296096
617.000000	53.162742
618.000000	53.022206
619.000000	52.877054
620.000000	52.728128
621.000000	52.570967
622.000000	52.401960
623.000000	52.214233
624.000000	52.010365
625.000000	51.785855
626.000000	51.540078
627.000000	51.274741
628.000000	50.981455
629.000000	50.660983
630.000000	50.311490
631.000000	49.931142
632.000000	49.527556
633.000000	49.097392
634.000000	48.639193
635.000000	48.163761
636.000000	47.668016
637.000000	47.163167
638.000000	46.654244
639.000000	46.149791
640.000000	45.649045
641.000000	45.164672
642.000000	44.693903
643.000000	44.249731
644.000000	43.838094
645.000000	43.459966
646.000000	43.118563
647.000000	42.812254
648.000000	42.547129
649.000000	42.319405
650.000000	42.136998
651.000000	41.996046
652.000000	41.897052
653.000000	41.839677
654.000000	41.815715
655.000000	41.825668
656.000000	41.867838
657.000000	41.937918
658.000000	42.030222
659.000000	42.147232
660.000000	42.281744
661.000000	42.428266
662.000000	42.591645
663.000000	42.760305
664.000000	42.941389
665.000000	43.124742
666.000000	43.309978
667.000000	43.498197
668.000000	43.679735
669.000000	43.858831
670.000000	44.030319
671.000000	44.195764
672.000000	44.350705
673.000000	44.495151
674.000000	44.622915
675.000000	44.738496
676.000000	44.844374
677.000000	44.933067
678.000000	45.018710
679.000000	45.091822
680.000000	45.156939
681.000000	45.214826
682.000000	45.270376
683.000000	45.327848
684.000000	45.389317
685.000000	45.455023
686.000000	45.525519
687.000000	45.612397
688.000000	45.709924
689.000000	45.822126
690.000000	45.955827
691.000000	46.105381
692.000000	46.272563
693.000000	46.460918
694.000000	46.669922
695.000000	46.901151
696.000000	47.151939
697.000000	47.412777
698.000000	47.691099
699.000000	47.987484
700.000000	48.294266
701.000000	48.611292
702.000000	48.935066
703.000000	49.260230
704.000000	49.593707
705.000000	49.923563
706.000000	50.251305
707.000000	50.587157
708.000000	50.920479
709.000000	51.242158
710.000000	51.566270
711.000000	51.890797
712.000000	52.213345
713.000000	52.531124
714.000000	52.846228
715.000000	53.170263
716.000000	53.496045
717.000000	53.822271
718.000000	54.151404
719.000000	54.490209
720.000000	54.824999
721.000000	55.165311
722.000000	55.511347
723.000000	55.868216
724.000000	56.233059
725.000000	56.598414
726.000000	56.972786
727.000000	57.351811
728.000000	57.734051
729.000000	58.113830
730.000000	58.496582
731.000000	58.882239
732.000000	59.269181
733.000000	59.655930
734.000000	60.032088
735.000000	60.405021
736.000000	60.775049
737.000000	61.139013
738.000000	61.496596
739.000000	61.848146
740.000000	62.192821
741.000000	62.527871
742.000000	62.856125
743.000000	63.173180
744.000000	63.478881
745.000000	63.775430
746.000000	64.064160
747.000000	64.342317
748.000000	64.604179
749.000000	64.857081
750.000000	65.104268
751.000000	65.339078
752.000000	65.563163
753.000000	65.781030
754.000000	65.995161
755.000000	66.195428
756.000000	66.379766
757.000000	66.558534
758.000000	66.733102
759.000000	66.894511
760.000000	67.048727
761.000000	67.203639
762.000000	67.343915
763.000000	67.470637
764.000000	67.590282
765.000000	67.703188
766.000000	67.810775
767.000000	67.908051
768.000000	68.004294
769.000000	68.098790
770.000000	68.179760
771.000000	68.242976
772.000000	68.296238
773.000000	68.341671
774.000000	68.375200
775.000000	68.410814
776.000000	68.449586
777.000000	68.486040
778.000000	68.501844
779.000000	68.507086
780.000000	68.513063
781.000000	68.511981
782.000000	68.513903
783.000000	68.525468
784.000000	68.529774
785.000000	68.519550
786.000000	68.498581
787.000000	68.476251
788.000000	68.459964
789.000000	68.440299
790.000000	68.414136
791.000000	68.397019
792.000000	68.388397
793.000000	68.361259
794.000000	68.338871
795.000000	68.326996
796.000000	68.316386
797.000000	68.304840
798.000000	68.292077
799.000000	68.270741
800.000000	68.259282
801.000000	68.247648
802.000000	68.232462
803.000000	68.237260
804.000000	68.239606
805.000000	68.238004
806.000000	68.229170
807.000000	68.205170
808.000000	68.193884
809.000000	68.197823
810.000000	68.177365
811.000000	68.158395
812.000000	68.132937
813.000000	68.081373
814.000000	68.025253
815.000000	67.959904
816.000000	67.905956
817.000000	67.858660
818.000000	67.807705
819.000000	67.744866
820.000000	67.696102
821.000000	67.624680
822.000000	67.547822
823.000000	67.475223
824.000000	67.415096
825.000000	67.341183
826.000000	67.251273
827.000000	67.183771
828.000000	67.099625
829.000000	67.003671
830.000000	66.883409
831.000000	66.781228
832.000000	66.667762
833.000000	66.554083
834.000000	66.438985
835.000000	66.333426
836.000000	66.223860
837.000000	66.094242
838.000000	65.944080
839.000000	65.816046
840.000000	65.685453
841.000000	65.543507
842.000000	65.384289
843.000000	65.212898
844.000000	65.030490
845.000000	64.837261
846.000000	64.645827
847.000000	64.461470
848.000000	64.251027
849.000000	64.026566
850.000000	63.833529
851.000000	63.604319
852.000000	63.355008
853.000000	63.103389
854.000000	62.840939
855.000000	62.596861
856.000000	62.285415
857.000000	61.975398
858.000000	61.671599
859.000000	61.569307
860.000000	61.444796
861.000000	61.347931
862.000000	61.291157
863.000000	61.237313
864.000000	61.186126
865.000000	61.116508
866.000000	61.099230
867.000000	61.045372
868.000000	61.012670
869.000000	60.765430
870.000000	60.508770
871.000000	60.240180
872.000000	59.956070
873.000000	59.666550
874.000000	59.367700
875.000000	59.068110
876.000000	58.767160
877.000000	58.472240
878.000000	58.183100
879.000000	57.900940
880.000000	57.627060
881.000000	57.360540
882.000000	57.106910
883.000000	56.859520
884.000000	56.623160
885.000000	56.393230
886.000000	56.175590
887.000000	55.965420
888.000000	55.764310
889.000000	55.574590
890.000000	55.391620
891.000000	55.222010
892.000000	55.059990
893.000000	54.908480
894.000000	54.762890
895.000000	54.625130
896.000000	54.494600
897.000000	54.371240
898.000000	54.254230
899.000000	54.139680
900.000000	54.032660
901.000000	53.924990
902.000000	53.818920
903.000000	53.714950
904.000000	53.616570
905.000000	53.522150
906.000000	53.427210
907.000000	53.329040
908.000000	53.232460
909.000000	53.134460
910.000000	53.035990
911.000000	52.938320
912.000000	52.838540
913.000000	52.738680
914.000000	52.635580
915.000000	52.529510
916.000000	52.421340
917.000000	52.310290
918.000000	52.195680
919.000000	52.083510
920.000000	51.965910
921.000000	51.846680
922.000000	51.724350
923.000000	51.595460
924.000000	51.464440
925.000000	51.331420
926.000000	51.192160
927.000000	51.057380
928.000000	50.922850
929.000000	50.784950
930.000000	50.649540
931.000000	50.509110
932.000000	50.371010
933.000000	50.231920
934.000000	50.093060
935.000000	49.956040
936.000000	49.819780
937.000000	49.681110
938.000000	49.537810
939.000000	49.391000
940.000000	49.242650
941.000000	49.095710
942.000000	48.945900
943.000000	48.796390
944.000000	48.642900
945.000000	48.486650
946.000000	48.332080
947.000000	48.176810
948.000000	48.021510
949.000000	47.868850
950.000000	47.715070
951.000000	47.561110
952.000000	47.405520
953.000000	47.248550
954.000000	47.091720
955.000000	46.931400
956.000000	46.767260
957.000000	46.601330
958.000000	46.434590
959.000000	46.260740
960.000000	46.082580
961.000000	45.902260
962.000000	45.718560
963.000000	45.533760
964.000000	45.344630
965.000000	45.153730
966.000000	44.964010
967.000000	44.772250
968.000000	44.582040
969.000000	44.395420
970.000000	44.211660
971.000000	44.030370
972.000000	43.854180
973.000000	43.679410
974.000000	43.510520
975.000000	43.346010
976.000000	43.183530
977.000000	43.023810
978.000000	42.865210
979.000000	42.707950
980.000000	42.548380
981.000000	42.386740
982.000000	42.225630
983.000000	42.063190
984.000000	41.896930
985.000000	41.729290
986.000000	41.560850
987.000000	41.390570
988.000000	41.217220
989.000000	41.041390
990.000000	40.865630
991.000000	40.691110
992.000000	40.515030
993.000000	40.340770
994.000000	40.169320
995.000000	39.998900
996.000000	39.828870
997.000000	39.662900
998.000000	39.501620
999.000000	39.343650
1000.000000	39.189930
1001.000000	39.041080
1002.000000	38.895360
1003.000000	38.753160
1004.000000	38.615670
1005.000000	38.482350
1006.000000	38.353010
1007.000000	38.225020
1008.000000	38.099770
1009.000000	37.977890
1010.000000	37.858510
1011.000000	37.741830
1012.000000	37.629690
1013.000000	37.521460
1014.000000	37.415220
1015.000000	37.312170
1016.000000	37.211790
1017.000000	37.114660
1018.000000	37.020890
1019.000000	36.931600
1020.000000	36.844490
1021.000000	36.759060
1022.000000	36.674250
1023.000000	36.591140
1024.000000	36.508630
1025.000000	36.425830
1026.000000	36.342640
1027.000000	36.259450
1028.000000	36.176930
1029.000000	36.094140
1030.000000	36.012780
1031.000000	35.932370
1032.000000	35.854050
1033.000000	35.778700
1034.000000	35.707810
1035.000000	35.640740
1036.000000	35.578880
1037.000000	35.522500
1038.000000	35.470870
1039.000000	35.423990
1040.000000	35.381960
1041.000000	35.347200
1042.000000	35.316980
1043.000000	35.290930
1044.000000	35.269740
1045.000000	35.253850
1046.000000	35.242290
1047.000000	35.234740
1048.000000	35.231310
1049.000000	35.232810
1050.000000	35.239560
1051.000000	35.249130
1052.000000	35.261940
1053.000000	35.277480
1054.000000	35.294330
1055.000000	35.312930
1056.000000	35.336170
1057.000000	35.363200
1058.000000	35.392210
1059.000000	35.421850
1060.000000	35.452660
1061.000000	35.484270
1062.000000	35.519710
1063.000000	35.556980
1064.000000	35.595540
1065.000000	35.636900
1066.000000	35.677550
1067.000000	35.719300
1068.000000	35.764150
1069.000000	35.810660
1070.000000	35.857980
1071.000000	35.909100
1072.000000	35.959130
1073.000000	36.009070
1074.000000	36.060770
1075.000000	36.111400
1076.000000	36.164280
1077.000000	36.217410
1078.000000	36.268070
1079.000000	36.319980
1080.000000	36.370940
1081.000000	36.420390
1082.000000	36.470040
1083.000000	36.521090
1084.000000	36.571790
1085.000000	36.622440
1086.000000	36.672600
1087.000000	36.719930
1088.000000	36.766860
1089.000000	36.812070
1090.000000	36.857640
1091.000000	36.900530
1092.000000	36.942520
1093.000000	36.982440
1094.000000	37.022240
1095.000000	37.062960
1096.000000	37.101900
1097.000000	37.141410
1098.000000	37.180210
1099.000000	37.218790
1100.000000	37.256840
1101.000000	37.296720
1102.000000	37.336590
1103.000000	37.375140
1104.000000	37.415150
1105.000000	37.453460
1106.000000	37.492810
1107.000000	37.534750
1108.000000	37.577520
1109.000000	37.621760
1110.000000	37.667350
1111.000000	37.712790
1112.000000	37.759600
1113.000000	37.810260
1114.000000	37.858370
1115.000000	37.906770
1116.000000	37.954450
1117.000000	38.002360
1118.000000	38.053420
1119.000000	38.102390
1120.000000	38.149860
1121.000000	38.197430
1122.000000	38.243570
1123.000000	38.285810
1124.000000	38.327530
1125.000000	38.367310
1126.000000	38.402140
1127.000000	38.431440
1128.000000	38.451660
1129.000000	38.466320
1130.000000	38.472910
1131.000000	38.468300
1132.000000	38.451870
1133.000000	38.423680
1134.000000	38.387450
1135.000000	38.340390
1136.000000	38.282160
1137.000000	38.208470
1138.000000	38.121180
1139.000000	38.024130
1140.000000	37.922170
1141.000000	37.811410
1142.000000	37.696790
1143.000000	37.582060
1144.000000	37.463380
1145.000000	37.344580
1146.000000	37.231710
1147.000000	37.130310
1148.000000	37.043850
1149.000000	36.971390
1150.000000	36.910990
1151.000000	36.869000
1152.000000	36.842120
1153.000000	36.826870
1154.000000	36.819220
1155.000000	36.817320
1156.000000	36.815870
1157.000000	36.807980
1158.000000	36.791860
1159.000000	36.763170
1160.000000	36.720140
1161.000000	36.657720
1162.000000	36.579410
1163.000000	36.482260
1164.000000	36.373130
1165.000000	36.250230
1166.000000	36.118380
1167.000000	35.979400
1168.000000	35.833520
1169.000000	35.683230
1170.000000	35.527570
