PE UV       SUBTECH     SPECTRUM    ASCII       PEDS        4.00        
   -1
CICIMAUCR0021-1.Sample.ASC
24/03/08
13:20:54.00
24/03/08
13:20:54.00
Vinicio Soto Monge
C. resplendens. 
250,000000
1
Lambda 1050
1050L1511233
PerkinElmer UV WinLab 6.3.2.0749 / 2.02.05 Lambda 900 UV/VIS/NIR, Aug  7 2015 09:38:08

0
0
3350/servo 860,8/2
0
0
UV/VIS
1
1
1
DoubleDePol,CommonBeamDepol,RBeamAtt,SBeamAtt,60mm sphere, WB InGaAs Detector
0
0
0
0
Program
Program
3350/servo 860,8/2
3350/0,2 860,8/0,2
3350/0,2 860,8/0,2
0
15.00
 
 
 
0
 
860,8
319,2
860,8
Front
100
on
S:100 R:100
0
0
0
0
 
0
 
 
 
0
 
 
0
0
0
0
0
 
 
 
 
0
0


0
0
#HDR
-1
-1
#GR
nm
%R
1.0
0.0
2500,000000
-1,000000
2251
8
31,927300
2,181000
#DATA

250.000000	nan
251.000000	nan
252.000000	nan
253.000000	nan
254.000000	nan
255.000000	nan
256.000000	nan
257.000000	nan
258.000000	nan
259.000000	2.628685
260.000000	2.622905
261.000000	2.617908
262.000000	2.612101
263.000000	2.602998
264.000000	2.597876
265.000000	2.589512
266.000000	2.583858
267.000000	2.572820
268.000000	2.564951
269.000000	2.554615
270.000000	2.548043
271.000000	2.543316
272.000000	2.531774
273.000000	2.524689
274.000000	2.514884
275.000000	2.509401
276.000000	2.501298
277.000000	2.500713
278.000000	2.495194
279.000000	2.487757
280.000000	2.481959
281.000000	2.474658
282.000000	2.474523
283.000000	2.471597
284.000000	2.469103
285.000000	2.462557
286.000000	2.456615
287.000000	2.449989
288.000000	2.442399
289.000000	2.443759
290.000000	2.441859
291.000000	2.441067
292.000000	2.435881
293.000000	2.429813
294.000000	2.424879
295.000000	2.421062
296.000000	2.420990
297.000000	2.419495
298.000000	2.417605
299.000000	2.405216
300.000000	2.395709
301.000000	2.388596
302.000000	2.384905
303.000000	2.382402
304.000000	2.382042
305.000000	2.380628
306.000000	2.375659
307.000000	2.373246
308.000000	2.371013
309.000000	2.378801
310.000000	2.379215
311.000000	2.380862
312.000000	2.378657
313.000000	2.373687
314.000000	2.370365
315.000000	2.371679
316.000000	2.383086
317.000000	2.452762
318.000000	2.499579
319.000000	2.516658
320.000000	2.516190
321.000000	2.550816
322.000000	2.597858
323.000000	2.641100
324.000000	2.673017
325.000000	2.681507
326.000000	2.686008
327.000000	2.629117
328.000000	2.611525
329.000000	2.603800
330.000000	2.626272
331.000000	2.613235
332.000000	2.576916
333.000000	2.558307
334.000000	2.545549
335.000000	2.541885
336.000000	2.536411
337.000000	2.536051
338.000000	2.528704
339.000000	2.516973
340.000000	2.513975
341.000000	2.506772
342.000000	2.511715
343.000000	2.508366
344.000000	2.499030
345.000000	2.507304
346.000000	2.515524
347.000000	2.521754
348.000000	2.520106
349.000000	2.531117
350.000000	2.521321
351.000000	2.515640
352.000000	2.513678
353.000000	2.511004
354.000000	2.517810
355.000000	2.519980
356.000000	2.522186
357.000000	2.520304
358.000000	2.522681
359.000000	2.527129
360.000000	2.541678
361.000000	2.555642
362.000000	2.561863
363.000000	2.569687
364.000000	2.579653
365.000000	2.589611
366.000000	2.593167
367.000000	2.597245
368.000000	2.602125
369.000000	2.610012
370.000000	2.608751
371.000000	2.603665
372.000000	2.607140
373.000000	2.595220
374.000000	2.592357
375.000000	2.594508
376.000000	2.592456
377.000000	2.570074
378.000000	2.546413
379.000000	2.523176
380.000000	2.507456
381.000000	2.494843
382.000000	2.479087
383.000000	2.479087
384.000000	2.468581
385.000000	2.453941
386.000000	2.446856
387.000000	2.463017
388.000000	2.479519
389.000000	2.498291
390.000000	2.516865
391.000000	2.535772
392.000000	2.557028
393.000000	2.578465
394.000000	2.601675
395.000000	2.625714
396.000000	2.652768
397.000000	2.682326
398.000000	2.714044
399.000000	2.747194
400.000000	2.783414
401.000000	2.822794
402.000000	2.864191
403.000000	2.909288
404.000000	2.958022
405.000000	3.010979
406.000000	3.066610
407.000000	3.126202
408.000000	3.191493
409.000000	3.261151
410.000000	3.335905
411.000000	3.416177
412.000000	3.502014
413.000000	3.593198
414.000000	3.689029
415.000000	3.790594
416.000000	3.899082
417.000000	4.013639
418.000000	4.132418
419.000000	4.256573
420.000000	4.385706
421.000000	4.519665
422.000000	4.658728
423.000000	4.801528
424.000000	4.948217
425.000000	5.098166
426.000000	5.250437
427.000000	5.405067
428.000000	5.562326
429.000000	5.720873
430.000000	5.880346
431.000000	6.040108
432.000000	6.199897
433.000000	6.359767
434.000000	6.519394
435.000000	6.677563
436.000000	6.833039
437.000000	6.986309
438.000000	7.136834
439.000000	7.284370
440.000000	7.429241
441.000000	7.571122
442.000000	7.708709
443.000000	7.841830
444.000000	7.969721
445.000000	8.092570
446.000000	8.212087
447.000000	8.327428
448.000000	8.437402
449.000000	8.542766
450.000000	8.643350
451.000000	8.738217
452.000000	8.828042
453.000000	8.914734
454.000000	8.997572
455.000000	9.075531
456.000000	9.149105
457.000000	9.218412
458.000000	9.284693
459.000000	9.346780
460.000000	9.403725
461.000000	9.457348
462.000000	9.508288
463.000000	9.553791
464.000000	9.595394
465.000000	9.634567
466.000000	9.670319
467.000000	9.700669
468.000000	9.725941
469.000000	9.747891
470.000000	9.766041
471.000000	9.779123
472.000000	9.786370
473.000000	9.788234
474.000000	9.783957
475.000000	9.772713
476.000000	9.754571
477.000000	9.731595
478.000000	9.702406
479.000000	9.666583
480.000000	9.623952
481.000000	9.575011
482.000000	9.520731
483.000000	9.461985
484.000000	9.400898
485.000000	9.338938
486.000000	9.277032
487.000000	9.216134
488.000000	9.156848
489.000000	9.101019
490.000000	9.052303
491.000000	9.010321
492.000000	8.977468
493.000000	8.956095
494.000000	8.945786
495.000000	8.948199
496.000000	8.964134
497.000000	8.993998
498.000000	9.041643
499.000000	9.107087
500.000000	9.188557
501.000000	9.289339
502.000000	9.408650
503.000000	9.544076
504.000000	9.695276
505.000000	9.862510
506.000000	10.043106
507.000000	10.236225
508.000000	10.437959
509.000000	10.647968
510.000000	10.864901
511.000000	11.085371
512.000000	11.306580
513.000000	11.527987
514.000000	11.748583
515.000000	11.966200
516.000000	12.180467
517.000000	12.391052
518.000000	12.599009
519.000000	12.804057
520.000000	13.007790
521.000000	13.211641
522.000000	13.415726
523.000000	13.621809
524.000000	13.832214
525.000000	14.048750
526.000000	14.272849
527.000000	14.506275
528.000000	14.750839
529.000000	15.005890
530.000000	15.272412
531.000000	15.550684
532.000000	15.844566
533.000000	16.152665
534.000000	16.476384
535.000000	16.813978
536.000000	17.165490
537.000000	17.529345
538.000000	17.903942
539.000000	18.288235
540.000000	18.682143
541.000000	19.083678
542.000000	19.490676
543.000000	19.900575
544.000000	20.312408
545.000000	20.721991
546.000000	21.130575
547.000000	21.534720
548.000000	21.933436
549.000000	22.326282
550.000000	22.710008
551.000000	23.083812
552.000000	23.445813
553.000000	23.797514
554.000000	24.136728
555.000000	24.463959
556.000000	24.775218
557.000000	25.074016
558.000000	25.361551
559.000000	25.632548
560.000000	25.823911
561.000000	25.995053
562.000000	26.150764
563.000000	26.295841
564.000000	26.427297
565.000000	26.547670
566.000000	26.657347
567.000000	26.758732
568.000000	26.844938
569.000000	26.927632
570.000000	27.069667
571.000000	27.211188
572.000000	27.345849
573.000000	27.471822
574.000000	27.591016
575.000000	27.701638
576.000000	27.809650
577.000000	27.907551
578.000000	28.001787
579.000000	28.088092
580.000000	28.166897
581.000000	28.239634
582.000000	28.307707
583.000000	28.368731
584.000000	28.423362
585.000000	28.477652
586.000000	28.521605
587.000000	28.560175
588.000000	28.594324
589.000000	28.625341
590.000000	28.648902
591.000000	28.670762
592.000000	28.687256
593.000000	28.697861
594.000000	28.706550
595.000000	28.703939
596.000000	28.702588
597.000000	28.696331
598.000000	28.685473
599.000000	28.665702
600.000000	28.642753
601.000000	28.610134
602.000000	28.574148
603.000000	28.533238
604.000000	28.483909
605.000000	28.430745
606.000000	28.370064
607.000000	28.304619
608.000000	28.231360
609.000000	28.153572
610.000000	28.070239
611.000000	27.981278
612.000000	27.884998
613.000000	27.783946
614.000000	27.682488
615.000000	27.574810
616.000000	27.459245
617.000000	27.339448
618.000000	27.217563
619.000000	27.090357
620.000000	26.957865
621.000000	26.821809
622.000000	26.681098
623.000000	26.535507
624.000000	26.381273
625.000000	26.225995
626.000000	26.064918
627.000000	25.901699
628.000000	25.734077
629.000000	25.565006
630.000000	25.395521
631.000000	25.224397
632.000000	25.053714
633.000000	24.882293
634.000000	24.711934
635.000000	24.540162
636.000000	24.371406
637.000000	24.203451
638.000000	24.036909
639.000000	23.867496
640.000000	23.695643
641.000000	23.521755
642.000000	23.344590
643.000000	23.165129
644.000000	22.980023
645.000000	22.791289
646.000000	22.598935
647.000000	22.401180
648.000000	22.199103
649.000000	21.996206
650.000000	21.792950
651.000000	21.585174
652.000000	21.377704
653.000000	21.172629
654.000000	20.967230
655.000000	20.764540
656.000000	20.566452
657.000000	20.370884
658.000000	20.177135
659.000000	19.987717
660.000000	19.800621
661.000000	19.620782
662.000000	19.444535
663.000000	19.269126
664.000000	19.099226
665.000000	18.935089
666.000000	18.773679
667.000000	18.619463
668.000000	18.472981
669.000000	18.334710
670.000000	18.203857
671.000000	18.083862
672.000000	17.976949
673.000000	17.884945
674.000000	17.809868
675.000000	17.749096
676.000000	17.704062
677.000000	17.673550
678.000000	17.659424
679.000000	17.659946
680.000000	17.679402
681.000000	17.714631
682.000000	17.764707
683.000000	17.828684
684.000000	17.905130
685.000000	17.993353
686.000000	18.092397
687.000000	18.201417
688.000000	18.318054
689.000000	18.440263
690.000000	18.569333
691.000000	18.704804
692.000000	18.842752
693.000000	18.986110
694.000000	19.130485
695.000000	19.275617
696.000000	19.423324
697.000000	19.571300
698.000000	19.718791
699.000000	19.869757
700.000000	20.017949
701.000000	20.161226
702.000000	20.301370
703.000000	20.438030
704.000000	20.572601
705.000000	20.703589
706.000000	20.829246
707.000000	20.949583
708.000000	21.065220
709.000000	21.174844
710.000000	21.278741
711.000000	21.381476
712.000000	21.480394
713.000000	21.574163
714.000000	21.663196
715.000000	21.743873
716.000000	21.818330
717.000000	21.891607
718.000000	21.963795
719.000000	22.029383
720.000000	22.092568
721.000000	22.151629
722.000000	22.204820
723.000000	22.252753
724.000000	22.297589
725.000000	22.343046
726.000000	22.385496
727.000000	22.421887
728.000000	22.452696
729.000000	22.482767
730.000000	22.510641
731.000000	22.530421
732.000000	22.549859
733.000000	22.567253
734.000000	22.579767
735.000000	22.590535
736.000000	22.600646
737.000000	22.610126
738.000000	22.616978
739.000000	22.619813
740.000000	22.621929
741.000000	22.623424
742.000000	22.620381
743.000000	22.618985
744.000000	22.617310
745.000000	22.612728
746.000000	22.604265
747.000000	22.592147
748.000000	22.580046
749.000000	22.567478
750.000000	22.553919
751.000000	22.543007
752.000000	22.535598
753.000000	22.526963
754.000000	22.522111
755.000000	22.521228
756.000000	22.524055
757.000000	22.532473
758.000000	22.544898
759.000000	22.563417
760.000000	22.585610
761.000000	22.616446
762.000000	22.649110
763.000000	22.677956
764.000000	22.709729
765.000000	22.746344
766.000000	22.792828
767.000000	22.841391
768.000000	22.889280
769.000000	22.945459
770.000000	23.007294
771.000000	23.070199
772.000000	23.140199
773.000000	23.218932
774.000000	23.301131
775.000000	23.392784
776.000000	23.489694
777.000000	23.589621
778.000000	23.698434
779.000000	23.815466
780.000000	23.935389
781.000000	24.057806
782.000000	24.185714
783.000000	24.318503
784.000000	24.456783
785.000000	24.593425
786.000000	24.724431
787.000000	24.859929
788.000000	25.006015
789.000000	25.141108
790.000000	25.277696
791.000000	25.415940
792.000000	25.553041
793.000000	25.690106
794.000000	25.827017
795.000000	25.957276
796.000000	26.087615
797.000000	26.219737
798.000000	26.343279
799.000000	26.466488
800.000000	26.585322
801.000000	26.699266
802.000000	26.807503
803.000000	26.915856
804.000000	27.017070
805.000000	27.119527
806.000000	27.219183
807.000000	27.311052
808.000000	27.399149
809.000000	27.485246
810.000000	27.562710
811.000000	27.638130
812.000000	27.715413
813.000000	27.784999
814.000000	27.860869
815.000000	27.927529
816.000000	27.994018
817.000000	28.056032
818.000000	28.111662
819.000000	28.166069
820.000000	28.219854
821.000000	28.264114
822.000000	28.304223
823.000000	28.346340
824.000000	28.373881
825.000000	28.403718
826.000000	28.432294
827.000000	28.465273
828.000000	28.487376
829.000000	28.519211
830.000000	28.536101
831.000000	28.546617
832.000000	28.558024
833.000000	28.563561
834.000000	28.563336
835.000000	28.550929
836.000000	28.540539
837.000000	28.525504
838.000000	28.506327
839.000000	28.471188
840.000000	28.442602
841.000000	28.406059
842.000000	28.363113
843.000000	28.299650
844.000000	28.250375
845.000000	28.215145
846.000000	28.152582
847.000000	28.090739
848.000000	28.028302
849.000000	27.962092
850.000000	27.887411
851.000000	27.825000
852.000000	27.772377
853.000000	27.723885
854.000000	27.660386
855.000000	27.561017
856.000000	27.478629
857.000000	27.416282
858.000000	27.164498
859.000000	27.162312
860.000000	27.184175
861.000000	27.227087
862.000000	27.280403
863.000000	27.369029
864.000000	27.485275
865.000000	27.643676
866.000000	27.820549
867.000000	27.984925
868.000000	28.369050
869.000000	28.515110
870.000000	28.667060
871.000000	28.817330
872.000000	28.963270
873.000000	29.101530
874.000000	29.236170
875.000000	29.370150
876.000000	29.494140
877.000000	29.614170
878.000000	29.731380
879.000000	29.848600
880.000000	29.964380
881.000000	30.072170
882.000000	30.166010
883.000000	30.253350
884.000000	30.334180
885.000000	30.409140
886.000000	30.478180
887.000000	30.541230
888.000000	30.587740
889.000000	30.629960
890.000000	30.658230
891.000000	30.677930
892.000000	30.692120
893.000000	30.700050
894.000000	30.693110
895.000000	30.679350
896.000000	30.658980
897.000000	30.637590
898.000000	30.612350
899.000000	30.579710
900.000000	30.540630
901.000000	30.494790
902.000000	30.448110
903.000000	30.400170
904.000000	30.348450
905.000000	30.291170
906.000000	30.235130
907.000000	30.175860
908.000000	30.112520
909.000000	30.049570
910.000000	29.984610
911.000000	29.922960
912.000000	29.862700
913.000000	29.798300
914.000000	29.738900
915.000000	29.677850
916.000000	29.615330
917.000000	29.551480
918.000000	29.489370
919.000000	29.424940
920.000000	29.361200
921.000000	29.295510
922.000000	29.225730
923.000000	29.154780
924.000000	29.076670
925.000000	29.003770
926.000000	28.930170
927.000000	28.854010
928.000000	28.777400
929.000000	28.699350
930.000000	28.623240
931.000000	28.547830
932.000000	28.470860
933.000000	28.395210
934.000000	28.324860
935.000000	28.251800
936.000000	28.180520
937.000000	28.114270
938.000000	28.051010
939.000000	27.989350
940.000000	27.929820
941.000000	27.872250
942.000000	27.822130
943.000000	27.773910
944.000000	27.729390
945.000000	27.688420
946.000000	27.649630
947.000000	27.612370
948.000000	27.581540
949.000000	27.554030
950.000000	27.530040
951.000000	27.511460
952.000000	27.492330
953.000000	27.479450
954.000000	27.467920
955.000000	27.459700
956.000000	27.452470
957.000000	27.445560
958.000000	27.437290
959.000000	27.428840
960.000000	27.419620
961.000000	27.406990
962.000000	27.393500
963.000000	27.374560
964.000000	27.355190
965.000000	27.333540
966.000000	27.311560
967.000000	27.289070
968.000000	27.265350
969.000000	27.242980
970.000000	27.220470
971.000000	27.196580
972.000000	27.174930
973.000000	27.155700
974.000000	27.134070
975.000000	27.112330
976.000000	27.090840
977.000000	27.069470
978.000000	27.048080
979.000000	27.026080
980.000000	27.004560
981.000000	26.983820
982.000000	26.962140
983.000000	26.941150
984.000000	26.920310
985.000000	26.899960
986.000000	26.880440
987.000000	26.860930
988.000000	26.839920
989.000000	26.818140
990.000000	26.796270
991.000000	26.774790
992.000000	26.752720
993.000000	26.729760
994.000000	26.707060
995.000000	26.682760
996.000000	26.658870
997.000000	26.635690
998.000000	26.613810
999.000000	26.591900
1000.000000	26.568980
1001.000000	26.546360
1002.000000	26.523360
1003.000000	26.501200
1004.000000	26.480770
1005.000000	26.462930
1006.000000	26.444460
1007.000000	26.423370
1008.000000	26.400960
1009.000000	26.380270
1010.000000	26.361050
1011.000000	26.343260
1012.000000	26.325050
1013.000000	26.305650
1014.000000	26.287550
1015.000000	26.271150
1016.000000	26.256910
1017.000000	26.248480
1018.000000	26.245350
1019.000000	26.244100
1020.000000	26.244330
1021.000000	26.247710
1022.000000	26.257130
1023.000000	26.271330
1024.000000	26.287310
1025.000000	26.306910
1026.000000	26.328790
1027.000000	26.350420
1028.000000	26.373160
1029.000000	26.397950
1030.000000	26.424220
1031.000000	26.450370
1032.000000	26.476250
1033.000000	26.502720
1034.000000	26.528940
1035.000000	26.552750
1036.000000	26.575460
1037.000000	26.596640
1038.000000	26.616230
1039.000000	26.634030
1040.000000	26.651100
1041.000000	26.667620
1042.000000	26.681390
1043.000000	26.693060
1044.000000	26.705420
1045.000000	26.717690
1046.000000	26.728840
1047.000000	26.740230
1048.000000	26.751090
1049.000000	26.762170
1050.000000	26.771590
1051.000000	26.779790
1052.000000	26.787760
1053.000000	26.796760
1054.000000	26.805880
1055.000000	26.815590
1056.000000	26.825850
1057.000000	26.835470
1058.000000	26.844780
1059.000000	26.853450
1060.000000	26.864080
1061.000000	26.876540
1062.000000	26.891450
1063.000000	26.905930
1064.000000	26.918900
1065.000000	26.932410
1066.000000	26.946480
1067.000000	26.961430
1068.000000	26.977480
1069.000000	26.993900
1070.000000	27.010440
1071.000000	27.027390
1072.000000	27.043750
1073.000000	27.061210
1074.000000	27.080710
1075.000000	27.100300
1076.000000	27.120500
1077.000000	27.139470
1078.000000	27.159090
1079.000000	27.180090
1080.000000	27.201710
1081.000000	27.222660
1082.000000	27.244190
1083.000000	27.267080
1084.000000	27.289280
1085.000000	27.310670
1086.000000	27.334080
1087.000000	27.361790
1088.000000	27.388330
1089.000000	27.413080
1090.000000	27.438290
1091.000000	27.465640
1092.000000	27.492200
1093.000000	27.515380
1094.000000	27.539290
1095.000000	27.564250
1096.000000	27.586800
1097.000000	27.607830
1098.000000	27.627510
1099.000000	27.646890
1100.000000	27.665730
1101.000000	27.679660
1102.000000	27.693870
1103.000000	27.709430
1104.000000	27.722790
1105.000000	27.732160
1106.000000	27.740610
1107.000000	27.747030
1108.000000	27.752630
1109.000000	27.758440
1110.000000	27.762930
1111.000000	27.766920
1112.000000	27.768450
1113.000000	27.768730
1114.000000	27.769630
1115.000000	27.771520
1116.000000	27.772390
1117.000000	27.772220
1118.000000	27.772100
1119.000000	27.770010
1120.000000	27.765110
1121.000000	27.759390
1122.000000	27.752960
1123.000000	27.743340
1124.000000	27.728590
1125.000000	27.710300
1126.000000	27.687500
1127.000000	27.658420
1128.000000	27.625000
1129.000000	27.586190
1130.000000	27.539110
1131.000000	27.480140
1132.000000	27.410830
1133.000000	27.329110
1134.000000	27.235420
1135.000000	27.135020
1136.000000	27.020560
1137.000000	26.893250
1138.000000	26.752860
1139.000000	26.599960
1140.000000	26.440750
1141.000000	26.280640
1142.000000	26.113790
1143.000000	25.946390
1144.000000	25.778930
1145.000000	25.613430
1146.000000	25.454830
1147.000000	25.311040
1148.000000	25.183260
1149.000000	25.075310
1150.000000	24.982190
1151.000000	24.907580
1152.000000	24.850710
1153.000000	24.807820
1154.000000	24.777780
1155.000000	24.752080
1156.000000	24.730290
1157.000000	24.700680
1158.000000	24.659740
1159.000000	24.601680
1160.000000	24.526720
1161.000000	24.431670
1162.000000	24.319990
1163.000000	24.189870
1164.000000	24.046050
1165.000000	23.885550
1166.000000	23.713660
1167.000000	23.535700
1168.000000	23.353760
1169.000000	23.174270
1170.000000	22.991830
1171.000000	22.807430
1172.000000	22.625050
1173.000000	22.446360
