PE UV       SUBTECH     SPECTRUM    ASCII       PEDS        4.00        
   -1
CICIMAUCR0018-1.Sample.ASC
24/03/08
12:50:34.00
24/03/08
12:50:34.00
Vinicio Soto Monge
c. cupreomarginata
250,000000
1
Lambda 1050
1050L1511233
PerkinElmer UV WinLab 6.3.2.0749 / 2.02.05 Lambda 900 UV/VIS/NIR, Aug  7 2015 09:38:08

0
0
3350/servo 860,8/2
0
0
UV/VIS
1
1
1
DoubleDePol,CommonBeamDepol,RBeamAtt,SBeamAtt,60mm sphere, WB InGaAs Detector
0
0
0
0
Program
Program
3350/servo 860,8/2
3350/0,2 860,8/0,2
3350/0,2 860,8/0,2
0
15.00
 
 
 
0
 
860,8
319,2
860,8
Front
100
on
S:100 R:100
0
0
0
0
 
0
 
 
 
0
 
 
0
0
0
0
0
 
 
 
 
0
0


0
0
#HDR
-1
-1
#GR
nm
%R
1.0
0.0
2500,000000
-1,000000
2251
8
27,295000
2,488900
#DATA

250.000000	nan
251.000000	nan
252.000000	nan
253.000000	nan
254.000000	nan
255.000000	nan
256.000000	nan
257.000000	nan
258.000000	nan
259.000000	2.789339
260.000000	2.784871
261.000000	2.780523
262.000000	2.774850
263.000000	2.773936
264.000000	2.769006
265.000000	2.763634
266.000000	2.754548
267.000000	2.745501
268.000000	2.732940
269.000000	2.729144
270.000000	2.713812
271.000000	2.700970
272.000000	2.689212
273.000000	2.676300
274.000000	2.669081
275.000000	2.660988
276.000000	2.657474
277.000000	2.653417
278.000000	2.647292
279.000000	2.642001
280.000000	2.637101
281.000000	2.630163
282.000000	2.625424
283.000000	2.626418
284.000000	2.625885
285.000000	2.617531
286.000000	2.615323
287.000000	2.609599
288.000000	2.608023
289.000000	2.606838
290.000000	2.605693
291.000000	2.605673
292.000000	2.604358
293.000000	2.602320
294.000000	2.594799
295.000000	2.596838
296.000000	2.590251
297.000000	2.593112
298.000000	2.588795
299.000000	2.581636
300.000000	2.573222
301.000000	2.571676
302.000000	2.569296
303.000000	2.561183
304.000000	2.559667
305.000000	2.558010
306.000000	2.558863
307.000000	2.558261
308.000000	2.558924
309.000000	2.564064
310.000000	2.573131
311.000000	2.575752
312.000000	2.575973
313.000000	2.577670
314.000000	2.580521
315.000000	2.583744
316.000000	2.583072
317.000000	2.625343
318.000000	2.667052
319.000000	2.741715
320.000000	2.795614
321.000000	2.843739
322.000000	2.872566
323.000000	2.913854
324.000000	2.937650
325.000000	2.966347
326.000000	3.012524
327.000000	3.019854
328.000000	3.027445
329.000000	2.987342
330.000000	2.961005
331.000000	2.940291
332.000000	2.931897
333.000000	2.921827
334.000000	2.931526
335.000000	2.929919
336.000000	2.916886
337.000000	2.885389
338.000000	2.852947
339.000000	2.830636
340.000000	2.814370
341.000000	2.800584
342.000000	2.797381
343.000000	2.776225
344.000000	2.758674
345.000000	2.739978
346.000000	2.706733
347.000000	2.690076
348.000000	2.681361
349.000000	2.669633
350.000000	2.669020
351.000000	2.664181
352.000000	2.663257
353.000000	2.667856
354.000000	2.664060
355.000000	2.668579
356.000000	2.683208
357.000000	2.702918
358.000000	2.716182
359.000000	2.728140
360.000000	2.737328
361.000000	2.746204
362.000000	2.756927
363.000000	2.764006
364.000000	2.769137
365.000000	2.773565
366.000000	2.772470
367.000000	2.764910
368.000000	2.767691
369.000000	2.774890
370.000000	2.773334
371.000000	2.771687
372.000000	2.767631
373.000000	2.770332
374.000000	2.760793
375.000000	2.755421
376.000000	2.768143
377.000000	2.745481
378.000000	2.721012
379.000000	2.697566
380.000000	2.678629
381.000000	2.664633
382.000000	2.648427
383.000000	2.635836
384.000000	2.641077
385.000000	2.645083
386.000000	2.641429
387.000000	2.672515
388.000000	2.704766
389.000000	2.740601
390.000000	2.780172
391.000000	2.823196
392.000000	2.868460
393.000000	2.918543
394.000000	2.972030
395.000000	3.029644
396.000000	3.091053
397.000000	3.156639
398.000000	3.226794
399.000000	3.301728
400.000000	3.380146
401.000000	3.460602
402.000000	3.545597
403.000000	3.632821
404.000000	3.722033
405.000000	3.813203
406.000000	3.906642
407.000000	4.002732
408.000000	4.099073
409.000000	4.194962
410.000000	4.291906
411.000000	4.388769
412.000000	4.485431
413.000000	4.582244
414.000000	4.679720
415.000000	4.775679
416.000000	4.869600
417.000000	4.959887
418.000000	5.048335
419.000000	5.135971
420.000000	5.221086
421.000000	5.304816
422.000000	5.386397
423.000000	5.465408
424.000000	5.541677
425.000000	5.617153
426.000000	5.690712
427.000000	5.762533
428.000000	5.832457
429.000000	5.900222
430.000000	5.965758
431.000000	6.028613
432.000000	6.088436
433.000000	6.145889
434.000000	6.200932
435.000000	6.252461
436.000000	6.301882
437.000000	6.350128
438.000000	6.396415
439.000000	6.439370
440.000000	6.478790
441.000000	6.514685
442.000000	6.547780
443.000000	6.576536
444.000000	6.600273
445.000000	6.618798
446.000000	6.631188
447.000000	6.638297
448.000000	6.639401
449.000000	6.635054
450.000000	6.625756
451.000000	6.611187
452.000000	6.591607
453.000000	6.569528
454.000000	6.545008
455.000000	6.519274
456.000000	6.494112
457.000000	6.468398
458.000000	6.444199
459.000000	6.423636
460.000000	6.407521
461.000000	6.397088
462.000000	6.392620
463.000000	6.392670
464.000000	6.399749
465.000000	6.414790
466.000000	6.437010
467.000000	6.468277
468.000000	6.507988
469.000000	6.554246
470.000000	6.607994
471.000000	6.669925
472.000000	6.740030
473.000000	6.818779
474.000000	6.904517
475.000000	6.996952
476.000000	7.095151
477.000000	7.197898
478.000000	7.304882
479.000000	7.415923
480.000000	7.529513
481.000000	7.644972
482.000000	7.761756
483.000000	7.880106
484.000000	7.999671
485.000000	8.118664
486.000000	8.237828
487.000000	8.359341
488.000000	8.482792
489.000000	8.608211
490.000000	8.734503
491.000000	8.862312
492.000000	8.990783
493.000000	9.119535
494.000000	9.249262
495.000000	9.380765
496.000000	9.513845
497.000000	9.647357
498.000000	9.781240
499.000000	9.914120
500.000000	10.048535
501.000000	10.184035
502.000000	10.320669
503.000000	10.458408
504.000000	10.597342
505.000000	10.737631
506.000000	10.878623
507.000000	11.019706
508.000000	11.160839
509.000000	11.303618
510.000000	11.447984
511.000000	11.594980
512.000000	11.744447
513.000000	11.896132
514.000000	12.050107
515.000000	12.203851
516.000000	12.359492
517.000000	12.518146
518.000000	12.679551
519.000000	12.844450
520.000000	13.014430
521.000000	13.188245
522.000000	13.368878
523.000000	13.558026
524.000000	13.756411
525.000000	13.966192
526.000000	14.189137
527.000000	14.424693
528.000000	14.675952
529.000000	14.943086
530.000000	15.226496
531.000000	15.526835
532.000000	15.844233
533.000000	16.178068
534.000000	16.526341
535.000000	16.890589
536.000000	17.268452
537.000000	17.658224
538.000000	18.057886
539.000000	18.466032
540.000000	18.880022
541.000000	19.299966
542.000000	19.721306
543.000000	20.142334
544.000000	20.562057
545.000000	20.978648
546.000000	21.388310
547.000000	21.788896
548.000000	22.179802
549.000000	22.561400
550.000000	22.930508
551.000000	23.286623
552.000000	23.628590
553.000000	23.957857
554.000000	24.273427
555.000000	24.570191
556.000000	24.851995
557.000000	25.120324
558.000000	25.372447
559.000000	25.603615
560.000000	25.747107
561.000000	25.858830
562.000000	25.948986
563.000000	26.016580
564.000000	26.060991
565.000000	26.087016
566.000000	26.094527
567.000000	26.083482
568.000000	26.057215
569.000000	26.022595
570.000000	26.044534
571.000000	26.069515
572.000000	26.093814
573.000000	26.114277
574.000000	26.137210
575.000000	26.160856
576.000000	26.185134
577.000000	26.213881
578.000000	26.241965
579.000000	26.265922
580.000000	26.291074
581.000000	26.313385
582.000000	26.330023
583.000000	26.339029
584.000000	26.339511
585.000000	26.333035
586.000000	26.316950
587.000000	26.288424
588.000000	26.255741
589.000000	26.218078
590.000000	26.174391
591.000000	26.126527
592.000000	26.073863
593.000000	26.025537
594.000000	25.976387
595.000000	25.931515
596.000000	25.894274
597.000000	25.861531
598.000000	25.835154
599.000000	25.814772
600.000000	25.799068
601.000000	25.791748
602.000000	25.787963
603.000000	25.781577
604.000000	25.778153
605.000000	25.768655
606.000000	25.746083
607.000000	25.716724
608.000000	25.671279
609.000000	25.609710
610.000000	25.531241
611.000000	25.430663
612.000000	25.310034
613.000000	25.169543
614.000000	25.006261
615.000000	24.824945
616.000000	24.631440
617.000000	24.421548
618.000000	24.201134
619.000000	23.967938
620.000000	23.728516
621.000000	23.476704
622.000000	23.217834
623.000000	22.955821
624.000000	22.688165
625.000000	22.412094
626.000000	22.128935
627.000000	21.840113
628.000000	21.544353
629.000000	21.241835
630.000000	20.930080
631.000000	20.613797
632.000000	20.293367
633.000000	19.971822
634.000000	19.652145
635.000000	19.340269
636.000000	19.038535
637.000000	18.750757
638.000000	18.482007
639.000000	18.240467
640.000000	18.027312
641.000000	17.853175
642.000000	17.712826
643.000000	17.608121
644.000000	17.536872
645.000000	17.500163
646.000000	17.494058
647.000000	17.517854
648.000000	17.566562
649.000000	17.635160
650.000000	17.721440
651.000000	17.818213
652.000000	17.928762
653.000000	18.044220
654.000000	18.167742
655.000000	18.292859
656.000000	18.420387
657.000000	18.547342
658.000000	18.671566
659.000000	18.792848
660.000000	18.913006
661.000000	19.027611
662.000000	19.136382
663.000000	19.241127
664.000000	19.340440
665.000000	19.433287
666.000000	19.519386
667.000000	19.600706
668.000000	19.676142
669.000000	19.746699
670.000000	19.807887
671.000000	19.861073
672.000000	19.906156
673.000000	19.944983
674.000000	19.977836
675.000000	20.004565
676.000000	20.024867
677.000000	20.039286
678.000000	20.050150
679.000000	20.055984
680.000000	20.058183
681.000000	20.061426
682.000000	20.063504
683.000000	20.063564
684.000000	20.060723
685.000000	20.060683
686.000000	20.060944
687.000000	20.063233
688.000000	20.065191
689.000000	20.067832
690.000000	20.073947
691.000000	20.079951
692.000000	20.087180
693.000000	20.095183
694.000000	20.106198
695.000000	20.115766
696.000000	20.124823
697.000000	20.129351
698.000000	20.133357
699.000000	20.138609
700.000000	20.142625
701.000000	20.145898
702.000000	20.150346
703.000000	20.156863
704.000000	20.161532
705.000000	20.169594
706.000000	20.182637
707.000000	20.202388
708.000000	20.226716
709.000000	20.255574
710.000000	20.287634
711.000000	20.327656
712.000000	20.375028
713.000000	20.423154
714.000000	20.476791
715.000000	20.533853
716.000000	20.595754
717.000000	20.659503
718.000000	20.724044
719.000000	20.787894
720.000000	20.855929
721.000000	20.924237
722.000000	20.990526
723.000000	21.058803
724.000000	21.124941
725.000000	21.190829
726.000000	21.255822
727.000000	21.320776
728.000000	21.386302
729.000000	21.452370
730.000000	21.515857
731.000000	21.578231
732.000000	21.638375
733.000000	21.694412
734.000000	21.749164
735.000000	21.801758
736.000000	21.850807
737.000000	21.893992
738.000000	21.932538
739.000000	21.967561
740.000000	22.001026
741.000000	22.029582
742.000000	22.051813
743.000000	22.072898
744.000000	22.090540
745.000000	22.102428
746.000000	22.111374
747.000000	22.115872
748.000000	22.118372
749.000000	22.122830
750.000000	22.124096
751.000000	22.122168
752.000000	22.120662
753.000000	22.117810
754.000000	22.118543
755.000000	22.123845
756.000000	22.127901
757.000000	22.138062
758.000000	22.146497
759.000000	22.150935
760.000000	22.156487
761.000000	22.163034
762.000000	22.173797
763.000000	22.185997
764.000000	22.200275
765.000000	22.214432
766.000000	22.230347
767.000000	22.245820
768.000000	22.268060
769.000000	22.292358
770.000000	22.318002
771.000000	22.345615
772.000000	22.376048
773.000000	22.410287
774.000000	22.441735
775.000000	22.480241
776.000000	22.522653
777.000000	22.562565
778.000000	22.602045
779.000000	22.647741
780.000000	22.694249
781.000000	22.743901
782.000000	22.791564
783.000000	22.841346
784.000000	22.894833
785.000000	22.947497
786.000000	22.998654
787.000000	23.052392
788.000000	23.105578
789.000000	23.156806
790.000000	23.211297
791.000000	23.264935
792.000000	23.317779
793.000000	23.367230
794.000000	23.415185
795.000000	23.459615
796.000000	23.503483
797.000000	23.553887
798.000000	23.601872
799.000000	23.646112
800.000000	23.690964
801.000000	23.738145
802.000000	23.780959
803.000000	23.817236
804.000000	23.854618
805.000000	23.890473
806.000000	23.923929
807.000000	23.952053
808.000000	23.989093
809.000000	24.030983
810.000000	24.064118
811.000000	24.086941
812.000000	24.115878
813.000000	24.156101
814.000000	24.197710
815.000000	24.229499
816.000000	24.267503
817.000000	24.306160
818.000000	24.336794
819.000000	24.361786
820.000000	24.388313
821.000000	24.424561
822.000000	24.456882
823.000000	24.495177
824.000000	24.531615
825.000000	24.568806
826.000000	24.607784
827.000000	24.648820
828.000000	24.698552
829.000000	24.740603
830.000000	24.786338
831.000000	24.819403
832.000000	24.857949
833.000000	24.895622
834.000000	24.914559
835.000000	24.944179
836.000000	24.972936
837.000000	24.995587
838.000000	25.024053
839.000000	25.051253
840.000000	25.080944
841.000000	25.118446
842.000000	25.150175
843.000000	25.165286
844.000000	25.186824
845.000000	25.197758
846.000000	25.209415
847.000000	25.212779
848.000000	25.217629
849.000000	25.215611
850.000000	25.189926
851.000000	25.155688
852.000000	25.132001
853.000000	25.116900
854.000000	25.088876
855.000000	25.092983
856.000000	25.059467
857.000000	25.025740
858.000000	25.020790
859.000000	25.032328
860.000000	25.067664
861.000000	25.118967
862.000000	25.165984
863.000000	25.219822
864.000000	25.304794
865.000000	25.373114
866.000000	25.477191
867.000000	25.596140
868.000000	25.673460
869.000000	25.756300
870.000000	25.839350
871.000000	25.923100
872.000000	26.007460
873.000000	26.091470
874.000000	26.173310
875.000000	26.250160
876.000000	26.330290
877.000000	26.407790
878.000000	26.490060
879.000000	26.571920
880.000000	26.648620
881.000000	26.720340
882.000000	26.792530
883.000000	26.861560
884.000000	26.924290
885.000000	26.984500
886.000000	27.037250
887.000000	27.084800
888.000000	27.123640
889.000000	27.155160
890.000000	27.184530
891.000000	27.214080
892.000000	27.235370
893.000000	27.247760
894.000000	27.254080
895.000000	27.253110
896.000000	27.249120
897.000000	27.245480
898.000000	27.235310
899.000000	27.222560
900.000000	27.206430
901.000000	27.182050
902.000000	27.157650
903.000000	27.130180
904.000000	27.105800
905.000000	27.079440
906.000000	27.051170
907.000000	27.022390
908.000000	26.998510
909.000000	26.978460
910.000000	26.955340
911.000000	26.936450
912.000000	26.916840
913.000000	26.902920
914.000000	26.887330
915.000000	26.876470
916.000000	26.868590
917.000000	26.860090
918.000000	26.850590
919.000000	26.840520
920.000000	26.835380
921.000000	26.829360
922.000000	26.824060
923.000000	26.813210
924.000000	26.804120
925.000000	26.794720
926.000000	26.783300
927.000000	26.770960
928.000000	26.759480
929.000000	26.746330
930.000000	26.735180
931.000000	26.719110
932.000000	26.701160
933.000000	26.687180
934.000000	26.668780
935.000000	26.649910
936.000000	26.629090
937.000000	26.609660
938.000000	26.589090
939.000000	26.562220
940.000000	26.532300
941.000000	26.504260
942.000000	26.475750
943.000000	26.442450
944.000000	26.411980
945.000000	26.380870
946.000000	26.349860
947.000000	26.316860
948.000000	26.283020
949.000000	26.253320
950.000000	26.223450
951.000000	26.195550
952.000000	26.166630
953.000000	26.140190
954.000000	26.111970
955.000000	26.082000
956.000000	26.053060
957.000000	26.026010
958.000000	25.996840
959.000000	25.967360
960.000000	25.939250
961.000000	25.910270
962.000000	25.881830
963.000000	25.854620
964.000000	25.827080
965.000000	25.801630
966.000000	25.778560
967.000000	25.755020
968.000000	25.732600
969.000000	25.713540
970.000000	25.693630
971.000000	25.673460
972.000000	25.654750
973.000000	25.636850
974.000000	25.623430
975.000000	25.608940
976.000000	25.594120
977.000000	25.577880
978.000000	25.563030
979.000000	25.547690
980.000000	25.533520
981.000000	25.519260
982.000000	25.505710
983.000000	25.491870
984.000000	25.475880
985.000000	25.458750
986.000000	25.439540
987.000000	25.421050
988.000000	25.404390
989.000000	25.385840
990.000000	25.364700
991.000000	25.344640
992.000000	25.322830
993.000000	25.297780
994.000000	25.272060
995.000000	25.247750
996.000000	25.223140
997.000000	25.198950
998.000000	25.170990
999.000000	25.141010
1000.000000	25.112220
1001.000000	25.081970
1002.000000	25.052460
1003.000000	25.022960
1004.000000	24.992700
1005.000000	24.964680
1006.000000	24.935030
1007.000000	24.904680
1008.000000	24.878310
1009.000000	24.852000
1010.000000	24.826120
1011.000000	24.801520
1012.000000	24.777370
1013.000000	24.755070
1014.000000	24.733980
1015.000000	24.714550
1016.000000	24.700870
1017.000000	24.689530
1018.000000	24.677700
1019.000000	24.672760
1020.000000	24.671450
1021.000000	24.671690
1022.000000	24.673730
1023.000000	24.677300
1024.000000	24.685290
1025.000000	24.695430
1026.000000	24.705960
1027.000000	24.717420
1028.000000	24.730210
1029.000000	24.742150
1030.000000	24.755170
1031.000000	24.769950
1032.000000	24.785080
1033.000000	24.801420
1034.000000	24.819190
1035.000000	24.835920
1036.000000	24.850340
1037.000000	24.865310
1038.000000	24.880670
1039.000000	24.896620
1040.000000	24.909930
1041.000000	24.921970
1042.000000	24.933210
1043.000000	24.943130
1044.000000	24.950100
1045.000000	24.955670
1046.000000	24.963180
1047.000000	24.970340
1048.000000	24.976560
1049.000000	24.980850
1050.000000	24.985510
1051.000000	24.990010
1052.000000	24.995510
1053.000000	25.002630
1054.000000	25.010720
1055.000000	25.018710
1056.000000	25.026780
1057.000000	25.035120
1058.000000	25.044620
1059.000000	25.055700
1060.000000	25.066320
1061.000000	25.077920
1062.000000	25.090610
1063.000000	25.103510
1064.000000	25.114010
1065.000000	25.123800
1066.000000	25.132010
1067.000000	25.140580
1068.000000	25.149350
1069.000000	25.157170
1070.000000	25.166120
1071.000000	25.176460
1072.000000	25.186470
1073.000000	25.196380
1074.000000	25.206970
1075.000000	25.219680
1076.000000	25.231210
1077.000000	25.243310
1078.000000	25.256030
1079.000000	25.266700
1080.000000	25.278160
1081.000000	25.289290
1082.000000	25.299720
1083.000000	25.310900
1084.000000	25.322990
1085.000000	25.333400
1086.000000	25.346670
1087.000000	25.359950
1088.000000	25.372060
1089.000000	25.386220
1090.000000	25.398410
1091.000000	25.408960
1092.000000	25.419960
1093.000000	25.430410
1094.000000	25.442480
1095.000000	25.456290
1096.000000	25.468100
1097.000000	25.478660
1098.000000	25.488790
1099.000000	25.498860
1100.000000	25.510610
1101.000000	25.522160
1102.000000	25.532800
1103.000000	25.542770
1104.000000	25.549320
1105.000000	25.554230
1106.000000	25.560330
1107.000000	25.566190
1108.000000	25.570330
1109.000000	25.572910
1110.000000	25.576050
1111.000000	25.578650
1112.000000	25.580840
1113.000000	25.583320
1114.000000	25.586420
1115.000000	25.589830
1116.000000	25.591000
1117.000000	25.593420
1118.000000	25.595580
1119.000000	25.598830
1120.000000	25.597850
1121.000000	25.595870
1122.000000	25.591390
1123.000000	25.583980
1124.000000	25.574240
1125.000000	25.560480
1126.000000	25.546230
1127.000000	25.526500
1128.000000	25.502610
1129.000000	25.472100
1130.000000	25.434360
1131.000000	25.388340
1132.000000	25.331350
1133.000000	25.264880
1134.000000	25.193860
1135.000000	25.110590
1136.000000	25.013800
1137.000000	24.904750
1138.000000	24.785170
1139.000000	24.656270
1140.000000	24.520910
1141.000000	24.380370
1142.000000	24.239340
1143.000000	24.093710
1144.000000	23.943570
1145.000000	23.799550
1146.000000	23.664040
1147.000000	23.538870
1148.000000	23.428140
1149.000000	23.331960
1150.000000	23.255000
1151.000000	23.190700
1152.000000	23.138680
1153.000000	23.106580
1154.000000	23.083110
1155.000000	23.062720
1156.000000	23.042700
1157.000000	23.017890
1158.000000	22.979630
1159.000000	22.928870
1160.000000	22.862230
1161.000000	22.780920
1162.000000	22.682790
1163.000000	22.564950
1164.000000	22.432150
1165.000000	22.289730
1166.000000	22.135640
1167.000000	21.975850
1168.000000	21.814220
1169.000000	21.652180
1170.000000	21.485440
1171.000000	21.317290
1172.000000	21.151160
1173.000000	20.985400
