PE UV       SUBTECH     SPECTRUM    ASCII       PEDS        4.00        
   -1
CICIMAUCR0070-1.ASC
24/04/03
14:43:34.00
24/04/03
14:43:34.00
Vinicio Soto Monge
C. resplendens
250,000000
1
Lambda 1050
1050L1511233
PerkinElmer UV WinLab 6.3.2.0749 / 2.02.05 Lambda 900 UV/VIS/NIR, Aug  7 2015 09:38:08

0
0
3350/servo 860,8/2
0
0
UV/VIS
1
1
1
DoubleDePol,CommonBeamDepol,RBeamAtt,SBeamAtt,60mm sphere, WB InGaAs Detector
0
0
0
0
Program
Program
3350/servo 860,8/2
3350/0,2 860,8/0,2
3350/0,2 860,8/0,2
0
15.00
 
 
 
0
 
860,8
319,2
860,8
Front
100
on
S:100 R:100
0
0
0
0
 
0
 
 
 
0
 
 
0
0
0
0
0
 
 
 
 
0
0


0
0
#HDR
-1
-1
#GR
nm
%R
1.0
0.0
2500,000000
-1,000000
2251
8
71,428400
5,238700
#DATA

250.000000	nan
251.000000	nan
252.000000	nan
253.000000	nan
254.000000	nan
255.000000	nan
256.000000	nan
257.000000	nan
258.000000	nan
259.000000	6.100513
260.000000	6.084482
261.000000	6.065083
262.000000	6.038670
263.000000	6.022372
264.000000	5.997276
265.000000	5.970051
266.000000	5.947471
267.000000	5.919344
268.000000	5.894070
269.000000	5.865932
270.000000	5.836368
271.000000	5.813314
272.000000	5.788634
273.000000	5.762835
274.000000	5.750569
275.000000	5.729714
276.000000	5.714704
277.000000	5.698763
278.000000	5.674886
279.000000	5.661005
280.000000	5.655893
281.000000	5.640735
282.000000	5.629391
283.000000	5.616224
284.000000	5.597498
285.000000	5.592208
286.000000	5.584410
287.000000	5.571788
288.000000	5.566022
289.000000	5.560989
290.000000	5.545662
291.000000	5.534169
292.000000	5.534467
293.000000	5.535735
294.000000	5.524480
295.000000	5.514780
296.000000	5.497066
297.000000	5.496471
298.000000	5.491508
299.000000	5.479718
300.000000	5.481055
301.000000	5.482393
302.000000	5.471920
303.000000	5.466660
304.000000	5.470018
305.000000	5.469483
306.000000	5.476815
307.000000	5.470573
308.000000	5.471504
309.000000	5.473902
310.000000	5.463469
311.000000	5.455316
312.000000	5.452423
313.000000	5.440563
314.000000	5.431181
315.000000	5.428120
316.000000	5.424751
317.000000	5.489625
318.000000	5.547109
319.000000	5.584589
320.000000	5.654189
321.000000	5.715239
322.000000	5.759665
323.000000	5.802673
324.000000	5.854083
325.000000	5.897369
326.000000	5.908793
327.000000	5.854727
328.000000	5.781778
329.000000	5.753859
330.000000	5.716705
331.000000	5.668248
332.000000	5.631313
333.000000	5.596914
334.000000	5.545840
335.000000	5.508915
336.000000	5.489328
337.000000	5.463489
338.000000	5.473783
339.000000	5.469295
340.000000	5.437165
341.000000	5.433994
342.000000	5.425147
343.000000	5.417162
344.000000	5.404460
345.000000	5.400160
346.000000	5.394226
347.000000	5.385468
348.000000	5.382892
349.000000	5.383139
350.000000	5.382753
351.000000	5.365980
352.000000	5.355081
353.000000	5.348790
354.000000	5.356984
355.000000	5.349424
356.000000	5.351812
357.000000	5.383952
358.000000	5.384437
359.000000	5.385061
360.000000	5.386657
361.000000	5.387172
362.000000	5.394018
363.000000	5.396267
364.000000	5.391462
365.000000	5.390679
366.000000	5.395435
367.000000	5.377878
368.000000	5.374986
369.000000	5.358172
370.000000	5.346680
371.000000	5.345184
372.000000	5.343301
373.000000	5.343212
374.000000	5.342479
375.000000	5.330540
376.000000	5.326379
377.000000	5.327013
378.000000	5.323952
379.000000	5.323001
380.000000	5.326726
381.000000	5.329341
382.000000	5.329847
383.000000	5.331927
384.000000	5.338159
385.000000	5.349761
386.000000	5.353139
387.000000	5.355963
388.000000	5.358579
389.000000	5.363750
390.000000	5.368902
391.000000	5.369794
392.000000	5.371409
393.000000	5.374748
394.000000	5.378701
395.000000	5.381514
396.000000	5.384289
397.000000	5.386924
398.000000	5.390837
399.000000	5.392859
400.000000	5.393483
401.000000	5.396861
402.000000	5.401349
403.000000	5.405015
404.000000	5.409355
405.000000	5.415071
406.000000	5.420025
407.000000	5.425316
408.000000	5.430378
409.000000	5.435679
410.000000	5.442367
411.000000	5.449757
412.000000	5.457069
413.000000	5.463410
414.000000	5.470999
415.000000	5.480768
416.000000	5.492647
417.000000	5.505150
418.000000	5.518813
419.000000	5.535785
420.000000	5.555471
421.000000	5.577307
422.000000	5.602690
423.000000	5.632739
424.000000	5.666365
425.000000	5.702795
426.000000	5.743248
427.000000	5.789813
428.000000	5.843859
429.000000	5.904235
430.000000	5.970051
431.000000	6.044486
432.000000	6.127907
433.000000	6.221038
434.000000	6.323898
435.000000	6.437378
436.000000	6.562421
437.000000	6.700938
438.000000	6.850898
439.000000	7.012024
440.000000	7.188527
441.000000	7.377720
442.000000	7.579180
443.000000	7.794212
444.000000	8.023779
445.000000	8.266553
446.000000	8.519502
447.000000	8.781516
448.000000	9.054696
449.000000	9.337209
450.000000	9.625706
451.000000	9.920890
452.000000	10.220454
453.000000	10.521107
454.000000	10.821899
455.000000	11.123831
456.000000	11.426575
457.000000	11.726327
458.000000	12.020659
459.000000	12.310504
460.000000	12.595394
461.000000	12.874330
462.000000	13.148343
463.000000	13.419224
464.000000	13.684171
465.000000	13.940607
466.000000	14.191663
467.000000	14.440193
468.000000	14.684800
469.000000	14.924136
470.000000	15.159083
471.000000	15.391414
472.000000	15.621784
473.000000	15.845852
474.000000	16.066730
475.000000	16.287093
476.000000	16.504107
477.000000	16.717455
478.000000	16.930090
479.000000	17.142508
480.000000	17.354281
481.000000	17.564944
482.000000	17.773854
483.000000	17.983299
484.000000	18.193695
485.000000	18.402437
486.000000	18.611039
487.000000	18.820207
488.000000	19.027383
489.000000	19.236342
490.000000	19.446272
491.000000	19.657095
492.000000	19.868224
493.000000	20.080690
494.000000	20.290531
495.000000	20.500898
496.000000	20.710897
497.000000	20.920045
498.000000	21.128667
499.000000	21.332257
500.000000	21.531557
501.000000	21.725526
502.000000	21.913313
503.000000	22.092896
504.000000	22.268210
505.000000	22.436261
506.000000	22.596773
507.000000	22.748041
508.000000	22.889699
509.000000	23.022697
510.000000	23.145540
511.000000	23.257991
512.000000	23.358770
513.000000	23.447779
514.000000	23.526217
515.000000	23.594658
516.000000	23.653548
517.000000	23.705384
518.000000	23.753020
519.000000	23.798891
520.000000	23.848142
521.000000	23.908617
522.000000	23.990176
523.000000	24.102844
524.000000	24.252457
525.000000	24.450340
526.000000	24.706945
527.000000	25.030544
528.000000	25.429589
529.000000	25.912442
530.000000	26.483778
531.000000	27.144630
532.000000	27.897482
533.000000	28.737926
534.000000	29.660138
535.000000	30.653772
536.000000	31.705841
537.000000	32.805675
538.000000	33.939501
539.000000	35.089060
540.000000	36.244395
541.000000	37.390149
542.000000	38.512314
543.000000	39.601755
544.000000	40.649147
545.000000	41.650430
546.000000	42.604673
547.000000	43.506039
548.000000	44.354082
549.000000	45.152123
550.000000	45.900427
551.000000	46.605090
552.000000	47.266555
553.000000	47.884397
554.000000	48.466781
555.000000	49.005244
556.000000	49.500541
557.000000	49.959556
558.000000	50.375196
559.000000	50.750968
560.000000	51.077698
561.000000	51.358022
562.000000	51.597060
563.000000	51.795894
564.000000	51.956366
565.000000	52.093863
566.000000	52.208641
567.000000	52.299751
568.000000	52.381042
569.000000	52.457013
570.000000	52.538581
571.000000	52.626342
572.000000	52.721771
573.000000	52.831061
574.000000	52.954122
575.000000	53.084991
576.000000	53.225341
577.000000	53.377609
578.000000	53.542272
579.000000	53.706984
580.000000	53.875373
581.000000	54.037103
582.000000	54.195326
583.000000	54.344355
584.000000	54.478780
585.000000	54.599800
586.000000	54.708159
587.000000	54.805024
588.000000	54.888773
589.000000	54.965922
590.000000	55.031163
591.000000	55.092006
592.000000	55.150886
593.000000	55.200978
594.000000	55.242362
595.000000	55.281933
596.000000	55.307415
597.000000	55.313438
598.000000	55.298835
599.000000	55.262702
600.000000	55.199878
601.000000	55.105311
602.000000	54.969539
603.000000	54.800556
604.000000	54.599949
605.000000	54.361108
606.000000	54.098975
607.000000	53.812836
608.000000	53.510479
609.000000	53.192408
610.000000	52.866223
611.000000	52.541811
612.000000	52.223473
613.000000	51.916419
614.000000	51.625465
615.000000	51.353742
616.000000	51.097959
617.000000	50.865053
618.000000	50.644215
619.000000	50.437653
620.000000	50.244605
621.000000	50.059275
622.000000	49.869120
623.000000	49.676300
624.000000	49.469689
625.000000	49.240102
626.000000	48.988372
627.000000	48.704561
628.000000	48.392118
629.000000	48.043968
630.000000	47.653691
631.000000	47.216571
632.000000	46.743408
633.000000	46.226196
634.000000	45.670682
635.000000	45.080471
636.000000	44.460182
637.000000	43.813241
638.000000	43.150309
639.000000	42.474795
640.000000	41.802937
641.000000	41.144315
642.000000	40.511522
643.000000	39.913702
644.000000	39.364529
645.000000	38.881765
646.000000	38.475210
647.000000	38.153266
648.000000	37.916932
649.000000	37.776443
650.000000	37.733346
651.000000	37.788223
652.000000	37.933438
653.000000	38.162450
654.000000	38.466155
655.000000	38.824341
656.000000	39.218284
657.000000	39.635163
658.000000	40.061721
659.000000	40.481780
660.000000	40.879725
661.000000	41.243658
662.000000	41.566365
663.000000	41.845073
664.000000	42.071054
665.000000	42.248537
666.000000	42.379277
667.000000	42.469564
668.000000	42.526007
669.000000	42.555284
670.000000	42.562526
671.000000	42.558177
672.000000	42.552995
673.000000	42.551192
674.000000	42.561387
675.000000	42.590475
676.000000	42.646809
677.000000	42.731251
678.000000	42.841274
679.000000	42.985220
680.000000	43.163298
681.000000	43.372862
682.000000	43.606867
683.000000	43.859985
684.000000	44.124297
685.000000	44.396893
686.000000	44.670380
687.000000	44.932939
688.000000	45.180300
689.000000	45.405042
690.000000	45.603212
691.000000	45.773096
692.000000	45.906739
693.000000	46.006745
694.000000	46.079426
695.000000	46.121345
696.000000	46.138495
697.000000	46.140843
698.000000	46.138872
699.000000	46.131590
700.000000	46.128370
701.000000	46.131669
702.000000	46.144321
703.000000	46.174905
704.000000	46.227445
705.000000	46.303059
706.000000	46.403838
707.000000	46.530476
708.000000	46.674888
709.000000	46.845505
710.000000	47.033431
711.000000	47.241370
712.000000	47.474761
713.000000	47.721855
714.000000	47.972049
715.000000	48.228059
716.000000	48.489192
717.000000	48.746787
718.000000	48.997655
719.000000	49.244878
720.000000	49.487770
721.000000	49.718199
722.000000	49.933351
723.000000	50.142320
724.000000	50.352696
725.000000	50.557138
726.000000	50.754624
727.000000	50.953884
728.000000	51.153531
729.000000	51.346856
730.000000	51.542638
731.000000	51.745564
732.000000	51.949451
733.000000	52.155289
734.000000	52.360207
735.000000	52.569721
736.000000	52.776025
737.000000	52.979446
738.000000	53.186216
739.000000	53.396642
740.000000	53.600756
741.000000	53.802661
742.000000	54.008599
743.000000	54.205620
744.000000	54.397092
745.000000	54.590418
746.000000	54.778611
747.000000	54.960860
748.000000	55.139561
749.000000	55.310952
750.000000	55.477130
751.000000	55.640327
752.000000	55.797648
753.000000	55.954415
754.000000	56.109012
755.000000	56.250660
756.000000	56.387433
757.000000	56.528764
758.000000	56.669351
759.000000	56.804004
760.000000	56.935388
761.000000	57.064859
762.000000	57.190595
763.000000	57.315569
764.000000	57.443564
765.000000	57.570202
766.000000	57.695661
767.000000	57.828421
768.000000	57.958884
769.000000	58.092635
770.000000	58.227843
771.000000	58.355065
772.000000	58.485339
773.000000	58.616257
774.000000	58.740468
775.000000	58.872555
776.000000	59.014559
777.000000	59.144833
778.000000	59.270807
779.000000	59.392204
780.000000	59.519000
781.000000	59.650136
782.000000	59.776705
783.000000	59.903997
784.000000	60.027345
785.000000	60.142044
786.000000	60.250888
787.000000	60.360693
788.000000	60.468021
789.000000	60.589289
790.000000	60.713183
791.000000	60.824444
792.000000	60.926591
793.000000	61.039804
794.000000	61.161924
795.000000	61.288899
796.000000	61.424176
797.000000	61.548060
798.000000	61.682881
799.000000	61.811451
800.000000	61.935334
801.000000	62.066708
802.000000	62.208960
803.000000	62.343068
804.000000	62.475066
805.000000	62.600723
806.000000	62.722694
807.000000	62.856297
808.000000	62.985243
809.000000	63.120570
810.000000	63.238093
811.000000	63.364503
812.000000	63.475824
813.000000	63.587026
814.000000	63.720936
815.000000	63.857551
816.000000	63.988478
817.000000	64.125787
818.000000	64.259627
819.000000	64.388702
820.000000	64.536136
821.000000	64.692398
822.000000	64.865521
823.000000	65.043609
824.000000	65.180194
825.000000	65.318652
826.000000	65.483523
827.000000	65.630213
828.000000	65.784602
829.000000	65.925626
830.000000	66.045100
831.000000	66.165804
832.000000	66.284367
833.000000	66.398531
834.000000	66.536345
835.000000	66.656107
836.000000	66.758035
837.000000	66.862837
838.000000	66.948824
839.000000	67.043847
840.000000	67.154058
841.000000	67.234745
842.000000	67.337010
843.000000	67.434233
844.000000	67.500811
845.000000	67.581974
846.000000	67.646125
847.000000	67.731607
848.000000	67.859444
849.000000	67.930679
850.000000	68.027792
851.000000	68.148198
852.000000	68.228320
853.000000	68.304014
854.000000	68.383522
855.000000	68.448931
856.000000	68.544528
857.000000	68.635598
858.000000	68.742362
859.000000	68.972380
860.000000	69.181918
861.000000	69.388051
862.000000	69.614843
863.000000	69.846862
864.000000	70.096248
865.000000	70.358942
866.000000	70.595086
867.000000	70.815287
868.000000	70.982250
869.000000	71.073040
870.000000	71.153810
871.000000	71.217820
872.000000	71.269180
873.000000	71.310220
874.000000	71.340630
875.000000	71.364320
876.000000	71.383260
877.000000	71.394800
878.000000	71.400710
879.000000	71.402710
880.000000	71.398780
881.000000	71.391850
882.000000	71.379450
883.000000	71.365020
884.000000	71.349200
885.000000	71.331350
886.000000	71.308960
887.000000	71.285360
888.000000	71.260780
889.000000	71.235720
890.000000	71.208530
891.000000	71.180510
892.000000	71.153330
893.000000	71.122670
894.000000	71.090580
895.000000	71.056560
896.000000	71.022660
897.000000	70.988250
898.000000	70.952980
899.000000	70.912970
900.000000	70.872150
901.000000	70.828710
902.000000	70.783380
903.000000	70.736630
904.000000	70.692340
905.000000	70.641800
906.000000	70.589900
907.000000	70.536640
908.000000	70.481560
909.000000	70.429760
910.000000	70.381660
911.000000	70.332030
912.000000	70.281330
913.000000	70.231180
914.000000	70.177520
915.000000	70.128290
916.000000	70.078180
917.000000	70.028420
918.000000	69.979840
919.000000	69.930000
920.000000	69.873840
921.000000	69.819270
922.000000	69.764760
923.000000	69.707280
924.000000	69.646610
925.000000	69.587000
926.000000	69.526320
927.000000	69.460910
928.000000	69.394880
929.000000	69.328780
930.000000	69.262180
931.000000	69.195160
932.000000	69.130030
933.000000	69.063030
934.000000	68.997820
935.000000	68.927350
936.000000	68.855730
937.000000	68.787070
938.000000	68.712760
939.000000	68.633770
940.000000	68.554090
941.000000	68.473090
942.000000	68.386660
943.000000	68.303260
944.000000	68.220810
945.000000	68.140600
946.000000	68.062240
947.000000	67.986080
948.000000	67.912910
949.000000	67.844480
950.000000	67.781430
951.000000	67.718810
952.000000	67.662460
953.000000	67.609140
954.000000	67.555480
955.000000	67.504750
956.000000	67.455460
957.000000	67.406660
958.000000	67.360860
959.000000	67.312700
960.000000	67.263860
961.000000	67.218530
962.000000	67.173050
963.000000	67.124580
964.000000	67.077650
965.000000	67.029530
966.000000	66.982300
967.000000	66.934400
968.000000	66.888070
969.000000	66.842690
970.000000	66.798100
971.000000	66.753420
972.000000	66.709250
973.000000	66.667010
974.000000	66.625600
975.000000	66.586550
976.000000	66.548040
977.000000	66.512210
978.000000	66.474660
979.000000	66.437620
980.000000	66.400960
981.000000	66.365730
982.000000	66.328580
983.000000	66.290590
984.000000	66.252410
985.000000	66.212250
986.000000	66.169660
987.000000	66.125180
988.000000	66.080260
989.000000	66.036880
990.000000	65.992630
991.000000	65.946150
992.000000	65.898660
993.000000	65.852160
994.000000	65.807350
995.000000	65.763300
996.000000	65.722090
997.000000	65.680230
998.000000	65.640330
999.000000	65.602120
1000.000000	65.563210
1001.000000	65.525120
1002.000000	65.488490
1003.000000	65.451650
1004.000000	65.414030
1005.000000	65.376210
1006.000000	65.338370
1007.000000	65.301210
1008.000000	65.263870
1009.000000	65.225340
1010.000000	65.188450
1011.000000	65.152390
1012.000000	65.118780
1013.000000	65.087660
1014.000000	65.057290
1015.000000	65.028790
1016.000000	65.002010
1017.000000	64.979040
1018.000000	64.958380
1019.000000	64.940760
1020.000000	64.925840
1021.000000	64.913110
1022.000000	64.902300
1023.000000	64.892800
1024.000000	64.886870
1025.000000	64.883930
1026.000000	64.882650
1027.000000	64.881980
1028.000000	64.884230
1029.000000	64.888670
1030.000000	64.895430
1031.000000	64.905030
1032.000000	64.916020
1033.000000	64.929810
1034.000000	64.943330
1035.000000	64.956810
1036.000000	64.972740
1037.000000	64.991180
1038.000000	65.009920
1039.000000	65.028690
1040.000000	65.047100
1041.000000	65.065580
1042.000000	65.084190
1043.000000	65.100440
1044.000000	65.118760
1045.000000	65.140370
1046.000000	65.161870
1047.000000	65.181550
1048.000000	65.201630
1049.000000	65.221070
1050.000000	65.240680
1051.000000	65.260870
1052.000000	65.280100
1053.000000	65.301700
1054.000000	65.323190
1055.000000	65.343190
1056.000000	65.362570
1057.000000	65.381840
1058.000000	65.400990
1059.000000	65.420540
1060.000000	65.439940
1061.000000	65.456390
1062.000000	65.474140
1063.000000	65.491270
1064.000000	65.507390
1065.000000	65.523070
1066.000000	65.536960
1067.000000	65.550740
1068.000000	65.564470
1069.000000	65.577790
1070.000000	65.590850
1071.000000	65.605160
1072.000000	65.618960
1073.000000	65.632680
1074.000000	65.647000
1075.000000	65.659690
1076.000000	65.672660
1077.000000	65.685400
1078.000000	65.697460
1079.000000	65.708900
1080.000000	65.718210
1081.000000	65.727020
1082.000000	65.736820
1083.000000	65.746400
1084.000000	65.753690
1085.000000	65.760820
1086.000000	65.766750
1087.000000	65.772100
1088.000000	65.777490
1089.000000	65.783180
1090.000000	65.788770
1091.000000	65.794360
1092.000000	65.797500
1093.000000	65.800050
1094.000000	65.801990
1095.000000	65.804000
1096.000000	65.808170
1097.000000	65.812140
1098.000000	65.814370
1099.000000	65.817020
1100.000000	65.821140
1101.000000	65.825030
1102.000000	65.828280
1103.000000	65.830910
1104.000000	65.834140
1105.000000	65.837900
1106.000000	65.840300
1107.000000	65.842920
1108.000000	65.847570
1109.000000	65.850510
1110.000000	65.854130
1111.000000	65.856820
1112.000000	65.861650
1113.000000	65.866720
1114.000000	65.872860
1115.000000	65.877910
1116.000000	65.883670
1117.000000	65.890300
1118.000000	65.896330
1119.000000	65.901510
1120.000000	65.907250
1121.000000	65.913020
1122.000000	65.917600
1123.000000	65.921190
1124.000000	65.924880
1125.000000	65.924770
1126.000000	65.922350
1127.000000	65.915950
1128.000000	65.906770
1129.000000	65.896620
1130.000000	65.880000
1131.000000	65.858000
1132.000000	65.830470
1133.000000	65.800310
1134.000000	65.769220
1135.000000	65.738510
1136.000000	65.704000
1137.000000	65.665280
1138.000000	65.618230
1139.000000	65.569640
1140.000000	65.519560
1141.000000	65.469590
1142.000000	65.419830
1143.000000	65.367980
1144.000000	65.312770
1145.000000	65.258560
1146.000000	65.208650
1147.000000	65.160780
1148.000000	65.118800
1149.000000	65.076250
1150.000000	65.034970
1151.000000	64.994880
1152.000000	64.955980
1153.000000	64.919400
1154.000000	64.879150
1155.000000	64.836110
1156.000000	64.788200
1157.000000	64.739010
1158.000000	64.688930
1159.000000	64.633900
1160.000000	64.576920
1161.000000	64.517640
1162.000000	64.451650
1163.000000	64.381910
1164.000000	64.311510
1165.000000	64.238840
1166.000000	64.163820
1167.000000	64.086730
1168.000000	64.008450
1169.000000	63.930820
1170.000000	63.856260
1171.000000	63.781880
