PE UV       SUBTECH     SPECTRUM    ASCII       PEDS        4.00        
   -1
CICIMAUCR0044-1.ASC
24/04/03
11:33:37.00
24/04/03
11:33:37.00
Vinicio Soto Monge
C optima #8 17
250,000000
1
Lambda 1050
1050L1511233
PerkinElmer UV WinLab 6.3.2.0749 / 2.02.05 Lambda 900 UV/VIS/NIR, Aug  7 2015 09:38:08

0
0
3350/servo 860,8/2
0
0
UV/VIS
1
1
1
DoubleDePol,CommonBeamDepol,RBeamAtt,SBeamAtt,60mm sphere, WB InGaAs Detector
0
0
0
0
Program
Program
3350/servo 860,8/2
3350/0,2 860,8/0,2
3350/0,2 860,8/0,2
0
15.00
 
 
 
0
 
860,8
319,2
860,8
Front
100
on
S:100 R:100
0
0
0
0
 
0
 
 
 
0
 
 
0
0
0
0
0
 
 
 
 
0
0


0
0
#HDR
-1
-1
#GR
nm
%R
1.0
0.0
2000,000000
-1,000000
1751
8
60,646000
5,166000
#DATA

250.000000	nan
251.000000	nan
252.000000	nan
253.000000	nan
254.000000	nan
255.000000	nan
256.000000	nan
257.000000	nan
258.000000	nan
259.000000	5.215999
260.000000	5.210225
261.000000	5.202112
262.000000	5.193912
263.000000	5.183012
264.000000	5.172368
265.000000	5.157187
266.000000	5.143414
267.000000	5.127919
268.000000	5.112938
269.000000	5.095475
270.000000	5.077716
271.000000	5.062174
272.000000	5.049333
273.000000	5.033610
274.000000	5.022804
275.000000	5.013749
276.000000	5.005302
277.000000	4.996789
278.000000	4.990036
279.000000	4.983302
280.000000	4.973837
281.000000	4.966180
282.000000	4.956621
283.000000	4.957696
284.000000	4.953844
285.000000	4.952560
286.000000	4.949297
287.000000	4.944379
288.000000	4.944446
289.000000	4.945397
290.000000	4.948898
291.000000	4.949887
292.000000	4.950400
293.000000	4.947766
294.000000	4.948422
295.000000	4.948736
296.000000	4.953359
297.000000	4.953634
298.000000	4.953311
299.000000	4.951313
300.000000	4.954452
301.000000	4.960397
302.000000	4.963317
303.000000	4.961520
304.000000	4.959969
305.000000	4.961348
306.000000	4.958638
307.000000	4.962566
308.000000	4.968007
309.000000	4.973428
310.000000	4.977300
311.000000	4.977509
312.000000	4.983539
313.000000	4.993812
314.000000	4.997569
315.000000	5.004218
316.000000	5.009820
317.000000	5.028273
318.000000	5.043226
319.000000	5.052899
320.000000	5.068385
321.000000	5.085202
322.000000	5.111882
323.000000	5.132171
324.000000	5.155856
325.000000	5.171436
326.000000	5.190298
327.000000	5.197118
328.000000	5.205203
329.000000	5.217359
330.000000	5.226053
331.000000	5.239626
332.000000	5.246941
333.000000	5.259278
334.000000	5.274734
335.000000	5.292113
336.000000	5.322265
337.000000	5.334878
338.000000	5.344142
339.000000	5.363194
340.000000	5.382170
341.000000	5.410478
342.000000	5.433239
343.000000	5.465037
344.000000	5.491176
345.000000	5.529499
346.000000	5.561858
347.000000	5.612594
348.000000	5.680223
349.000000	5.743467
350.000000	5.813265
351.000000	5.883015
352.000000	5.962268
353.000000	6.050471
354.000000	6.159847
355.000000	6.263602
356.000000	6.385601
357.000000	6.533015
358.000000	6.675331
359.000000	6.837070
360.000000	7.009225
361.000000	7.202857
362.000000	7.414333
363.000000	7.638622
364.000000	7.881583
365.000000	8.159671
366.000000	8.438976
367.000000	8.724521
368.000000	9.048170
369.000000	9.389683
370.000000	9.748649
371.000000	10.113742
372.000000	10.496184
373.000000	10.902253
374.000000	11.321829
375.000000	11.730485
376.000000	12.174221
377.000000	12.658716
378.000000	13.145084
379.000000	13.641953
380.000000	14.154307
381.000000	14.678152
382.000000	15.209939
383.000000	15.735657
384.000000	16.259968
385.000000	16.807240
386.000000	17.338733
387.000000	17.839882
388.000000	18.334059
389.000000	18.823091
390.000000	19.297141
391.000000	19.760909
392.000000	20.209620
393.000000	20.644624
394.000000	21.067643
395.000000	21.470488
396.000000	21.860368
397.000000	22.232994
398.000000	22.585968
399.000000	22.912947
400.000000	23.222652
401.000000	23.512667
402.000000	23.784877
403.000000	24.038300
404.000000	24.271207
405.000000	24.481256
406.000000	24.672206
407.000000	24.847176
408.000000	25.004064
409.000000	25.145952
410.000000	25.270899
411.000000	25.378354
412.000000	25.468041
413.000000	25.542100
414.000000	25.600817
415.000000	25.649717
416.000000	25.680222
417.000000	25.696278
418.000000	25.700758
419.000000	25.689648
420.000000	25.666781
421.000000	25.630018
422.000000	25.582088
423.000000	25.521117
424.000000	25.450350
425.000000	25.361338
426.000000	25.261112
427.000000	25.149795
428.000000	25.026065
429.000000	24.889181
430.000000	24.741424
431.000000	24.581340
432.000000	24.414826
433.000000	24.242881
434.000000	24.061966
435.000000	23.882306
436.000000	23.709267
437.000000	23.543847
438.000000	23.391382
439.000000	23.261451
440.000000	23.153006
441.000000	23.071519
442.000000	23.016398
443.000000	22.995291
444.000000	23.014172
445.000000	23.073516
446.000000	23.167445
447.000000	23.298936
448.000000	23.464233
449.000000	23.656201
450.000000	23.872928
451.000000	24.109839
452.000000	24.361597
453.000000	24.618455
454.000000	24.872573
455.000000	25.116741
456.000000	25.348440
457.000000	25.562570
458.000000	25.754366
459.000000	25.920566
460.000000	26.059458
461.000000	26.171327
462.000000	26.256629
463.000000	26.314965
464.000000	26.346268
465.000000	26.353041
466.000000	26.337223
467.000000	26.299746
468.000000	26.245462
469.000000	26.176977
470.000000	26.095403
471.000000	26.005203
472.000000	25.907535
473.000000	25.807794
474.000000	25.713180
475.000000	25.624758
476.000000	25.543565
477.000000	25.470562
478.000000	25.408393
479.000000	25.360453
480.000000	25.326163
481.000000	25.302793
482.000000	25.290732
483.000000	25.291692
484.000000	25.304324
485.000000	25.329074
486.000000	25.367949
487.000000	25.420340
488.000000	25.484735
489.000000	25.558879
490.000000	25.642289
491.000000	25.735676
492.000000	25.836073
493.000000	25.940827
494.000000	26.049338
495.000000	26.158238
496.000000	26.262564
497.000000	26.358282
498.000000	26.444896
499.000000	26.522912
500.000000	26.590418
501.000000	26.645529
502.000000	26.689417
503.000000	26.720111
504.000000	26.735559
505.000000	26.736900
506.000000	26.726361
507.000000	26.706310
508.000000	26.676918
509.000000	26.641810
510.000000	26.604781
511.000000	26.571023
512.000000	26.544171
513.000000	26.530208
514.000000	26.534127
515.000000	26.560550
516.000000	26.611943
517.000000	26.694600
518.000000	26.811463
519.000000	26.961617
520.000000	27.146935
521.000000	27.365688
522.000000	27.618246
523.000000	27.899245
524.000000	28.206933
525.000000	28.536936
526.000000	28.887114
527.000000	29.252996
528.000000	29.630425
529.000000	30.015521
530.000000	30.406428
531.000000	30.798220
532.000000	31.184914
533.000000	31.565064
534.000000	31.933542
535.000000	32.291586
536.000000	32.632794
537.000000	32.954009
538.000000	33.253203
539.000000	33.530939
540.000000	33.784172
541.000000	34.011685
542.000000	34.214316
543.000000	34.393918
544.000000	34.553070
545.000000	34.690554
546.000000	34.808538
547.000000	34.912911
548.000000	35.007231
549.000000	35.090298
550.000000	35.166135
551.000000	35.239291
552.000000	35.312332
553.000000	35.386686
554.000000	35.462686
555.000000	35.541529
556.000000	35.627135
557.000000	35.713931
558.000000	35.801192
559.000000	35.890879
560.000000	35.990896
561.000000	36.091598
562.000000	36.187058
563.000000	36.278068
564.000000	36.362732
565.000000	36.438266
566.000000	36.505410
567.000000	36.561187
568.000000	36.609754
569.000000	36.649742
570.000000	36.669926
571.000000	36.681997
572.000000	36.692127
573.000000	36.697672
574.000000	36.701543
575.000000	36.704987
576.000000	36.709771
577.000000	36.719835
578.000000	36.732761
579.000000	36.747647
580.000000	36.771294
581.000000	36.796814
582.000000	36.826957
583.000000	36.861932
584.000000	36.899589
585.000000	36.940813
586.000000	36.980345
587.000000	37.018725
588.000000	37.050951
589.000000	37.080618
590.000000	37.101535
591.000000	37.116982
592.000000	37.122327
593.000000	37.118837
594.000000	37.103770
595.000000	37.078021
596.000000	37.044844
597.000000	37.001860
598.000000	36.955138
599.000000	36.900312
600.000000	36.837116
601.000000	36.769667
602.000000	36.694961
603.000000	36.611191
604.000000	36.524367
605.000000	36.427679
606.000000	36.321499
607.000000	36.207176
608.000000	36.078015
609.000000	35.935471
610.000000	35.775891
611.000000	35.594186
612.000000	35.395237
613.000000	35.182353
614.000000	34.945290
615.000000	34.697849
616.000000	34.439974
617.000000	34.173006
618.000000	33.907264
619.000000	33.643235
620.000000	33.386406
621.000000	33.144055
622.000000	32.916817
623.000000	32.702554
624.000000	32.512688
625.000000	32.339136
626.000000	32.185520
627.000000	32.055303
628.000000	31.943491
629.000000	31.850114
630.000000	31.778547
631.000000	31.723102
632.000000	31.680508
633.000000	31.654113
634.000000	31.638732
635.000000	31.635289
636.000000	31.639703
637.000000	31.644497
638.000000	31.652763
639.000000	31.663758
640.000000	31.670388
641.000000	31.675134
642.000000	31.676514
643.000000	31.672500
644.000000	31.661238
645.000000	31.642119
646.000000	31.612623
647.000000	31.578314
648.000000	31.536528
649.000000	31.492431
650.000000	31.447069
651.000000	31.402639
652.000000	31.368311
653.000000	31.339529
654.000000	31.323492
655.000000	31.321038
656.000000	31.336047
657.000000	31.373010
658.000000	31.428635
659.000000	31.500878
660.000000	31.588948
661.000000	31.691114
662.000000	31.796962
663.000000	31.917933
664.000000	32.046980
665.000000	32.176940
666.000000	32.309240
667.000000	32.439238
668.000000	32.563786
669.000000	32.688286
670.000000	32.817143
671.000000	32.942747
672.000000	33.076302
673.000000	33.208906
674.000000	33.349263
675.000000	33.506798
676.000000	33.679380
677.000000	33.867743
678.000000	34.076337
679.000000	34.301492
680.000000	34.538802
681.000000	34.795945
682.000000	35.067754
683.000000	35.350598
684.000000	35.641603
685.000000	35.931903
686.000000	36.218609
687.000000	36.507550
688.000000	36.796918
689.000000	37.080076
690.000000	37.358981
691.000000	37.630278
692.000000	37.890103
693.000000	38.146960
694.000000	38.396056
695.000000	38.643173
696.000000	38.884707
697.000000	39.111136
698.000000	39.337831
699.000000	39.559808
700.000000	39.779398
701.000000	39.992863
702.000000	40.207725
703.000000	40.418688
704.000000	40.621975
705.000000	40.818261
706.000000	41.014433
707.000000	41.211717
708.000000	41.394306
709.000000	41.569096
710.000000	41.739119
711.000000	41.907250
712.000000	42.067877
713.000000	42.223947
714.000000	42.379541
715.000000	42.532995
716.000000	42.686640
717.000000	42.832722
718.000000	42.981183
719.000000	43.132421
720.000000	43.277324
721.000000	43.424957
722.000000	43.571354
723.000000	43.713679
724.000000	43.854540
725.000000	43.995733
726.000000	44.128927
727.000000	44.265878
728.000000	44.397360
729.000000	44.521433
730.000000	44.647008
731.000000	44.762643
732.000000	44.871820
733.000000	44.978828
734.000000	45.085665
735.000000	45.184921
736.000000	45.279792
737.000000	45.366920
738.000000	45.452735
739.000000	45.543878
740.000000	45.631995
741.000000	45.727132
742.000000	45.828452
743.000000	45.927718
744.000000	46.021295
745.000000	46.120170
746.000000	46.222118
747.000000	46.328356
748.000000	46.438265
749.000000	46.543951
750.000000	46.647706
751.000000	46.746153
752.000000	46.846198
753.000000	46.945150
754.000000	47.040725
755.000000	47.136747
756.000000	47.234966
757.000000	47.331939
758.000000	47.424926
759.000000	47.517895
760.000000	47.606621
761.000000	47.694815
762.000000	47.780193
763.000000	47.865267
764.000000	47.965721
765.000000	48.065652
766.000000	48.163215
767.000000	48.260093
768.000000	48.354070
769.000000	48.451176
770.000000	48.556034
771.000000	48.663366
772.000000	48.768548
773.000000	48.875613
774.000000	48.980633
775.000000	49.090799
776.000000	49.203885
777.000000	49.314174
778.000000	49.424426
779.000000	49.539386
780.000000	49.655487
781.000000	49.760459
782.000000	49.863901
783.000000	49.965344
784.000000	50.058065
785.000000	50.152841
786.000000	50.242319
787.000000	50.327516
788.000000	50.415054
789.000000	50.501935
790.000000	50.592611
791.000000	50.693065
792.000000	50.798057
793.000000	50.908432
794.000000	51.009476
795.000000	51.099410
796.000000	51.204373
797.000000	51.328284
798.000000	51.446164
799.000000	51.551060
800.000000	51.654854
801.000000	51.760178
802.000000	51.864142
803.000000	51.968401
804.000000	52.091170
805.000000	52.211609
806.000000	52.310988
807.000000	52.396709
808.000000	52.496317
809.000000	52.613702
810.000000	52.728015
811.000000	52.843774
812.000000	52.950716
813.000000	53.055232
814.000000	53.160328
815.000000	53.277875
816.000000	53.409433
817.000000	53.537158
818.000000	53.658158
819.000000	53.775305
820.000000	53.885500
821.000000	53.990529
822.000000	54.111311
823.000000	54.241841
824.000000	54.364173
825.000000	54.470296
826.000000	54.574194
827.000000	54.692474
828.000000	54.814111
829.000000	54.936870
830.000000	55.072195
831.000000	55.213522
832.000000	55.332457
833.000000	55.426358
834.000000	55.523417
835.000000	55.632945
836.000000	55.751501
837.000000	55.857234
838.000000	55.967381
839.000000	56.056840
840.000000	56.136948
841.000000	56.213053
842.000000	56.287083
843.000000	56.377398
844.000000	56.489590
845.000000	56.595000
846.000000	56.665130
847.000000	56.758508
848.000000	56.822732
849.000000	56.901071
850.000000	56.973180
851.000000	57.071790
852.000000	57.175602
853.000000	57.263053
854.000000	57.300225
855.000000	57.339119
856.000000	57.383416
857.000000	57.429434
858.000000	57.356345
859.000000	57.507460
860.000000	57.660650
861.000000	57.783087
862.000000	57.917087
863.000000	58.069286
864.000000	58.248718
865.000000	58.429140
866.000000	58.624072
867.000000	58.794401
868.000000	59.097290
869.000000	59.165230
870.000000	59.228320
871.000000	59.284650
872.000000	59.329770
873.000000	59.359980
874.000000	59.376510
875.000000	59.380720
876.000000	59.375650
877.000000	59.365990
878.000000	59.352140
879.000000	59.336360
880.000000	59.317880
881.000000	59.299680
882.000000	59.279850
883.000000	59.259170
884.000000	59.237910
885.000000	59.215710
886.000000	59.194330
887.000000	59.171060
888.000000	59.148350
889.000000	59.124790
890.000000	59.101110
891.000000	59.075930
892.000000	59.049700
893.000000	59.023830
894.000000	58.997140
895.000000	58.968210
896.000000	58.939980
897.000000	58.911530
898.000000	58.880160
899.000000	58.847450
900.000000	58.815670
901.000000	58.781600
902.000000	58.744470
903.000000	58.708690
904.000000	58.670660
905.000000	58.632810
906.000000	58.594710
907.000000	58.554940
908.000000	58.514390
909.000000	58.475270
910.000000	58.434650
911.000000	58.393720
912.000000	58.355450
913.000000	58.311980
914.000000	58.269090
915.000000	58.226170
916.000000	58.179740
917.000000	58.133500
918.000000	58.089530
919.000000	58.038940
920.000000	57.986460
921.000000	57.932490
922.000000	57.875410
923.000000	57.818410
924.000000	57.758700
925.000000	57.697740
926.000000	57.633060
927.000000	57.563360
928.000000	57.491340
929.000000	57.420620
930.000000	57.346310
931.000000	57.272310
932.000000	57.196750
933.000000	57.122500
934.000000	57.046830
935.000000	56.969570
936.000000	56.894160
937.000000	56.821630
938.000000	56.746460
939.000000	56.669470
940.000000	56.595400
941.000000	56.519250
942.000000	56.442520
943.000000	56.363920
944.000000	56.286900
945.000000	56.210570
946.000000	56.136960
947.000000	56.064000
948.000000	55.992470
949.000000	55.923130
950.000000	55.856500
951.000000	55.792770
952.000000	55.732920
953.000000	55.677030
954.000000	55.621640
955.000000	55.567920
956.000000	55.515470
957.000000	55.464940
958.000000	55.416540
959.000000	55.371270
960.000000	55.322680
961.000000	55.275250
962.000000	55.230010
963.000000	55.185570
964.000000	55.142930
965.000000	55.099740
966.000000	55.057300
967.000000	55.017930
968.000000	54.977950
969.000000	54.938470
970.000000	54.905280
971.000000	54.872210
972.000000	54.837660
973.000000	54.804400
974.000000	54.775550
975.000000	54.751270
976.000000	54.728820
977.000000	54.705530
978.000000	54.688030
979.000000	54.672830
980.000000	54.657490
981.000000	54.642530
982.000000	54.632230
983.000000	54.622070
984.000000	54.612270
985.000000	54.603370
986.000000	54.594060
987.000000	54.583590
988.000000	54.574500
989.000000	54.565570
990.000000	54.558870
991.000000	54.553340
992.000000	54.550320
993.000000	54.546540
994.000000	54.543700
995.000000	54.542470
996.000000	54.543070
997.000000	54.547380
998.000000	54.550730
999.000000	54.557190
1000.000000	54.561610
1001.000000	54.566970
1002.000000	54.571270
1003.000000	54.575310
1004.000000	54.578670
1005.000000	54.581310
1006.000000	54.584220
1007.000000	54.586700
1008.000000	54.587890
1009.000000	54.587170
1010.000000	54.587310
1011.000000	54.589070
1012.000000	54.588910
1013.000000	54.591530
1014.000000	54.594910
1015.000000	54.598800
1016.000000	54.604670
1017.000000	54.610670
1018.000000	54.616890
1019.000000	54.626740
1020.000000	54.638370
1021.000000	54.651360
1022.000000	54.667700
1023.000000	54.683790
1024.000000	54.700300
1025.000000	54.719690
1026.000000	54.737380
1027.000000	54.756130
1028.000000	54.777980
1029.000000	54.798260
1030.000000	54.819430
1031.000000	54.841470
1032.000000	54.861020
1033.000000	54.880730
1034.000000	54.902350
1035.000000	54.922650
1036.000000	54.943220
1037.000000	54.964440
1038.000000	54.986220
1039.000000	55.008390
1040.000000	55.030900
1041.000000	55.052510
1042.000000	55.076030
1043.000000	55.101620
1044.000000	55.125380
1045.000000	55.149390
1046.000000	55.176100
1047.000000	55.202450
1048.000000	55.226940
1049.000000	55.252550
1050.000000	55.277440
1051.000000	55.301970
1052.000000	55.325600
1053.000000	55.348620
1054.000000	55.373840
1055.000000	55.399310
1056.000000	55.423720
1057.000000	55.448810
1058.000000	55.474190
1059.000000	55.498540
1060.000000	55.523930
1061.000000	55.550690
1062.000000	55.579380
1063.000000	55.607900
1064.000000	55.633540
1065.000000	55.658120
1066.000000	55.682900
1067.000000	55.707350
1068.000000	55.731840
1069.000000	55.756420
1070.000000	55.780520
1071.000000	55.803070
1072.000000	55.824340
1073.000000	55.845850
1074.000000	55.868490
1075.000000	55.891090
1076.000000	55.913170
1077.000000	55.935640
1078.000000	55.958910
1079.000000	55.982480
1080.000000	56.005480
1081.000000	56.028430
1082.000000	56.052020
1083.000000	56.074670
1084.000000	56.096750
1085.000000	56.119260
1086.000000	56.142140
1087.000000	56.164280
1088.000000	56.184900
1089.000000	56.204320
1090.000000	56.224840
1091.000000	56.246390
1092.000000	56.265690
1093.000000	56.285310
1094.000000	56.305640
1095.000000	56.324340
1096.000000	56.343320
1097.000000	56.361840
1098.000000	56.380440
1099.000000	56.397930
1100.000000	56.413350
1101.000000	56.428660
1102.000000	56.443790
1103.000000	56.456710
1104.000000	56.469670
1105.000000	56.483850
1106.000000	56.496290
1107.000000	56.507850
1108.000000	56.519310
1109.000000	56.529040
1110.000000	56.538970
1111.000000	56.549130
1112.000000	56.558020
1113.000000	56.567520
1114.000000	56.575820
1115.000000	56.583360
1116.000000	56.590110
1117.000000	56.597680
1118.000000	56.604690
1119.000000	56.611890
1120.000000	56.617550
1121.000000	56.619680
1122.000000	56.623880
1123.000000	56.629450
1124.000000	56.634350
1125.000000	56.636510
1126.000000	56.636430
1127.000000	56.633340
1128.000000	56.626010
1129.000000	56.617620
1130.000000	56.607730
1131.000000	56.594630
1132.000000	56.574000
1133.000000	56.543760
1134.000000	56.509400
1135.000000	56.477210
1136.000000	56.443460
1137.000000	56.405400
1138.000000	56.362060
1139.000000	56.314330
1140.000000	56.262640
1141.000000	56.210910
1142.000000	56.159730
1143.000000	56.111150
1144.000000	56.061480
1145.000000	56.007340
1146.000000	55.952130
1147.000000	55.903830
1148.000000	55.857570
1149.000000	55.812760
1150.000000	55.768660
1151.000000	55.725150
1152.000000	55.683000
1153.000000	55.640630
1154.000000	55.599780
1155.000000	55.555600
1156.000000	55.509720
1157.000000	55.455430
1158.000000	55.400940
1159.000000	55.344830
1160.000000	55.286300
1161.000000	55.225120
1162.000000	55.160080
1163.000000	55.088810
1164.000000	55.012760
1165.000000	54.933640
1166.000000	54.852350
1167.000000	54.767400
1168.000000	54.682340
