PE UV       SUBTECH     SPECTRUM    ASCII       PEDS        4.00        
   -1
CICIMAUCR0141-1.ASC
24/04/03
17:28:52.00
24/04/03
17:28:52.00
Vinicio Soto Monge
C. kalinini
250,000000
1
Lambda 1050
1050L1511233
PerkinElmer UV WinLab 6.3.2.0749 / 2.02.05 Lambda 900 UV/VIS/NIR, Aug  7 2015 09:38:08

0
0
3350/servo 860,8/2
0
0
UV/VIS
1
1
1
DoubleDePol,CommonBeamDepol,RBeamAtt,SBeamAtt,60mm sphere, WB InGaAs Detector
0
0
0
0
Program
Program
3350/servo 860,8/2
3350/0,2 860,8/0,2
3350/0,2 860,8/0,2
0
15.00
 
 
 
0
 
860,8
319,2
860,8
Front
100
on
S:100 R:100
0
0
0
0
 
0
 
 
 
0
 
 
0
0
0
0
0
 
 
 
 
0
0


0
0
#HDR
-1
-1
#GR
nm
%R
1.0
0.0
2500,000000
-1,000000
2251
8
70,071300
5,462100
#DATA

250.000000	nan
251.000000	nan
252.000000	nan
253.000000	nan
254.000000	nan
255.000000	nan
256.000000	nan
257.000000	nan
258.000000	nan
259.000000	6.067798
260.000000	6.054229
261.000000	6.042446
262.000000	6.031008
263.000000	6.012892
264.000000	6.000510
265.000000	5.982689
266.000000	5.961397
267.000000	5.946082
268.000000	5.925621
269.000000	5.909180
270.000000	5.888131
271.000000	5.871416
272.000000	5.851565
273.000000	5.839264
274.000000	5.823899
275.000000	5.808908
276.000000	5.797592
277.000000	5.780826
278.000000	5.771347
279.000000	5.758742
280.000000	5.750887
281.000000	5.736263
282.000000	5.726976
283.000000	5.717873
284.000000	5.705664
285.000000	5.705603
286.000000	5.698986
287.000000	5.692642
288.000000	5.688552
289.000000	5.685122
290.000000	5.681367
291.000000	5.685406
292.000000	5.682524
293.000000	5.676617
294.000000	5.676587
295.000000	5.669797
296.000000	5.668508
297.000000	5.668386
298.000000	5.664449
299.000000	5.654969
300.000000	5.651813
301.000000	5.645379
302.000000	5.641004
303.000000	5.644059
304.000000	5.638934
305.000000	5.637635
306.000000	5.627365
307.000000	5.628095
308.000000	5.621864
309.000000	5.616637
310.000000	5.607493
311.000000	5.599262
312.000000	5.592990
313.000000	5.582222
314.000000	5.584861
315.000000	5.580750
316.000000	5.584038
317.000000	5.619042
318.000000	5.669005
319.000000	5.703360
320.000000	5.755008
321.000000	5.801480
322.000000	5.835966
323.000000	5.864606
324.000000	5.878368
325.000000	5.907678
326.000000	5.929387
327.000000	5.918477
328.000000	5.899356
329.000000	5.874826
330.000000	5.833571
331.000000	5.794893
332.000000	5.777883
333.000000	5.762914
334.000000	5.759504
335.000000	5.744554
336.000000	5.738506
337.000000	5.725870
338.000000	5.704060
339.000000	5.710342
340.000000	5.718056
341.000000	5.726256
342.000000	5.726530
343.000000	5.717721
344.000000	5.713641
345.000000	5.698600
346.000000	5.688796
347.000000	5.676069
348.000000	5.691526
349.000000	5.694763
350.000000	5.695849
351.000000	5.693718
352.000000	5.684351
353.000000	5.695362
354.000000	5.683955
355.000000	5.688989
356.000000	5.691506
357.000000	5.701340
358.000000	5.690369
359.000000	5.690125
360.000000	5.681965
361.000000	5.679855
362.000000	5.686878
363.000000	5.679510
364.000000	5.693343
365.000000	5.693992
366.000000	5.696042
367.000000	5.699686
368.000000	5.705308
369.000000	5.702751
370.000000	5.705308
371.000000	5.716340
372.000000	5.728428
373.000000	5.732000
374.000000	5.723181
375.000000	5.735522
376.000000	5.747650
377.000000	5.740901
378.000000	5.735633
379.000000	5.737399
380.000000	5.745468
381.000000	5.744879
382.000000	5.740038
383.000000	5.750735
384.000000	5.771063
385.000000	5.777934
386.000000	5.780319
387.000000	5.797237
388.000000	5.814998
389.000000	5.834677
390.000000	5.853310
391.000000	5.874532
392.000000	5.900341
393.000000	5.924566
394.000000	5.948244
395.000000	5.975737
396.000000	6.005321
397.000000	6.039574
398.000000	6.075359
399.000000	6.111103
400.000000	6.150157
401.000000	6.190884
402.000000	6.234251
403.000000	6.282235
404.000000	6.336725
405.000000	6.395203
406.000000	6.458309
407.000000	6.526266
408.000000	6.599247
409.000000	6.680287
410.000000	6.768258
411.000000	6.864145
412.000000	6.968648
413.000000	7.082814
414.000000	7.205525
415.000000	7.337471
416.000000	7.480734
417.000000	7.635089
418.000000	7.802211
419.000000	7.979899
420.000000	8.170405
421.000000	8.374530
422.000000	8.591028
423.000000	8.820536
424.000000	9.062720
425.000000	9.318291
426.000000	9.588060
427.000000	9.869378
428.000000	10.160338
429.000000	10.463325
430.000000	10.775709
431.000000	11.097410
432.000000	11.428519
433.000000	11.766733
434.000000	12.109848
435.000000	12.457804
436.000000	12.809303
437.000000	13.164130
438.000000	13.520378
439.000000	13.876565
440.000000	14.233554
441.000000	14.588311
442.000000	14.937779
443.000000	15.284152
444.000000	15.625999
445.000000	15.960711
446.000000	16.289963
447.000000	16.611614
448.000000	16.926211
449.000000	17.230557
450.000000	17.524420
451.000000	17.810823
452.000000	18.090152
453.000000	18.360165
454.000000	18.622291
455.000000	18.876837
456.000000	19.120229
457.000000	19.354801
458.000000	19.581904
459.000000	19.801203
460.000000	20.011935
461.000000	20.212154
462.000000	20.403532
463.000000	20.585452
464.000000	20.755690
465.000000	20.916145
466.000000	21.067334
467.000000	21.208455
468.000000	21.337184
469.000000	21.455500
470.000000	21.563414
471.000000	21.659879
472.000000	21.743304
473.000000	21.812560
474.000000	21.870074
475.000000	21.913410
476.000000	21.940731
477.000000	21.953519
478.000000	21.955325
479.000000	21.944598
480.000000	21.918880
481.000000	21.879594
482.000000	21.827459
483.000000	21.763368
484.000000	21.687941
485.000000	21.603147
486.000000	21.510802
487.000000	21.412671
488.000000	21.307681
489.000000	21.200680
490.000000	21.094238
491.000000	20.990942
492.000000	20.893228
493.000000	20.805450
494.000000	20.731759
495.000000	20.671048
496.000000	20.626768
497.000000	20.602076
498.000000	20.599945
499.000000	20.620293
500.000000	20.665172
501.000000	20.732946
502.000000	20.826976
503.000000	20.947921
504.000000	21.090727
505.000000	21.259230
506.000000	21.452455
507.000000	21.667928
508.000000	21.903789
509.000000	22.158426
510.000000	22.429636
511.000000	22.718475
512.000000	23.020233
513.000000	23.331055
514.000000	23.654522
515.000000	23.985580
516.000000	24.323926
517.000000	24.666118
518.000000	25.015089
519.000000	25.371347
520.000000	25.734030
521.000000	26.104476
522.000000	26.484402
523.000000	26.874365
524.000000	27.274365
525.000000	27.688300
526.000000	28.118797
527.000000	28.569126
528.000000	29.038748
529.000000	29.527328
530.000000	30.038307
531.000000	30.571736
532.000000	31.128547
533.000000	31.709077
534.000000	32.316247
535.000000	32.945309
536.000000	33.594933
537.000000	34.262966
538.000000	34.948629
539.000000	35.648083
540.000000	36.358083
541.000000	37.077095
542.000000	37.804713
543.000000	38.534919
544.000000	39.266029
545.000000	39.997757
546.000000	40.723508
547.000000	41.444600
548.000000	42.153108
549.000000	42.853324
550.000000	43.545289
551.000000	44.229287
552.000000	44.899391
553.000000	45.559437
554.000000	46.203144
555.000000	46.830420
556.000000	47.447607
557.000000	48.048384
558.000000	48.636535
559.000000	49.210580
560.000000	49.773065
561.000000	50.315921
562.000000	50.840459
563.000000	51.345460
564.000000	51.832863
565.000000	52.303104
566.000000	52.748703
567.000000	53.175334
568.000000	53.586001
569.000000	53.976472
570.000000	54.342940
571.000000	54.691546
572.000000	55.016220
573.000000	55.323216
574.000000	55.609933
575.000000	55.875501
576.000000	56.130442
577.000000	56.366912
578.000000	56.583775
579.000000	56.786531
580.000000	56.973505
581.000000	57.148269
582.000000	57.308957
583.000000	57.452342
584.000000	57.585161
585.000000	57.705446
586.000000	57.813887
587.000000	57.909003
588.000000	57.988683
589.000000	58.053352
590.000000	58.103670
591.000000	58.139049
592.000000	58.158515
593.000000	58.164736
594.000000	58.149513
595.000000	58.120182
596.000000	58.064546
597.000000	57.988987
598.000000	57.895657
599.000000	57.785663
600.000000	57.649028
601.000000	57.492217
602.000000	57.319198
603.000000	57.127088
604.000000	56.920151
605.000000	56.691536
606.000000	56.440929
607.000000	56.181836
608.000000	55.902801
609.000000	55.599571
610.000000	55.289684
611.000000	54.957387
612.000000	54.615794
613.000000	54.258632
614.000000	53.888450
615.000000	53.504637
616.000000	53.116146
617.000000	52.709265
618.000000	52.296720
619.000000	51.878929
620.000000	51.444219
621.000000	51.006404
622.000000	50.552463
623.000000	50.090331
624.000000	49.624301
625.000000	49.160505
626.000000	48.698251
627.000000	48.239357
628.000000	47.783202
629.000000	47.335989
630.000000	46.906019
631.000000	46.489395
632.000000	46.097646
633.000000	45.727758
634.000000	45.382156
635.000000	45.060394
636.000000	44.765486
637.000000	44.493362
638.000000	44.250732
639.000000	44.033311
640.000000	43.840988
641.000000	43.670354
642.000000	43.520140
643.000000	43.393917
644.000000	43.285780
645.000000	43.200986
646.000000	43.136550
647.000000	43.098137
648.000000	43.079280
649.000000	43.088536
650.000000	43.129568
651.000000	43.193729
652.000000	43.286663
653.000000	43.411120
654.000000	43.556940
655.000000	43.719993
656.000000	43.896320
657.000000	44.084025
658.000000	44.274247
659.000000	44.453995
660.000000	44.616855
661.000000	44.766836
662.000000	44.890704
663.000000	44.982704
664.000000	45.050559
665.000000	45.089064
666.000000	45.098564
667.000000	45.082447
668.000000	45.049707
669.000000	45.001296
670.000000	44.941651
671.000000	44.875084
672.000000	44.812851
673.000000	44.753368
674.000000	44.703455
675.000000	44.663956
676.000000	44.644257
677.000000	44.638137
678.000000	44.644135
679.000000	44.672735
680.000000	44.721927
681.000000	44.795060
682.000000	44.887638
683.000000	44.999794
684.000000	45.131954
685.000000	45.288329
686.000000	45.463195
687.000000	45.663748
688.000000	45.888162
689.000000	46.135938
690.000000	46.411979
691.000000	46.706217
692.000000	47.021118
693.000000	47.357495
694.000000	47.709288
695.000000	48.076994
696.000000	48.458604
697.000000	48.851480
698.000000	49.256565
699.000000	49.668815
700.000000	50.079207
701.000000	50.493528
702.000000	50.907909
703.000000	51.316049
704.000000	51.714516
705.000000	52.101516
706.000000	52.473647
707.000000	52.830352
708.000000	53.167814
709.000000	53.486247
710.000000	53.781003
711.000000	54.053766
712.000000	54.306129
713.000000	54.537880
714.000000	54.751313
715.000000	54.949298
716.000000	55.130528
717.000000	55.296433
718.000000	55.454228
719.000000	55.596273
720.000000	55.735608
721.000000	55.870954
722.000000	55.997816
723.000000	56.134167
724.000000	56.279997
725.000000	56.433896
726.000000	56.596076
727.000000	56.769095
728.000000	56.957530
729.000000	57.166365
730.000000	57.389977
731.000000	57.631298
732.000000	57.898144
733.000000	58.178529
734.000000	58.472138
735.000000	58.781721
736.000000	59.109238
737.000000	59.449694
738.000000	59.799061
739.000000	60.161226
740.000000	60.531815
741.000000	60.912451
742.000000	61.293990
743.000000	61.679173
744.000000	62.070303
745.000000	62.460032
746.000000	62.849751
747.000000	63.238344
748.000000	63.624948
749.000000	64.004579
750.000000	64.380080
751.000000	64.749806
752.000000	65.111291
753.000000	65.460252
754.000000	65.802291
755.000000	66.133949
756.000000	66.462947
757.000000	66.788444
758.000000	67.099549
759.000000	67.399501
760.000000	67.683651
761.000000	67.950924
762.000000	68.215364
763.000000	68.473726
764.000000	68.711161
765.000000	68.934265
766.000000	69.140785
767.000000	69.331931
768.000000	69.519453
769.000000	69.701443
770.000000	69.866567
771.000000	70.022840
772.000000	70.164621
773.000000	70.288773
774.000000	70.408500
775.000000	70.514059
776.000000	70.609246
777.000000	70.701693
778.000000	70.782864
779.000000	70.842123
780.000000	70.890595
781.000000	70.933880
782.000000	70.970660
783.000000	70.997362
784.000000	71.020856
785.000000	71.037440
786.000000	71.046391
787.000000	71.043184
788.000000	71.035004
789.000000	71.021912
790.000000	70.999229
791.000000	70.974191
792.000000	70.933149
793.000000	70.892015
794.000000	70.835364
795.000000	70.788009
796.000000	70.749169
797.000000	70.700211
798.000000	70.636019
799.000000	70.577896
800.000000	70.527892
801.000000	70.469140
802.000000	70.422201
803.000000	70.395123
804.000000	70.367366
805.000000	70.327653
806.000000	70.279233
807.000000	70.238546
808.000000	70.205825
809.000000	70.175236
810.000000	70.140375
811.000000	70.106447
812.000000	70.065638
813.000000	70.015787
814.000000	69.973902
815.000000	69.933276
816.000000	69.892345
817.000000	69.841681
818.000000	69.803735
819.000000	69.763129
820.000000	69.721883
821.000000	69.683439
822.000000	69.648405
823.000000	69.584649
824.000000	69.530383
825.000000	69.469906
826.000000	69.406262
827.000000	69.327973
828.000000	69.220516
829.000000	69.121878
830.000000	69.024946
831.000000	68.900976
832.000000	68.764960
833.000000	68.647577
834.000000	68.489609
835.000000	68.326993
836.000000	68.154735
837.000000	67.994737
838.000000	67.827979
839.000000	67.614973
840.000000	67.395908
841.000000	67.180223
842.000000	66.966811
843.000000	66.697215
844.000000	66.461292
845.000000	66.209852
846.000000	65.923185
847.000000	65.619874
848.000000	65.336780
849.000000	65.064484
850.000000	64.788290
851.000000	64.485416
852.000000	64.192801
853.000000	63.901669
854.000000	63.578364
855.000000	63.227586
856.000000	62.917668
857.000000	62.639009
858.000000	62.596637
859.000000	62.500297
860.000000	62.398034
861.000000	62.314320
862.000000	62.199409
863.000000	62.112218
864.000000	62.025259
865.000000	61.965131
866.000000	61.883345
867.000000	61.766965
868.000000	61.389350
869.000000	61.062540
870.000000	60.736960
871.000000	60.416080
872.000000	60.097630
873.000000	59.785930
874.000000	59.480840
875.000000	59.184620
876.000000	58.893870
877.000000	58.613430
878.000000	58.341510
879.000000	58.079380
880.000000	57.822860
881.000000	57.576230
882.000000	57.339690
883.000000	57.109710
884.000000	56.884550
885.000000	56.668410
886.000000	56.458830
887.000000	56.254780
888.000000	56.059920
889.000000	55.870850
890.000000	55.690020
891.000000	55.515010
892.000000	55.344880
893.000000	55.180520
894.000000	55.024000
895.000000	54.868890
896.000000	54.718800
897.000000	54.572740
898.000000	54.429040
899.000000	54.287260
900.000000	54.145020
901.000000	54.006120
902.000000	53.867610
903.000000	53.727790
904.000000	53.585320
905.000000	53.446380
906.000000	53.309080
907.000000	53.171090
908.000000	53.034240
909.000000	52.899480
910.000000	52.769430
911.000000	52.637670
912.000000	52.507690
913.000000	52.380960
914.000000	52.258840
915.000000	52.135730
916.000000	52.011940
917.000000	51.891000
918.000000	51.768940
919.000000	51.649010
920.000000	51.526500
921.000000	51.403350
922.000000	51.282680
923.000000	51.162150
924.000000	51.041360
925.000000	50.923200
926.000000	50.807830
927.000000	50.691440
928.000000	50.578120
929.000000	50.465800
930.000000	50.355880
931.000000	50.251170
932.000000	50.147760
933.000000	50.047210
934.000000	49.949390
935.000000	49.853420
936.000000	49.754650
937.000000	49.658960
938.000000	49.563340
939.000000	49.466950
940.000000	49.371950
941.000000	49.275380
942.000000	49.176360
943.000000	49.077800
944.000000	48.976660
945.000000	48.874570
946.000000	48.775700
947.000000	48.674730
948.000000	48.573290
949.000000	48.472500
950.000000	48.370920
951.000000	48.268970
952.000000	48.169420
953.000000	48.072860
954.000000	47.977790
955.000000	47.883710
956.000000	47.789040
957.000000	47.699990
958.000000	47.610600
959.000000	47.521250
960.000000	47.433710
961.000000	47.348430
962.000000	47.261860
963.000000	47.170420
964.000000	47.079730
965.000000	46.988660
966.000000	46.897800
967.000000	46.805340
968.000000	46.713860
969.000000	46.623800
970.000000	46.534550
971.000000	46.443730
972.000000	46.355490
973.000000	46.270930
974.000000	46.186970
975.000000	46.105600
976.000000	46.028620
977.000000	45.954540
978.000000	45.883590
979.000000	45.814780
980.000000	45.750150
981.000000	45.688150
982.000000	45.628490
983.000000	45.571690
984.000000	45.517760
985.000000	45.466230
986.000000	45.415570
987.000000	45.366010
988.000000	45.317710
989.000000	45.271370
990.000000	45.226720
991.000000	45.184600
992.000000	45.144750
993.000000	45.106880
994.000000	45.071650
995.000000	45.039920
996.000000	45.011010
997.000000	44.982730
998.000000	44.956390
999.000000	44.931720
1000.000000	44.907420
1001.000000	44.886810
1002.000000	44.866870
1003.000000	44.847460
1004.000000	44.829000
1005.000000	44.811040
1006.000000	44.792450
1007.000000	44.776210
1008.000000	44.763070
1009.000000	44.752510
1010.000000	44.743430
1011.000000	44.734980
1012.000000	44.729390
1013.000000	44.726690
1014.000000	44.726680
1015.000000	44.727730
1016.000000	44.731620
1017.000000	44.738000
1018.000000	44.746150
1019.000000	44.757020
1020.000000	44.769720
1021.000000	44.784090
1022.000000	44.801650
1023.000000	44.821520
1024.000000	44.841950
1025.000000	44.865420
1026.000000	44.891330
1027.000000	44.919360
1028.000000	44.949270
1029.000000	44.979920
1030.000000	45.011750
1031.000000	45.045390
1032.000000	45.078380
1033.000000	45.110670
1034.000000	45.145670
1035.000000	45.181680
1036.000000	45.217120
1037.000000	45.252700
1038.000000	45.288420
1039.000000	45.324190
1040.000000	45.361640
1041.000000	45.401050
1042.000000	45.443100
1043.000000	45.488220
1044.000000	45.534080
1045.000000	45.580050
1046.000000	45.628170
1047.000000	45.677590
1048.000000	45.727690
1049.000000	45.780310
1050.000000	45.833410
1051.000000	45.886100
1052.000000	45.938160
1053.000000	45.989730
1054.000000	46.042340
1055.000000	46.098280
1056.000000	46.155100
1057.000000	46.212100
1058.000000	46.270820
1059.000000	46.329260
1060.000000	46.389620
1061.000000	46.451240
1062.000000	46.513740
1063.000000	46.578030
1064.000000	46.642580
1065.000000	46.705090
1066.000000	46.767030
1067.000000	46.830050
1068.000000	46.892510
1069.000000	46.954870
1070.000000	47.016020
1071.000000	47.077340
1072.000000	47.139430
1073.000000	47.199300
1074.000000	47.257010
1075.000000	47.313670
1076.000000	47.370310
1077.000000	47.425380
1078.000000	47.478600
1079.000000	47.531130
1080.000000	47.582520
1081.000000	47.633070
1082.000000	47.681700
1083.000000	47.730280
1084.000000	47.779160
1085.000000	47.828190
1086.000000	47.878160
1087.000000	47.926100
1088.000000	47.974740
1089.000000	48.023140
1090.000000	48.071960
1091.000000	48.121230
1092.000000	48.171310
1093.000000	48.222380
1094.000000	48.272210
1095.000000	48.323700
1096.000000	48.374510
1097.000000	48.426370
1098.000000	48.479800
1099.000000	48.533810
1100.000000	48.588390
1101.000000	48.640630
1102.000000	48.693620
1103.000000	48.746220
1104.000000	48.800910
1105.000000	48.852160
1106.000000	48.904440
1107.000000	48.958210
1108.000000	49.009700
1109.000000	49.059470
1110.000000	49.107850
1111.000000	49.158560
1112.000000	49.207890
1113.000000	49.256650
1114.000000	49.303950
1115.000000	49.352340
1116.000000	49.397240
1117.000000	49.439720
1118.000000	49.480660
1119.000000	49.520250
1120.000000	49.557820
1121.000000	49.590380
1122.000000	49.619190
1123.000000	49.642810
1124.000000	49.663470
1125.000000	49.676670
1126.000000	49.684370
1127.000000	49.686800
1128.000000	49.683440
1129.000000	49.674200
1130.000000	49.657080
1131.000000	49.631470
1132.000000	49.598690
1133.000000	49.561590
1134.000000	49.520450
1135.000000	49.470500
1136.000000	49.412290
1137.000000	49.348210
1138.000000	49.279150
1139.000000	49.204180
1140.000000	49.128380
1141.000000	49.051150
1142.000000	48.974610
1143.000000	48.895630
1144.000000	48.814790
1145.000000	48.744490
1146.000000	48.679180
1147.000000	48.616240
1148.000000	48.557580
1149.000000	48.500660
1150.000000	48.445350
1151.000000	48.394950
1152.000000	48.345630
1153.000000	48.296540
1154.000000	48.244650
1155.000000	48.188130
1156.000000	48.127920
1157.000000	48.064530
1158.000000	47.997160
1159.000000	47.927900
1160.000000	47.852270
1161.000000	47.770470
1162.000000	47.680370
1163.000000	47.587930
1164.000000	47.490920
1165.000000	47.390050
1166.000000	47.286750
1167.000000	47.182940
1168.000000	47.075750
1169.000000	46.970210
1170.000000	46.868400
