PE UV       SUBTECH     SPECTRUM    ASCII       PEDS        4.00        
   -1
CICIMAUCR0100-1.ASC
24/04/03
15:40:25.00
24/04/03
15:40:25.00
Vinicio Soto Monge
C. cupreomarginata
250,000000
1
Lambda 1050
1050L1511233
PerkinElmer UV WinLab 6.3.2.0749 / 2.02.05 Lambda 900 UV/VIS/NIR, Aug  7 2015 09:38:08

0
0
3350/servo 860,8/2
0
0
UV/VIS
1
1
1
DoubleDePol,CommonBeamDepol,RBeamAtt,SBeamAtt,60mm sphere, WB InGaAs Detector
0
0
0
0
Program
Program
3350/servo 860,8/2
3350/0,2 860,8/0,2
3350/0,2 860,8/0,2
0
15.00
 
 
 
0
 
860,8
319,2
860,8
Front
100
on
S:100 R:100
0
0
0
0
 
0
 
 
 
0
 
 
0
0
0
0
0
 
 
 
 
0
0


0
0
#HDR
-1
-1
#GR
nm
%R
1.0
0.0
2500,000000
-1,000000
2251
8
57,680700
4,945700
#DATA
2482.000000	5.414213
2481.000000	5.457904
2480.000000	5.479750
2479.000000	5.451371
2478.000000	5.463111
2477.000000	5.424421
2476.000000	5.458313
2475.000000	5.499453
2474.000000	5.453617
2473.000000	5.494655
2472.000000	5.526505
2471.000000	5.493123
2470.000000	5.473932
2469.000000	5.499861
2468.000000	5.505169
2467.000000	5.491286
2466.000000	5.536203
2465.000000	5.559171
2464.000000	5.563765
2463.000000	5.567236
2462.000000	5.597147
2461.000000	5.637572
2460.000000	5.668299
2459.000000	5.691370
2458.000000	5.671872
2457.000000	5.709439
2456.000000	5.745883
2455.000000	5.767626
2454.000000	5.794372
2453.000000	5.831735
2452.000000	5.861135
2451.000000	5.905337
2450.000000	5.930450
2449.000000	5.963831
2448.000000	6.000275
2447.000000	6.056319
2446.000000	6.070917
2445.000000	6.127471
2444.000000	6.167386
2443.000000	6.202401
2442.000000	6.240478
2441.000000	6.265897
2440.000000	6.293664
2439.000000	6.353178
2438.000000	6.384926
2437.000000	6.436683
2436.000000	6.467512
2435.000000	6.492421
2434.000000	6.527537
2433.000000	6.566737
2432.000000	6.592360
2431.000000	6.635746
2430.000000	6.666882
2429.000000	6.690667
2428.000000	6.706286
2427.000000	6.744261
2426.000000	6.789280
2425.000000	6.795099
2424.000000	6.812555
2423.000000	6.844507
2422.000000	6.866047
2421.000000	6.886157
2420.000000	6.878705
2419.000000	6.883401
2418.000000	6.906574
2417.000000	6.910351
2416.000000	6.918722
2415.000000	6.933728
2414.000000	6.940976
2413.000000	6.951389
2412.000000	6.976706
2411.000000	6.985791
2410.000000	6.987833
2409.000000	7.010802
2408.000000	7.016620
2407.000000	7.027645
2406.000000	7.015599
2405.000000	7.041120
2404.000000	7.055106
2403.000000	7.066845
2402.000000	7.088589
2401.000000	7.098696
2400.000000	7.112987
2399.000000	7.111048
2398.000000	7.121052
2397.000000	7.142694
2396.000000	7.152800
2395.000000	7.170154
2394.000000	7.192204
2393.000000	7.209661
2392.000000	7.211906
2391.000000	7.206598
2390.000000	7.224973
2389.000000	7.240286
2388.000000	7.246921
2387.000000	7.264071
2386.000000	7.256619
2385.000000	7.254782
2384.000000	7.258150
2383.000000	7.244982
2382.000000	7.245594
2381.000000	7.243961
2380.000000	7.236100
2379.000000	7.235488
2378.000000	7.226402
2377.000000	7.204965
2376.000000	7.192204
2375.000000	7.180465
2374.000000	7.176483
2373.000000	7.178117
2372.000000	7.161783
2371.000000	7.134629
2370.000000	7.102881
2369.000000	7.078993
2368.000000	7.063681
2367.000000	7.041018
2366.000000	7.015906
2365.000000	6.994774
2364.000000	6.965681
2363.000000	6.929237
2362.000000	6.884116
2361.000000	6.845324
2360.000000	6.817455
2359.000000	6.786728
2358.000000	6.752836
2357.000000	6.724661
2356.000000	6.688421
2355.000000	6.676784
2354.000000	6.654529
2353.000000	6.620740
2352.000000	6.611348
2351.000000	6.624925
2350.000000	6.635746
2349.000000	6.626456
2348.000000	6.636767
2347.000000	6.657796
2346.000000	6.661777
2345.000000	6.673517
2344.000000	6.695057
2343.000000	6.718230
2342.000000	6.733134
2341.000000	6.753959
2340.000000	6.749161
2339.000000	6.741913
2338.000000	6.756817
2337.000000	6.757532
2336.000000	6.755592
2335.000000	6.746711
2334.000000	6.734053
2333.000000	6.717515
2332.000000	6.699753
2331.000000	6.676988
2330.000000	6.649936
2329.000000	6.617575
2328.000000	6.588379
2327.000000	6.545096
2326.000000	6.501608
2325.000000	6.458733
2324.000000	6.424331
2323.000000	6.385335
2322.000000	6.339499
2321.000000	6.278453
2320.000000	6.226697
2319.000000	6.176574
2318.000000	6.134821
2317.000000	6.076327
2316.000000	6.012831
2315.000000	5.955665
2314.000000	5.894006
2313.000000	5.842556
2312.000000	5.817341
2311.000000	5.768953
2310.000000	5.717299
2309.000000	5.684122
2308.000000	5.653701
2307.000000	5.622565
2306.000000	5.617155
2305.000000	5.597147
2304.000000	5.607253
2303.000000	5.606947
2302.000000	5.607457
2301.000000	5.636449
2300.000000	5.665236
2299.000000	5.682386
2298.000000	5.709337
2297.000000	5.745985
2296.000000	5.751803
2295.000000	5.773649
2294.000000	5.799579
2293.000000	5.808154
2292.000000	5.811727
2291.000000	5.839595
2290.000000	5.816320
2289.000000	5.809889
2288.000000	5.810808
2287.000000	5.795189
2286.000000	5.755989
2285.000000	5.729651
2284.000000	5.701782
2283.000000	5.657682
2282.000000	5.623280
2281.000000	5.599495
2280.000000	5.560294
2279.000000	5.558763
2278.000000	5.511090
2277.000000	5.470971
2276.000000	5.418500
2275.000000	5.407271
2274.000000	5.373073
2273.000000	5.346633
2272.000000	5.323766
2271.000000	5.323358
2270.000000	5.291712
2269.000000	5.289977
2268.000000	5.308862
2267.000000	5.303962
2266.000000	5.318764
2265.000000	5.320398
2264.000000	5.354494
2263.000000	5.396450
2262.000000	5.452494
2261.000000	5.486896
2260.000000	5.544267
2259.000000	5.635836
2258.000000	5.679222
2257.000000	5.780591
2256.000000	5.822854
2255.000000	5.913402
2254.000000	5.978225
2253.000000	6.066323
2252.000000	6.142274
2251.000000	6.196480
2250.000000	6.272634
2249.000000	6.356956
2248.000000	6.427393
2247.000000	6.469145
2246.000000	6.527435
2245.000000	6.592054
2244.000000	6.632173
2243.000000	6.675457
2242.000000	6.712411
2241.000000	6.764678
2240.000000	6.794180
2239.000000	6.830726
2238.000000	6.879828
2237.000000	6.902287
2236.000000	6.926582
2235.000000	6.952205
2234.000000	6.960883
2233.000000	6.985383
2232.000000	7.008556
2231.000000	7.010495
2230.000000	7.009679
2229.000000	6.998858
2228.000000	6.992324
2227.000000	6.944549
2226.000000	6.945366
2225.000000	6.936995
2224.000000	6.910555
2223.000000	6.908105
2222.000000	6.860126
2221.000000	6.795711
2220.000000	6.757634
2219.000000	6.745996
2218.000000	6.687094
2217.000000	6.659838
2216.000000	6.626559
2215.000000	6.628294
2214.000000	6.594096
2213.000000	6.584296
2212.000000	6.566227
2211.000000	6.573679
2210.000000	6.581540
2209.000000	6.600936
2208.000000	6.634113
2207.000000	6.677396
2206.000000	6.708838
2205.000000	6.781113
2204.000000	6.850734
2203.000000	6.930360
2202.000000	7.028768
2201.000000	7.124217
2200.000000	7.242532
2199.000000	7.354619
2198.000000	7.466401
2197.000000	7.585533
2196.000000	7.699458
2195.000000	7.811240
2194.000000	7.931903
2193.000000	8.030924
2192.000000	8.120757
2191.000000	8.221922
2190.000000	8.295933
2189.000000	8.369331
2188.000000	8.435277
2187.000000	8.496425
2186.000000	8.541036
2185.000000	8.610453
2184.000000	8.644855
2183.000000	8.691507
2182.000000	8.718457
2181.000000	8.760006
2180.000000	8.787262
2179.000000	8.824012
2178.000000	8.850656
2177.000000	8.892714
2176.000000	8.919052
2175.000000	8.951310
2174.000000	8.974994
2173.000000	8.991225
2172.000000	9.025729
2171.000000	9.036959
2170.000000	9.066971
2169.000000	9.106886
2168.000000	9.119034
2167.000000	9.154151
2166.000000	9.172934
2165.000000	9.205295
2164.000000	9.216932
2163.000000	9.242045
2162.000000	9.251436
2161.000000	9.297476
2160.000000	9.328816
2159.000000	9.340760
2158.000000	9.368220
2157.000000	9.396395
2156.000000	9.425489
2155.000000	9.452133
2154.000000	9.470610
2153.000000	9.498581
2152.000000	9.525837
2151.000000	9.559729
2150.000000	9.591886
2149.000000	9.614344
2148.000000	9.639048
2147.000000	9.672634
2146.000000	9.698257
2145.000000	9.707240
2144.000000	9.743378
2143.000000	9.765428
2142.000000	9.778801
2141.000000	9.812386
2140.000000	9.825555
2139.000000	9.850566
2138.000000	9.876903
2137.000000	9.870268
2136.000000	9.884866
2135.000000	9.886295
2134.000000	9.907018
2133.000000	9.913245
2132.000000	9.913755
2131.000000	9.916308
2130.000000	9.937643
2129.000000	9.928149
2128.000000	9.930701
2127.000000	9.929680
2126.000000	9.921003
2125.000000	9.925291
2124.000000	9.925087
2123.000000	9.912122
2122.000000	9.902628
2121.000000	9.894564
2120.000000	9.891399
2119.000000	9.882824
2118.000000	9.863122
2117.000000	9.854343
2116.000000	9.832905
2115.000000	9.811876
2114.000000	9.807895
2113.000000	9.790234
2112.000000	9.756853
2111.000000	9.747359
2110.000000	9.734496
2109.000000	9.718571
2108.000000	9.712242
2107.000000	9.700400
2106.000000	9.678146
2105.000000	9.653238
2104.000000	9.636292
2103.000000	9.623838
2102.000000	9.604340
2101.000000	9.583208
2100.000000	9.569733
2099.000000	9.547683
2098.000000	9.544723
2097.000000	9.533187
2096.000000	9.509504
2095.000000	9.505421
2094.000000	9.488066
2093.000000	9.470304
2092.000000	9.461933
2091.000000	9.450193
2090.000000	9.447743
2089.000000	9.442537
2088.000000	9.421100
2087.000000	9.410177
2086.000000	9.402827
2085.000000	9.384962
2084.000000	9.371589
2083.000000	9.367506
2082.000000	9.351274
2081.000000	9.334430
2080.000000	9.325753
2079.000000	9.296149
2078.000000	9.270526
2077.000000	9.274303
2076.000000	9.272976
2075.000000	9.243576
2074.000000	9.215809
2073.000000	9.209480
2072.000000	9.190492
2071.000000	9.184265
2070.000000	9.172628
2069.000000	9.152926
2068.000000	9.135061
2067.000000	9.116788
2066.000000	9.115767
2065.000000	9.092288
2064.000000	9.086775
2063.000000	9.087184
2062.000000	9.076771
2061.000000	9.069421
2060.000000	9.068094
2059.000000	9.063602
2058.000000	9.048494
2057.000000	9.059825
2056.000000	9.068400
2055.000000	9.080140
2054.000000	9.112807
2053.000000	9.139757
2052.000000	9.160582
2051.000000	9.195392
2050.000000	9.236022
2049.000000	9.276141
2048.000000	9.310645
2047.000000	9.371283
2046.000000	9.432533
2045.000000	9.486841
2044.000000	9.550746
2043.000000	9.617509
2042.000000	9.696113
2041.000000	9.755526
2040.000000	9.826678
2039.000000	9.877005
2038.000000	9.948566
2037.000000	10.009816
2036.000000	10.045750
2035.000000	10.112308
2034.000000	10.180602
2033.000000	10.226846
2032.000000	10.261044
2031.000000	10.304532
2030.000000	10.371499
2029.000000	10.412128
2028.000000	10.451226
2027.000000	10.493285
2026.000000	10.516866
2025.000000	10.553310
2024.000000	10.609047
2023.000000	10.650493
2022.000000	10.675198
2021.000000	10.706742
2020.000000	10.749923
2019.000000	10.769013
2018.000000	10.795452
2017.000000	10.839246
2016.000000	10.862113
2015.000000	10.882121
2014.000000	10.919178
2013.000000	10.932142
2012.000000	10.925201
2011.000000	10.936532
2010.000000	10.952967
2009.000000	10.965115
2008.000000	10.968995
2007.000000	10.972976
2006.000000	10.989411
2005.000000	10.988799
2004.000000	10.975426
2003.000000	10.995843
2002.000000	10.967974
2001.000000	10.954601
2000.000000	10.940513
1999.000000	10.919280
1998.000000	10.900905
1997.000000	10.907030
1996.000000	10.872015
1995.000000	10.854967
1994.000000	10.827507
1993.000000	10.804231
1992.000000	10.802700
1991.000000	10.744717
1990.000000	10.712050
1989.000000	10.693164
1988.000000	10.654168
1987.000000	10.618235
1986.000000	10.576483
1985.000000	10.552391
1984.000000	10.502880
1983.000000	10.471745
1982.000000	10.430605
1981.000000	10.394161
1980.000000	10.354042
1979.000000	10.326378
1978.000000	10.285748
1977.000000	10.224294
1976.000000	10.189790
1975.000000	10.183767
1974.000000	10.144975
1973.000000	10.088114
1972.000000	10.058306
1971.000000	10.030641
1970.000000	10.026047
1969.000000	9.953772
1968.000000	9.913041
1967.000000	9.932130
1966.000000	9.892522
1965.000000	9.847401
1964.000000	9.813305
1963.000000	9.795951
1962.000000	9.748686
1961.000000	9.728269
1960.000000	9.702034
1959.000000	9.674573
1958.000000	9.634148
1957.000000	9.626594
1956.000000	9.588517
1955.000000	9.578410
1954.000000	9.551869
1953.000000	9.510219
1952.000000	9.499296
1951.000000	9.479696
1950.000000	9.434268
1949.000000	9.432431
1948.000000	9.414464
1947.000000	9.400683
1946.000000	9.376897
1945.000000	9.368016
1944.000000	9.380470
1943.000000	9.389454
1942.000000	9.387208
1941.000000	9.404664
1940.000000	9.409564
1939.000000	9.410789
1938.000000	9.421406
1937.000000	9.419977
1936.000000	9.417833
1935.000000	9.449377
1934.000000	9.483881
1933.000000	9.527164
1932.000000	9.570958
1931.000000	9.625369
1930.000000	9.688559
1929.000000	9.728576
1928.000000	9.770838
1927.000000	9.821982
1926.000000	9.865878
1925.000000	9.968779
1924.000000	10.050445
1923.000000	10.105264
1922.000000	10.193056
1921.000000	10.293609
1920.000000	10.356186
1919.000000	10.427441
1918.000000	10.525033
1917.000000	10.651616
1916.000000	10.759315
1915.000000	10.858642
1914.000000	10.988084
1913.000000	11.109155
1912.000000	11.214097
1911.000000	11.308423
1910.000000	11.436232
1909.000000	11.570982
1908.000000	11.706855
1907.000000	11.852121
1906.000000	11.979521
1905.000000	12.116721
1904.000000	12.251982
1903.000000	12.383772
1902.000000	12.532304
1901.000000	12.694515
1900.000000	12.827122
1899.000000	12.944110
1898.000000	13.076104
1897.000000	13.248115
1896.000000	13.405528
1895.000000	13.547322
1894.000000	13.709533
1893.000000	13.872255
1892.000000	14.019255
1891.000000	14.170339
1890.000000	14.319177
1889.000000	14.470363
1888.000000	14.666772
1887.000000	14.837456
1886.000000	15.069594
1885.000000	15.301630
1884.000000	15.572254
1883.000000	15.842470
1882.000000	16.138410
1881.000000	16.472428
1880.000000	16.818900
1879.000000	17.145262
1878.000000	17.454882
1877.000000	17.739797
1876.000000	18.006134
1875.000000	18.259710
1874.000000	18.493889
1873.000000	18.677538
1872.000000	18.849855
1871.000000	19.006145
1870.000000	19.103023
1869.000000	19.203677
1868.000000	19.289326
1867.000000	19.343226
1866.000000	19.412439
1865.000000	19.476241
1864.000000	19.531264
1863.000000	19.598945
1862.000000	19.646721
1861.000000	19.672854
1860.000000	19.653662
1859.000000	19.629264
1858.000000	19.604866
1857.000000	19.581285
1856.000000	19.564747
1855.000000	19.533918
1854.000000	19.476037
1853.000000	19.386101
1852.000000	19.333426
1851.000000	19.333017
1850.000000	19.331486
1849.000000	19.300555
1848.000000	19.191734
1847.000000	19.036260
1846.000000	18.928460
1845.000000	18.887830
1844.000000	18.906001
1843.000000	18.938362
1842.000000	18.917435
1841.000000	18.859757
1840.000000	18.788809
1839.000000	18.732459
1838.000000	18.713982
1837.000000	18.662838
1836.000000	18.568002
1835.000000	18.473575
1834.000000	18.410895
1833.000000	18.377922
1832.000000	18.341070
1831.000000	18.290130
1830.000000	18.211832
1829.000000	18.124142
1828.000000	18.036555
1827.000000	17.967444
1826.000000	17.881387
1825.000000	17.816054
1824.000000	17.818198
1823.000000	17.849741
1822.000000	17.848823
1821.000000	17.795943
1820.000000	17.709989
1819.000000	17.633018
1818.000000	17.622503
1817.000000	17.648228
1816.000000	17.650372
1815.000000	17.626689
1814.000000	17.609334
1813.000000	17.605557
1812.000000	17.607088
1811.000000	17.559722
1810.000000	17.485609
1809.000000	17.470194
1808.000000	17.461823
1807.000000	17.423134
1806.000000	17.356575
1805.000000	17.300225
1804.000000	17.276644
1803.000000	17.233973
1802.000000	17.184768
1801.000000	17.150979
1800.000000	17.093914
1799.000000	17.035930
1798.000000	16.999588
1797.000000	16.961409
1796.000000	16.923740
1795.000000	16.866267
1794.000000	16.818084
1793.000000	16.772350
1792.000000	16.728760
1791.000000	16.669960
1790.000000	16.611670
1789.000000	16.563079
1788.000000	16.511424
1787.000000	16.438026
1786.000000	16.377388
1785.000000	16.305113
1784.000000	16.231511
1783.000000	16.158317
1782.000000	16.070014
1781.000000	16.011214
1780.000000	15.939551
1779.000000	15.855537
1778.000000	15.778668
1777.000000	15.705269
1776.000000	15.616865
1775.000000	15.508758
1774.000000	15.391975
1773.000000	15.294485
1772.000000	15.175557
1771.000000	15.061530
1770.000000	14.959446
1769.000000	14.851850
1768.000000	14.765997
1767.000000	14.680757
1766.000000	14.599295
1765.000000	14.552642
1764.000000	14.504357
1763.000000	14.494863
1762.000000	14.479244
1761.000000	14.508032
1760.000000	14.553357
1759.000000	14.588984
1758.000000	14.644007
1757.000000	14.665037
1756.000000	14.712710
1755.000000	14.725878
1754.000000	14.721489
1753.000000	14.706278
1752.000000	14.698214
1751.000000	14.669732
1750.000000	14.622876
1749.000000	14.583472
1748.000000	14.531103
1747.000000	14.445046
1746.000000	14.348781
1745.000000	14.253231
1744.000000	14.126239
1743.000000	13.986588
1742.000000	13.830298
1741.000000	13.662677
1740.000000	13.487705
1739.000000	13.338765
1738.000000	13.204321
1737.000000	13.068550
1736.000000	12.965751
1735.000000	12.923693
1734.000000	12.889699
1733.000000	12.885514
1732.000000	12.927266
1731.000000	12.964322
1730.000000	13.038741
1729.000000	13.120715
1728.000000	13.186150
1727.000000	13.289663
1726.000000	13.360917
1725.000000	13.419003
1724.000000	13.454528
1723.000000	13.474537
1722.000000	13.497301
1721.000000	13.497607
1720.000000	13.482397
1719.000000	13.490768
1718.000000	13.526701
1717.000000	13.526497
1716.000000	13.567943
1715.000000	13.601120
1714.000000	13.650529
1713.000000	13.669006
1712.000000	13.702489
1711.000000	13.741690
1710.000000	13.739444
1709.000000	13.750775
1708.000000	13.735156
1707.000000	13.714331
1706.000000	13.729848
1705.000000	13.695854
1704.000000	13.632868
1703.000000	13.601427
1702.000000	13.560593
1701.000000	13.431253
1700.000000	13.362245
1699.000000	13.266898
1698.000000	13.169102
1697.000000	13.099073
1696.000000	13.076410
1695.000000	13.056708
1694.000000	13.089069
1693.000000	13.183904
1692.000000	13.307732
1691.000000	13.415736
1690.000000	13.531908
1689.000000	13.640729
1688.000000	13.686871
1687.000000	13.710554
1686.000000	13.697998
1685.000000	13.721273
1684.000000	13.768333
1683.000000	13.907065
1682.000000	14.126341
1681.000000	14.429325
1680.000000	14.807341
1679.000000	15.231907
1678.000000	15.634117
1677.000000	16.028058
1676.000000	16.369120
1675.000000	16.673227
1674.000000	16.945892
1673.000000	17.184258
1672.000000	17.388017
1671.000000	17.570032
1670.000000	17.731937
1669.000000	17.876283
1668.000000	17.985921
1667.000000	18.055746
1666.000000	18.148540
1665.000000	18.210301
1664.000000	18.289314
1663.000000	18.352197
1662.000000	18.390989
1661.000000	18.426310
1660.000000	18.452137
1659.000000	18.492052
1658.000000	18.519717
1657.000000	18.543706
1656.000000	18.543911
1655.000000	18.553404
1654.000000	18.534417
1653.000000	18.536356
1652.000000	18.522677
1651.000000	18.499606
1650.000000	18.487050
1649.000000	18.467041
1648.000000	18.439989
1647.000000	18.408241
1646.000000	18.381393
1645.000000	18.343826
1644.000000	18.296868
1643.000000	18.275022
1642.000000	18.226124
1641.000000	18.183147
1640.000000	18.141905
1639.000000	18.080655
1638.000000	18.049315
1637.000000	17.992557
1636.000000	17.942638
1635.000000	17.898231
1634.000000	17.841473
1633.000000	17.782979
1632.000000	17.714991
1631.000000	17.662214
1630.000000	17.589734
1629.000000	17.540224
1628.000000	17.480811
1627.000000	17.411700
1626.000000	17.334729
1625.000000	17.288894
1624.000000	17.215904
1623.000000	17.162514
1622.000000	17.106266
1621.000000	17.053897
1620.000000	16.989993
1619.000000	16.927109
1618.000000	16.857284
1617.000000	16.811652
1616.000000	16.757956
1615.000000	16.679352
1614.000000	16.630556
1613.000000	16.577268
1612.000000	16.508668
1611.000000	16.455993
1610.000000	16.409851
1609.000000	16.350745
1608.000000	16.297253
1607.000000	16.241821
1606.000000	16.183736
1605.000000	16.143515
1604.000000	16.094106
1603.000000	16.026935
1602.000000	15.991512
1601.000000	15.940879
1600.000000	15.885753
1599.000000	15.834405
1598.000000	15.793061
1597.000000	15.758353
1596.000000	15.706903
1595.000000	15.656167
1594.000000	15.617375
1593.000000	15.574806
1592.000000	15.531012
1591.000000	15.501919
1590.000000	15.468946
1589.000000	15.432502
1588.000000	15.413106
1587.000000	15.387074
1586.000000	15.346241
1585.000000	15.307449
1584.000000	15.283460
