PE UV       SUBTECH     SPECTRUM    ASCII       PEDS        4.00        
   -1
CICIMAUCR0214-1.Sample.ASC
24/06/13
12:34:20.00
24/06/13
12:34:20.00
Vinicio Soto Monge
C. cupreomarginata. Sex M. Ventral 
250,000000
1
Lambda 1050
1050L1511233
PerkinElmer UV WinLab 6.3.2.0749 / 2.02.05 Lambda 900 UV/VIS/NIR, Aug  7 2015 09:38:08

0
0
3350/servo 860,8/2
0
0
UV/VIS
1
1
1
DoubleDePol,CommonBeamDepol,RBeamAtt,SBeamAtt,60mm sphere, WB InGaAs Detector
0
0
0
0
Program
Program
3350/servo 860,8/2
3350/0,2 860,8/0,2
3350/0,2 860,8/0,2
0
15.00
 
 
 
0
 
860,8
319,2
860,8
Front
100
on
S:100 R:100
0
0
0
0
 
0
 
 
 
0
 
 
0
0
0
0
0
 
 
 
 
0
0


0
0
#HDR
-1
-1
#GR
nm
%R
1.0
0.0
2500,000000
-1,000000
2251
8
60,507500
3,964200
#DATA
2482.000000	6.627349
2481.000000	6.663787
2480.000000	6.691704
2479.000000	6.644615
2478.000000	6.627349
2477.000000	6.653023
2476.000000	6.631721
2475.000000	6.638224
2474.000000	6.618940
2473.000000	6.570954
2472.000000	6.684528
2471.000000	6.658966
2470.000000	6.632058
2469.000000	6.608065
2468.000000	6.610083
2467.000000	6.603916
2466.000000	6.634860
2465.000000	6.638000
2464.000000	6.646745
2463.000000	6.680604
2462.000000	6.648539
2461.000000	6.671074
2460.000000	6.705943
2459.000000	6.715248
2458.000000	6.710539
2457.000000	6.750229
2456.000000	6.787900
2455.000000	6.821311
2454.000000	6.860552
2453.000000	6.852367
2452.000000	6.866606
2451.000000	6.913471
2450.000000	6.956748
2449.000000	6.980517
2448.000000	7.022561
2447.000000	7.038033
2446.000000	7.075144
2445.000000	7.117973
2444.000000	7.160914
2443.000000	7.180310
2442.000000	7.207218
2441.000000	7.237041
2440.000000	7.285588
2439.000000	7.338619
2438.000000	7.362388
2437.000000	7.401853
2436.000000	7.437955
2435.000000	7.467105
2434.000000	7.478765
2433.000000	7.496928
2432.000000	7.523164
2431.000000	7.546035
2430.000000	7.601982
2429.000000	7.636738
2428.000000	7.651650
2427.000000	7.678221
2426.000000	7.694254
2425.000000	7.702327
2424.000000	7.731701
2423.000000	7.758385
2422.000000	7.777333
2421.000000	7.803792
2420.000000	7.818928
2419.000000	7.842697
2418.000000	7.874202
2417.000000	7.893150
2416.000000	7.909967
2415.000000	7.924094
2414.000000	7.945172
2413.000000	7.964120
2412.000000	7.967595
2411.000000	7.988337
2410.000000	8.029148
2409.000000	8.029820
2408.000000	8.056280
2407.000000	8.065586
2406.000000	8.071079
2405.000000	8.085318
2404.000000	8.112787
2403.000000	8.134538
2402.000000	8.157858
2401.000000	8.166715
2400.000000	8.198781
2399.000000	8.243067
2398.000000	8.254166
2397.000000	8.269975
2396.000000	8.291501
2395.000000	8.309104
2394.000000	8.330406
2393.000000	8.352829
2392.000000	8.362696
2391.000000	8.361687
2390.000000	8.370208
2389.000000	8.393528
2388.000000	8.403394
2387.000000	8.428172
2386.000000	8.428396
2385.000000	8.422678
2384.000000	8.434451
2383.000000	8.449138
2382.000000	8.455753
2381.000000	8.458332
2380.000000	8.452614
2379.000000	8.449362
2378.000000	8.436805
2377.000000	8.439608
2376.000000	8.448689
2375.000000	8.430751
2374.000000	8.438711
2373.000000	8.442859
2372.000000	8.428060
2371.000000	8.413709
2370.000000	8.393192
2369.000000	8.378728
2368.000000	8.371217
2367.000000	8.363705
2366.000000	8.350587
2365.000000	8.310673
2364.000000	8.278272
2363.000000	8.260894
2362.000000	8.237125
2361.000000	8.225577
2360.000000	8.211001
2359.000000	8.168397
2358.000000	8.140256
2357.000000	8.121532
2356.000000	8.105611
2355.000000	8.098660
2354.000000	8.089354
2353.000000	8.067604
2352.000000	8.060765
2351.000000	8.072873
2350.000000	8.070743
2349.000000	8.082403
2348.000000	8.099893
2347.000000	8.118505
2346.000000	8.143171
2345.000000	8.149561
2344.000000	8.179609
2343.000000	8.222774
2342.000000	8.240712
2341.000000	8.257866
2340.000000	8.265154
2339.000000	8.272778
2338.000000	8.285335
2337.000000	8.297107
2336.000000	8.313701
2335.000000	8.321325
2334.000000	8.323118
2333.000000	8.328949
2332.000000	8.325137
2331.000000	8.304059
2330.000000	8.288923
2329.000000	8.267284
2328.000000	8.244524
2327.000000	8.200350
2326.000000	8.173891
2325.000000	8.160212
2324.000000	8.139919
2323.000000	8.104939
2322.000000	8.063680
2321.000000	8.012891
2320.000000	7.978359
2319.000000	7.942593
2318.000000	7.893374
2317.000000	7.836306
2316.000000	7.792357
2315.000000	7.746276
2314.000000	7.685957
2313.000000	7.634944
2312.000000	7.590546
2311.000000	7.558817
2310.000000	7.517109
2309.000000	7.471366
2308.000000	7.457351
2307.000000	7.447036
2306.000000	7.431788
2305.000000	7.422258
2304.000000	7.442888
2303.000000	7.433806
2302.000000	7.454996
2301.000000	7.479326
2300.000000	7.503319
2299.000000	7.543345
2298.000000	7.567450
2297.000000	7.619136
2296.000000	7.662301
2295.000000	7.701317
2294.000000	7.729010
2293.000000	7.767018
2292.000000	7.797178
2291.000000	7.830701
2290.000000	7.853348
2289.000000	7.889562
2288.000000	7.889450
2287.000000	7.903913
2286.000000	7.887320
2285.000000	7.882723
2284.000000	7.890571
2283.000000	7.874650
2282.000000	7.856600
2281.000000	7.816686
2280.000000	7.822180
2279.000000	7.775763
2278.000000	7.753116
2277.000000	7.740334
2276.000000	7.726320
2275.000000	7.708157
2274.000000	7.683379
2273.000000	7.669140
2272.000000	7.666561
2271.000000	7.651201
2270.000000	7.670934
2269.000000	7.680352
2268.000000	7.701317
2267.000000	7.743361
2266.000000	7.765000
2265.000000	7.829355
2264.000000	7.879471
2263.000000	7.941808
2262.000000	8.053701
2261.000000	8.138125
2260.000000	8.243627
2259.000000	8.377047
2258.000000	8.477391
2257.000000	8.613838
2256.000000	8.750172
2255.000000	8.898391
2254.000000	9.047731
2253.000000	9.182159
2252.000000	9.340132
2251.000000	9.474448
2250.000000	9.621994
2249.000000	9.740726
2248.000000	9.869100
2247.000000	9.979984
2246.000000	10.073601
2245.000000	10.225856
2244.000000	10.342570
2243.000000	10.391789
2242.000000	10.507831
2241.000000	10.561310
2240.000000	10.675782
2239.000000	10.734755
2238.000000	10.808080
2237.000000	10.853263
2236.000000	10.926475
2235.000000	10.982982
2234.000000	11.037808
2233.000000	11.056531
2232.000000	11.109450
2231.000000	11.118868
2230.000000	11.173357
2229.000000	11.175824
2228.000000	11.178627
2227.000000	11.215737
2226.000000	11.233228
2225.000000	11.222240
2224.000000	11.227398
2223.000000	11.226613
2222.000000	11.200602
2221.000000	11.184120
2220.000000	11.174590
2219.000000	11.168536
2218.000000	11.156203
2217.000000	11.124810
2216.000000	11.076488
2215.000000	11.074918
2214.000000	11.044310
2213.000000	11.032987
2212.000000	10.999576
2211.000000	10.994194
2210.000000	10.967398
2209.000000	10.954393
2208.000000	10.936790
2207.000000	10.907191
2206.000000	10.908088
2205.000000	10.934884
2204.000000	10.911228
2203.000000	10.862569
2202.000000	10.849900
2201.000000	10.849451
2200.000000	10.861448
2199.000000	10.829270
2198.000000	10.824337
2197.000000	10.815480
2196.000000	10.830952
2195.000000	10.815816
2194.000000	10.818507
2193.000000	10.805389
2192.000000	10.812789
2191.000000	10.796195
2190.000000	10.773436
2189.000000	10.772315
2188.000000	10.772090
2187.000000	10.763682
2186.000000	10.728589
2185.000000	10.724889
2184.000000	10.719620
2183.000000	10.721974
2182.000000	10.704596
2181.000000	10.684975
2180.000000	10.678136
2179.000000	10.670288
2178.000000	10.656834
2177.000000	10.665019
2176.000000	10.664458
2175.000000	10.660982
2174.000000	10.645847
2173.000000	10.653134
2172.000000	10.670288
2171.000000	10.647192
2170.000000	10.651116
2169.000000	10.672755
2168.000000	10.673876
2167.000000	10.677015
2166.000000	10.679930
2165.000000	10.686209
2164.000000	10.708632
2163.000000	10.721077
2162.000000	10.717377
2161.000000	10.720292
2160.000000	10.751237
2159.000000	10.771081
2158.000000	10.798550
2157.000000	10.837455
2156.000000	10.856739
2155.000000	10.885216
2154.000000	10.909097
2153.000000	10.926251
2152.000000	10.949011
2151.000000	10.969080
2150.000000	11.014712
2149.000000	11.039714
2148.000000	11.063707
2147.000000	11.095660
2146.000000	11.125259
2145.000000	11.148243
2144.000000	11.168312
2143.000000	11.194435
2142.000000	11.208450
2141.000000	11.223361
2140.000000	11.244103
2139.000000	11.277065
2138.000000	11.305879
2137.000000	11.338169
2136.000000	11.341196
2135.000000	11.361377
2134.000000	11.375953
2133.000000	11.390640
2132.000000	11.401852
2131.000000	11.411382
2130.000000	11.421808
2129.000000	11.427638
2128.000000	11.448380
2127.000000	11.436720
2126.000000	11.429320
2125.000000	11.424499
2124.000000	11.441765
2123.000000	11.432908
2122.000000	11.418893
2121.000000	11.415418
2120.000000	11.403421
2119.000000	11.389407
2118.000000	11.365750
2117.000000	11.366423
2116.000000	11.357453
2115.000000	11.332115
2114.000000	11.318549
2113.000000	11.287492
2112.000000	11.267984
2111.000000	11.255539
2110.000000	11.242982
2109.000000	11.235246
2108.000000	11.218092
2107.000000	11.207889
2106.000000	11.178402
2105.000000	11.149140
2104.000000	11.129631
2103.000000	11.103957
2102.000000	11.085569
2101.000000	11.070882
2100.000000	11.046441
2099.000000	11.028614
2098.000000	11.006639
2097.000000	10.986010
2096.000000	10.959662
2095.000000	10.937351
2094.000000	10.917506
2093.000000	10.900352
2092.000000	10.887795
2091.000000	10.871202
2090.000000	10.861335
2089.000000	10.838015
2088.000000	10.824337
2087.000000	10.791599
2086.000000	10.778593
2085.000000	10.766821
2084.000000	10.741370
2083.000000	10.726459
2082.000000	10.708184
2081.000000	10.679257
2080.000000	10.652798
2079.000000	10.626002
2078.000000	10.590909
2077.000000	10.570504
2076.000000	10.540232
2075.000000	10.503570
2074.000000	10.482941
2073.000000	10.455136
2072.000000	10.408158
2071.000000	10.379905
2070.000000	10.337637
2069.000000	10.295929
2068.000000	10.280121
2067.000000	10.240207
2066.000000	10.196706
2065.000000	10.169013
2064.000000	10.142890
2063.000000	10.122484
2062.000000	10.091989
2061.000000	10.062278
2060.000000	10.053757
2059.000000	10.033912
2058.000000	10.016758
2057.000000	10.005658
2056.000000	9.997025
2055.000000	10.005210
2054.000000	10.024830
2053.000000	10.032118
2052.000000	10.040527
2051.000000	10.074050
2050.000000	10.097146
2049.000000	10.129660
2048.000000	10.174731
2047.000000	10.215317
2046.000000	10.256464
2045.000000	10.319362
2044.000000	10.388538
2043.000000	10.427555
2042.000000	10.483837
2041.000000	10.532272
2040.000000	10.570168
2039.000000	10.625217
2038.000000	10.673539
2037.000000	10.725786
2036.000000	10.776239
2035.000000	10.817386
2034.000000	10.828709
2033.000000	10.876695
2032.000000	10.927260
2031.000000	10.956747
2030.000000	10.958989
2029.000000	10.988588
2028.000000	11.013590
2027.000000	11.016393
2026.000000	11.016842
2025.000000	11.037359
2024.000000	11.075591
2023.000000	11.068752
2022.000000	11.065837
2021.000000	11.079403
2020.000000	11.077721
2019.000000	11.092409
2018.000000	11.088709
2017.000000	11.070097
2016.000000	11.073237
2015.000000	11.074470
2014.000000	11.077497
2013.000000	11.069873
2012.000000	11.045432
2011.000000	11.022223
2010.000000	11.003948
2009.000000	10.995203
2008.000000	10.966725
2007.000000	10.946544
2006.000000	10.914591
2005.000000	10.914591
2004.000000	10.878265
2003.000000	10.816377
2002.000000	10.786105
2001.000000	10.753591
2000.000000	10.734643
1999.000000	10.687218
1998.000000	10.644277
1997.000000	10.595618
1996.000000	10.557610
1995.000000	10.508840
1994.000000	10.466571
1993.000000	10.394368
1992.000000	10.380241
1991.000000	10.336067
1990.000000	10.268909
1989.000000	10.225184
1988.000000	10.174395
1987.000000	10.111161
1986.000000	10.073489
1985.000000	10.000501
1984.000000	9.949712
1983.000000	9.904193
1982.000000	9.873472
1981.000000	9.796672
1980.000000	9.764158
1979.000000	9.703503
1978.000000	9.637578
1977.000000	9.598674
1976.000000	9.566384
1975.000000	9.497208
1974.000000	9.439131
1973.000000	9.391930
1972.000000	9.361770
1971.000000	9.304479
1970.000000	9.279140
1969.000000	9.207610
1968.000000	9.165790
1967.000000	9.137761
1966.000000	9.079123
1965.000000	9.040892
1964.000000	8.995036
1963.000000	8.957589
1962.000000	8.926308
1961.000000	8.893906
1960.000000	8.843790
1959.000000	8.805109
1958.000000	8.748266
1957.000000	8.719676
1956.000000	8.697701
1955.000000	8.661712
1954.000000	8.637495
1953.000000	8.602738
1952.000000	8.543204
1951.000000	8.544437
1950.000000	8.498245
1949.000000	8.485352
1948.000000	8.431087
1947.000000	8.414157
1946.000000	8.389828
1945.000000	8.380634
1944.000000	8.323791
1943.000000	8.325361
1942.000000	8.318522
1941.000000	8.312243
1940.000000	8.316504
1939.000000	8.299238
1938.000000	8.281523
1937.000000	8.295986
1936.000000	8.320091
1935.000000	8.268742
1934.000000	8.301816
1933.000000	8.275132
1932.000000	8.302489
1931.000000	8.351596
1930.000000	8.362023
1929.000000	8.405412
1928.000000	8.421109
1927.000000	8.466068
1926.000000	8.497797
1925.000000	8.542419
1924.000000	8.574933
1923.000000	8.631664
1922.000000	8.707007
1921.000000	8.758693
1920.000000	8.844014
1919.000000	8.891103
1918.000000	9.000529
1917.000000	9.056476
1916.000000	9.133612
1915.000000	9.206600
1914.000000	9.321184
1913.000000	9.440028
1912.000000	9.555845
1911.000000	9.658320
1910.000000	9.765392
1909.000000	9.878406
1908.000000	9.996465
1907.000000	10.149392
1906.000000	10.304674
1905.000000	10.451211
1904.000000	10.622638
1903.000000	10.783190
1902.000000	10.990046
1901.000000	11.146897
1900.000000	11.364965
1899.000000	11.583817
1898.000000	11.808948
1897.000000	12.046300
1896.000000	12.266049
1895.000000	12.507550
1894.000000	12.748825
1893.000000	13.024409
1892.000000	13.321071
1891.000000	13.687133
1890.000000	14.001284
1889.000000	14.353108
1888.000000	14.721300
1887.000000	15.117409
1886.000000	15.540090
1885.000000	15.987774
1884.000000	16.500485
1883.000000	17.070936
1882.000000	17.646769
1881.000000	18.185155
1880.000000	18.757961
1879.000000	19.309689
1878.000000	19.840899
1877.000000	20.408996
1876.000000	20.951194
1875.000000	21.444621
1874.000000	21.954865
1873.000000	22.451207
1872.000000	22.909205
1871.000000	23.347583
1870.000000	23.795378
1869.000000	24.177921
1868.000000	24.537929
1867.000000	24.829097
1866.000000	25.095375
1865.000000	25.326224
1864.000000	25.558082
1863.000000	25.758883
1862.000000	25.953070
1861.000000	26.142772
1860.000000	26.331913
1859.000000	26.484392
1858.000000	26.614224
1857.000000	26.729480
1856.000000	26.832404
1855.000000	26.900347
1854.000000	26.951920
1853.000000	27.008652
1852.000000	27.030290
1851.000000	27.053274
1850.000000	27.097673
1849.000000	27.120320
1848.000000	27.104848
1847.000000	27.081079
1846.000000	27.036008
1845.000000	26.979165
1844.000000	26.978604
1843.000000	26.984210
1842.000000	26.998337
1841.000000	26.993067
1840.000000	26.952481
1839.000000	26.915034
1838.000000	26.900122
1837.000000	26.862675
1836.000000	26.807514
1835.000000	26.753698
1834.000000	26.671179
1833.000000	26.620166
1832.000000	26.575432
1831.000000	26.517355
1830.000000	26.471948
1829.000000	26.397502
1828.000000	26.300184
1827.000000	26.222599
1826.000000	26.124609
1825.000000	26.064402
1824.000000	26.009465
1823.000000	25.970897
1822.000000	25.955424
1821.000000	25.939840
1820.000000	25.878400
1819.000000	25.807991
1818.000000	25.758883
1817.000000	25.724800
1816.000000	25.713140
1815.000000	25.707758
1814.000000	25.690380
1813.000000	25.665714
1812.000000	25.652933
1811.000000	25.627594
1810.000000	25.568509
1809.000000	25.511105
1808.000000	25.477694
1807.000000	25.439462
1806.000000	25.388449
1805.000000	25.327906
1804.000000	25.269493
1803.000000	25.211752
1802.000000	25.162869
1801.000000	25.119032
1800.000000	25.048510
1799.000000	24.967337
1798.000000	24.908924
1797.000000	24.851520
1796.000000	24.794004
1795.000000	24.740188
1794.000000	24.693435
1793.000000	24.628520
1792.000000	24.560016
1791.000000	24.509451
1790.000000	24.446554
1789.000000	24.373902
1788.000000	24.308650
1787.000000	24.258533
1786.000000	24.182182
1785.000000	24.081052
1784.000000	24.001561
1783.000000	23.931600
1782.000000	23.854127
1781.000000	23.773403
1780.000000	23.692343
1779.000000	23.610385
1778.000000	23.507350
1777.000000	23.422589
1776.000000	23.341977
1775.000000	23.248023
1774.000000	23.119761
1773.000000	22.997890
1772.000000	22.890930
1771.000000	22.771862
1770.000000	22.643488
1769.000000	22.523298
1768.000000	22.395597
1767.000000	22.278771
1766.000000	22.172260
1765.000000	22.080548
1764.000000	22.015969
1763.000000	21.973925
1762.000000	21.945560
1761.000000	21.955538
1760.000000	21.997918
1759.000000	22.043550
1758.000000	22.112838
1757.000000	22.202980
1756.000000	22.262290
1755.000000	22.325636
1754.000000	22.377883
1753.000000	22.413760
1752.000000	22.434502
1751.000000	22.421048
1750.000000	22.409163
1749.000000	22.379340
1748.000000	22.326869
1747.000000	22.279668
1746.000000	22.219237
1745.000000	22.126516
1744.000000	22.013951
1743.000000	21.885465
1742.000000	21.710114
1741.000000	21.518169
1740.000000	21.301896
1739.000000	21.090779
1738.000000	20.869236
1737.000000	20.664062
1736.000000	20.496559
1735.000000	20.354171
1734.000000	20.258535
1733.000000	20.203485
1732.000000	20.188238
1731.000000	20.222994
1730.000000	20.288582
1729.000000	20.396887
1728.000000	20.502277
1727.000000	20.626279
1726.000000	20.743889
1725.000000	20.815084
1724.000000	20.904777
1723.000000	20.968796
1722.000000	21.024406
1721.000000	21.080240
1720.000000	21.110848
1719.000000	21.146053
1718.000000	21.212090
1717.000000	21.246174
1716.000000	21.323310
1715.000000	21.404259
1714.000000	21.489916
1713.000000	21.558532
1712.000000	21.638135
1711.000000	21.707535
1710.000000	21.750588
1709.000000	21.777272
1708.000000	21.758997
1707.000000	21.748906
1706.000000	21.720765
1705.000000	21.680627
1704.000000	21.612124
1703.000000	21.557523
1702.000000	21.453702
1701.000000	21.340464
1700.000000	21.209175
1699.000000	21.042233
1698.000000	20.872488
1697.000000	20.737275
1696.000000	20.611703
1695.000000	20.556542
1694.000000	20.529522
1693.000000	20.559681
1692.000000	20.685589
1691.000000	20.846140
1690.000000	21.009382
1689.000000	21.201663
1688.000000	21.339903
1687.000000	21.433297
1686.000000	21.494289
1685.000000	21.573443
1684.000000	21.650804
1683.000000	21.812365
1682.000000	22.040523
1681.000000	22.346041
1680.000000	22.798322
1679.000000	23.317311
1678.000000	23.882381
1677.000000	24.448460
1676.000000	24.975746
1675.000000	25.485094
1674.000000	25.904860
1673.000000	26.305902
1672.000000	26.680597
1671.000000	26.963581
1670.000000	27.193084
1669.000000	27.423933
1668.000000	27.619914
1667.000000	27.801431
1666.000000	27.940456
1665.000000	28.068606
1664.000000	28.171417
1663.000000	28.288804
1662.000000	28.387242
1661.000000	28.468079
1660.000000	28.525034
1659.000000	28.566966
1658.000000	28.625491
1657.000000	28.649260
1656.000000	28.672468
1655.000000	28.681774
1654.000000	28.681886
1653.000000	28.689734
1652.000000	28.660920
1651.000000	28.645672
1650.000000	28.603068
1649.000000	28.561024
1648.000000	28.507095
1647.000000	28.451149
1646.000000	28.397445
1645.000000	28.358204
1644.000000	28.269295
1643.000000	28.196195
1642.000000	28.140585
1641.000000	28.072194
1640.000000	27.993039
1639.000000	27.924423
1638.000000	27.867804
1637.000000	27.782147
1636.000000	27.715325
1635.000000	27.631013
1634.000000	27.531005
1633.000000	27.444226
1632.000000	27.363726
1631.000000	27.273024
1630.000000	27.166961
1629.000000	27.057871
1628.000000	26.987798
1627.000000	26.885884
1626.000000	26.794620
1625.000000	26.702012
1624.000000	26.604806
1623.000000	26.517579
1622.000000	26.400977
1621.000000	26.322608
1620.000000	26.224057
1619.000000	26.120349
1618.000000	26.034691
1617.000000	25.939728
1616.000000	25.871225
1615.000000	25.791173
1614.000000	25.697331
1613.000000	25.606741
1612.000000	25.521532
1611.000000	25.431277
1610.000000	25.340463
1609.000000	25.265568
1608.000000	25.184059
1607.000000	25.084499
1606.000000	25.002766
1605.000000	24.925181
1604.000000	24.830779
1603.000000	24.749942
1602.000000	24.656549
1601.000000	24.568537
1600.000000	24.488373
1599.000000	24.410116
1598.000000	24.299905
1597.000000	24.221759
1596.000000	24.152022
1595.000000	24.077016
1594.000000	23.990798
1593.000000	23.916016
