PE UV       SUBTECH     SPECTRUM    ASCII       PEDS        4.00        
   -1
CICIMAUCR0001-2.Sample.ASC
24/04/11
16:12:16.00
24/04/11
16:12:16.00
Vinicio Soto Monge
C. kalinini
250,000000
1
Lambda 1050
1050L1511233
PerkinElmer UV WinLab 6.3.2.0749 / 2.02.05 Lambda 900 UV/VIS/NIR, Aug  7 2015 09:38:08

0
0
3350/2 860,8/2
0
0
UV/VIS
1
1
1
DoubleDePol,CommonBeamDepol,RBeamAtt,SBeamAtt,60mm sphere, WB InGaAs Detector
0
0
0
0
Program
Program
3350/2 860,8/2
3350/0,2 860,8/0,2
3350/0,2 860,8/0,2
0
15.00
 
 
 
0
 
860,8
319,2
860,8
Front
100
on
S:100 R:100
0
0
0
0
 
0
 
 
 
0
 
 
0
0
0
0
0
 
 
 
 
0
0


0
0
#HDR
-1
-1
#GR
nm
%R
1.0
0.0
2400,000000
-1,000000
2151
8
66,817200
3,930300
#DATA
2382.000000	19.051783
2381.000000	18.284897
2380.000000	17.314697
2379.000000	18.103346
2378.000000	18.121677
2377.000000	18.222256
2376.000000	19.151382
2375.000000	18.671036
2374.000000	17.692111
2373.000000	17.779946
2372.000000	17.695738
2371.000000	18.548303
2370.000000	17.757987
2369.000000	17.991984
2368.000000	18.126285
2367.000000	18.333324
2366.000000	18.784947
2365.000000	18.915032
2364.000000	18.145303
2363.000000	17.989043
2362.000000	17.110207
2361.000000	17.843861
2360.000000	17.516834
2359.000000	18.653979
2358.000000	18.259899
2357.000000	18.204022
2356.000000	18.121285
2355.000000	17.916207
2354.000000	18.178731
2353.000000	17.987181
2352.000000	17.422725
2351.000000	18.155498
2350.000000	18.089132
2349.000000	18.141283
2348.000000	17.916501
2347.000000	17.258036
2346.000000	17.765143
2345.000000	17.939930
2344.000000	17.901405
2343.000000	18.233921
2342.000000	18.275780
2341.000000	17.933852
2340.000000	17.641038
2339.000000	17.769947
2338.000000	17.737009
2337.000000	17.558889
2336.000000	17.465074
2335.000000	17.617216
2334.000000	17.631725
2333.000000	17.562320
2332.000000	17.200688
2331.000000	17.185199
2330.000000	17.478308
2329.000000	17.932774
2328.000000	17.408217
2327.000000	17.542420
2326.000000	17.537812
2325.000000	17.171671
2324.000000	17.198531
2323.000000	17.709266
2322.000000	17.524872
2321.000000	17.344596
2320.000000	17.419098
2319.000000	17.700150
2318.000000	17.861016
2317.000000	17.565457
2316.000000	17.192061
2315.000000	17.302443
2314.000000	17.336655
2313.000000	17.091091
2312.000000	16.960907
2311.000000	16.929146
2310.000000	16.698384
2309.000000	17.165397
2308.000000	17.100600
2307.000000	16.886111
2306.000000	16.814255
2305.000000	16.586630
2304.000000	16.568788
2303.000000	17.057565
2302.000000	17.135694
2301.000000	16.829352
2300.000000	16.722401
2299.000000	16.799747
2298.000000	16.873857
2297.000000	17.059035
2296.000000	17.143635
2295.000000	16.858074
2294.000000	16.836508
2293.000000	17.042958
2292.000000	17.079425
2291.000000	16.786905
2290.000000	16.630939
2289.000000	16.819352
2288.000000	16.841801
2287.000000	16.928852
2286.000000	16.982866
2285.000000	16.823078
2284.000000	16.564867
2283.000000	16.800629
2282.000000	16.824744
2281.000000	16.937184
2280.000000	17.186180
2279.000000	17.028842
2278.000000	17.161084
2277.000000	17.200100
2276.000000	17.068936
2275.000000	17.003060
2274.000000	16.728577
2273.000000	17.035508
2272.000000	17.274799
2271.000000	16.968456
2270.000000	16.996884
2269.000000	17.079131
2268.000000	17.247840
2267.000000	17.387141
2266.000000	17.380377
2265.000000	17.541145
2264.000000	17.526441
2263.000000	17.304306
2262.000000	17.166476
2261.000000	17.299404
2260.000000	17.727108
2259.000000	17.869251
2258.000000	17.963359
2257.000000	18.011590
2256.000000	18.257841
2255.000000	18.456351
2254.000000	18.385279
2253.000000	18.432138
2252.000000	18.822688
2251.000000	18.835236
2250.000000	18.969733
2249.000000	18.958459
2248.000000	19.037079
2247.000000	19.288427
2246.000000	19.119816
2245.000000	19.201769
2244.000000	19.433805
2243.000000	19.271468
2242.000000	19.262155
2241.000000	19.151284
2240.000000	19.337638
2239.000000	19.612023
2238.000000	19.870724
2237.000000	19.724071
2236.000000	19.404200
2235.000000	19.538795
2234.000000	19.694760
2233.000000	19.747893
2232.000000	19.687016
2231.000000	19.920229
2230.000000	20.064921
2229.000000	19.874547
2228.000000	19.843275
2227.000000	19.693780
2226.000000	19.677801
2225.000000	19.384692
2224.000000	19.200298
2223.000000	19.216571
2222.000000	19.232354
2221.000000	19.346363
2220.000000	19.180693
2219.000000	18.994142
2218.000000	19.140010
2217.000000	19.069723
2216.000000	18.772987
2215.000000	18.916306
2214.000000	18.627413
2213.000000	18.844647
2212.000000	18.782692
2211.000000	18.432432
2210.000000	18.334794
2209.000000	18.530461
2208.000000	18.353616
2207.000000	18.122756
2206.000000	18.053155
2205.000000	18.485662
2204.000000	18.528011
2203.000000	18.478015
2202.000000	18.324795
2201.000000	18.005512
2200.000000	18.178535
2199.000000	18.111090
2198.000000	18.138833
2197.000000	18.168928
2196.000000	18.043842
2195.000000	18.460272
2194.000000	18.297543
2193.000000	18.178437
2192.000000	17.987671
2191.000000	18.033157
2190.000000	18.219119
2189.000000	17.908561
2188.000000	17.807590
2187.000000	17.994141
2186.000000	17.972868
2185.000000	17.696719
2184.000000	17.879544
2183.000000	17.946204
2182.000000	18.008061
2181.000000	17.970123
2180.000000	17.541734
2179.000000	17.862487
2178.000000	17.865134
2177.000000	17.915521
2176.000000	17.636626
2175.000000	17.976593
2174.000000	17.756419
2173.000000	17.639175
2172.000000	17.713482
2171.000000	18.082760
2170.000000	18.077074
2169.000000	17.964242
2168.000000	17.949439
2167.000000	17.623588
2166.000000	17.726618
2165.000000	17.764555
2164.000000	18.121579
2163.000000	18.238137
2162.000000	18.152263
2161.000000	17.911208
2160.000000	18.198435
2159.000000	18.430373
2158.000000	18.278917
2157.000000	18.545852
2156.000000	18.396259
2155.000000	19.026100
2154.000000	18.659076
2153.000000	19.032668
2152.000000	18.552126
2151.000000	18.664762
2150.000000	18.739657
2149.000000	19.712994
2148.000000	19.356656
2147.000000	19.644079
2146.000000	19.331952
2145.000000	19.533109
2144.000000	19.590653
2143.000000	19.558793
2142.000000	19.999535
2141.000000	19.676723
2140.000000	20.128836
2139.000000	19.419885
2138.000000	20.042374
2137.000000	20.190007
2136.000000	20.163637
2135.000000	20.250589
2134.000000	20.149716
2133.000000	20.247256
2132.000000	20.008161
2131.000000	20.313132
2130.000000	20.037178
2129.000000	20.553305
2128.000000	20.449785
2127.000000	20.484194
2126.000000	20.501349
2125.000000	20.731915
2124.000000	20.751129
2123.000000	20.449197
2122.000000	20.491350
2121.000000	20.595360
2120.000000	20.523798
2119.000000	20.712113
2118.000000	20.774950
2117.000000	20.584478
2116.000000	20.934640
2115.000000	20.724563
2114.000000	20.603398
2113.000000	20.538404
2112.000000	20.706819
2111.000000	20.895723
2110.000000	20.662804
2109.000000	20.905330
2108.000000	20.690350
2107.000000	20.336463
2106.000000	20.787792
2105.000000	21.019338
2104.000000	20.900820
2103.000000	20.813378
2102.000000	20.688782
2101.000000	20.833866
2100.000000	20.789851
2099.000000	20.913172
2098.000000	20.725053
2097.000000	20.744757
2096.000000	20.390772
2095.000000	20.726523
2094.000000	20.532326
2093.000000	20.640453
2092.000000	20.838081
2091.000000	20.806123
2090.000000	20.662412
2089.000000	20.637512
2088.000000	20.746423
2087.000000	20.914642
2086.000000	20.704957
2085.000000	20.853276
2084.000000	20.708584
2083.000000	20.590164
2082.000000	20.475665
2081.000000	20.520269
2080.000000	20.614867
2079.000000	20.527523
2078.000000	20.555461
2077.000000	20.506152
2076.000000	20.453609
2075.000000	20.447531
2074.000000	20.364107
2073.000000	20.413907
2072.000000	20.327150
2071.000000	20.195104
2070.000000	20.142266
2069.000000	19.987869
2068.000000	19.685840
2067.000000	19.768871
2066.000000	19.788281
2065.000000	19.614964
2064.000000	19.411651
2063.000000	19.425571
2062.000000	19.310190
2061.000000	19.320581
2060.000000	19.334403
2059.000000	19.187163
2058.000000	19.051980
2057.000000	18.982967
2056.000000	18.958067
2055.000000	18.837785
2054.000000	19.055901
2053.000000	18.993260
2052.000000	18.768085
2051.000000	18.851019
2050.000000	19.122169
2049.000000	19.119718
2048.000000	19.090505
2047.000000	19.215983
2046.000000	19.270978
2045.000000	19.318130
2044.000000	19.511445
2043.000000	19.782497
2042.000000	19.815729
2041.000000	19.855823
2040.000000	20.053549
2039.000000	19.987673
2038.000000	20.095114
2037.000000	20.160598
2036.000000	20.320288
2035.000000	20.379106
2034.000000	20.464686
2033.000000	20.527229
2032.000000	20.666529
2031.000000	20.833964
2030.000000	20.763481
2029.000000	20.819554
2028.000000	20.946894
2027.000000	20.990027
2026.000000	20.973068
2025.000000	20.871607
2024.000000	20.929151
2023.000000	21.051002
2022.000000	21.134425
2021.000000	21.121191
2020.000000	21.085312
2019.000000	21.091978
2018.000000	21.201771
2017.000000	21.206281
2016.000000	21.189812
2015.000000	21.180009
2014.000000	21.167853
2013.000000	21.282744
2012.000000	21.255492
2011.000000	21.111094
2010.000000	21.047571
2009.000000	21.111486
2008.000000	21.129229
2007.000000	21.119917
2006.000000	21.079626
2005.000000	20.976205
2004.000000	20.909153
2003.000000	20.959148
2002.000000	20.945130
2001.000000	20.802790
2000.000000	20.702996
1999.000000	20.704761
1998.000000	20.668882
1997.000000	20.593791
1996.000000	20.434101
1995.000000	20.393712
1994.000000	20.458314
1993.000000	20.357932
1992.000000	20.236571
1991.000000	20.165401
1990.000000	20.090997
1989.000000	19.998653
1988.000000	19.827003
1987.000000	19.764264
1986.000000	19.746814
1985.000000	19.594476
1984.000000	19.494682
1983.000000	19.456058
1982.000000	19.385281
1981.000000	19.259116
1980.000000	19.197260
1979.000000	19.145402
1978.000000	19.084918
1977.000000	18.981202
1976.000000	18.888662
1975.000000	18.831903
1974.000000	18.715640
1973.000000	18.631334
1972.000000	18.585358
1971.000000	18.528109
1970.000000	18.441254
1969.000000	18.364399
1968.000000	18.227550
1967.000000	18.144812
1966.000000	18.098640
1965.000000	18.011394
1964.000000	17.933362
1963.000000	17.864938
1962.000000	17.789259
1961.000000	17.819354
1960.000000	17.697013
1959.000000	17.526049
1958.000000	17.471250
1957.000000	17.419490
1956.000000	17.429097
1955.000000	17.382435
1954.000000	17.284504
1953.000000	17.184121
1952.000000	17.117461
1951.000000	17.010903
1950.000000	16.988650
1949.000000	16.866505
1948.000000	16.789944
1947.000000	16.807981
1946.000000	16.757594
1945.000000	16.669955
1944.000000	16.568396
1943.000000	16.541242
1942.000000	16.565652
1941.000000	16.578493
1940.000000	16.527910
1939.000000	16.527812
1938.000000	16.555358
1937.000000	16.523205
1936.000000	16.491639
1935.000000	16.483895
1934.000000	16.489286
1933.000000	16.565848
1932.000000	16.558593
1931.000000	16.608589
1930.000000	16.663779
1929.000000	16.777984
1928.000000	16.872779
1927.000000	16.994139
1926.000000	17.040998
1925.000000	17.085895
1924.000000	17.183435
1923.000000	17.392924
1922.000000	17.339302
1921.000000	17.546831
1920.000000	17.827392
1919.000000	17.906502
1918.000000	17.941597
1917.000000	18.145989
1916.000000	18.421942
1915.000000	18.599866
1914.000000	18.924933
1913.000000	19.177163
1912.000000	19.294897
1911.000000	19.642805
1910.000000	19.853373
1909.000000	20.128248
1908.000000	20.348227
1907.000000	20.690350
1906.000000	21.226671
1905.000000	21.653885
1904.000000	21.828672
1903.000000	22.203047
1902.000000	22.607028
1901.000000	23.019733
1900.000000	23.424399
1899.000000	24.197462
1898.000000	24.463613
1897.000000	24.845831
1896.000000	25.246772
1895.000000	25.709178
1894.000000	26.168644
1893.000000	26.767017
1892.000000	27.102475
1891.000000	27.620758
1890.000000	28.160706
1889.000000	28.569392
1888.000000	28.880930
1887.000000	29.340886
1886.000000	29.772412
1885.000000	30.213350
1884.000000	30.639289
1883.000000	30.921419
1882.000000	31.248152
1881.000000	31.595079
1880.000000	31.940928
1879.000000	32.130812
1878.000000	32.423136
1877.000000	32.796630
1876.000000	33.113952
1875.000000	33.110325
1874.000000	33.465388
1873.000000	33.807414
1872.000000	33.865644
1871.000000	34.048959
1870.000000	34.340794
1869.000000	34.476173
1868.000000	34.510091
1867.000000	34.580869
1866.000000	34.477251
1865.000000	34.514601
1864.000000	34.738108
1863.000000	34.852705
1862.000000	34.743990
1861.000000	35.028963
1860.000000	35.238942
1859.000000	35.276782
1858.000000	35.131796
1857.000000	35.161303
1856.000000	35.322267
1855.000000	35.263940
1854.000000	35.337560
1853.000000	35.445491
1852.000000	35.339227
1851.000000	35.277076
1850.000000	35.439315
1849.000000	35.460587
1848.000000	35.663901
1847.000000	35.740168
1846.000000	35.455588
1845.000000	35.254823
1844.000000	35.309131
1843.000000	35.399809
1842.000000	35.563127
1841.000000	35.556461
1840.000000	35.418239
1839.000000	35.382948
1838.000000	35.340109
1837.000000	35.482840
1836.000000	35.462058
1835.000000	35.251000
1834.000000	35.190417
1833.000000	35.123267
1832.000000	35.152186
1831.000000	35.168067
1830.000000	35.110131
1829.000000	35.037099
1828.000000	35.014552
1827.000000	34.967498
1826.000000	35.007004
1825.000000	34.934266
1824.000000	34.865155
1823.000000	34.973870
1822.000000	35.025531
1821.000000	35.122875
1820.000000	35.172380
1819.000000	34.987300
1818.000000	34.878193
1817.000000	34.927404
1816.000000	34.973968
1815.000000	35.025630
1814.000000	34.892897
1813.000000	34.853587
1812.000000	34.887310
1811.000000	34.874076
1810.000000	34.862998
1809.000000	34.787221
1808.000000	34.766243
1807.000000	34.804278
1806.000000	34.725757
1805.000000	34.705660
1804.000000	34.675957
1803.000000	34.706543
1802.000000	34.653803
1801.000000	34.648901
1800.000000	34.631550
1799.000000	34.627335
1798.000000	34.591358
1797.000000	34.577732
1796.000000	34.572438
1795.000000	34.541265
1794.000000	34.508523
1793.000000	34.516267
1792.000000	34.492642
1791.000000	34.468821
1790.000000	34.478232
1789.000000	34.508523
1788.000000	34.518816
1787.000000	34.524011
1786.000000	34.554597
1785.000000	34.563910
1784.000000	34.542931
1783.000000	34.533912
1782.000000	34.528521
1781.000000	34.499896
1780.000000	34.537147
1779.000000	34.567243
1778.000000	34.506562
1777.000000	34.479506
1776.000000	34.477839
1775.000000	34.432942
1774.000000	34.389221
1773.000000	34.355792
1772.000000	34.347068
1771.000000	34.310503
1770.000000	34.278937
1769.000000	34.301974
1768.000000	34.275506
1767.000000	34.230804
1766.000000	34.210218
1765.000000	34.180711
1764.000000	34.166791
1763.000000	34.150126
1762.000000	34.133559
1761.000000	34.111208
1760.000000	34.109052
1759.000000	34.120423
1758.000000	34.133461
1757.000000	34.154733
1756.000000	34.156596
1755.000000	34.149048
1754.000000	34.136402
1753.000000	34.159537
1752.000000	34.160909
1751.000000	34.143166
1750.000000	34.117776
1749.000000	34.099347
1748.000000	34.063076
1747.000000	34.027393
1746.000000	33.996808
1745.000000	33.957596
1744.000000	33.927599
1743.000000	33.895543
1742.000000	33.808100
1741.000000	33.737421
1740.000000	33.711933
1739.000000	33.649194
1738.000000	33.606355
1737.000000	33.567143
1736.000000	33.506169
1735.000000	33.474211
1734.000000	33.452939
1733.000000	33.422647
1732.000000	33.393042
1731.000000	33.358634
1730.000000	33.300600
1729.000000	33.274230
1728.000000	33.268055
1727.000000	33.250017
1726.000000	33.213256
1725.000000	33.189435
1724.000000	33.191983
1723.000000	33.198257
1722.000000	33.241685
1721.000000	33.335205
1720.000000	33.456076
1719.000000	33.584200
1718.000000	33.716737
1717.000000	33.860448
1716.000000	34.037392
1715.000000	34.193945
1714.000000	34.354910
1713.000000	34.532638
1712.000000	34.643412
1711.000000	34.733109
1710.000000	34.848980
1709.000000	34.916817
1708.000000	34.998475
1707.000000	35.069547
1706.000000	35.141109
1705.000000	35.186202
1704.000000	35.205808
1703.000000	35.215219
1702.000000	35.241491
1701.000000	35.247863
1700.000000	35.292957
1699.000000	35.294819
1698.000000	35.245314
1697.000000	35.258254
1696.000000	35.249627
1695.000000	35.188359
1694.000000	35.153656
1693.000000	35.131502
1692.000000	35.076997
1691.000000	35.040432
1690.000000	34.995142
1689.000000	34.968184
1688.000000	34.961518
1687.000000	35.028865
1686.000000	35.088565
1685.000000	35.191790
1684.000000	35.334815
1683.000000	35.488134
1682.000000	35.639100
1681.000000	35.812906
1680.000000	35.980635
1679.000000	36.124053
1678.000000	36.290605
1677.000000	36.452354
1676.000000	36.583028
1675.000000	36.671353
1674.000000	36.806634
1673.000000	36.920740
1672.000000	37.022201
1671.000000	37.153659
1670.000000	37.298351
1669.000000	37.451669
1668.000000	37.576069
1667.000000	37.688705
1666.000000	37.814869
1665.000000	37.904959
1664.000000	37.992205
1663.000000	38.041220
1662.000000	38.156209
1661.000000	38.226202
1660.000000	38.282667
1659.000000	38.375992
1658.000000	38.456670
1657.000000	38.488432
1656.000000	38.542250
1655.000000	38.596951
1654.000000	38.664787
1653.000000	38.674688
1652.000000	38.685667
1651.000000	38.671159
1650.000000	38.702136
1649.000000	38.720664
1648.000000	38.722429
1647.000000	38.681550
1646.000000	38.665277
1645.000000	38.662630
1644.000000	38.677923
1643.000000	38.655670
1642.000000	38.648122
1641.000000	38.632535
1640.000000	38.637143
1639.000000	38.662728
1638.000000	38.632045
1637.000000	38.645279
1636.000000	38.613125
1635.000000	38.642730
1634.000000	38.609204
1633.000000	38.588422
1632.000000	38.558425
1631.000000	38.529016
1630.000000	38.456180
1629.000000	38.451670
1628.000000	38.416380
1627.000000	38.361483
1626.000000	38.373051
1625.000000	38.352758
1624.000000	38.307861
1623.000000	38.289039
1622.000000	38.271688
1621.000000	38.201303
1620.000000	38.206596
1619.000000	38.159444
1618.000000	38.132094
1617.000000	38.138073
1616.000000	38.099450
1615.000000	38.034554
1614.000000	38.037299
1613.000000	38.018085
1612.000000	37.950935
1611.000000	37.973481
1610.000000	37.919761
1609.000000	37.887902
1608.000000	37.824672
1607.000000	37.774089
1606.000000	37.741151
1605.000000	37.685666
1604.000000	37.659590
1603.000000	37.552346
1602.000000	37.522741
1601.000000	37.463041
1600.000000	37.415398
1599.000000	37.371873
1598.000000	37.281980
1597.000000	37.251885
1596.000000	37.206007
1595.000000	37.185224
1594.000000	37.149248
1593.000000	37.103566
1592.000000	37.090822
1591.000000	37.069843
1590.000000	37.032102
1589.000000	36.986420
1588.000000	36.968089
1587.000000	36.926622
1586.000000	36.914172
1585.000000	36.856825
1584.000000	36.841238
1583.000000	36.770461
1582.000000	36.754678
1581.000000	36.764579
1580.000000	36.716446
1579.000000	36.710270
1578.000000	36.710270
1577.000000	36.671647
1576.000000	36.660569
1575.000000	36.688214
1574.000000	36.692233
1573.000000	36.670666
1572.000000	36.662628
1571.000000	36.682136
1570.000000	36.676744
1569.000000	36.673803
1568.000000	36.691841
1567.000000	36.711349
1566.000000	36.725465
1565.000000	36.760168
1564.000000	36.794772
1563.000000	36.779675
1562.000000	36.772421
1561.000000	36.758795
1560.000000	36.763697
1559.000000	36.750659
1558.000000	36.728112
1557.000000	36.682136
1556.000000	36.677136
1555.000000	36.631847
1554.000000	36.592341
1553.000000	36.555579
1552.000000	36.505878
1551.000000	36.436571
1550.000000	36.397360
1549.000000	36.347266
1548.000000	36.283155
1547.000000	36.228846
1546.000000	36.153854
1545.000000	36.099643
1544.000000	36.061902
1543.000000	36.027003
1542.000000	36.023964
1541.000000	35.970734
1540.000000	35.927601
1539.000000	35.909564
1538.000000	35.882409
1537.000000	35.873293
1536.000000	35.888291
1535.000000	35.834767
1534.000000	35.799476
1533.000000	35.766734
1532.000000	35.738894
1531.000000	35.700956
1530.000000	35.678017
1529.000000	35.599398
1528.000000	35.572635
1527.000000	35.548226
1526.000000	35.493427
1525.000000	35.452549
1524.000000	35.409906
1523.000000	35.362656
1522.000000	35.314425
1521.000000	35.267469
1520.000000	35.220415
1519.000000	35.181889
1518.000000	35.136207
1517.000000	35.084447
1516.000000	35.035531
1515.000000	35.014650
1514.000000	34.960930
1513.000000	34.893583
1512.000000	34.835354
1511.000000	34.787515
1510.000000	34.743990
1509.000000	34.695171
1508.000000	34.672134
1507.000000	34.595965
1506.000000	34.519600
