PE UV       SUBTECH     SPECTRUM    ASCII       PEDS        4.00        
   -1
CICIMAUCR0205-2.ASC
24/06/06
13:30:30.00
24/06/06
13:30:30.00
Vinicio Soto Monge
C. cupreomarginata. Sex F. Ventral
250,000000
1
Lambda 1050
1050L1511233
PerkinElmer UV WinLab 6.3.2.0749 / 2.02.05 Lambda 900 UV/VIS/NIR, Aug  7 2015 09:38:08

0
0
3350/servo 860,8/2
0
0
UV/VIS
1
1
1
DoubleDePol,CommonBeamDepol,RBeamAtt,SBeamAtt,60mm sphere, WB InGaAs Detector
0
0
0
0
Program
Program
3350/servo 860,8/2
3350/0,2 860,8/0,2
3350/0,2 860,8/0,2
0
15.00
 
 
 
0
 
860,8
319,2
860,8
Front
100
on
S:100 R:100
0
0
0
0
 
0
 
 
 
0
 
 
0
0
0
0
0
 
 
 
 
0
0


0
0
#HDR
-1
-1
#GR
nm
%R
1.0
0.0
2500,000000
-1,000000
2251
8
60,163400
4,353200
#DATA
2482.000000	10.645744
2481.000000	10.678204
2480.000000	10.586059
2479.000000	10.602464
2478.000000	10.581522
2477.000000	10.603627
2476.000000	10.639810
2475.000000	10.626547
2474.000000	10.592924
2473.000000	10.628758
2472.000000	10.706592
2471.000000	10.666919
2470.000000	10.707756
2469.000000	10.687861
2468.000000	10.746498
2467.000000	10.775119
2466.000000	10.779075
2465.000000	10.827823
2464.000000	10.888787
2463.000000	10.894837
2462.000000	10.900189
2461.000000	10.970810
2460.000000	10.953126
2459.000000	10.973835
2458.000000	11.051204
2457.000000	11.090994
2456.000000	11.145792
2455.000000	11.200474
2454.000000	11.242125
2453.000000	11.280635
2452.000000	11.346370
2451.000000	11.369988
2450.000000	11.422808
2449.000000	11.464459
2448.000000	11.542294
2447.000000	11.615707
2446.000000	11.694705
2445.000000	11.733913
2444.000000	11.774517
2443.000000	11.846767
2442.000000	11.920995
2441.000000	11.978585
2440.000000	12.046647
2439.000000	12.123783
2438.000000	12.168576
2437.000000	12.232565
2436.000000	12.293762
2435.000000	12.337624
2434.000000	12.399636
2433.000000	12.473631
2432.000000	12.534828
2431.000000	12.575548
2430.000000	12.634419
2429.000000	12.700619
2428.000000	12.758674
2427.000000	12.799628
2426.000000	12.845002
2425.000000	12.883977
2424.000000	12.942848
2423.000000	12.986942
2422.000000	13.040112
2421.000000	13.090954
2420.000000	13.122367
2419.000000	13.170534
2418.000000	13.209160
2417.000000	13.263609
2416.000000	13.303864
2415.000000	13.333299
2414.000000	13.384840
2413.000000	13.401244
2412.000000	13.431610
2411.000000	13.462325
2410.000000	13.499206
2409.000000	13.525966
2408.000000	13.551329
2407.000000	13.568315
2406.000000	13.595540
2405.000000	13.616016
2404.000000	13.638238
2403.000000	13.648942
2402.000000	13.671396
2401.000000	13.689430
2400.000000	13.716421
2399.000000	13.740156
2398.000000	13.741552
2397.000000	13.766217
2396.000000	13.782505
2395.000000	13.781458
2394.000000	13.797397
2393.000000	13.795303
2392.000000	13.805774
2391.000000	13.819154
2390.000000	13.842539
2389.000000	13.848821
2388.000000	13.846611
2387.000000	13.838350
2386.000000	13.840910
2385.000000	13.847774
2384.000000	13.837652
2383.000000	13.830555
2382.000000	13.835907
2381.000000	13.825320
2380.000000	13.818223
2379.000000	13.810544
2378.000000	13.809730
2377.000000	13.814034
2376.000000	13.794023
2375.000000	13.771103
2374.000000	13.765635
2373.000000	13.757258
2372.000000	13.731430
2371.000000	13.715723
2370.000000	13.705834
2369.000000	13.706416
2368.000000	13.706183
2367.000000	13.689081
2366.000000	13.685008
2365.000000	13.682216
2364.000000	13.668953
2363.000000	13.662670
2362.000000	13.660111
2361.000000	13.642426
2360.000000	13.639867
2359.000000	13.640216
2358.000000	13.624858
2357.000000	13.626720
2356.000000	13.605429
2355.000000	13.576110
2354.000000	13.580764
2353.000000	13.581695
2352.000000	13.555168
2351.000000	13.530503
2350.000000	13.528293
2349.000000	13.522475
2348.000000	13.513633
2347.000000	13.503046
2346.000000	13.495251
2345.000000	13.481988
2344.000000	13.472331
2343.000000	13.479661
2342.000000	13.477450
2341.000000	13.468026
2340.000000	13.469888
2339.000000	13.472913
2338.000000	13.483500
2337.000000	13.480940
2336.000000	13.478846
2335.000000	13.473960
2334.000000	13.471051
2333.000000	13.481871
2332.000000	13.488386
2331.000000	13.491644
2330.000000	13.501650
2329.000000	13.503511
2328.000000	13.507583
2327.000000	13.511074
2326.000000	13.512819
2325.000000	13.527362
2324.000000	13.530968
2323.000000	13.533993
2322.000000	13.540625
2321.000000	13.549118
2320.000000	13.551794
2319.000000	13.528409
2318.000000	13.508863
2317.000000	13.507002
2316.000000	13.489085
2315.000000	13.461395
2314.000000	13.452087
2313.000000	13.424397
2312.000000	13.389377
2311.000000	13.370995
2310.000000	13.352496
2309.000000	13.321549
2308.000000	13.294906
2307.000000	13.266401
2306.000000	13.239991
2305.000000	13.227775
2304.000000	13.202528
2303.000000	13.180656
2302.000000	13.194850
2301.000000	13.187636
2300.000000	13.179957
2299.000000	13.160877
2298.000000	13.161808
2297.000000	13.167741
2296.000000	13.183331
2295.000000	13.191592
2294.000000	13.204855
2293.000000	13.216257
2292.000000	13.199969
2291.000000	13.233360
2290.000000	13.267797
2289.000000	13.288507
2288.000000	13.309681
2287.000000	13.332369
2286.000000	13.351333
2285.000000	13.368552
2284.000000	13.401244
2283.000000	13.431843
2282.000000	13.474890
2281.000000	13.463372
2280.000000	13.500486
2279.000000	13.537600
2278.000000	13.559822
2277.000000	13.579717
2276.000000	13.605778
2275.000000	13.634748
2274.000000	13.680238
2273.000000	13.695712
2272.000000	13.707696
2271.000000	13.733524
2270.000000	13.761447
2269.000000	13.780411
2268.000000	13.805425
2267.000000	13.859874
2266.000000	13.908971
2265.000000	13.930262
2264.000000	13.990878
2263.000000	14.056612
2262.000000	14.106873
2261.000000	14.189594
2260.000000	14.244509
2259.000000	14.342936
2258.000000	14.425191
2257.000000	14.537580
2256.000000	14.617392
2255.000000	14.709072
2254.000000	14.845195
2253.000000	14.951417
2252.000000	15.069972
2251.000000	15.162466
2250.000000	15.276832
2249.000000	15.387941
2248.000000	15.493815
2247.000000	15.581887
2246.000000	15.672636
2245.000000	15.766410
2244.000000	15.832726
2243.000000	15.931386
2242.000000	15.987580
2241.000000	16.033536
2240.000000	16.091592
2239.000000	16.168612
2238.000000	16.206889
2237.000000	16.218873
2236.000000	16.292635
2235.000000	16.299383
2234.000000	16.279837
2233.000000	16.301477
2232.000000	16.308923
2231.000000	16.278674
2230.000000	16.303455
2229.000000	16.293101
2228.000000	16.268552
2227.000000	16.252380
2226.000000	16.245167
2225.000000	16.212241
2224.000000	16.124401
2223.000000	16.076700
2222.000000	16.022367
2221.000000	15.998051
2220.000000	15.978273
2219.000000	15.905325
2218.000000	15.841103
2217.000000	15.788050
2216.000000	15.737323
2215.000000	15.683340
2214.000000	15.644481
2213.000000	15.596896
2212.000000	15.577699
2211.000000	15.496956
2210.000000	15.473803
2209.000000	15.420052
2208.000000	15.353387
2207.000000	15.335586
2206.000000	15.295680
2205.000000	15.268339
2204.000000	15.234716
2203.000000	15.214821
2202.000000	15.202256
2201.000000	15.179801
2200.000000	15.135125
2199.000000	15.143153
2198.000000	15.126748
2197.000000	15.083701
2196.000000	15.083119
2195.000000	15.043329
2194.000000	15.039490
2193.000000	15.017850
2192.000000	15.011567
2191.000000	15.017268
2190.000000	14.989229
2189.000000	14.983994
2188.000000	14.972708
2187.000000	14.956769
2186.000000	14.929079
2185.000000	14.908486
2184.000000	14.923494
2183.000000	14.898829
2182.000000	14.912674
2181.000000	14.880447
2180.000000	14.877771
2179.000000	14.870674
2178.000000	14.883821
2177.000000	14.859040
2176.000000	14.839377
2175.000000	14.854968
2174.000000	14.835189
2173.000000	14.845660
2172.000000	14.864973
2171.000000	14.862763
2170.000000	14.884170
2169.000000	14.895455
2168.000000	14.903483
2167.000000	14.905694
2166.000000	14.929544
2165.000000	14.964331
2164.000000	15.001445
2163.000000	15.036698
2162.000000	15.064504
2161.000000	15.081141
2160.000000	15.135823
2159.000000	15.173519
2158.000000	15.244721
2157.000000	15.293121
2156.000000	15.350478
2155.000000	15.411443
2154.000000	15.466008
2153.000000	15.539189
2152.000000	15.616325
2151.000000	15.678337
2150.000000	15.761756
2149.000000	15.825280
2148.000000	15.887873
2147.000000	15.967336
2146.000000	16.031907
2145.000000	16.117188
2144.000000	16.195837
2143.000000	16.282281
2142.000000	16.331727
2141.000000	16.406304
2140.000000	16.480531
2139.000000	16.573142
2138.000000	16.620261
2137.000000	16.698793
2136.000000	16.777442
2135.000000	16.829681
2134.000000	16.896579
2133.000000	16.959172
2132.000000	17.019090
2131.000000	17.078192
2130.000000	17.102857
2129.000000	17.155329
2128.000000	17.201052
2127.000000	17.256897
2126.000000	17.315535
2125.000000	17.348926
2124.000000	17.377081
2123.000000	17.421990
2122.000000	17.448168
2121.000000	17.469924
2120.000000	17.499010
2119.000000	17.541825
2118.000000	17.557997
2117.000000	17.574401
2116.000000	17.588363
2115.000000	17.613842
2114.000000	17.630130
2113.000000	17.644557
2112.000000	17.659333
2111.000000	17.652585
2110.000000	17.668059
2109.000000	17.676319
2108.000000	17.675621
2107.000000	17.667244
2106.000000	17.677133
2105.000000	17.685045
2104.000000	17.692840
2103.000000	17.677133
2102.000000	17.665266
2101.000000	17.661660
2100.000000	17.670385
2099.000000	17.676784
2098.000000	17.679460
2097.000000	17.665615
2096.000000	17.644324
2095.000000	17.640834
2094.000000	17.647117
2093.000000	17.654214
2092.000000	17.650258
2091.000000	17.652003
2090.000000	17.661427
2089.000000	17.654446
2088.000000	17.636878
2087.000000	17.648862
2086.000000	17.645488
2085.000000	17.613842
2084.000000	17.594878
2083.000000	17.569631
2082.000000	17.539963
2081.000000	17.499010
2080.000000	17.458057
2079.000000	17.419663
2078.000000	17.368937
2077.000000	17.316000
2076.000000	17.257246
2075.000000	17.189767
2074.000000	17.115539
2073.000000	17.040846
2072.000000	16.969527
2071.000000	16.894601
2070.000000	16.808390
2069.000000	16.711824
2068.000000	16.632943
2067.000000	16.558133
2066.000000	16.467733
2065.000000	16.370121
2064.000000	16.284258
2063.000000	16.208286
2062.000000	16.124634
2061.000000	16.038772
2060.000000	15.977342
2059.000000	15.915447
2058.000000	15.862394
2057.000000	15.824233
2056.000000	15.785141
2055.000000	15.760709
2054.000000	15.761174
2053.000000	15.766177
2052.000000	15.775135
2051.000000	15.812598
2050.000000	15.862859
2049.000000	15.906372
2048.000000	15.962566
2047.000000	16.052849
2046.000000	16.152324
2045.000000	16.222596
2044.000000	16.321256
2043.000000	16.423755
2042.000000	16.517645
2041.000000	16.617469
2040.000000	16.701818
2039.000000	16.790938
2038.000000	16.900186
2037.000000	16.978834
2036.000000	17.055854
2035.000000	17.148814
2034.000000	17.219667
2033.000000	17.291103
2032.000000	17.351718
2031.000000	17.423270
2030.000000	17.476207
2029.000000	17.532750
2028.000000	17.580684
2027.000000	17.631410
2026.000000	17.666313
2025.000000	17.682020
2024.000000	17.730535
2023.000000	17.784985
2022.000000	17.801273
2021.000000	17.808952
2020.000000	17.837340
2019.000000	17.865030
2018.000000	17.889811
2017.000000	17.901096
2016.000000	17.908542
2015.000000	17.913312
2014.000000	17.904121
2013.000000	17.925296
2012.000000	17.917501
2011.000000	17.912498
2010.000000	17.888880
2009.000000	17.883063
2008.000000	17.855606
2007.000000	17.827450
2006.000000	17.786846
2005.000000	17.767417
2004.000000	17.709943
2003.000000	17.666779
2002.000000	17.628036
2001.000000	17.593947
2000.000000	17.529841
1999.000000	17.473182
1998.000000	17.422106
1997.000000	17.371962
1996.000000	17.327402
1995.000000	17.249451
1994.000000	17.186276
1993.000000	17.127057
1992.000000	17.042707
1991.000000	16.980580
1990.000000	16.902396
1989.000000	16.838872
1988.000000	16.754406
1987.000000	16.659120
1986.000000	16.595363
1985.000000	16.527418
1984.000000	16.440160
1983.000000	16.366630
1982.000000	16.308574
1981.000000	16.218058
1980.000000	16.159537
1979.000000	16.088334
1978.000000	16.019226
1977.000000	15.934062
1976.000000	15.848083
1975.000000	15.793750
1974.000000	15.722897
1973.000000	15.643666
1972.000000	15.585378
1971.000000	15.538724
1970.000000	15.467288
1969.000000	15.424008
1968.000000	15.338262
1967.000000	15.284976
1966.000000	15.219940
1965.000000	15.158277
1964.000000	15.095917
1963.000000	15.015639
1962.000000	14.968636
1961.000000	14.903949
1960.000000	14.821344
1959.000000	14.772596
1958.000000	14.708141
1957.000000	14.631121
1956.000000	14.584932
1955.000000	14.506167
1954.000000	14.418909
1953.000000	14.423330
1952.000000	14.328509
1951.000000	14.242065
1950.000000	14.214143
1949.000000	14.175167
1948.000000	14.114785
1947.000000	14.044164
1946.000000	13.997044
1945.000000	13.972379
1944.000000	13.927237
1943.000000	13.898035
1942.000000	13.869996
1941.000000	13.818106
1940.000000	13.795768
1939.000000	13.779829
1938.000000	13.750510
1937.000000	13.770638
1936.000000	13.759003
1935.000000	13.737596
1934.000000	13.755164
1933.000000	13.754001
1932.000000	13.783319
1931.000000	13.790766
1930.000000	13.822993
1929.000000	13.894079
1928.000000	13.944340
1927.000000	13.992158
1926.000000	14.075460
1925.000000	14.123278
1924.000000	14.209489
1923.000000	14.288952
1922.000000	14.362016
1921.000000	14.482898
1920.000000	14.622046
1919.000000	14.773527
1918.000000	14.875910
1917.000000	15.015523
1916.000000	15.154903
1915.000000	15.265896
1914.000000	15.425055
1913.000000	15.640641
1912.000000	15.868793
1911.000000	16.095897
1910.000000	16.297871
1909.000000	16.485883
1908.000000	16.702167
1907.000000	16.932878
1906.000000	17.243285
1905.000000	17.605349
1904.000000	17.984632
1903.000000	18.296784
1902.000000	18.665944
1901.000000	19.035105
1900.000000	19.466510
1899.000000	19.946082
1898.000000	20.478357
1897.000000	20.911856
1896.000000	21.349311
1895.000000	21.784207
1894.000000	22.208747
1893.000000	22.679709
1892.000000	23.214777
1891.000000	23.837452
1890.000000	24.430227
1889.000000	24.970996
1888.000000	25.509088
1887.000000	26.051719
1886.000000	26.568986
1885.000000	27.076596
1884.000000	27.588512
1883.000000	28.145103
1882.000000	28.599544
1881.000000	29.072368
1880.000000	29.507147
1879.000000	29.861416
1878.000000	30.266992
1877.000000	30.642203
1876.000000	31.004732
1875.000000	31.335615
1874.000000	31.666382
1873.000000	32.026701
1872.000000	32.369452
1871.000000	32.675786
1870.000000	32.976769
1869.000000	33.253785
1868.000000	33.526147
1867.000000	33.715440
1866.000000	33.880416
1865.000000	33.989780
1864.000000	34.088091
1863.000000	34.190707
1862.000000	34.264469
1861.000000	34.396869
1860.000000	34.530665
1859.000000	34.657364
1858.000000	34.779060
1857.000000	34.875044
1856.000000	34.941244
1855.000000	34.978125
1854.000000	35.048746
1853.000000	35.112619
1852.000000	35.139379
1851.000000	35.162997
1850.000000	35.162531
1849.000000	35.155900
1848.000000	35.195340
1847.000000	35.298654
1846.000000	35.334372
1845.000000	35.263635
1844.000000	35.194991
1843.000000	35.123090
1842.000000	35.102381
1841.000000	35.146010
1840.000000	35.142171
1839.000000	35.120298
1838.000000	35.063522
1837.000000	35.005350
1836.000000	34.982546
1835.000000	34.977544
1834.000000	34.931704
1833.000000	34.846074
1832.000000	34.768589
1831.000000	34.708555
1830.000000	34.671558
1829.000000	34.659691
1828.000000	34.623624
1827.000000	34.569524
1826.000000	34.536133
1825.000000	34.518332
1824.000000	34.467257
1823.000000	34.415368
1822.000000	34.393146
1821.000000	34.399661
1820.000000	34.413971
1819.000000	34.421999
1818.000000	34.384304
1817.000000	34.337882
1816.000000	34.294020
1815.000000	34.275289
1814.000000	34.262956
1813.000000	34.239804
1812.000000	34.196058
1811.000000	34.166158
1810.000000	34.148241
1809.000000	34.107520
1808.000000	34.053304
1807.000000	34.002345
1806.000000	33.968838
1805.000000	33.941962
1804.000000	33.914738
1803.000000	33.876577
1802.000000	33.841324
1801.000000	33.822593
1800.000000	33.808981
1799.000000	33.762559
1798.000000	33.712415
1797.000000	33.672392
1796.000000	33.648774
1795.000000	33.636093
1794.000000	33.610730
1793.000000	33.588857
1792.000000	33.550114
1791.000000	33.534292
1790.000000	33.527893
1789.000000	33.491011
1788.000000	33.474258
1787.000000	33.477748
1786.000000	33.464601
1785.000000	33.461111
1784.000000	33.452269
1783.000000	33.425277
1782.000000	33.399914
1781.000000	33.355238
1780.000000	33.326733
1779.000000	33.295204
1778.000000	33.246339
1777.000000	33.188516
1776.000000	33.142327
1775.000000	33.088111
1774.000000	33.020282
1773.000000	32.953617
1772.000000	32.882763
1771.000000	32.807372
1770.000000	32.731864
1769.000000	32.656939
1768.000000	32.587714
1767.000000	32.497198
1766.000000	32.400283
1765.000000	32.347928
1764.000000	32.277423
1763.000000	32.230653
1762.000000	32.202614
1761.000000	32.148630
1760.000000	32.116170
1759.000000	32.100463
1758.000000	32.083244
1757.000000	32.069167
1756.000000	32.067189
1755.000000	32.062070
1754.000000	32.050901
1753.000000	32.037288
1752.000000	32.018091
1751.000000	32.009017
1750.000000	31.974928
1749.000000	31.912800
1748.000000	31.871265
1747.000000	31.844273
1746.000000	31.779004
1745.000000	31.719435
1744.000000	31.683485
1743.000000	31.637994
1742.000000	31.557019
1741.000000	31.477788
1740.000000	31.398441
1739.000000	31.317349
1738.000000	31.244169
1737.000000	31.164124
1736.000000	31.089431
1735.000000	31.010898
1734.000000	30.952377
1733.000000	30.873263
1732.000000	30.807063
1731.000000	30.747145
1730.000000	30.714802
1729.000000	30.653605
1728.000000	30.603344
1727.000000	30.556806
1726.000000	30.544473
1725.000000	30.556806
1724.000000	30.556690
1723.000000	30.576236
1722.000000	30.651161
1721.000000	30.740863
1720.000000	30.854066
1719.000000	31.001707
1718.000000	31.158306
1717.000000	31.340153
1716.000000	31.496171
1715.000000	31.684532
1714.000000	31.863470
1713.000000	32.014019
1712.000000	32.190863
1711.000000	32.340598
1710.000000	32.473114
1709.000000	32.585852
1708.000000	32.681720
1707.000000	32.788873
1706.000000	32.874852
1705.000000	32.936863
1704.000000	32.991312
1703.000000	33.038897
1702.000000	33.113474
1701.000000	33.173624
1700.000000	33.216090
1699.000000	33.264489
1698.000000	33.319054
1697.000000	33.374667
1696.000000	33.410268
1695.000000	33.443543
1694.000000	33.453898
1693.000000	33.461344
1692.000000	33.449127
1691.000000	33.441914
1690.000000	33.464369
1689.000000	33.511023
1688.000000	33.576408
1687.000000	33.695778
1686.000000	33.850632
1685.000000	34.042018
1684.000000	34.259699
1683.000000	34.513795
1682.000000	34.793836
1681.000000	35.074691
1680.000000	35.315873
1679.000000	35.591028
1678.000000	35.840121
1677.000000	36.112483
1676.000000	36.344939
1675.000000	36.576465
1674.000000	36.789375
1673.000000	37.032302
1672.000000	37.239977
1671.000000	37.489303
1670.000000	37.681155
1669.000000	37.895345
1668.000000	38.127917
1667.000000	38.360838
1666.000000	38.540474
1665.000000	38.710919
1664.000000	38.875081
1663.000000	39.038893
1662.000000	39.193632
1661.000000	39.364309
1660.000000	39.506714
1659.000000	39.695076
1658.000000	39.798622
1657.000000	39.906474
1656.000000	40.003388
1655.000000	40.081223
1654.000000	40.174066
1653.000000	40.208271
1652.000000	40.243523
1651.000000	40.255390
1650.000000	40.273424
1649.000000	40.264233
1648.000000	40.277379
1647.000000	40.279590
1646.000000	40.291923
1645.000000	40.254460
1644.000000	40.239219
1643.000000	40.224210
1642.000000	40.199778
1641.000000	40.196869
1640.000000	40.169528
1639.000000	40.156498
1638.000000	40.132531
1637.000000	40.097744
1636.000000	40.068076
1635.000000	40.044458
1634.000000	40.008857
1633.000000	39.985122
1632.000000	39.904379
1631.000000	39.855631
1630.000000	39.828523
1629.000000	39.786406
1628.000000	39.721021
1627.000000	39.637253
1626.000000	39.584200
1625.000000	39.515556
1624.000000	39.488914
1623.000000	39.421783
1622.000000	39.365356
1621.000000	39.346741
1620.000000	39.276120
1619.000000	39.229466
1618.000000	39.184789
1617.000000	39.146745
1616.000000	39.088573
1615.000000	39.030400
1614.000000	38.990262
1613.000000	38.942560
1612.000000	38.881829
1611.000000	38.819235
1610.000000	38.760598
1609.000000	38.692071
1608.000000	38.611212
1607.000000	38.545593
