PE UV       SUBTECH     SPECTRUM    ASCII       PEDS        4.00        
   -1
CICIMAUCR0214-3.Sample.ASC
24/06/13
14:41:56.00
24/06/13
14:41:56.00
Vinicio Soto Monge
C. cupreomarginata. Sex M. Ventral 
250,000000
1
Lambda 1050
1050L1511233
PerkinElmer UV WinLab 6.3.2.0749 / 2.02.05 Lambda 900 UV/VIS/NIR, Aug  7 2015 09:38:08

0
0
3350/servo 860,8/2
0
0
UV/VIS
1
1
1
DoubleDePol,CommonBeamDepol,RBeamAtt,SBeamAtt,60mm sphere, WB InGaAs Detector
0
0
0
0
Program
Program
3350/servo 860,8/2
3350/0,2 860,8/0,2
3350/0,2 860,8/0,2
0
15.00
 
 
 
0
 
860,8
319,2
860,8
Front
100
on
S:100 R:100
0
0
0
0
 
0
 
 
 
0
 
 
0
0
0
0
0
 
 
 
 
0
0


0
0
#HDR
-1
-1
#GR
nm
%R
1.0
0.0
2500,000000
-1,000000
2251
8
61,184700
4,155300
#DATA
2482.000000	6.800497
2481.000000	6.821805
2480.000000	6.886288
2479.000000	6.865429
2478.000000	6.850626
2477.000000	6.903671
2476.000000	6.860607
2475.000000	6.785357
2474.000000	6.831337
2473.000000	6.771676
2472.000000	6.819898
2471.000000	6.826290
2470.000000	6.842776
2469.000000	6.819337
2468.000000	6.803861
2467.000000	6.800946
2466.000000	6.861168
2465.000000	6.819674
2464.000000	6.831337
2463.000000	6.849953
2462.000000	6.861280
2461.000000	6.864756
2460.000000	6.882700
2459.000000	6.919595
2458.000000	6.954585
2457.000000	6.977687
2456.000000	6.972416
2455.000000	6.999667
2454.000000	7.041273
2453.000000	7.081085
2452.000000	7.100149
2451.000000	7.125270
2450.000000	7.138279
2449.000000	7.151176
2448.000000	7.229229
2447.000000	7.262536
2446.000000	7.306497
2445.000000	7.337449
2444.000000	7.381410
2443.000000	7.427614
2442.000000	7.469332
2441.000000	7.506564
2440.000000	7.511162
2439.000000	7.590113
2438.000000	7.592692
2437.000000	7.621513
2436.000000	7.670297
2435.000000	7.693847
2434.000000	7.709884
2433.000000	7.759789
2432.000000	7.786928
2431.000000	7.849841
2430.000000	7.871934
2429.000000	7.891335
2428.000000	7.914774
2427.000000	7.937988
2426.000000	7.962323
2425.000000	7.984977
2424.000000	8.016041
2423.000000	8.052152
2422.000000	8.064039
2421.000000	8.069086
2420.000000	8.122130
2419.000000	8.147700
2418.000000	8.149045
2417.000000	8.189193
2416.000000	8.200969
2415.000000	8.220818
2414.000000	8.247173
2413.000000	8.264667
2412.000000	8.271172
2411.000000	8.289900
2410.000000	8.309525
2409.000000	8.327020
2408.000000	8.334534
2407.000000	8.358084
2406.000000	8.386233
2405.000000	8.396550
2404.000000	8.424699
2403.000000	8.458791
2402.000000	8.464623
2401.000000	8.480323
2400.000000	8.493556
2399.000000	8.529330
2398.000000	8.566451
2397.000000	8.604692
2396.000000	8.625327
2395.000000	8.638224
2394.000000	8.647868
2393.000000	8.679269
2392.000000	8.697324
2391.000000	8.715380
2390.000000	8.739603
2389.000000	8.747678
2388.000000	8.749920
2387.000000	8.764836
2386.000000	8.775377
2385.000000	8.773583
2384.000000	8.785134
2383.000000	8.801059
2382.000000	8.814516
2381.000000	8.809245
2380.000000	8.810255
2379.000000	8.816759
2378.000000	8.811600
2377.000000	8.802965
2376.000000	8.799152
2375.000000	8.805432
2374.000000	8.806330
2373.000000	8.790741
2372.000000	8.780873
2371.000000	8.777508
2370.000000	8.769546
2369.000000	8.749584
2368.000000	8.747229
2367.000000	8.743304
2366.000000	8.711342
2365.000000	8.675007
2364.000000	8.660765
2363.000000	8.644279
2362.000000	8.610524
2361.000000	8.591908
2360.000000	8.571049
2359.000000	8.538863
2358.000000	8.524620
2357.000000	8.512284
2356.000000	8.489295
2355.000000	8.465183
2354.000000	8.454417
2353.000000	8.455875
2352.000000	8.450492
2351.000000	8.449146
2350.000000	8.451053
2349.000000	8.462380
2348.000000	8.484360
2347.000000	8.503201
2346.000000	8.519237
2345.000000	8.547386
2344.000000	8.557703
2343.000000	8.583048
2342.000000	8.618037
2341.000000	8.636205
2340.000000	8.651681
2339.000000	8.680727
2338.000000	8.692614
2337.000000	8.698334
2336.000000	8.705399
2335.000000	8.713025
2334.000000	8.712800
2333.000000	8.717735
2332.000000	8.705959
2331.000000	8.688465
2330.000000	8.675119
2329.000000	8.673101
2328.000000	8.643831
2327.000000	8.621065
2326.000000	8.585740
2325.000000	8.555348
2324.000000	8.525069
2323.000000	8.495126
2322.000000	8.451726
2321.000000	8.411914
2320.000000	8.373673
2319.000000	8.318721
2318.000000	8.265452
2317.000000	8.222388
2316.000000	8.167886
2315.000000	8.112037
2314.000000	8.053946
2313.000000	8.011107
2312.000000	7.968379
2311.000000	7.917465
2310.000000	7.883037
2309.000000	7.838627
2308.000000	7.825057
2307.000000	7.807226
2306.000000	7.770891
2305.000000	7.774816
2304.000000	7.775489
2303.000000	7.793881
2302.000000	7.794105
2301.000000	7.814964
2300.000000	7.841879
2299.000000	7.888307
2298.000000	7.929016
2297.000000	7.971856
2296.000000	8.024115
2295.000000	8.077497
2294.000000	8.124261
2293.000000	8.134915
2292.000000	8.182016
2291.000000	8.210501
2290.000000	8.212744
2289.000000	8.247060
2288.000000	8.265004
2287.000000	8.282274
2286.000000	8.279470
2285.000000	8.259957
2284.000000	8.242575
2283.000000	8.248070
2282.000000	8.240780
2281.000000	8.204557
2280.000000	8.183025
2279.000000	8.177418
2278.000000	8.151961
2277.000000	8.136037
2276.000000	8.115177
2275.000000	8.083552
2274.000000	8.068189
2273.000000	8.064151
2272.000000	8.062581
2271.000000	8.048563
2270.000000	8.025910
2269.000000	8.049685
2268.000000	8.069646
2267.000000	8.103851
2266.000000	8.156447
2265.000000	8.197492
2264.000000	8.274536
2263.000000	8.351692
2262.000000	8.432549
2261.000000	8.555348
2260.000000	8.653139
2259.000000	8.762593
2258.000000	8.897840
2257.000000	9.042508
2256.000000	9.216221
2255.000000	9.367393
2254.000000	9.511500
2253.000000	9.664690
2252.000000	9.802405
2251.000000	10.010771
2250.000000	10.136823
2249.000000	10.287434
2248.000000	10.420550
2247.000000	10.549518
2246.000000	10.659644
2245.000000	10.764164
2244.000000	10.864758
2243.000000	10.976792
2242.000000	11.099367
2241.000000	11.152523
2240.000000	11.250202
2239.000000	11.315471
2238.000000	11.394870
2237.000000	11.495913
2236.000000	11.551088
2235.000000	11.586975
2234.000000	11.624992
2233.000000	11.685663
2232.000000	11.734109
2231.000000	11.730184
2230.000000	11.780986
2229.000000	11.803079
2228.000000	11.820686
2227.000000	11.829209
2226.000000	11.812163
2225.000000	11.820237
2224.000000	11.852086
2223.000000	11.806331
2222.000000	11.811153
2221.000000	11.776837
2220.000000	11.803640
2219.000000	11.755529
2218.000000	11.732091
2217.000000	11.712017
2216.000000	11.685999
2215.000000	11.666374
2214.000000	11.651122
2213.000000	11.598750
2212.000000	11.608731
2211.000000	11.566676
2210.000000	11.545930
2209.000000	11.534042
2208.000000	11.522491
2207.000000	11.487277
2206.000000	11.455204
2205.000000	11.478418
2204.000000	11.444101
2203.000000	11.444326
2202.000000	11.429523
2201.000000	11.412028
2200.000000	11.409561
2199.000000	11.414047
2198.000000	11.398683
2197.000000	11.406196
2196.000000	11.382758
2195.000000	11.381412
2194.000000	11.355282
2193.000000	11.353376
2192.000000	11.355507
2191.000000	11.327246
2190.000000	11.334311
2189.000000	11.330498
2188.000000	11.334311
2187.000000	11.309415
2186.000000	11.312443
2185.000000	11.301565
2184.000000	11.274874
2183.000000	11.261192
2182.000000	11.254127
2181.000000	11.242576
2180.000000	11.236520
2179.000000	11.226988
2178.000000	11.218129
2177.000000	11.197269
2176.000000	11.204335
2175.000000	11.193344
2174.000000	11.201307
2173.000000	11.198279
2172.000000	11.200410
2171.000000	11.178878
2170.000000	11.193120
2169.000000	11.205680
2168.000000	11.192223
2167.000000	11.201980
2166.000000	11.221717
2165.000000	11.231250
2164.000000	11.233605
2163.000000	11.246389
2162.000000	11.268033
2161.000000	11.298537
2160.000000	11.315583
2159.000000	11.330050
2158.000000	11.340031
2157.000000	11.369076
2156.000000	11.393636
2155.000000	11.422009
2154.000000	11.440961
2153.000000	11.475054
2152.000000	11.489408
2151.000000	11.541556
2150.000000	11.588433
2149.000000	11.607497
2148.000000	11.650113
2147.000000	11.682747
2146.000000	11.693513
2145.000000	11.727605
2144.000000	11.758109
2143.000000	11.777622
2142.000000	11.801285
2141.000000	11.860946
2140.000000	11.871936
2139.000000	11.892234
2138.000000	11.930027
2137.000000	11.946961
2136.000000	11.972082
2135.000000	11.977241
2134.000000	12.003931
2133.000000	12.013912
2132.000000	12.034771
2131.000000	12.068639
2130.000000	12.087367
2129.000000	12.079966
2128.000000	12.082994
2127.000000	12.092638
2126.000000	12.109012
2125.000000	12.108451
2124.000000	12.105759
2123.000000	12.095891
2122.000000	12.079181
2121.000000	12.074359
2120.000000	12.072676
2119.000000	12.056079
2118.000000	12.063929
2117.000000	12.050808
2116.000000	12.039706
2115.000000	12.023781
2114.000000	12.022211
2113.000000	12.004716
2112.000000	11.970512
2111.000000	11.936420
2110.000000	11.938663
2109.000000	11.938438
2108.000000	11.931037
2107.000000	11.881469
2106.000000	11.863301
2105.000000	11.855563
2104.000000	11.834704
2103.000000	11.808910
2102.000000	11.792874
2101.000000	11.773024
2100.000000	11.747343
2099.000000	11.721773
2098.000000	11.698447
2097.000000	11.677588
2096.000000	11.659421
2095.000000	11.630487
2094.000000	11.605815
2093.000000	11.600320
2092.000000	11.580246
2091.000000	11.562527
2090.000000	11.562527
2089.000000	11.542229
2088.000000	11.525519
2087.000000	11.512286
2086.000000	11.494567
2085.000000	11.485932
2084.000000	11.468437
2083.000000	11.431541
2082.000000	11.396552
2081.000000	11.382758
2080.000000	11.363918
2079.000000	11.324218
2078.000000	11.291696
2077.000000	11.275323
2076.000000	11.250090
2075.000000	11.217904
2074.000000	11.182466
2073.000000	11.152636
2072.000000	11.107665
2071.000000	11.071106
2070.000000	11.047780
2069.000000	11.004155
2068.000000	10.955148
2067.000000	10.919373
2066.000000	10.889879
2065.000000	10.840311
2064.000000	10.806443
2063.000000	10.779079
2062.000000	10.746557
2061.000000	10.731978
2060.000000	10.708764
2059.000000	10.677139
2058.000000	10.656504
2057.000000	10.653252
2056.000000	10.656616
2055.000000	10.666934
2054.000000	10.656504
2053.000000	10.661102
2052.000000	10.680503
2051.000000	10.710895
2050.000000	10.748351
2049.000000	10.789957
2048.000000	10.839189
2047.000000	10.900421
2046.000000	10.947858
2045.000000	10.996866
2044.000000	11.062022
2043.000000	11.107329
2042.000000	11.172149
2041.000000	11.238539
2040.000000	11.304593
2039.000000	11.368628
2038.000000	11.419429
2037.000000	11.479764
2036.000000	11.516884
2035.000000	11.572957
2034.000000	11.617254
2033.000000	11.652804
2032.000000	11.689924
2031.000000	11.743754
2030.000000	11.782108
2029.000000	11.808238
2028.000000	11.812051
2027.000000	11.828872
2026.000000	11.853208
2025.000000	11.885730
2024.000000	11.903113
2023.000000	11.930813
2022.000000	11.943709
2021.000000	11.945055
2020.000000	11.948868
2019.000000	11.946737
2018.000000	11.965802
2017.000000	11.951223
2016.000000	11.954139
2015.000000	11.958400
2014.000000	11.950550
2013.000000	11.947074
2012.000000	11.927448
2011.000000	11.923635
2010.000000	11.897505
2009.000000	11.890889
2008.000000	11.886067
2007.000000	11.860497
2006.000000	11.850292
2005.000000	11.809359
2004.000000	11.752613
2003.000000	11.726708
2002.000000	11.684093
2001.000000	11.645402
2000.000000	11.623983
1999.000000	11.588657
1998.000000	11.534491
1997.000000	11.481334
1996.000000	11.450494
1995.000000	11.392515
1994.000000	11.336778
1993.000000	11.286313
1992.000000	11.241903
1991.000000	11.190989
1990.000000	11.132674
1989.000000	11.072452
1988.000000	11.014024
1987.000000	10.981838
1986.000000	10.897617
1985.000000	10.856460
1984.000000	10.795453
1983.000000	10.706970
1982.000000	10.661663
1981.000000	10.600320
1980.000000	10.547387
1979.000000	10.488511
1978.000000	10.437709
1977.000000	10.376029
1976.000000	10.333750
1975.000000	10.270500
1974.000000	10.186279
1973.000000	10.157233
1972.000000	10.096787
1971.000000	10.042733
1970.000000	10.001800
1969.000000	9.945951
1968.000000	9.898962
1967.000000	9.857693
1966.000000	9.819451
1965.000000	9.755640
1964.000000	9.707081
1963.000000	9.676914
1962.000000	9.600319
1961.000000	9.569703
1960.000000	9.521032
1959.000000	9.486155
1958.000000	9.454979
1957.000000	9.389261
1956.000000	9.356515
1955.000000	9.320404
1954.000000	9.278798
1953.000000	9.245379
1952.000000	9.202315
1951.000000	9.167550
1950.000000	9.117982
1949.000000	9.065498
1948.000000	9.075030
1947.000000	9.017948
1946.000000	8.992267
1945.000000	8.971071
1944.000000	8.938100
1943.000000	8.947521
1942.000000	8.921503
1941.000000	8.903672
1940.000000	8.869019
1939.000000	8.890775
1938.000000	8.865879
1937.000000	8.864757
1936.000000	8.853431
1935.000000	8.863860
1934.000000	8.875748
1933.000000	8.900195
1932.000000	8.891448
1931.000000	8.915447
1930.000000	8.933951
1929.000000	8.972529
1928.000000	8.995743
1927.000000	9.052264
1926.000000	9.100038
1925.000000	9.132336
1924.000000	9.197493
1923.000000	9.268256
1922.000000	9.329488
1921.000000	9.384215
1920.000000	9.461371
1919.000000	9.526976
1918.000000	9.615234
1917.000000	9.695082
1916.000000	9.802405
1915.000000	9.920718
1914.000000	10.010435
1913.000000	10.145570
1912.000000	10.249641
1911.000000	10.387131
1910.000000	10.515313
1909.000000	10.643271
1908.000000	10.785247
1907.000000	10.927560
1906.000000	11.101609
1905.000000	11.291135
1904.000000	11.476287
1903.000000	11.677140
1902.000000	11.863189
1901.000000	12.084003
1900.000000	12.312443
1899.000000	12.541781
1898.000000	12.799042
1897.000000	13.065388
1896.000000	13.348667
1895.000000	13.614451
1894.000000	13.894703
1893.000000	14.196262
1892.000000	14.504774
1891.000000	14.867564
1890.000000	15.246391
1889.000000	15.629368
1888.000000	16.031858
1887.000000	16.438048
1886.000000	16.885621
1885.000000	17.358650
1884.000000	17.875752
1883.000000	18.434124
1882.000000	18.994739
1881.000000	19.574082
1880.000000	20.168677
1879.000000	20.751272
1878.000000	21.260076
1877.000000	21.819906
1876.000000	22.404856
1875.000000	22.892464
1874.000000	23.402726
1873.000000	23.875307
1872.000000	24.367289
1871.000000	24.801403
1870.000000	25.224192
1869.000000	25.632289
1868.000000	26.030181
1867.000000	26.360785
1866.000000	26.645186
1865.000000	26.888990
1864.000000	27.144569
1863.000000	27.341497
1862.000000	27.522724
1861.000000	27.712362
1860.000000	27.906597
1859.000000	28.070105
1858.000000	28.205353
1857.000000	28.315143
1856.000000	28.409121
1855.000000	28.506912
1854.000000	28.563209
1853.000000	28.615468
1852.000000	28.642047
1851.000000	28.694980
1850.000000	28.715726
1849.000000	28.722119
1848.000000	28.726941
1847.000000	28.739165
1846.000000	28.701933
1845.000000	28.653261
1844.000000	28.627804
1843.000000	28.613562
1842.000000	28.633524
1841.000000	28.637561
1840.000000	28.613338
1839.000000	28.573526
1838.000000	28.520930
1837.000000	28.494127
1836.000000	28.458577
1835.000000	28.420335
1834.000000	28.376935
1833.000000	28.311442
1832.000000	28.249314
1831.000000	28.189877
1830.000000	28.131673
1829.000000	28.073133
1828.000000	27.999117
1827.000000	27.911420
1826.000000	27.835385
1825.000000	27.778079
1824.000000	27.717184
1823.000000	27.675914
1822.000000	27.645523
1821.000000	27.619842
1820.000000	27.595282
1819.000000	27.543358
1818.000000	27.489304
1817.000000	27.431101
1816.000000	27.414391
1815.000000	27.435699
1814.000000	27.422578
1813.000000	27.390280
1812.000000	27.374916
1811.000000	27.349683
1810.000000	27.307180
1809.000000	27.257724
1808.000000	27.215445
1807.000000	27.168344
1806.000000	27.128420
1805.000000	27.079749
1804.000000	27.009546
1803.000000	26.945063
1802.000000	26.897065
1801.000000	26.846263
1800.000000	26.779536
1799.000000	26.715053
1798.000000	26.653821
1797.000000	26.596291
1796.000000	26.549526
1795.000000	26.497827
1794.000000	26.425157
1793.000000	26.365047
1792.000000	26.305273
1791.000000	26.235519
1790.000000	26.187408
1789.000000	26.136607
1788.000000	26.084795
1787.000000	26.009097
1786.000000	25.928128
1785.000000	25.864878
1784.000000	25.788507
1783.000000	25.708435
1782.000000	25.626794
1781.000000	25.551768
1780.000000	25.468332
1779.000000	25.380186
1778.000000	25.294170
1777.000000	25.197837
1776.000000	25.114065
1775.000000	25.016610
1774.000000	24.901661
1773.000000	24.785030
1772.000000	24.657857
1771.000000	24.540778
1770.000000	24.418090
1769.000000	24.307627
1768.000000	24.179333
1767.000000	24.054739
1766.000000	23.950220
1765.000000	23.857251
1764.000000	23.770675
1763.000000	23.716397
1762.000000	23.696996
1761.000000	23.717967
1760.000000	23.743199
1759.000000	23.783348
1758.000000	23.852990
1757.000000	23.919604
1756.000000	24.004386
1755.000000	24.047226
1754.000000	24.085579
1753.000000	24.127858
1752.000000	24.164754
1751.000000	24.164642
1750.000000	24.167670
1749.000000	24.142437
1748.000000	24.097579
1747.000000	24.042964
1746.000000	23.969733
1745.000000	23.886073
1744.000000	23.766414
1743.000000	23.641708
1742.000000	23.470238
1741.000000	23.278133
1740.000000	23.092083
1739.000000	22.869923
1738.000000	22.651128
1737.000000	22.439285
1736.000000	22.248974
1735.000000	22.092531
1734.000000	21.984311
1733.000000	21.913211
1732.000000	21.885175
1731.000000	21.906034
1730.000000	21.962555
1729.000000	22.052608
1728.000000	22.149277
1727.000000	22.242918
1726.000000	22.353942
1725.000000	22.454088
1724.000000	22.540104
1723.000000	22.612213
1722.000000	22.682304
1721.000000	22.738825
1720.000000	22.781216
1719.000000	22.825626
1718.000000	22.865998
1717.000000	22.932837
1716.000000	23.021095
1715.000000	23.113167
1714.000000	23.203444
1713.000000	23.294169
1712.000000	23.377718
1711.000000	23.442874
1710.000000	23.510273
1709.000000	23.576551
1708.000000	23.584962
1707.000000	23.584738
1706.000000	23.564215
1705.000000	23.522722
1704.000000	23.458462
1703.000000	23.394764
1702.000000	23.302019
1701.000000	23.199406
1700.000000	23.058776
1699.000000	22.918146
1698.000000	22.771347
1697.000000	22.615578
1696.000000	22.474723
1695.000000	22.381306
1694.000000	22.363138
1693.000000	22.403062
1692.000000	22.476517
1691.000000	22.626007
1690.000000	22.782786
1689.000000	22.929360
1688.000000	23.068084
1687.000000	23.161950
1686.000000	23.271628
1685.000000	23.339812
1684.000000	23.401156
1683.000000	23.541562
1682.000000	23.782899
1681.000000	24.091299
1680.000000	24.489751
1679.000000	25.011340
1678.000000	25.540217
1677.000000	26.100720
1676.000000	26.655728
1675.000000	27.152083
1674.000000	27.611767
1673.000000	28.032537
1672.000000	28.371777
1671.000000	28.686905
1670.000000	28.937326
1669.000000	29.190774
1668.000000	29.404636
1667.000000	29.595619
1666.000000	29.740287
1665.000000	29.897739
1664.000000	30.005399
1663.000000	30.129431
1662.000000	30.210849
1661.000000	30.308864
1660.000000	30.380525
1659.000000	30.458802
1658.000000	30.508034
1657.000000	30.553565
1656.000000	30.574088
1655.000000	30.609974
1654.000000	30.604255
1653.000000	30.608853
1652.000000	30.608516
1651.000000	30.577677
1650.000000	30.558388
1649.000000	30.508259
1648.000000	30.490988
1647.000000	30.428972
1646.000000	30.378170
1645.000000	30.316602
1644.000000	30.267819
1643.000000	30.202774
1642.000000	30.135263
1641.000000	30.069321
1640.000000	29.992165
1639.000000	29.931943
1638.000000	29.855797
1637.000000	29.803537
1636.000000	29.714045
1635.000000	29.646533
1634.000000	29.566461
1633.000000	29.474390
1632.000000	29.396113
1631.000000	29.294509
1630.000000	29.209391
1629.000000	29.110254
1628.000000	29.017958
1627.000000	28.916130
1626.000000	28.818452
1625.000000	28.721558
1624.000000	28.606497
1623.000000	28.526313
1622.000000	28.438391
1621.000000	28.328601
1620.000000	28.250435
1619.000000	28.153205
1618.000000	28.080311
1617.000000	27.990482
1616.000000	27.894037
1615.000000	27.802975
1614.000000	27.732323
1613.000000	27.635654
1612.000000	27.535733
1611.000000	27.465417
1610.000000	27.376038
1609.000000	27.277574
1608.000000	27.204567
1607.000000	27.117991
1606.000000	27.031303
1605.000000	26.932615
1604.000000	26.842562
1603.000000	26.745893
1602.000000	26.656064
1601.000000	26.574759
1600.000000	26.495920
1599.000000	26.380747
1598.000000	26.288676
1597.000000	26.202772
1596.000000	26.135373
1595.000000	26.050030
1594.000000	25.964688
