PE UV       SUBTECH     SPECTRUM    ASCII       PEDS        4.00        
   -1
CICIMAUCR0018-1.Sample.ASC
24/04/12
14:04:58.00
24/04/12
14:04:58.00
Vinicio Soto Monge
c. cupreomarginata
250,000000
1
Lambda 1050
1050L1511233
PerkinElmer UV WinLab 6.3.2.0749 / 2.02.05 Lambda 900 UV/VIS/NIR, Aug  7 2015 09:38:08

0
0
3350/servo 860,8/2
0
0
UV/VIS
1
1
1
DoubleDePol,CommonBeamDepol,RBeamAtt,SBeamAtt,60mm sphere, WB InGaAs Detector
0
0
0
0
Program
Program
3350/servo 860,8/2
3350/0,2 860,8/0,2
3350/0,2 860,8/0,2
0
15.00
 
 
 
0
 
860,8
319,2
860,8
Front
100
on
S:100 R:100
0
0
0
0
 
0
 
 
 
0
 
 
0
0
0
0
0
 
 
 
 
0
0


0
0
#HDR
-1
-1
#GR
nm
%R
1.0
0.0
2500,000000
-1,000000
2251
8
31,513900
1,645900
#DATA
2482.000000	7.985352
2481.000000	8.024328
2480.000000	8.007035
2479.000000	8.073548
2478.000000	8.010893
2477.000000	8.018741
2476.000000	8.052530
2475.000000	8.121969
2474.000000	8.097359
2473.000000	8.148308
2472.000000	8.164936
2471.000000	8.145115
2470.000000	8.177307
2469.000000	8.227458
2468.000000	8.249540
2467.000000	8.336006
2466.000000	8.321639
2465.000000	8.378441
2464.000000	8.443756
2463.000000	8.491113
2462.000000	8.508938
2461.000000	8.539933
2460.000000	8.586891
2459.000000	8.601258
2458.000000	8.654867
2457.000000	8.656064
2456.000000	8.706879
2455.000000	8.742796
2454.000000	8.780043
2453.000000	8.829927
2452.000000	8.861720
2451.000000	8.899499
2450.000000	8.930627
2449.000000	8.961356
2448.000000	8.978383
2447.000000	9.047423
2446.000000	9.109679
2445.000000	9.125509
2444.000000	9.157834
2443.000000	9.200668
2442.000000	9.274896
2441.000000	9.302698
2440.000000	9.312941
2439.000000	9.349124
2438.000000	9.411246
2437.000000	9.462993
2436.000000	9.471772
2435.000000	9.509419
2434.000000	9.537221
2433.000000	9.573004
2432.000000	9.616770
2431.000000	9.631934
2430.000000	9.643109
2429.000000	9.667585
2428.000000	9.708690
2427.000000	9.749529
2426.000000	9.883485
2425.000000	10.065995
2424.000000	10.181992
2423.000000	10.292802
2422.000000	10.368759
2421.000000	10.363172
2420.000000	10.375544
2419.000000	10.398025
2418.000000	10.421304
2417.000000	10.491275
2416.000000	10.587585
2415.000000	10.638401
2414.000000	10.691079
2413.000000	10.769164
2412.000000	10.774485
2411.000000	10.775151
2410.000000	10.849112
2409.000000	10.946886
2408.000000	10.999431
2407.000000	11.031357
2406.000000	11.044792
2405.000000	11.075122
2404.000000	11.163583
2403.000000	11.225839
2402.000000	11.226504
2401.000000	11.222779
2400.000000	11.285700
2399.000000	11.331993
2398.000000	11.322282
2397.000000	11.370969
2396.000000	11.430431
2395.000000	11.410078
2394.000000	11.437349
2393.000000	11.492554
2392.000000	11.485504
2391.000000	11.516365
2390.000000	11.571837
2389.000000	11.578621
2388.000000	11.627175
2387.000000	11.657771
2386.000000	11.639280
2385.000000	11.635024
2384.000000	11.678257
2383.000000	11.739847
2382.000000	11.726811
2381.000000	11.749824
2380.000000	11.803034
2379.000000	11.805828
2378.000000	11.793589
2377.000000	11.834561
2376.000000	11.876597
2375.000000	11.855446
2374.000000	11.848928
2373.000000	11.888702
2372.000000	11.916371
2371.000000	11.913046
2370.000000	11.906793
2369.000000	11.948430
2368.000000	12.043676
2367.000000	12.068552
2366.000000	12.063763
2365.000000	12.050061
2364.000000	12.027048
2363.000000	12.007227
2362.000000	12.061235
2361.000000	12.095423
2360.000000	12.060969
2359.000000	12.046071
2358.000000	12.097817
2357.000000	12.129477
2356.000000	12.110987
2355.000000	12.102473
2354.000000	12.155151
2353.000000	12.195990
2352.000000	12.189870
2351.000000	12.190270
2350.000000	12.247603
2349.000000	12.284451
2348.000000	12.283254
2347.000000	12.350298
2346.000000	12.396591
2345.000000	12.389408
2344.000000	12.462305
2343.000000	12.511126
2342.000000	12.489043
2341.000000	12.485053
2340.000000	12.556620
2339.000000	12.664237
2338.000000	12.719709
2337.000000	12.726759
2336.000000	12.720507
2335.000000	12.786354
2334.000000	12.905145
2333.000000	12.969263
2332.000000	12.977644
2331.000000	12.987754
2330.000000	13.076881
2329.000000	13.185562
2328.000000	13.229859
2327.000000	13.262184
2326.000000	13.283335
2325.000000	13.363682
2324.000000	13.412236
2323.000000	13.492317
2322.000000	13.535151
2321.000000	13.521184
2320.000000	13.531560
2319.000000	13.640507
2318.000000	13.753844
2317.000000	13.788830
2316.000000	13.803063
2315.000000	13.799073
2314.000000	13.829668
2313.000000	13.922254
2312.000000	13.948460
2311.000000	13.978390
2310.000000	14.004862
2309.000000	14.131369
2308.000000	14.186175
2307.000000	14.237257
2306.000000	14.361236
2305.000000	14.442780
2304.000000	14.474440
2303.000000	14.504105
2302.000000	14.626488
2301.000000	14.715348
2300.000000	14.744481
2299.000000	14.878836
2298.000000	14.939229
2297.000000	14.959050
2296.000000	14.993104
2295.000000	15.102451
2294.000000	15.143555
2293.000000	15.151670
2292.000000	15.136106
2291.000000	15.239732
2290.000000	15.270195
2289.000000	15.249842
2288.000000	15.312763
2287.000000	15.318749
2286.000000	15.295204
2285.000000	15.244255
2284.000000	15.341763
2283.000000	15.323804
2282.000000	15.267801
2281.000000	15.222971
2280.000000	15.284828
2279.000000	15.277778
2278.000000	15.250774
2277.000000	15.323139
2276.000000	15.342162
2275.000000	15.345620
2274.000000	15.347616
2273.000000	15.364510
2272.000000	15.493278
2271.000000	15.535979
2270.000000	15.585464
2269.000000	15.631358
2268.000000	15.839143
2267.000000	15.943833
2266.000000	16.024180
2265.000000	16.104394
2264.000000	16.327876
2263.000000	16.450791
2262.000000	16.558807
2261.000000	16.655118
2260.000000	16.761005
2259.000000	17.019473
2258.000000	17.173250
2257.000000	17.253597
2256.000000	17.378374
2255.000000	17.599328
2254.000000	17.694707
2253.000000	17.824539
2252.000000	17.899965
2251.000000	18.149918
2250.000000	18.238779
2249.000000	18.317264
2248.000000	18.419028
2247.000000	18.633065
2246.000000	18.703435
2245.000000	18.790566
2244.000000	18.871046
2243.000000	18.945540
2242.000000	19.124592
2241.000000	19.191903
2240.000000	19.233007
2239.000000	19.303643
2238.000000	19.465402
2237.000000	19.512892
2236.000000	19.559184
2235.000000	19.590977
2234.000000	19.629288
2233.000000	19.798097
2232.000000	19.826697
2231.000000	19.847981
2230.000000	19.871926
2229.000000	19.917952
2228.000000	19.922342
2227.000000	19.931255
2226.000000	20.092614
2225.000000	20.094077
2224.000000	20.123742
2223.000000	20.127600
2222.000000	20.139971
2221.000000	20.110040
2220.000000	20.123742
2219.000000	20.067738
2218.000000	20.078647
2217.000000	20.074789
2216.000000	20.058427
2215.000000	20.067605
2214.000000	20.163649
2213.000000	20.146356
2212.000000	20.144627
2211.000000	20.020249
2210.000000	20.006281
2209.000000	19.991116
2208.000000	20.004685
2207.000000	19.985396
2206.000000	19.967039
2205.000000	19.942030
2204.000000	19.920347
2203.000000	19.936044
2202.000000	20.064014
2201.000000	20.042730
2200.000000	20.018652
2199.000000	20.015061
2198.000000	19.989653
2197.000000	19.958791
2196.000000	20.069601
2195.000000	20.040202
2194.000000	20.038074
2193.000000	19.992845
2192.000000	20.006813
2191.000000	19.934714
2190.000000	19.928195
2189.000000	19.912898
2188.000000	19.886159
2187.000000	19.866738
2186.000000	19.839202
2185.000000	19.814193
2184.000000	19.807143
2183.000000	19.753933
2182.000000	19.627293
2181.000000	19.599757
2180.000000	19.578340
2179.000000	19.568097
2178.000000	19.550671
2177.000000	19.511561
2176.000000	19.340757
2175.000000	19.341156
2174.000000	19.337166
2173.000000	19.288346
2172.000000	19.263603
2171.000000	19.238860
2170.000000	19.127385
2169.000000	19.094661
2168.000000	19.075905
2167.000000	19.047038
2166.000000	19.000214
2165.000000	18.886078
2164.000000	18.866657
2163.000000	18.860005
2162.000000	18.845639
2161.000000	18.837125
2160.000000	18.780190
2159.000000	18.682284
2158.000000	18.658340
2157.000000	18.654482
2156.000000	18.650624
2155.000000	18.593556
2154.000000	18.486604
2153.000000	18.487935
2152.000000	18.482082
2151.000000	18.460266
2150.000000	18.430468
2149.000000	18.438982
2148.000000	18.416766
2147.000000	18.383377
2146.000000	18.359965
2145.000000	18.353447
2144.000000	18.340011
2143.000000	18.314736
2142.000000	18.297709
2141.000000	18.279884
2140.000000	18.268843
2139.000000	18.241173
2138.000000	18.224013
2137.000000	18.193285
2136.000000	18.224545
2135.000000	18.287466
2134.000000	18.244898
2133.000000	18.223747
2132.000000	18.193684
2131.000000	18.196876
2130.000000	18.258600
2129.000000	18.244233
2128.000000	18.239577
2127.000000	18.270173
2126.000000	18.241307
2125.000000	18.217096
2124.000000	18.248091
2123.000000	18.330566
2122.000000	18.401868
2121.000000	18.368079
2120.000000	18.309681
2119.000000	18.277755
2118.000000	18.296911
2117.000000	18.391625
2116.000000	18.434326
2115.000000	18.392290
2114.000000	18.415702
2113.000000	18.473967
2112.000000	18.436055
2111.000000	18.475164
2110.000000	18.535824
2109.000000	18.545801
2108.000000	18.564291
2107.000000	18.561098
2106.000000	18.618166
2105.000000	18.676963
2104.000000	18.682151
2103.000000	18.683481
2102.000000	18.676963
2101.000000	18.727380
2100.000000	18.773406
2099.000000	18.769282
2098.000000	18.852689
2097.000000	18.928646
2096.000000	18.979196
2095.000000	19.054488
2094.000000	19.074442
2093.000000	19.075905
2092.000000	19.142550
2091.000000	19.209728
2090.000000	19.290075
2089.000000	19.367229
2088.000000	19.375876
2087.000000	19.400885
2086.000000	19.486819
2085.000000	19.557322
2084.000000	19.583528
2083.000000	19.664407
2082.000000	19.727727
2081.000000	19.746350
2080.000000	19.834280
2079.000000	19.911301
2078.000000	19.951475
2077.000000	20.053106
2076.000000	20.123742
2075.000000	20.156732
2074.000000	20.280046
2073.000000	20.369040
2072.000000	20.413071
2071.000000	20.502730
2070.000000	20.574031
2069.000000	20.698543
2068.000000	20.794720
2067.000000	20.844338
2066.000000	20.892360
2065.000000	21.009688
2064.000000	21.079526
2063.000000	21.126750
2062.000000	21.271082
2061.000000	21.350232
2060.000000	21.425524
2059.000000	21.558549
2058.000000	21.651400
2057.000000	21.703546
2056.000000	21.769260
2055.000000	21.911065
2054.000000	22.071626
2053.000000	22.166339
2052.000000	22.253870
2051.000000	22.342597
2050.000000	22.421481
2049.000000	22.549451
2048.000000	22.752979
2047.000000	22.843303
2046.000000	22.911545
2045.000000	22.989365
2044.000000	23.061730
2043.000000	23.250758
2042.000000	23.355848
2041.000000	23.416508
2040.000000	23.550198
2039.000000	23.655553
2038.000000	23.817312
2037.000000	23.898191
2036.000000	23.967630
2035.000000	24.085224
2034.000000	24.188983
2033.000000	24.222505
2032.000000	24.364443
2031.000000	24.430423
2030.000000	24.574622
2029.000000	24.666144
2028.000000	24.719087
2027.000000	24.809677
2026.000000	24.899602
2025.000000	24.945097
2024.000000	24.989793
2023.000000	25.013605
2022.000000	25.129868
2021.000000	25.238683
2020.000000	25.264623
2019.000000	25.279654
2018.000000	25.322222
2017.000000	25.344438
2016.000000	25.356676
2015.000000	25.416138
2014.000000	25.521893
2013.000000	25.548498
2012.000000	25.514576
2011.000000	25.571910
2010.000000	25.563796
2009.000000	25.617272
2008.000000	25.612749
2007.000000	25.559805
2006.000000	25.615409
2005.000000	25.581621
2004.000000	25.553287
2003.000000	25.591332
2002.000000	25.548897
2001.000000	25.599446
2000.000000	25.551025
1999.000000	25.509388
1998.000000	25.535993
1997.000000	25.561268
1996.000000	25.513645
1995.000000	25.463495
1994.000000	25.406161
1993.000000	25.424119
1992.000000	25.336456
1991.000000	25.345635
1990.000000	25.294952
1989.000000	25.235756
1988.000000	25.178156
1987.000000	25.184276
1986.000000	25.119226
1985.000000	25.104195
1984.000000	25.058035
1983.000000	25.008683
1982.000000	24.956803
1981.000000	24.887098
1980.000000	24.820984
1979.000000	24.750215
1978.000000	24.733587
1977.000000	24.727734
1976.000000	24.648318
1975.000000	24.587925
1974.000000	24.522610
1973.000000	24.404750
1972.000000	24.401424
1971.000000	24.341696
1970.000000	24.282633
1969.000000	24.191378
1968.000000	24.108769
1967.000000	24.127127
1966.000000	24.042922
1965.000000	23.970822
1964.000000	23.896594
1963.000000	23.853627
1962.000000	23.777005
1961.000000	23.682158
1960.000000	23.646109
1959.000000	23.558977
1958.000000	23.533037
1957.000000	23.458543
1956.000000	23.362632
1955.000000	23.312881
1954.000000	23.258075
1953.000000	23.211649
1952.000000	23.122256
1951.000000	23.030070
1950.000000	22.941609
1949.000000	22.860197
1948.000000	22.824813
1947.000000	22.756305
1946.000000	22.621285
1945.000000	22.514998
1944.000000	22.485599
1943.000000	22.422944
1942.000000	22.349781
1941.000000	22.298832
1940.000000	22.110070
1939.000000	22.016686
1938.000000	21.984627
1937.000000	21.941527
1936.000000	21.972522
1935.000000	21.931683
1934.000000	21.906010
1933.000000	21.902551
1932.000000	21.878341
1931.000000	21.866767
1930.000000	21.791741
1929.000000	21.741990
1928.000000	21.783760
1927.000000	21.781764
1926.000000	21.840827
1925.000000	21.947513
1924.000000	22.069896
1923.000000	22.015090
1922.000000	21.916918
1921.000000	22.038369
1920.000000	22.289654
1919.000000	22.387294
1918.000000	22.512071
1917.000000	22.768543
1916.000000	22.870972
1915.000000	22.857005
1914.000000	22.992424
1913.000000	23.249162
1912.000000	23.479295
1911.000000	23.770753
1910.000000	24.077242
1909.000000	24.190180
1908.000000	24.271858
1907.000000	24.367636
1906.000000	24.555068
1905.000000	24.836282
1904.000000	25.210614
1903.000000	25.548099
1902.000000	25.818006
1901.000000	25.919637
1900.000000	26.243420
1899.000000	26.727231
1898.000000	27.187897
1897.000000	27.722524
1896.000000	28.058146
1895.000000	28.176671
1894.000000	28.444583
1893.000000	28.654762
1892.000000	28.883698
1891.000000	29.150147
1890.000000	29.425110
1889.000000	29.692756
1888.000000	29.970911
1887.000000	30.162467
1886.000000	30.358013
1885.000000	30.521501
1884.000000	30.809899
1883.000000	30.977909
1882.000000	31.156961
1881.000000	31.370333
1880.000000	31.511472
1879.000000	31.532490
1878.000000	31.575191
1877.000000	31.570535
1876.000000	31.485133
1875.000000	31.365145
1874.000000	31.326701
1873.000000	31.331090
1872.000000	31.345989
1871.000000	31.541669
1870.000000	31.867580
1869.000000	32.138951
1868.000000	32.491733
1867.000000	32.801947
1866.000000	32.863936
1865.000000	33.035539
1864.000000	33.113491
1863.000000	33.045648
1862.000000	32.991108
1861.000000	32.931247
1860.000000	32.914619
1859.000000	32.920073
1858.000000	32.975943
1857.000000	33.088216
1856.000000	33.040194
1855.000000	33.013057
1854.000000	33.182398
1853.000000	33.285625
1852.000000	33.260484
1851.000000	33.180270
1850.000000	32.891606
1849.000000	32.616510
1848.000000	32.745810
1847.000000	33.087551
1846.000000	33.270594
1845.000000	33.237470
1844.000000	33.050038
1843.000000	32.793832
1842.000000	32.797025
1841.000000	32.908101
1840.000000	32.912624
1839.000000	32.818176
1838.000000	32.606400
1837.000000	32.645377
1836.000000	32.890941
1835.000000	33.136504
1834.000000	33.166036
1833.000000	33.036337
1832.000000	32.957719
1831.000000	32.953329
1830.000000	33.019842
1829.000000	33.042589
1828.000000	32.995631
1827.000000	32.950137
1826.000000	33.043919
1825.000000	33.155394
1824.000000	33.173618
1823.000000	32.986452
1822.000000	32.843717
1821.000000	32.916880
1820.000000	33.041525
1819.000000	33.099124
1818.000000	33.061212
1817.000000	33.008402
1816.000000	33.116950
1815.000000	33.231883
1814.000000	33.212595
1813.000000	33.155394
1812.000000	33.137303
1811.000000	33.209269
1810.000000	33.265805
1809.000000	33.265539
1808.000000	33.217517
1807.000000	33.196233
1806.000000	33.243457
1805.000000	33.278575
1804.000000	33.265805
1803.000000	33.180137
1802.000000	33.156059
1801.000000	33.200356
1800.000000	33.248911
1799.000000	33.234145
1798.000000	33.230819
1797.000000	33.205278
1796.000000	33.200489
1795.000000	33.220177
1794.000000	33.190380
1793.000000	33.143422
1792.000000	33.101519
1791.000000	33.092074
1790.000000	33.099790
1789.000000	33.073983
1788.000000	33.030085
1787.000000	33.002415
1786.000000	32.971022
1785.000000	32.964902
1784.000000	32.960380
1783.000000	32.926857
1782.000000	32.833873
1781.000000	32.771351
1780.000000	32.754989
1779.000000	32.791970
1778.000000	32.791039
1777.000000	32.782658
1776.000000	32.727719
1775.000000	32.708031
1774.000000	32.690738
1773.000000	32.671316
1772.000000	32.705504
1771.000000	32.696724
1770.000000	32.669321
1769.000000	32.638060
1768.000000	32.602543
1767.000000	32.589506
1766.000000	32.539888
1765.000000	32.564098
1764.000000	32.558378
1763.000000	32.656285
1762.000000	32.682357
1761.000000	32.673578
1760.000000	32.690605
1759.000000	32.714416
1758.000000	32.745145
1757.000000	32.734370
1756.000000	32.761507
1755.000000	32.773213
1754.000000	32.803277
1753.000000	32.825226
1752.000000	32.857551
1751.000000	32.865799
1750.000000	32.910096
1749.000000	32.897193
1748.000000	32.877372
1747.000000	32.874578
1746.000000	32.870987
1745.000000	32.852629
1744.000000	32.821102
1743.000000	32.818309
1742.000000	32.787979
1741.000000	32.751929
1740.000000	32.721201
1739.000000	32.703508
1738.000000	32.688743
1737.000000	32.686348
1736.000000	32.679830
1735.000000	32.644445
1734.000000	32.601079
1733.000000	32.587112
1732.000000	32.597488
1731.000000	32.601478
1730.000000	32.644445
1729.000000	32.663468
1728.000000	32.741154
1727.000000	32.755521
1726.000000	32.762971
1725.000000	32.772947
1724.000000	32.775342
1723.000000	32.811791
1722.000000	32.799951
1721.000000	32.810327
1720.000000	32.822300
1719.000000	32.844781
1718.000000	32.875510
1717.000000	32.887615
1716.000000	32.892803
1715.000000	32.882427
1714.000000	32.913954
1713.000000	32.914619
1712.000000	32.930449
1711.000000	32.942288
1710.000000	32.942554
1709.000000	32.950536
1708.000000	32.985920
1707.000000	32.950669
1706.000000	32.946146
1705.000000	32.960380
1704.000000	32.939495
1703.000000	32.979402
1702.000000	32.980599
1701.000000	32.974480
1700.000000	33.017181
1699.000000	32.971820
1698.000000	32.969957
1697.000000	32.979136
1696.000000	32.986984
1695.000000	32.965168
1694.000000	33.038066
1693.000000	33.104579
1692.000000	33.154729
1691.000000	33.232282
1690.000000	33.289616
1689.000000	33.294937
1688.000000	33.306377
1687.000000	33.298795
1686.000000	33.293873
1685.000000	33.335643
1684.000000	33.388853
1683.000000	33.437008
1682.000000	33.500993
1681.000000	33.619252
1680.000000	33.699200
1679.000000	33.798836
1678.000000	33.882109
1677.000000	33.946227
1676.000000	34.027239
1675.000000	34.064087
1674.000000	34.192323
1673.000000	34.236088
1672.000000	34.236487
1671.000000	34.290496
1670.000000	34.335192
1669.000000	34.367251
1668.000000	34.446933
1667.000000	34.529408
1666.000000	34.544307
1665.000000	34.557743
1664.000000	34.533798
1663.000000	34.551224
1662.000000	34.538055
1661.000000	34.590201
1660.000000	34.605233
1659.000000	34.607494
1658.000000	34.621728
1657.000000	34.635163
1656.000000	34.619865
1655.000000	34.608824
1654.000000	34.598315
1653.000000	34.616274
1652.000000	34.637025
1651.000000	34.604567
1650.000000	34.587141
1649.000000	34.530606
1648.000000	34.483648
1647.000000	34.482184
1646.000000	34.492427
1645.000000	34.474735
1644.000000	34.465822
1643.000000	34.450924
1642.000000	34.449726
1641.000000	34.413278
1640.000000	34.370044
1639.000000	34.317899
1638.000000	34.295018
1637.000000	34.256840
1636.000000	34.205227
1635.000000	34.181947
1634.000000	34.163324
1633.000000	34.110912
1632.000000	34.094683
1631.000000	34.071004
1630.000000	34.007286
1629.000000	33.968708
1628.000000	33.962323
1627.000000	33.931727
1626.000000	33.916030
1625.000000	33.859761
1624.000000	33.806152
1623.000000	33.780611
1622.000000	33.761456
1621.000000	33.672329
1620.000000	33.618587
1619.000000	33.587060
1618.000000	33.566175
1617.000000	33.530790
1616.000000	33.484099
1615.000000	33.426765
1614.000000	33.343358
1613.000000	33.290680
1612.000000	33.277112
1611.000000	33.224168
1610.000000	33.185192
1609.000000	33.134243
1608.000000	33.071189
1607.000000	33.012525
1606.000000	32.971155
1605.000000	32.921137
1604.000000	32.848639
