PE UV       SUBTECH     SPECTRUM    ASCII       PEDS        4.00        
   -1
CICIMAUCR0176-3.ASC
24/03/01
13:01:25.00
24/03/01
13:01:25.00
Vinicio Soto Monge
C.aurora. USA: AZ: Cochise Co, Chiricahua Mtns., Pine Canyon, 31°56.895'N 10920.495'W, 1798 m, 22.VII.2009 MV light, N.P. Lord, colr.
250,000000
1
Lambda 1050
1050L1511233
PerkinElmer UV WinLab 6.3.2.0749 / 2.02.05 Lambda 900 UV/VIS/NIR, Aug  7 2015 09:38:08

0
0
3350/servo 860,8/2
0
0
UV/VIS
1
1
1
DoubleDePol,CommonBeamDepol,RBeamAtt,SBeamAtt,60mm sphere, WB InGaAs Detector
0
0
0
0
Program
Program
3350/servo 860,8/2
3350/0,2 860,8/0,2
3350/0,2 860,8/0,2
0
15.00
 
 
 
0
 
860,8
319,2
860,8
Front
100
on
S:100 R:100
0
0
0
0
 
0
 
 
 
0
 
 
0
0
0
0
0
 
 
 
 
0
0


0
0
#HDR
-1
-1
#GR
nm
%R
1.0
0.0
2500,000000
-1,000000
2251
8
21,706100
1,596200
#DATA
250.000000	nan
251.000000	nan
252.000000	nan
253.000000	nan
254.000000	nan
255.000000	nan
256.000000	nan
257.000000	nan
258.000000	nan
259.000000	nan
260.000000	nan
261.000000	nan
262.000000	nan
263.000000	nan
264.000000	nan
265.000000	nan
266.000000	nan
267.000000	nan
268.000000	nan
269.000000	nan
270.000000	nan
271.000000	nan
272.000000	nan
273.000000	nan
274.000000	nan
275.000000	nan
276.000000	nan
277.000000	nan
278.000000	nan
279.000000	nan
280.000000	nan
281.000000	nan
282.000000	nan
283.000000	nan
284.000000	1.801043
285.000000	1.797993
286.000000	1.794693
287.000000	1.791820
288.000000	1.789291
289.000000	1.786309
290.000000	1.784095
291.000000	1.781002
292.000000	1.778378
293.000000	1.775531
294.000000	1.773005
295.000000	1.770764
296.000000	1.769204
297.000000	1.768474
298.000000	1.766489
299.000000	1.765939
300.000000	1.765063
301.000000	1.764910
302.000000	1.764444
303.000000	1.764003
304.000000	1.763154
305.000000	1.763310
306.000000	1.764264
307.000000	1.763604
308.000000	1.763933
309.000000	1.765295
310.000000	1.766681
311.000000	1.767513
312.000000	1.768826
313.000000	1.770229
314.000000	1.772429
315.000000	1.773438
316.000000	1.776439
317.000000	1.788491
318.000000	1.794821
319.000000	1.806728
320.000000	1.818060
321.000000	1.821679
322.000000	1.830049
323.000000	1.838630
324.000000	1.846872
325.000000	1.855632
326.000000	1.864581
327.000000	1.873097
328.000000	1.882606
329.000000	1.893422
330.000000	1.900133
331.000000	1.906098
332.000000	1.913663
333.000000	1.920521
334.000000	1.926224
335.000000	1.933391
336.000000	1.938321
337.000000	1.946021
338.000000	1.952732
339.000000	1.958362
340.000000	1.963736
341.000000	1.969969
342.000000	1.977348
343.000000	1.981984
344.000000	1.988003
345.000000	1.993870
346.000000	2.002097
347.000000	2.008616
348.000000	2.016200
349.000000	2.021828
350.000000	2.028943
351.000000	2.034515
352.000000	2.031240
353.000000	2.034844
354.000000	2.032824
355.000000	2.031944
356.000000	2.038821
357.000000	2.041375
358.000000	2.044395
359.000000	2.047876
360.000000	2.051562
361.000000	2.056642
362.000000	2.061276
363.000000	2.065955
364.000000	2.069478
365.000000	2.077821
366.000000	2.088239
367.000000	2.097063
368.000000	2.107445
369.000000	2.118596
370.000000	2.128219
371.000000	2.139706
372.000000	2.150655
373.000000	2.164527
374.000000	2.179157
375.000000	2.195379
376.000000	2.210050
377.000000	2.220002
378.000000	2.233273
379.000000	2.246015
380.000000	2.259715
381.000000	2.272714
382.000000	2.288159
383.000000	2.303581
384.000000	2.322114
385.000000	2.340596
386.000000	2.360635
387.000000	2.381647
388.000000	2.402914
389.000000	2.425177
390.000000	2.448635
391.000000	2.473523
392.000000	2.499035
393.000000	2.524915
394.000000	2.552149
395.000000	2.580085
396.000000	2.607758
397.000000	2.637070
398.000000	2.667350
399.000000	2.698594
400.000000	2.730154
401.000000	2.761757
402.000000	2.794303
403.000000	2.826987
404.000000	2.860529
405.000000	2.895636
406.000000	2.931956
407.000000	2.967413
408.000000	3.002324
409.000000	3.038245
410.000000	3.073857
411.000000	3.110625
412.000000	3.152907
413.000000	3.195148
414.000000	3.237173
415.000000	3.279053
416.000000	3.320735
417.000000	3.362065
418.000000	3.403286
419.000000	3.444170
420.000000	3.484479
421.000000	3.524043
422.000000	3.563131
423.000000	3.601544
424.000000	3.639503
425.000000	3.676853
426.000000	3.713536
427.000000	3.749603
428.000000	3.784855
429.000000	3.819202
430.000000	3.852538
431.000000	3.884892
432.000000	3.916356
433.000000	3.947075
434.000000	3.976789
435.000000	4.005329
436.000000	4.032840
437.000000	4.059499
438.000000	4.085184
439.000000	4.109890
440.000000	4.133721
441.000000	4.156631
442.000000	4.178563
443.000000	4.199522
444.000000	4.219497
445.000000	4.238731
446.000000	4.257041
447.000000	4.274304
448.000000	4.290813
449.000000	4.306688
450.000000	4.321745
451.000000	4.336122
452.000000	4.349759
453.000000	4.362752
454.000000	4.375166
455.000000	4.387079
456.000000	4.398706
457.000000	4.409933
458.000000	4.421010
459.000000	4.431759
460.000000	4.442160
461.000000	4.452464
462.000000	4.462878
463.000000	4.473341
464.000000	4.484021
465.000000	4.494960
466.000000	4.506056
467.000000	4.517465
468.000000	4.529204
469.000000	4.541503
470.000000	4.554273
471.000000	4.567363
472.000000	4.581002
473.000000	4.595426
474.000000	4.610707
475.000000	4.626685
476.000000	4.643436
477.000000	4.660977
478.000000	4.679636
479.000000	4.699610
480.000000	4.720392
481.000000	4.741865
482.000000	4.764531
483.000000	4.788468
484.000000	4.813833
485.000000	4.840978
486.000000	4.869794
487.000000	4.900382
488.000000	4.932681
489.000000	4.966697
490.000000	5.002382
491.000000	5.040030
492.000000	5.079653
493.000000	5.121118
494.000000	5.164448
495.000000	5.209672
496.000000	5.256850
497.000000	5.305713
498.000000	5.356335
499.000000	5.408762
500.000000	5.463144
501.000000	5.519365
502.000000	5.577329
503.000000	5.637155
504.000000	5.698367
505.000000	5.761113
506.000000	5.825512
507.000000	5.891314
508.000000	5.958351
509.000000	6.026515
510.000000	6.095598
511.000000	6.165483
512.000000	6.236052
513.000000	6.307202
514.000000	6.378721
515.000000	6.450560
516.000000	6.522867
517.000000	6.595537
518.000000	6.668016
519.000000	6.740036
520.000000	6.811530
521.000000	6.882745
522.000000	6.953450
523.000000	7.023577
524.000000	7.093141
525.000000	7.162195
526.000000	7.230608
527.000000	7.298527
528.000000	7.365707
529.000000	7.432166
530.000000	7.497996
531.000000	7.562859
532.000000	7.626906
533.000000	7.690030
534.000000	7.752190
535.000000	7.813369
536.000000	7.873198
537.000000	7.931854
538.000000	7.989301
539.000000	8.045722
540.000000	8.101312
541.000000	8.155810
542.000000	8.209019
543.000000	8.261214
544.000000	8.312409
545.000000	8.362637
546.000000	8.411855
547.000000	8.460271
548.000000	8.507875
549.000000	8.554727
550.000000	8.600838
551.000000	8.646374
552.000000	8.691344
553.000000	8.735637
554.000000	8.779431
555.000000	8.822257
556.000000	8.864119
557.000000	8.904854
558.000000	8.944698
559.000000	8.983425
560.000000	9.013307
561.000000	9.040659
562.000000	9.066000
563.000000	9.089333
564.000000	9.110778
565.000000	9.130176
566.000000	9.147468
567.000000	9.162470
568.000000	9.175263
569.000000	9.185627
570.000000	9.193298
571.000000	9.198758
572.000000	9.201451
573.000000	9.201410
574.000000	9.198767
575.000000	9.193038
576.000000	9.184407
577.000000	9.173106
578.000000	9.159236
579.000000	9.142714
580.000000	9.123406
581.000000	9.101204
582.000000	9.076500
583.000000	9.048918
584.000000	9.018428
585.000000	8.985199
586.000000	8.949110
587.000000	8.910281
588.000000	8.868660
589.000000	8.824579
590.000000	8.778312
591.000000	8.730151
592.000000	8.679930
593.000000	8.627680
594.000000	8.573487
595.000000	8.525392
596.000000	8.476631
597.000000	8.427048
598.000000	8.376574
599.000000	8.325292
600.000000	8.273066
601.000000	8.220438
602.000000	8.167089
603.000000	8.113761
604.000000	8.059975
605.000000	8.006080
606.000000	7.951877
607.000000	7.898251
608.000000	7.844780
609.000000	7.791571
610.000000	7.739011
611.000000	7.687008
612.000000	7.635888
613.000000	7.585168
614.000000	7.535107
615.000000	7.485817
616.000000	7.437738
617.000000	7.390390
618.000000	7.344287
619.000000	7.299424
620.000000	7.255915
621.000000	7.213446
622.000000	7.172149
623.000000	7.132725
624.000000	7.094560
625.000000	7.057639
626.000000	7.021749
627.000000	6.987294
628.000000	6.954038
629.000000	6.922243
630.000000	6.891427
631.000000	6.862159
632.000000	6.833799
633.000000	6.806933
634.000000	6.780952
635.000000	6.756338
636.000000	6.732709
637.000000	6.710472
638.000000	6.689120
639.000000	6.668960
640.000000	6.650128
641.000000	6.632984
642.000000	6.616885
643.000000	6.601924
644.000000	6.588284
645.000000	6.575920
646.000000	6.564722
647.000000	6.554682
648.000000	6.545890
649.000000	6.538616
650.000000	6.532266
651.000000	6.527376
652.000000	6.523771
653.000000	6.521035
654.000000	6.519353
655.000000	6.518788
656.000000	6.519677
657.000000	6.521581
658.000000	6.524444
659.000000	6.528336
660.000000	6.533228
661.000000	6.538913
662.000000	6.545400
663.000000	6.552888
664.000000	6.561082
665.000000	6.570543
666.000000	6.580590
667.000000	6.591451
668.000000	6.603180
669.000000	6.616212
670.000000	6.630049
671.000000	6.644661
672.000000	6.660223
673.000000	6.676462
674.000000	6.693814
675.000000	6.711768
676.000000	6.729821
677.000000	6.748525
678.000000	6.768176
679.000000	6.788409
680.000000	6.809222
681.000000	6.830811
682.000000	6.852776
683.000000	6.875293
684.000000	6.898098
685.000000	6.921997
686.000000	6.946228
687.000000	6.970937
688.000000	6.996592
689.000000	7.022784
690.000000	7.049758
691.000000	7.077268
692.000000	7.105541
693.000000	7.134460
694.000000	7.164081
695.000000	7.194400
696.000000	7.225574
697.000000	7.257411
698.000000	7.289905
699.000000	7.323032
700.000000	7.356460
701.000000	7.390556
702.000000	7.425268
703.000000	7.460117
704.000000	7.495644
705.000000	7.531731
706.000000	7.568178
707.000000	7.605162
708.000000	7.642727
709.000000	7.680705
710.000000	7.719152
711.000000	7.758353
712.000000	7.798176
713.000000	7.838526
714.000000	7.879164
715.000000	7.920146
716.000000	7.961105
717.000000	8.002675
718.000000	8.044728
719.000000	8.086778
720.000000	8.128959
721.000000	8.171087
722.000000	8.213091
723.000000	8.254895
724.000000	8.296773
725.000000	8.338479
726.000000	8.380178
727.000000	8.421083
728.000000	8.461597
729.000000	8.501927
730.000000	8.541846
731.000000	8.580997
732.000000	8.619516
733.000000	8.657537
734.000000	8.695367
735.000000	8.732521
736.000000	8.769102
737.000000	8.805530
738.000000	8.841284
739.000000	8.875611
740.000000	8.909226
741.000000	8.942496
742.000000	8.975203
743.000000	9.007412
744.000000	9.038620
745.000000	9.068966
746.000000	9.098768
747.000000	9.127942
748.000000	9.156246
749.000000	9.183750
750.000000	9.210699
751.000000	9.237139
752.000000	9.262679
753.000000	9.287609
754.000000	9.311941
755.000000	9.335164
756.000000	9.357773
757.000000	9.380534
758.000000	9.403137
759.000000	9.425024
760.000000	9.446147
761.000000	9.466457
762.000000	9.486573
763.000000	9.506303
764.000000	9.525486
765.000000	9.544043
766.000000	9.561704
767.000000	9.579466
768.000000	9.596678
769.000000	9.613217
770.000000	9.629567
771.000000	9.645383
772.000000	9.660627
773.000000	9.675545
774.000000	9.690409
775.000000	9.705147
776.000000	9.719097
777.000000	9.731634
778.000000	9.743120
779.000000	9.755400
780.000000	9.767613
781.000000	9.779562
782.000000	9.790694
783.000000	9.800901
784.000000	9.811100
785.000000	9.821176
786.000000	9.831111
787.000000	9.840986
788.000000	9.850728
789.000000	9.860084
790.000000	9.869311
791.000000	9.877854
792.000000	9.885602
793.000000	9.892728
794.000000	9.900372
795.000000	9.908299
796.000000	9.916366
797.000000	9.923954
798.000000	9.931130
799.000000	9.938231
800.000000	9.945268
801.000000	9.953275
802.000000	9.960591
803.000000	9.967180
804.000000	9.973406
805.000000	9.980056
806.000000	9.987160
807.000000	9.993622
808.000000	10.001381
809.000000	10.009698
810.000000	10.017688
811.000000	10.025702
812.000000	10.034947
813.000000	10.045896
814.000000	10.054933
815.000000	10.064166
816.000000	10.072877
817.000000	10.082697
818.000000	10.094137
819.000000	10.106158
820.000000	10.117599
821.000000	10.128326
822.000000	10.139923
823.000000	10.151262
824.000000	10.162815
825.000000	10.175224
826.000000	10.188310
827.000000	10.201410
828.000000	10.214930
829.000000	10.229490
830.000000	10.243751
831.000000	10.259708
832.000000	10.276208
833.000000	10.291802
834.000000	10.307217
835.000000	10.323158
836.000000	10.338195
837.000000	10.354579
838.000000	10.371785
839.000000	10.390837
840.000000	10.407976
841.000000	10.425596
842.000000	10.445058
843.000000	10.461996
844.000000	10.479534
845.000000	10.499725
846.000000	10.519431
847.000000	10.536587
848.000000	10.554676
849.000000	10.576177
850.000000	10.595587
851.000000	10.614973
852.000000	10.633222
853.000000	10.652144
854.000000	10.670598
855.000000	10.690095
856.000000	10.709991
857.000000	10.732402
858.000000	10.769387
859.000000	10.797941
860.000000	10.826751
861.000000	10.856079
862.000000	10.886703
863.000000	10.918610
864.000000	10.950130
865.000000	10.982528
866.000000	11.014629
867.000000	11.047768
868.000000	11.083385
869.000000	11.119696
870.000000	11.156445
871.000000	11.194389
872.000000	11.231873
873.000000	11.270303
874.000000	11.308195
875.000000	11.348651
876.000000	11.388910
877.000000	11.428456
878.000000	11.469948
879.000000	11.511679
880.000000	11.551612
881.000000	11.593308
882.000000	11.638005
883.000000	11.681770
884.000000	11.724232
885.000000	11.769551
886.000000	11.816196
887.000000	11.864465
888.000000	11.912028
889.000000	11.960529
890.000000	12.009136
891.000000	12.058993
892.000000	12.106726
893.000000	12.140545
894.000000	12.184154
895.000000	12.228172
896.000000	12.272302
897.000000	12.316550
898.000000	12.360699
899.000000	12.404612
900.000000	12.449005
901.000000	12.492917
902.000000	12.537158
903.000000	12.581645
904.000000	12.626147
905.000000	12.671173
906.000000	12.716537
907.000000	12.762624
908.000000	12.809150
909.000000	12.855774
910.000000	12.902269
911.000000	12.949146
912.000000	12.996318
913.000000	13.044324
914.000000	13.091830
915.000000	13.139286
916.000000	13.186924
917.000000	13.235165
918.000000	13.282704
919.000000	13.330389
920.000000	13.378330
921.000000	13.426372
922.000000	13.474351
923.000000	13.521850
924.000000	13.568817
925.000000	13.616181
926.000000	13.663244
927.000000	13.709616
928.000000	13.756596
929.000000	13.802783
930.000000	13.848456
931.000000	13.893969
932.000000	13.939559
933.000000	13.984686
934.000000	14.030101
935.000000	14.075168
936.000000	14.119945
937.000000	14.164370
938.000000	14.208025
939.000000	14.251368
940.000000	14.293830
941.000000	14.336135
942.000000	14.378040
943.000000	14.418862
944.000000	14.458915
945.000000	14.499314
946.000000	14.539017
947.000000	14.578729
948.000000	14.617969
949.000000	14.657003
950.000000	14.695844
951.000000	14.734525
952.000000	14.772422
953.000000	14.810139
954.000000	14.847604
955.000000	14.884810
956.000000	14.921779
957.000000	14.958350
958.000000	14.994973
959.000000	15.031550
960.000000	15.067782
961.000000	15.104076
962.000000	15.140463
963.000000	15.176287
964.000000	15.212052
965.000000	15.247936
966.000000	15.284076
967.000000	15.319740
968.000000	15.355140
969.000000	15.389646
970.000000	15.423661
971.000000	15.457591
972.000000	15.491021
973.000000	15.524143
974.000000	15.557508
975.000000	15.591062
976.000000	15.624112
977.000000	15.656886
978.000000	15.689946
979.000000	15.723407
980.000000	15.755933
981.000000	15.788567
982.000000	15.820441
983.000000	15.851741
984.000000	15.883237
985.000000	15.914606
986.000000	15.945383
987.000000	15.975967
988.000000	16.006547
989.000000	16.036575
990.000000	16.066730
991.000000	16.096965
992.000000	16.126634
993.000000	16.156415
994.000000	16.186088
995.000000	16.215440
996.000000	16.244708
997.000000	16.273666
998.000000	16.302382
999.000000	16.331125
1000.000000	16.359475
1001.000000	16.387484
1002.000000	16.414947
1003.000000	16.441958
1004.000000	16.469318
1005.000000	16.496425
1006.000000	16.523314
1007.000000	16.549953
1008.000000	16.576401
1009.000000	16.602910
1010.000000	16.629098
1011.000000	16.655268
1012.000000	16.681307
1013.000000	16.706837
1014.000000	16.731967
1015.000000	16.757287
1016.000000	16.782841
1017.000000	16.808180
1018.000000	16.833630
1019.000000	16.858558
1020.000000	16.883278
1021.000000	16.908103
1022.000000	16.933086
1023.000000	16.958048
1024.000000	16.983057
1025.000000	17.007604
1026.000000	17.031850
1027.000000	17.056240
1028.000000	17.080199
1029.000000	17.104068
1030.000000	17.128029
1031.000000	17.151854
1032.000000	17.175461
1033.000000	17.199254
1034.000000	17.223316
1035.000000	17.247060
1036.000000	17.270830
1037.000000	17.295099
1038.000000	17.319297
1039.000000	17.342825
1040.000000	17.366548
1041.000000	17.390673
1042.000000	17.414723
1043.000000	17.438672
1044.000000	17.462576
1045.000000	17.486467
1046.000000	17.510274
1047.000000	17.534052
1048.000000	17.557947
1049.000000	17.581548
1050.000000	17.604543
1051.000000	17.627215
1052.000000	17.650697
1053.000000	17.674136
1054.000000	17.697541
1055.000000	17.721214
1056.000000	17.744614
1057.000000	17.767969
1058.000000	17.791741
1059.000000	17.815348
1060.000000	17.838474
1061.000000	17.861570
1062.000000	17.884766
1063.000000	17.908400
1064.000000	17.932087
1065.000000	17.955193
1066.000000	17.978189
1067.000000	18.001350
1068.000000	18.024065
1069.000000	18.046874
1070.000000	18.070301
1071.000000	18.093676
1072.000000	18.116553
1073.000000	18.139314
1074.000000	18.162274
1075.000000	18.185457
1076.000000	18.208151
1077.000000	18.230801
1078.000000	18.253252
1079.000000	18.275584
1080.000000	18.298091
1081.000000	18.320738
1082.000000	18.342998
1083.000000	18.365137
1084.000000	18.387492
1085.000000	18.410207
1086.000000	18.432891
1087.000000	18.455150
1088.000000	18.477057
1089.000000	18.498845
1090.000000	18.520580
1091.000000	18.541883
1092.000000	18.562997
1093.000000	18.583737
1094.000000	18.604072
1095.000000	18.624318
1096.000000	18.644260
1097.000000	18.663887
1098.000000	18.683039
1099.000000	18.702101
1100.000000	18.721332
1101.000000	18.740045
1102.000000	18.758374
1103.000000	18.776990
1104.000000	18.794756
1105.000000	18.812211
1106.000000	18.829219
1107.000000	18.846172
1108.000000	18.862789
1109.000000	18.879070
1110.000000	18.894544
1111.000000	18.909721
1112.000000	18.925230
1113.000000	18.940524
1114.000000	18.955156
1115.000000	18.969172
1116.000000	18.982749
1117.000000	18.996527
1118.000000	19.009896
1119.000000	19.023161
1120.000000	19.035827
1121.000000	19.047413
1122.000000	19.058987
1123.000000	19.070329
1124.000000	19.081297
1125.000000	19.091548
1126.000000	19.101672
1127.000000	19.111100
1128.000000	19.119396
1129.000000	19.127910
1130.000000	19.135810
1131.000000	19.142905
1132.000000	19.148337
1133.000000	19.152030
1134.000000	19.155182
1135.000000	19.158350
1136.000000	19.161585
1137.000000	19.163097
1138.000000	19.163410
1139.000000	19.162850
1140.000000	19.161382
1141.000000	19.159017
1142.000000	19.155296
1143.000000	19.151002
1144.000000	19.146365
1145.000000	19.141254
1146.000000	19.135954
1147.000000	19.129536
1148.000000	19.122070
1149.000000	19.114158
1150.000000	19.105649
1151.000000	19.096945
1152.000000	19.087067
1153.000000	19.076993
1154.000000	19.066027
1155.000000	19.054549
1156.000000	19.043274
1157.000000	19.029912
1158.000000	19.015321
1159.000000	18.999689
1160.000000	18.983205
1161.000000	18.965988
1162.000000	18.947533
1163.000000	18.928092
1164.000000	18.907106
1165.000000	18.885491
1166.000000	18.862879
1167.000000	18.840944
1168.000000	18.819407
1169.000000	18.797254
1170.000000	18.773254
1171.000000	18.748660
1172.000000	18.724870
1173.000000	18.701021
1174.000000	18.677089
1175.000000	18.652906
1176.000000	18.628880
1177.000000	18.605081
1178.000000	18.581200
1179.000000	18.557154
1180.000000	18.532692
1181.000000	18.507658
1182.000000	18.482558
1183.000000	18.457938
1184.000000	18.432988
1185.000000	18.408232
1186.000000	18.383004
1187.000000	18.357891
1188.000000	18.332226
