PE UV       SUBTECH     SPECTRUM    ASCII       PEDS        4.00        
   -1
CICIMAUCR0175-3.ASC
24/03/01
12:49:06.00
24/03/01
12:49:06.00
Vinicio Soto Monge
C.aurora. USA: AZ: Cochise Co, Chiricahua Mtns., Pine Canyon, 31°56.895'N 10920.495'W, 1798 m, 22.VII.2009 MV light, N.P. Lord, colr
250,000000
1
Lambda 1050
1050L1511233
PerkinElmer UV WinLab 6.3.2.0749 / 2.02.05 Lambda 900 UV/VIS/NIR, Aug  7 2015 09:38:08

0
0
3350/servo 860,8/2
0
0
UV/VIS
1
1
1
DoubleDePol,CommonBeamDepol,RBeamAtt,SBeamAtt,60mm sphere, WB InGaAs Detector
0
0
0
0
Program
Program
3350/servo 860,8/2
3350/0,2 860,8/0,2
3350/0,2 860,8/0,2
0
15.00
 
 
 
0
 
860,8
319,2
860,8
Front
100
on
S:100 R:100
0
0
0
0
 
0
 
 
 
0
 
 
0
0
0
0
0
 
 
 
 
0
0


0
0
#HDR
-1
-1
#GR
nm
%R
1.0
0.0
2500,000000
-1,000000
2251
8
20,716100
1,862600
#DATA
250.000000	nan
251.000000	nan
252.000000	nan
253.000000	nan
254.000000	nan
255.000000	nan
256.000000	nan
257.000000	nan
258.000000	nan
259.000000	nan
260.000000	nan
261.000000	nan
262.000000	nan
263.000000	nan
264.000000	nan
265.000000	nan
266.000000	nan
267.000000	nan
268.000000	nan
269.000000	nan
270.000000	nan
271.000000	nan
272.000000	nan
273.000000	nan
274.000000	nan
275.000000	nan
276.000000	nan
277.000000	nan
278.000000	nan
279.000000	nan
280.000000	nan
281.000000	nan
282.000000	nan
283.000000	nan
284.000000	2.032569
285.000000	2.028763
286.000000	2.025715
287.000000	2.022754
288.000000	2.019744
289.000000	2.016400
290.000000	2.013225
291.000000	2.010341
292.000000	2.006921
293.000000	2.003716
294.000000	2.000891
295.000000	1.997737
296.000000	1.994900
297.000000	1.991339
298.000000	1.988497
299.000000	1.986493
300.000000	1.984027
301.000000	1.981860
302.000000	1.980030
303.000000	1.979244
304.000000	1.977755
305.000000	1.977332
306.000000	1.976503
307.000000	1.975415
308.000000	1.974697
309.000000	1.974502
310.000000	1.974482
311.000000	1.974504
312.000000	1.974719
313.000000	1.974939
314.000000	1.975115
315.000000	1.975527
316.000000	1.976521
317.000000	1.982171
318.000000	1.988848
319.000000	1.993481
320.000000	1.997875
321.000000	2.001140
322.000000	2.004217
323.000000	2.008494
324.000000	2.014426
325.000000	2.018603
326.000000	2.023634
327.000000	2.027363
328.000000	2.032753
329.000000	2.036886
330.000000	2.041012
331.000000	2.045255
332.000000	2.050122
333.000000	2.055307
334.000000	2.059136
335.000000	2.064806
336.000000	2.069963
337.000000	2.074504
338.000000	2.079532
339.000000	2.085273
340.000000	2.090086
341.000000	2.096211
342.000000	2.100954
343.000000	2.106438
344.000000	2.110176
345.000000	2.115096
346.000000	2.121988
347.000000	2.128582
348.000000	2.136132
349.000000	2.142429
350.000000	2.149077
351.000000	2.157816
352.000000	2.161628
353.000000	2.165065
354.000000	2.171264
355.000000	2.176901
356.000000	2.183952
357.000000	2.193223
358.000000	2.202298
359.000000	2.210130
360.000000	2.221053
361.000000	2.232512
362.000000	2.244984
363.000000	2.257191
364.000000	2.273414
365.000000	2.290296
366.000000	2.307420
367.000000	2.325104
368.000000	2.343133
369.000000	2.364797
370.000000	2.385534
371.000000	2.407370
372.000000	2.431586
373.000000	2.456343
374.000000	2.482839
375.000000	2.509488
376.000000	2.535005
377.000000	2.558675
378.000000	2.583096
379.000000	2.610851
380.000000	2.638910
381.000000	2.666550
382.000000	2.696150
383.000000	2.726338
384.000000	2.759544
385.000000	2.794187
386.000000	2.827646
387.000000	2.862734
388.000000	2.899447
389.000000	2.936795
390.000000	2.976323
391.000000	3.016376
392.000000	3.056441
393.000000	3.097064
394.000000	3.138736
395.000000	3.180231
396.000000	3.222068
397.000000	3.265481
398.000000	3.308747
399.000000	3.350346
400.000000	3.392074
401.000000	3.434495
402.000000	3.477342
403.000000	3.520245
404.000000	3.561599
405.000000	3.602934
406.000000	3.644528
407.000000	3.684880
408.000000	3.724046
409.000000	3.762127
410.000000	3.800511
411.000000	3.840340
412.000000	3.883667
413.000000	3.925555
414.000000	3.966048
415.000000	4.005184
416.000000	4.042809
417.000000	4.078804
418.000000	4.113361
419.000000	4.146333
420.000000	4.177413
421.000000	4.206812
422.000000	4.234612
423.000000	4.260516
424.000000	4.284887
425.000000	4.307532
426.000000	4.328454
427.000000	4.347533
428.000000	4.365009
429.000000	4.381187
430.000000	4.395886
431.000000	4.408748
432.000000	4.420379
433.000000	4.430564
434.000000	4.439286
435.000000	4.446852
436.000000	4.453027
437.000000	4.458133
438.000000	4.462121
439.000000	4.465143
440.000000	4.467339
441.000000	4.468619
442.000000	4.469108
443.000000	4.468938
444.000000	4.468124
445.000000	4.466948
446.000000	4.465467
447.000000	4.463687
448.000000	4.461692
449.000000	4.459741
450.000000	4.458112
451.000000	4.456538
452.000000	4.455359
453.000000	4.454712
454.000000	4.454418
455.000000	4.454852
456.000000	4.456029
457.000000	4.457941
458.000000	4.460591
459.000000	4.463851
460.000000	4.468071
461.000000	4.473457
462.000000	4.480048
463.000000	4.487797
464.000000	4.496488
465.000000	4.506350
466.000000	4.517618
467.000000	4.530035
468.000000	4.543698
469.000000	4.558524
470.000000	4.574480
471.000000	4.591745
472.000000	4.610084
473.000000	4.629704
474.000000	4.650485
475.000000	4.672154
476.000000	4.694793
477.000000	4.718487
478.000000	4.743411
479.000000	4.769538
480.000000	4.796256
481.000000	4.823342
482.000000	4.850883
483.000000	4.879281
484.000000	4.908775
485.000000	4.939258
486.000000	4.971038
487.000000	5.004033
488.000000	5.038221
489.000000	5.073607
490.000000	5.110094
491.000000	5.147676
492.000000	5.186447
493.000000	5.226663
494.000000	5.268486
495.000000	5.311363
496.000000	5.355296
497.000000	5.400420
498.000000	5.446712
499.000000	5.494359
500.000000	5.543352
501.000000	5.593657
502.000000	5.645198
503.000000	5.698047
504.000000	5.752425
505.000000	5.808256
506.000000	5.865492
507.000000	5.924121
508.000000	5.983946
509.000000	6.044918
510.000000	6.107157
511.000000	6.170570
512.000000	6.235130
513.000000	6.300763
514.000000	6.367443
515.000000	6.435356
516.000000	6.504707
517.000000	6.575346
518.000000	6.646812
519.000000	6.718550
520.000000	6.790661
521.000000	6.862838
522.000000	6.935041
523.000000	7.007418
524.000000	7.080048
525.000000	7.152636
526.000000	7.225075
527.000000	7.297213
528.000000	7.368928
529.000000	7.440141
530.000000	7.511166
531.000000	7.581751
532.000000	7.651739
533.000000	7.721132
534.000000	7.789511
535.000000	7.856610
536.000000	7.922473
537.000000	7.987048
538.000000	8.050080
539.000000	8.111429
540.000000	8.171239
541.000000	8.229088
542.000000	8.285148
543.000000	8.339370
544.000000	8.391852
545.000000	8.442341
546.000000	8.491222
547.000000	8.538309
548.000000	8.583539
549.000000	8.626799
550.000000	8.668266
551.000000	8.707782
552.000000	8.745559
553.000000	8.781563
554.000000	8.815985
555.000000	8.848561
556.000000	8.879359
557.000000	8.908297
558.000000	8.935210
559.000000	8.960007
560.000000	8.975677
561.000000	8.988430
562.000000	8.999166
563.000000	9.007742
564.000000	9.014263
565.000000	9.018382
566.000000	9.020300
567.000000	9.020028
568.000000	9.017544
569.000000	9.012809
570.000000	9.005991
571.000000	8.997201
572.000000	8.986512
573.000000	8.973749
574.000000	8.958946
575.000000	8.942054
576.000000	8.923056
577.000000	8.902047
578.000000	8.879192
579.000000	8.854500
580.000000	8.828068
581.000000	8.799621
582.000000	8.769080
583.000000	8.736786
584.000000	8.702692
585.000000	8.666452
586.000000	8.628303
587.000000	8.588238
588.000000	8.546802
589.000000	8.503598
590.000000	8.458723
591.000000	8.412370
592.000000	8.364618
593.000000	8.315329
594.000000	8.264326
595.000000	8.219229
596.000000	8.174003
597.000000	8.127575
598.000000	8.080322
599.000000	8.032101
600.000000	7.983143
601.000000	7.933515
602.000000	7.883053
603.000000	7.832094
604.000000	7.780985
605.000000	7.729795
606.000000	7.678421
607.000000	7.627244
608.000000	7.576734
609.000000	7.526752
610.000000	7.477537
611.000000	7.429487
612.000000	7.382407
613.000000	7.336511
614.000000	7.291690
615.000000	7.248002
616.000000	7.205479
617.000000	7.164481
618.000000	7.124648
619.000000	7.086386
620.000000	7.049830
621.000000	7.015000
622.000000	6.981917
623.000000	6.950125
624.000000	6.920008
625.000000	6.891500
626.000000	6.864578
627.000000	6.839013
628.000000	6.815224
629.000000	6.793150
630.000000	6.772648
631.000000	6.753671
632.000000	6.736244
633.000000	6.720198
634.000000	6.705659
635.000000	6.692815
636.000000	6.681375
637.000000	6.671708
638.000000	6.663704
639.000000	6.656990
640.000000	6.651644
641.000000	6.648057
642.000000	6.645666
643.000000	6.644636
644.000000	6.644939
645.000000	6.646656
646.000000	6.649652
647.000000	6.653854
648.000000	6.659229
649.000000	6.665973
650.000000	6.674153
651.000000	6.683801
652.000000	6.695022
653.000000	6.707750
654.000000	6.721485
655.000000	6.736381
656.000000	6.752517
657.000000	6.770035
658.000000	6.788733
659.000000	6.808451
660.000000	6.829397
661.000000	6.851353
662.000000	6.874829
663.000000	6.899248
664.000000	6.924880
665.000000	6.951570
666.000000	6.979082
667.000000	7.007609
668.000000	7.037133
669.000000	7.067375
670.000000	7.098125
671.000000	7.129580
672.000000	7.161464
673.000000	7.193819
674.000000	7.226734
675.000000	7.259788
676.000000	7.292968
677.000000	7.326231
678.000000	7.359156
679.000000	7.391782
680.000000	7.423839
681.000000	7.455508
682.000000	7.487060
683.000000	7.518300
684.000000	7.548891
685.000000	7.578917
686.000000	7.608208
687.000000	7.636448
688.000000	7.663901
689.000000	7.690566
690.000000	7.716413
691.000000	7.741443
692.000000	7.765358
693.000000	7.788129
694.000000	7.810108
695.000000	7.831142
696.000000	7.851332
697.000000	7.870177
698.000000	7.887700
699.000000	7.904291
700.000000	7.919816
701.000000	7.934061
702.000000	7.947244
703.000000	7.959414
704.000000	7.970512
705.000000	7.980600
706.000000	7.989682
707.000000	7.997687
708.000000	8.004426
709.000000	8.010006
710.000000	8.015156
711.000000	8.019192
712.000000	8.022376
713.000000	8.024856
714.000000	8.026731
715.000000	8.027809
716.000000	8.027789
717.000000	8.026593
718.000000	8.024231
719.000000	8.020762
720.000000	8.016148
721.000000	8.010448
722.000000	8.003972
723.000000	7.996890
724.000000	7.989054
725.000000	7.980406
726.000000	7.970771
727.000000	7.960166
728.000000	7.949317
729.000000	7.937553
730.000000	7.924581
731.000000	7.910821
732.000000	7.896374
733.000000	7.881279
734.000000	7.865368
735.000000	7.848756
736.000000	7.831658
737.000000	7.813805
738.000000	7.794974
739.000000	7.775682
740.000000	7.755974
741.000000	7.735619
742.000000	7.715007
743.000000	7.694283
744.000000	7.673157
745.000000	7.651285
746.000000	7.629432
747.000000	7.607531
748.000000	7.585283
749.000000	7.562691
750.000000	7.539866
751.000000	7.517281
752.000000	7.494730
753.000000	7.472078
754.000000	7.450112
755.000000	7.428435
756.000000	7.407047
757.000000	7.385836
758.000000	7.364452
759.000000	7.343526
760.000000	7.323008
761.000000	7.303116
762.000000	7.283928
763.000000	7.265000
764.000000	7.246587
765.000000	7.229044
766.000000	7.211987
767.000000	7.195626
768.000000	7.180618
769.000000	7.166388
770.000000	7.152851
771.000000	7.140218
772.000000	7.128614
773.000000	7.117944
774.000000	7.108767
775.000000	7.100888
776.000000	7.094319
777.000000	7.088620
778.000000	7.083838
779.000000	7.080374
780.000000	7.078190
781.000000	7.076672
782.000000	7.075858
783.000000	7.076180
784.000000	7.078117
785.000000	7.081605
786.000000	7.085770
787.000000	7.090970
788.000000	7.097766
789.000000	7.105435
790.000000	7.114114
791.000000	7.124119
792.000000	7.135654
793.000000	7.148398
794.000000	7.161625
795.000000	7.176065
796.000000	7.191167
797.000000	7.207317
798.000000	7.224604
799.000000	7.242959
800.000000	7.262103
801.000000	7.282428
802.000000	7.304085
803.000000	7.326456
804.000000	7.349568
805.000000	7.373926
806.000000	7.399224
807.000000	7.424928
808.000000	7.452701
809.000000	7.481119
810.000000	7.509552
811.000000	7.538615
812.000000	7.568465
813.000000	7.598112
814.000000	7.629357
815.000000	7.661142
816.000000	7.693003
817.000000	7.726246
818.000000	7.760424
819.000000	7.794595
820.000000	7.829292
821.000000	7.864503
822.000000	7.900232
823.000000	7.936587
824.000000	7.972728
825.000000	8.009392
826.000000	8.046100
827.000000	8.082171
828.000000	8.119264
829.000000	8.157066
830.000000	8.194425
831.000000	8.232700
832.000000	8.270452
833.000000	8.307843
834.000000	8.347002
835.000000	8.385881
836.000000	8.424682
837.000000	8.462053
838.000000	8.499869
839.000000	8.538283
840.000000	8.576290
841.000000	8.613999
842.000000	8.652306
843.000000	8.691225
844.000000	8.728054
845.000000	8.764887
846.000000	8.804306
847.000000	8.840616
848.000000	8.878525
849.000000	8.915810
850.000000	8.952062
851.000000	8.988828
852.000000	9.025650
853.000000	9.061877
854.000000	9.095733
855.000000	9.128650
856.000000	9.167219
857.000000	9.203227
858.000000	9.254058
859.000000	9.293793
860.000000	9.333176
861.000000	9.372600
862.000000	9.413104
863.000000	9.453921
864.000000	9.495645
865.000000	9.538405
866.000000	9.581249
867.000000	9.625400
868.000000	9.670129
869.000000	9.713850
870.000000	9.758333
871.000000	9.803099
872.000000	9.849162
873.000000	9.895230
874.000000	9.941275
875.000000	9.987476
876.000000	10.034324
877.000000	10.081363
878.000000	10.127101
879.000000	10.174606
880.000000	10.222898
881.000000	10.269120
882.000000	10.318662
883.000000	10.367804
884.000000	10.416755
885.000000	10.467048
886.000000	10.517872
887.000000	10.568614
888.000000	10.619812
889.000000	10.673610
890.000000	10.728611
891.000000	10.778476
892.000000	10.831165
893.000000	10.869218
894.000000	10.918849
895.000000	10.968962
896.000000	11.019923
897.000000	11.070751
898.000000	11.120895
899.000000	11.170724
900.000000	11.220729
901.000000	11.270603
902.000000	11.320404
903.000000	11.370540
904.000000	11.420610
905.000000	11.471094
906.000000	11.521675
907.000000	11.572971
908.000000	11.624028
909.000000	11.675290
910.000000	11.726763
911.000000	11.778260
912.000000	11.830135
913.000000	11.882105
914.000000	11.934437
915.000000	11.986559
916.000000	12.038550
917.000000	12.090724
918.000000	12.142931
919.000000	12.195126
920.000000	12.247485
921.000000	12.299496
922.000000	12.351464
923.000000	12.403535
924.000000	12.455389
925.000000	12.507240
926.000000	12.558390
927.000000	12.609550
928.000000	12.660293
929.000000	12.711192
930.000000	12.761991
931.000000	12.811808
932.000000	12.861803
933.000000	12.911292
934.000000	12.960853
935.000000	13.010065
936.000000	13.058891
937.000000	13.106970
938.000000	13.154836
939.000000	13.201871
940.000000	13.248646
941.000000	13.294972
942.000000	13.340703
943.000000	13.386180
944.000000	13.430949
945.000000	13.475703
946.000000	13.520410
947.000000	13.564336
948.000000	13.608056
949.000000	13.651566
950.000000	13.695033
951.000000	13.737871
952.000000	13.780421
953.000000	13.822703
954.000000	13.865017
955.000000	13.906781
956.000000	13.948477
957.000000	13.989730
958.000000	14.030750
959.000000	14.071975
960.000000	14.112597
961.000000	14.153430
962.000000	14.193625
963.000000	14.233724
964.000000	14.273710
965.000000	14.313419
966.000000	14.353188
967.000000	14.392203
968.000000	14.431497
969.000000	14.470541
970.000000	14.509297
971.000000	14.547654
972.000000	14.585966
973.000000	14.624152
974.000000	14.662121
975.000000	14.699806
976.000000	14.738005
977.000000	14.775580
978.000000	14.812916
979.000000	14.850609
980.000000	14.888105
981.000000	14.925032
982.000000	14.962023
983.000000	14.998792
984.000000	15.035213
985.000000	15.071120
986.000000	15.107380
987.000000	15.143440
988.000000	15.179196
989.000000	15.214369
990.000000	15.249360
991.000000	15.284430
992.000000	15.319320
993.000000	15.353911
994.000000	15.388035
995.000000	15.422150
996.000000	15.456696
997.000000	15.491503
998.000000	15.525730
999.000000	15.559323
1000.000000	15.592880
1001.000000	15.626797
1002.000000	15.660807
1003.000000	15.694177
1004.000000	15.727068
1005.000000	15.759830
1006.000000	15.792747
1007.000000	15.825297
1008.000000	15.857182
1009.000000	15.889396
1010.000000	15.921387
1011.000000	15.952741
1012.000000	15.984260
1013.000000	16.015642
1014.000000	16.046670
1015.000000	16.077504
1016.000000	16.108257
1017.000000	16.138979
1018.000000	16.169470
1019.000000	16.200017
1020.000000	16.230873
1021.000000	16.261276
1022.000000	16.291709
1023.000000	16.322296
1024.000000	16.352865
1025.000000	16.383198
1026.000000	16.413178
1027.000000	16.442967
1028.000000	16.472709
1029.000000	16.502687
1030.000000	16.532459
1031.000000	16.561821
1032.000000	16.591041
1033.000000	16.620416
1034.000000	16.650115
1035.000000	16.679654
1036.000000	16.708859
1037.000000	16.738200
1038.000000	16.768070
1039.000000	16.797892
1040.000000	16.827193
1041.000000	16.856050
1042.000000	16.885180
1043.000000	16.914546
1044.000000	16.943712
1045.000000	16.972790
1046.000000	17.002057
1047.000000	17.031372
1048.000000	17.060646
1049.000000	17.089789
1050.000000	17.118753
1051.000000	17.147650
1052.000000	17.176131
1053.000000	17.204635
1054.000000	17.233193
1055.000000	17.261623
1056.000000	17.290093
1057.000000	17.318271
1058.000000	17.346087
1059.000000	17.373992
1060.000000	17.402044
1061.000000	17.430014
1062.000000	17.458086
1063.000000	17.485995
1064.000000	17.513868
1065.000000	17.541526
1066.000000	17.568925
1067.000000	17.596394
1068.000000	17.624004
1069.000000	17.651500
1070.000000	17.678934
1071.000000	17.706200
1072.000000	17.733157
1073.000000	17.759775
1074.000000	17.786215
1075.000000	17.812996
1076.000000	17.839926
1077.000000	17.866749
1078.000000	17.893535
1079.000000	17.920473
1080.000000	17.947362
1081.000000	17.973657
1082.000000	17.999484
1083.000000	18.025616
1084.000000	18.051793
1085.000000	18.077727
1086.000000	18.103563
1087.000000	18.129339
1088.000000	18.154772
1089.000000	18.179782
1090.000000	18.204668
1091.000000	18.229256
1092.000000	18.253930
1093.000000	18.278397
1094.000000	18.302231
1095.000000	18.326047
1096.000000	18.349958
1097.000000	18.373027
1098.000000	18.396089
1099.000000	18.418796
1100.000000	18.441185
1101.000000	18.463510
1102.000000	18.485595
1103.000000	18.507284
1104.000000	18.528905
1105.000000	18.550098
1106.000000	18.570847
1107.000000	18.591209
1108.000000	18.611058
1109.000000	18.630594
1110.000000	18.649872
1111.000000	18.668975
1112.000000	18.687507
1113.000000	18.705450
1114.000000	18.722977
1115.000000	18.739806
1116.000000	18.756528
1117.000000	18.773227
1118.000000	18.789633
1119.000000	18.805556
1120.000000	18.821429
1121.000000	18.836539
1122.000000	18.851637
1123.000000	18.866526
1124.000000	18.881140
1125.000000	18.895151
1126.000000	18.908445
1127.000000	18.920676
1128.000000	18.932759
1129.000000	18.944600
1130.000000	18.955881
1131.000000	18.965320
1132.000000	18.973685
1133.000000	18.980625
1134.000000	18.987297
1135.000000	18.993865
1136.000000	18.999953
1137.000000	19.004637
1138.000000	19.007563
1139.000000	19.009570
1140.000000	19.010832
1141.000000	19.011176
1142.000000	19.010447
1143.000000	19.009227
1144.000000	19.007398
1145.000000	19.004855
1146.000000	19.002073
1147.000000	18.998725
1148.000000	18.994816
1149.000000	18.990325
1150.000000	18.985642
1151.000000	18.980745
1152.000000	18.974729
1153.000000	18.968441
1154.000000	18.961384
1155.000000	18.953291
1156.000000	18.945023
1157.000000	18.935472
1158.000000	18.925118
1159.000000	18.913757
1160.000000	18.901584
1161.000000	18.888468
1162.000000	18.874284
1163.000000	18.859410
1164.000000	18.843347
1165.000000	18.826491
1166.000000	18.809827
1167.000000	18.793000
1168.000000	18.775959
1169.000000	18.757860
1170.000000	18.738580
1171.000000	18.718889
1172.000000	18.699210
1173.000000	18.680126
1174.000000	18.660541
1175.000000	18.641175
1176.000000	18.621998
1177.000000	18.603350
1178.000000	18.584162
1179.000000	18.564833
1180.000000	18.544777
1181.000000	18.524753
1182.000000	18.504537
1183.000000	18.484496
1184.000000	18.464125
1185.000000	18.443487
1186.000000	18.423105
1187.000000	18.403334
1188.000000	18.383043
1189.000000	18.363392
1190.000000	18.345077
1191.000000	18.327499
