PE UV       SUBTECH     SPECTRUM    ASCII       PEDS        4.00        
   -1
CICIMAUCR0177-3.ASC
24/03/01
13:25:40.00
24/03/01
13:25:40.00
Vinicio Soto Monge
C.aurora. USA: AZ: Cochise Co, Chrisicahua Mtns., Pine Canyon, 31°56.895'N, 10920.495'W, 1798 m, 22.VII.2009 MV light, N.P. Lord, colr. 
250,000000
1
Lambda 1050
1050L1511233
PerkinElmer UV WinLab 6.3.2.0749 / 2.02.05 Lambda 900 UV/VIS/NIR, Aug  7 2015 09:38:08

0
0
3350/servo 860,8/2
0
0
UV/VIS
1
1
1
DoubleDePol,CommonBeamDepol,RBeamAtt,SBeamAtt,60mm sphere, WB InGaAs Detector
0
0
0
0
Program
Program
3350/servo 860,8/2
3350/0,2 860,8/0,2
3350/0,2 860,8/0,2
0
15.00
 
 
 
0
 
860,8
319,2
860,8
Front
100
on
S:100 R:100
0
0
0
0
 
0
 
 
 
0
 
 
0
0
0
0
0
 
 
 
 
0
0


0
0
#HDR
-1
-1
#GR
nm
%R
1.0
0.0
2500,000000
-1,000000
2251
8
22,957100
1,328400
#DATA
250.000000	nan
251.000000	nan
252.000000	nan
253.000000	nan
254.000000	nan
255.000000	nan
256.000000	nan
257.000000	nan
258.000000	nan
259.000000	nan
260.000000	nan
261.000000	nan
262.000000	nan
263.000000	nan
264.000000	nan
265.000000	nan
266.000000	nan
267.000000	nan
268.000000	nan
269.000000	nan
270.000000	nan
271.000000	nan
272.000000	nan
273.000000	nan
274.000000	nan
275.000000	nan
276.000000	nan
277.000000	nan
278.000000	nan
279.000000	nan
280.000000	nan
281.000000	nan
282.000000	nan
283.000000	nan
284.000000	1.801256
285.000000	1.797649
286.000000	1.794833
287.000000	1.791553
288.000000	1.787128
289.000000	1.783366
290.000000	1.779746
291.000000	1.775283
292.000000	1.771938
293.000000	1.768376
294.000000	1.765000
295.000000	1.760753
296.000000	1.756989
297.000000	1.753011
298.000000	1.749129
299.000000	1.745739
300.000000	1.742451
301.000000	1.739019
302.000000	1.735312
303.000000	1.731475
304.000000	1.728307
305.000000	1.724967
306.000000	1.722106
307.000000	1.719940
308.000000	1.717149
309.000000	1.715226
310.000000	1.711863
311.000000	1.709225
312.000000	1.706018
313.000000	1.703748
314.000000	1.701273
315.000000	1.699389
316.000000	1.697129
317.000000	1.698309
318.000000	1.699838
319.000000	1.702225
320.000000	1.705284
321.000000	1.708288
322.000000	1.707779
323.000000	1.709565
324.000000	1.711451
325.000000	1.714290
326.000000	1.716291
327.000000	1.714143
328.000000	1.715857
329.000000	1.717337
330.000000	1.718235
331.000000	1.719365
332.000000	1.720151
333.000000	1.720690
334.000000	1.721409
335.000000	1.720645
336.000000	1.721408
337.000000	1.722546
338.000000	1.722225
339.000000	1.721654
340.000000	1.720674
341.000000	1.721256
342.000000	1.720433
343.000000	1.718545
344.000000	1.716716
345.000000	1.716112
346.000000	1.715368
347.000000	1.714059
348.000000	1.711402
349.000000	1.711444
350.000000	1.710695
351.000000	1.709719
352.000000	1.704624
353.000000	1.699508
354.000000	1.693749
355.000000	1.687577
356.000000	1.681404
357.000000	1.678196
358.000000	1.672879
359.000000	1.667386
360.000000	1.661329
361.000000	1.656554
362.000000	1.655401
363.000000	1.651143
364.000000	1.646025
365.000000	1.641268
366.000000	1.636089
367.000000	1.631006
368.000000	1.626907
369.000000	1.623897
370.000000	1.621586
371.000000	1.617262
372.000000	1.611053
373.000000	1.604971
374.000000	1.600491
375.000000	1.596196
376.000000	1.589674
377.000000	1.582153
378.000000	1.575643
379.000000	1.568864
380.000000	1.561879
381.000000	1.554203
382.000000	1.547581
383.000000	1.542353
384.000000	1.534838
385.000000	1.527258
386.000000	1.520726
387.000000	1.514651
388.000000	1.508244
389.000000	1.501970
390.000000	1.495721
391.000000	1.489326
392.000000	1.483752
393.000000	1.478299
394.000000	1.472725
395.000000	1.467498
396.000000	1.462073
397.000000	1.456622
398.000000	1.451159
399.000000	1.446741
400.000000	1.442811
401.000000	1.439345
402.000000	1.436436
403.000000	1.433151
404.000000	1.428911
405.000000	1.425945
406.000000	1.423780
407.000000	1.423461
408.000000	1.424336
409.000000	1.424512
410.000000	1.425297
411.000000	1.426981
412.000000	1.431368
413.000000	1.435946
414.000000	1.440823
415.000000	1.446198
416.000000	1.452116
417.000000	1.458500
418.000000	1.465139
419.000000	1.472209
420.000000	1.479914
421.000000	1.488253
422.000000	1.497029
423.000000	1.506175
424.000000	1.515901
425.000000	1.526264
426.000000	1.537148
427.000000	1.548406
428.000000	1.560384
429.000000	1.573151
430.000000	1.586721
431.000000	1.600866
432.000000	1.615657
433.000000	1.631156
434.000000	1.647414
435.000000	1.664567
436.000000	1.682480
437.000000	1.701130
438.000000	1.720412
439.000000	1.740408
440.000000	1.761178
441.000000	1.782767
442.000000	1.805213
443.000000	1.828497
444.000000	1.852433
445.000000	1.877049
446.000000	1.902249
447.000000	1.928225
448.000000	1.954896
449.000000	1.982152
450.000000	2.010075
451.000000	2.038603
452.000000	2.067591
453.000000	2.097258
454.000000	2.127460
455.000000	2.158035
456.000000	2.188883
457.000000	2.220072
458.000000	2.251774
459.000000	2.283830
460.000000	2.316059
461.000000	2.348540
462.000000	2.381403
463.000000	2.414435
464.000000	2.447528
465.000000	2.480561
466.000000	2.513496
467.000000	2.546443
468.000000	2.579298
469.000000	2.611881
470.000000	2.644214
471.000000	2.676174
472.000000	2.707702
473.000000	2.738778
474.000000	2.769483
475.000000	2.799620
476.000000	2.829155
477.000000	2.857973
478.000000	2.885987
479.000000	2.913280
480.000000	2.939806
481.000000	2.965458
482.000000	2.989978
483.000000	3.013695
484.000000	3.036825
485.000000	3.059454
486.000000	3.081595
487.000000	3.103243
488.000000	3.124373
489.000000	3.145115
490.000000	3.165562
491.000000	3.185582
492.000000	3.205241
493.000000	3.224485
494.000000	3.243510
495.000000	3.262299
496.000000	3.280778
497.000000	3.298936
498.000000	3.317117
499.000000	3.335260
500.000000	3.353309
501.000000	3.371468
502.000000	3.389738
503.000000	3.408181
504.000000	3.426879
505.000000	3.445973
506.000000	3.465530
507.000000	3.485635
508.000000	3.506373
509.000000	3.527657
510.000000	3.549752
511.000000	3.572861
512.000000	3.596988
513.000000	3.622108
514.000000	3.648276
515.000000	3.675736
516.000000	3.704801
517.000000	3.735302
518.000000	3.767048
519.000000	3.800111
520.000000	3.834336
521.000000	3.869750
522.000000	3.906458
523.000000	3.944471
524.000000	3.983682
525.000000	4.024250
526.000000	4.066288
527.000000	4.109526
528.000000	4.154094
529.000000	4.199870
530.000000	4.246986
531.000000	4.295456
532.000000	4.345199
533.000000	4.395941
534.000000	4.447711
535.000000	4.500612
536.000000	4.554528
537.000000	4.609287
538.000000	4.664826
539.000000	4.721052
540.000000	4.777772
541.000000	4.835129
542.000000	4.893067
543.000000	4.951332
544.000000	5.010054
545.000000	5.068832
546.000000	5.127561
547.000000	5.186212
548.000000	5.244867
549.000000	5.303375
550.000000	5.361641
551.000000	5.419481
552.000000	5.476900
553.000000	5.533920
554.000000	5.590242
555.000000	5.645687
556.000000	5.700054
557.000000	5.753320
558.000000	5.805490
559.000000	5.856374
560.000000	5.901105
561.000000	5.943428
562.000000	5.984369
563.000000	6.023390
564.000000	6.060636
565.000000	6.095710
566.000000	6.128487
567.000000	6.159198
568.000000	6.187837
569.000000	6.214124
570.000000	6.238221
571.000000	6.259940
572.000000	6.279185
573.000000	6.295903
574.000000	6.310063
575.000000	6.321789
576.000000	6.330915
577.000000	6.337500
578.000000	6.341594
579.000000	6.343038
580.000000	6.341980
581.000000	6.338353
582.000000	6.332308
583.000000	6.323750
584.000000	6.312613
585.000000	6.299038
586.000000	6.282888
587.000000	6.264403
588.000000	6.243748
589.000000	6.220606
590.000000	6.195581
591.000000	6.168496
592.000000	6.139493
593.000000	6.108332
594.000000	6.075196
595.000000	6.045028
596.000000	6.014025
597.000000	5.981455
598.000000	5.947719
599.000000	5.912532
600.000000	5.876230
601.000000	5.838919
602.000000	5.800650
603.000000	5.761133
604.000000	5.721034
605.000000	5.680173
606.000000	5.638653
607.000000	5.596729
608.000000	5.554615
609.000000	5.512323
610.000000	5.470171
611.000000	5.428120
612.000000	5.385906
613.000000	5.343905
614.000000	5.302373
615.000000	5.261252
616.000000	5.220597
617.000000	5.180570
618.000000	5.141124
619.000000	5.102630
620.000000	5.065059
621.000000	5.028153
622.000000	4.992195
623.000000	4.957083
624.000000	4.923149
625.000000	4.889981
626.000000	4.857980
627.000000	4.827043
628.000000	4.797404
629.000000	4.769098
630.000000	4.741825
631.000000	4.715605
632.000000	4.690662
633.000000	4.666712
634.000000	4.644027
635.000000	4.622634
636.000000	4.602507
637.000000	4.583813
638.000000	4.566582
639.000000	4.550435
640.000000	4.535617
641.000000	4.522393
642.000000	4.510403
643.000000	4.499645
644.000000	4.490293
645.000000	4.482059
646.000000	4.474846
647.000000	4.469161
648.000000	4.464800
649.000000	4.461340
650.000000	4.458969
651.000000	4.457872
652.000000	4.457742
653.000000	4.458800
654.000000	4.460700
655.000000	4.463595
656.000000	4.467632
657.000000	4.472624
658.000000	4.478467
659.000000	4.484999
660.000000	4.492468
661.000000	4.500944
662.000000	4.510309
663.000000	4.520434
664.000000	4.531372
665.000000	4.543256
666.000000	4.556073
667.000000	4.569426
668.000000	4.583702
669.000000	4.598592
670.000000	4.614263
671.000000	4.630693
672.000000	4.647750
673.000000	4.665388
674.000000	4.683941
675.000000	4.703193
676.000000	4.722746
677.000000	4.743081
678.000000	4.764290
679.000000	4.786010
680.000000	4.808379
681.000000	4.831416
682.000000	4.854880
683.000000	4.878883
684.000000	4.903742
685.000000	4.929124
686.000000	4.954719
687.000000	4.980997
688.000000	5.007869
689.000000	5.035135
690.000000	5.062669
691.000000	5.090875
692.000000	5.119442
693.000000	5.148261
694.000000	5.177595
695.000000	5.207527
696.000000	5.237851
697.000000	5.268325
698.000000	5.299138
699.000000	5.330352
700.000000	5.361683
701.000000	5.393397
702.000000	5.425617
703.000000	5.458001
704.000000	5.491031
705.000000	5.524443
706.000000	5.558334
707.000000	5.592403
708.000000	5.627052
709.000000	5.661832
710.000000	5.696838
711.000000	5.732429
712.000000	5.768351
713.000000	5.804481
714.000000	5.840778
715.000000	5.877378
716.000000	5.914314
717.000000	5.951401
718.000000	5.988684
719.000000	6.026030
720.000000	6.063918
721.000000	6.102244
722.000000	6.140945
723.000000	6.179848
724.000000	6.219021
725.000000	6.258559
726.000000	6.298357
727.000000	6.338513
728.000000	6.378853
729.000000	6.419472
730.000000	6.460216
731.000000	6.501084
732.000000	6.542513
733.000000	6.584592
734.000000	6.626840
735.000000	6.669615
736.000000	6.712387
737.000000	6.755543
738.000000	6.799400
739.000000	6.843187
740.000000	6.887495
741.000000	6.932250
742.000000	6.976910
743.000000	7.021848
744.000000	7.067511
745.000000	7.113604
746.000000	7.159919
747.000000	7.206324
748.000000	7.253235
749.000000	7.300934
750.000000	7.348428
751.000000	7.396204
752.000000	7.444578
753.000000	7.492911
754.000000	7.541299
755.000000	7.590512
756.000000	7.640140
757.000000	7.689582
758.000000	7.739252
759.000000	7.789039
760.000000	7.839179
761.000000	7.889794
762.000000	7.940465
763.000000	7.991739
764.000000	8.043227
765.000000	8.095112
766.000000	8.147578
767.000000	8.200040
768.000000	8.252501
769.000000	8.305431
770.000000	8.358367
771.000000	8.411844
772.000000	8.465825
773.000000	8.519875
774.000000	8.574772
775.000000	8.629716
776.000000	8.684079
777.000000	8.739086
778.000000	8.794784
779.000000	8.850734
780.000000	8.906696
781.000000	8.962951
782.000000	9.020108
783.000000	9.076695
784.000000	9.132686
785.000000	9.189524
786.000000	9.246761
787.000000	9.304041
788.000000	9.361860
789.000000	9.420652
790.000000	9.478885
791.000000	9.537480
792.000000	9.596729
793.000000	9.656090
794.000000	9.716500
795.000000	9.777025
796.000000	9.837554
797.000000	9.898152
798.000000	9.959482
799.000000	10.021139
800.000000	10.082466
801.000000	10.144342
802.000000	10.206726
803.000000	10.268837
804.000000	10.331288
805.000000	10.393818
806.000000	10.456568
807.000000	10.519529
808.000000	10.584207
809.000000	10.648944
810.000000	10.713349
811.000000	10.778027
812.000000	10.843437
813.000000	10.908193
814.000000	10.972405
815.000000	11.037340
816.000000	11.103118
817.000000	11.167932
818.000000	11.234004
819.000000	11.299590
820.000000	11.364897
821.000000	11.430897
822.000000	11.496168
823.000000	11.561932
824.000000	11.627470
825.000000	11.693673
826.000000	11.758786
827.000000	11.822985
828.000000	11.887472
829.000000	11.951227
830.000000	12.014026
831.000000	12.077041
832.000000	12.141456
833.000000	12.204736
834.000000	12.268235
835.000000	12.329996
836.000000	12.391753
837.000000	12.454557
838.000000	12.516397
839.000000	12.577983
840.000000	12.639040
841.000000	12.699837
842.000000	12.760997
843.000000	12.820215
844.000000	12.877515
845.000000	12.934583
846.000000	12.993595
847.000000	13.051758
848.000000	13.109312
849.000000	13.168493
850.000000	13.224573
851.000000	13.278538
852.000000	13.334149
853.000000	13.385725
854.000000	13.437700
855.000000	13.490941
856.000000	13.543127
857.000000	13.598786
858.000000	13.671004
859.000000	13.730915
860.000000	13.790016
861.000000	13.849857
862.000000	13.910800
863.000000	13.972377
864.000000	14.034106
865.000000	14.096802
866.000000	14.160174
867.000000	14.222025
868.000000	14.284302
869.000000	14.346371
870.000000	14.410260
871.000000	14.473280
872.000000	14.534997
873.000000	14.598128
874.000000	14.661140
875.000000	14.724640
876.000000	14.787980
877.000000	14.850331
878.000000	14.913115
879.000000	14.977151
880.000000	15.041601
881.000000	15.104709
882.000000	15.167716
883.000000	15.231408
884.000000	15.293732
885.000000	15.358358
886.000000	15.423995
887.000000	15.488570
888.000000	15.556498
889.000000	15.624371
890.000000	15.691115
891.000000	15.757834
892.000000	15.821609
893.000000	15.868315
894.000000	15.927002
895.000000	15.985892
896.000000	16.045275
897.000000	16.103710
898.000000	16.161418
899.000000	16.219210
900.000000	16.276557
901.000000	16.332970
902.000000	16.389620
903.000000	16.446782
904.000000	16.503883
905.000000	16.561240
906.000000	16.618783
907.000000	16.676475
908.000000	16.733934
909.000000	16.790983
910.000000	16.847382
911.000000	16.904283
912.000000	16.961579
913.000000	17.018358
914.000000	17.075031
915.000000	17.131462
916.000000	17.187830
917.000000	17.243715
918.000000	17.299495
919.000000	17.354834
920.000000	17.409816
921.000000	17.464865
922.000000	17.519285
923.000000	17.573360
924.000000	17.627266
925.000000	17.680022
926.000000	17.732910
927.000000	17.785035
928.000000	17.836826
929.000000	17.888002
930.000000	17.938835
931.000000	17.988778
932.000000	18.038583
933.000000	18.088356
934.000000	18.137677
935.000000	18.186791
936.000000	18.235855
937.000000	18.285148
938.000000	18.333640
939.000000	18.381797
940.000000	18.429088
941.000000	18.475968
942.000000	18.522224
943.000000	18.568266
944.000000	18.614492
945.000000	18.660986
946.000000	18.706930
947.000000	18.752139
948.000000	18.797131
949.000000	18.842042
950.000000	18.886388
951.000000	18.930126
952.000000	18.974303
953.000000	19.017883
954.000000	19.061460
955.000000	19.104815
956.000000	19.147516
957.000000	19.190517
958.000000	19.232573
959.000000	19.274674
960.000000	19.317235
961.000000	19.358905
962.000000	19.400827
963.000000	19.441933
964.000000	19.483269
965.000000	19.524101
966.000000	19.564670
967.000000	19.604737
968.000000	19.643734
969.000000	19.682106
970.000000	19.720190
971.000000	19.757458
972.000000	19.793358
973.000000	19.828560
974.000000	19.863466
975.000000	19.898141
976.000000	19.932551
977.000000	19.966336
978.000000	19.999367
979.000000	20.032131
980.000000	20.064138
981.000000	20.095185
982.000000	20.125871
983.000000	20.156202
984.000000	20.185881
985.000000	20.215403
986.000000	20.244684
987.000000	20.273183
988.000000	20.300814
989.000000	20.327653
990.000000	20.354190
991.000000	20.380579
992.000000	20.406076
993.000000	20.431428
994.000000	20.456532
995.000000	20.481796
996.000000	20.507096
997.000000	20.531624
998.000000	20.555971
999.000000	20.579672
1000.000000	20.603097
1001.000000	20.626130
1002.000000	20.649109
1003.000000	20.671522
1004.000000	20.693879
1005.000000	20.715711
1006.000000	20.737048
1007.000000	20.758372
1008.000000	20.779364
1009.000000	20.799786
1010.000000	20.819799
1011.000000	20.839062
1012.000000	20.858214
1013.000000	20.877111
1014.000000	20.895301
1015.000000	20.913815
1016.000000	20.932250
1017.000000	20.950030
1018.000000	20.967431
1019.000000	20.984481
1020.000000	21.001655
1021.000000	21.018578
1022.000000	21.035356
1023.000000	21.052478
1024.000000	21.069572
1025.000000	21.086799
1026.000000	21.103752
1027.000000	21.120718
1028.000000	21.137803
1029.000000	21.154291
1030.000000	21.169850
1031.000000	21.185482
1032.000000	21.201436
1033.000000	21.217410
1034.000000	21.233278
1035.000000	21.249067
1036.000000	21.264788
1037.000000	21.280665
1038.000000	21.296876
1039.000000	21.312920
1040.000000	21.329382
1041.000000	21.345889
1042.000000	21.362490
1043.000000	21.379389
1044.000000	21.396248
1045.000000	21.413284
1046.000000	21.430563
1047.000000	21.447790
1048.000000	21.465315
1049.000000	21.483000
1050.000000	21.500671
1051.000000	21.518563
1052.000000	21.537191
1053.000000	21.556194
1054.000000	21.575380
1055.000000	21.594445
1056.000000	21.613215
1057.000000	21.632350
1058.000000	21.651582
1059.000000	21.671098
1060.000000	21.690567
1061.000000	21.710404
1062.000000	21.730398
1063.000000	21.750464
1064.000000	21.770937
1065.000000	21.791612
1066.000000	21.812046
1067.000000	21.832657
1068.000000	21.853584
1069.000000	21.874668
1070.000000	21.895829
1071.000000	21.917103
1072.000000	21.938214
1073.000000	21.959472
1074.000000	21.981053
1075.000000	22.002429
1076.000000	22.023902
1077.000000	22.045484
1078.000000	22.066793
1079.000000	22.088254
1080.000000	22.109749
1081.000000	22.131255
1082.000000	22.152675
1083.000000	22.174060
1084.000000	22.195241
1085.000000	22.216590
1086.000000	22.237626
1087.000000	22.257728
1088.000000	22.277507
1089.000000	22.297349
1090.000000	22.316949
1091.000000	22.336496
1092.000000	22.355550
1093.000000	22.374497
1094.000000	22.393352
1095.000000	22.411867
1096.000000	22.429642
1097.000000	22.447339
1098.000000	22.464267
1099.000000	22.480900
1100.000000	22.497145
1101.000000	22.512738
1102.000000	22.527733
1103.000000	22.542350
1104.000000	22.556712
1105.000000	22.570687
1106.000000	22.584224
1107.000000	22.597524
1108.000000	22.610178
1109.000000	22.621883
1110.000000	22.633686
1111.000000	22.645190
1112.000000	22.655851
1113.000000	22.665920
1114.000000	22.675354
1115.000000	22.684230
1116.000000	22.692528
1117.000000	22.700613
1118.000000	22.708432
1119.000000	22.715708
1120.000000	22.721856
1121.000000	22.727607
1122.000000	22.733119
1123.000000	22.738150
1124.000000	22.742441
1125.000000	22.746128
1126.000000	22.748932
1127.000000	22.750529
1128.000000	22.750840
1129.000000	22.749590
1130.000000	22.747147
1131.000000	22.743125
1132.000000	22.736780
1133.000000	22.728650
1134.000000	22.719592
1135.000000	22.709941
1136.000000	22.699241
1137.000000	22.686620
1138.000000	22.671813
1139.000000	22.654530
1140.000000	22.634787
1141.000000	22.614365
1142.000000	22.591742
1143.000000	22.567501
1144.000000	22.542066
1145.000000	22.514629
1146.000000	22.485456
1147.000000	22.455168
1148.000000	22.423443
1149.000000	22.390193
1150.000000	22.355460
1151.000000	22.319177
1152.000000	22.281232
1153.000000	22.241904
1154.000000	22.201400
1155.000000	22.159630
1156.000000	22.116249
1157.000000	22.070638
1158.000000	22.022599
1159.000000	21.972866
1160.000000	21.920241
1161.000000	21.865063
1162.000000	21.807785
1163.000000	21.748775
1164.000000	21.688157
1165.000000	21.625806
1166.000000	21.562957
1167.000000	21.500001
1168.000000	21.437438
1169.000000	21.374162
1170.000000	21.310405
1171.000000	21.246997
1172.000000	21.183989
1173.000000	21.121746
1174.000000	21.060465
1175.000000	21.000479
1176.000000	20.939810
1177.000000	20.879597
1178.000000	20.819435
1179.000000	20.759217
1180.000000	20.698967
1181.000000	20.637949
1182.000000	20.576456
1183.000000	20.514679
1184.000000	20.452806
1185.000000	20.390800
1186.000000	20.328506
1187.000000	20.266570
