PE UV       SUBTECH     SPECTRUM    ASCII       PEDS        4.00        
   -1
CICIMAUCR0205-1.ASC
24/06/06
12:36:51.00
24/06/06
12:36:51.00
Vinicio Soto Monge
C. cupreomarginata. Sex F. Ventral
250,000000
1
Lambda 1050
1050L1511233
PerkinElmer UV WinLab 6.3.2.0749 / 2.02.05 Lambda 900 UV/VIS/NIR, Aug  7 2015 09:38:08

0
0
3350/servo 860,8/2
0
0
UV/VIS
1
1
1
DoubleDePol,CommonBeamDepol,RBeamAtt,SBeamAtt,60mm sphere, WB InGaAs Detector
0
0
0
0
Program
Program
3350/servo 860,8/2
3350/0,2 860,8/0,2
3350/0,2 860,8/0,2
0
15.00
 
 
 
0
 
860,8
319,2
860,8
Front
100
on
S:100 R:100
0
0
0
0
 
0
 
 
 
0
 
 
0
0
0
0
0
 
 
 
 
0
0


0
0
#HDR
-1
-1
#GR
nm
%R
1.0
0.0
2500,000000
-1,000000
2251
8
55,959800
4,070400
#DATA
2482.000000	9.195728
2481.000000	9.203799
2480.000000	9.263617
2479.000000	9.159572
2478.000000	9.239181
2477.000000	9.308397
2476.000000	9.157471
2475.000000	9.211539
2474.000000	9.311603
2473.000000	9.294907
2472.000000	9.275337
2471.000000	9.301320
2470.000000	9.265164
2469.000000	9.273015
2468.000000	9.320449
2467.000000	9.357268
2466.000000	9.341899
2465.000000	9.421066
2464.000000	9.421839
2463.000000	9.413215
2462.000000	9.415979
2461.000000	9.472811
2460.000000	9.523452
2459.000000	9.537273
2458.000000	9.562150
2457.000000	9.590566
2456.000000	9.647288
2455.000000	9.674156
2454.000000	9.745804
2453.000000	9.779748
2452.000000	9.802857
2451.000000	9.855819
2450.000000	9.909334
2449.000000	9.968488
2448.000000	9.983415
2447.000000	10.059928
2446.000000	10.108025
2445.000000	10.163751
2444.000000	10.228102
2443.000000	10.275425
2442.000000	10.308596
2441.000000	10.388979
2440.000000	10.472458
2439.000000	10.507950
2438.000000	10.561797
2437.000000	10.617412
2436.000000	10.659539
2435.000000	10.719246
2434.000000	10.774751
2433.000000	10.831472
2432.000000	10.882886
2431.000000	10.910418
2430.000000	10.979191
2429.000000	11.041662
2428.000000	11.081909
2427.000000	11.116959
2426.000000	11.158312
2425.000000	11.198779
2424.000000	11.243449
2423.000000	11.295748
2422.000000	11.327370
2421.000000	11.378453
2420.000000	11.403220
2419.000000	11.444241
2418.000000	11.481060
2417.000000	11.519980
2416.000000	11.558568
2415.000000	11.578249
2414.000000	11.603016
2413.000000	11.646027
2412.000000	11.674222
2411.000000	11.698547
2410.000000	11.731386
2409.000000	11.754163
2408.000000	11.789545
2407.000000	11.812985
2406.000000	11.825037
2405.000000	11.832556
2404.000000	11.846708
2403.000000	11.857212
2402.000000	11.892594
2401.000000	11.917472
2400.000000	11.943677
2399.000000	11.956724
2398.000000	11.977179
2397.000000	11.985582
2396.000000	12.016209
2395.000000	12.036886
2394.000000	12.048827
2393.000000	12.051481
2392.000000	12.052697
2391.000000	12.062316
2390.000000	12.064638
2389.000000	12.073041
2388.000000	12.084762
2387.000000	12.089737
2386.000000	12.078570
2385.000000	12.080118
2384.000000	12.082219
2383.000000	12.079454
2382.000000	12.089184
2381.000000	12.076911
2380.000000	12.069503
2379.000000	12.067402
2378.000000	12.051370
2377.000000	12.053913
2376.000000	12.046394
2375.000000	12.028704
2374.000000	12.037770
2373.000000	12.022512
2372.000000	11.999514
2371.000000	12.008691
2370.000000	12.006590
2369.000000	12.005595
2368.000000	11.990447
2367.000000	11.992658
2366.000000	11.985803
2365.000000	11.967117
2364.000000	11.955729
2363.000000	11.952743
2362.000000	11.947215
2361.000000	11.937264
2360.000000	11.945335
2359.000000	11.945225
2358.000000	11.922337
2357.000000	11.913713
2356.000000	11.904425
2355.000000	11.889941
2354.000000	11.890383
2353.000000	11.870259
2352.000000	11.851463
2351.000000	11.856660
2350.000000	11.841733
2349.000000	11.829792
2348.000000	11.830787
2347.000000	11.825258
2346.000000	11.829349
2345.000000	11.834435
2344.000000	11.824484
2343.000000	11.819288
2342.000000	11.817187
2341.000000	11.820614
2340.000000	11.824374
2339.000000	11.808673
2338.000000	11.795515
2337.000000	11.796732
2336.000000	11.805467
2335.000000	11.809115
2334.000000	11.813980
2333.000000	11.818182
2332.000000	11.824042
2331.000000	11.838637
2330.000000	11.854891
2329.000000	11.858318
2328.000000	11.863515
2327.000000	11.882975
2326.000000	11.876341
2325.000000	11.872913
2324.000000	11.888946
2323.000000	11.916256
2322.000000	11.907853
2321.000000	11.908184
2320.000000	11.908184
2319.000000	11.901219
2318.000000	11.893811
2317.000000	11.894032
2316.000000	11.857655
2315.000000	11.828133
2314.000000	11.814975
2313.000000	11.818514
2312.000000	11.793636
2311.000000	11.764556
2310.000000	11.736914
2309.000000	11.705181
2308.000000	11.691913
2307.000000	11.672564
2306.000000	11.641052
2305.000000	11.627231
2304.000000	11.626678
2303.000000	11.593065
2302.000000	11.597488
2301.000000	11.591738
2300.000000	11.588311
2299.000000	11.581898
2298.000000	11.567303
2297.000000	11.582782
2296.000000	11.595719
2295.000000	11.595166
2294.000000	11.622366
2293.000000	11.623693
2292.000000	11.630548
2291.000000	11.663939
2290.000000	11.680856
2289.000000	11.690586
2288.000000	11.694677
2287.000000	11.729617
2286.000000	11.760576
2285.000000	11.761792
2284.000000	11.811437
2283.000000	11.837089
2282.000000	11.849252
2281.000000	11.884412
2280.000000	11.904425
2279.000000	11.927092
2278.000000	11.929745
2277.000000	11.950974
2276.000000	11.979390
2275.000000	12.016431
2274.000000	12.029035
2273.000000	12.051812
2272.000000	12.081776
2271.000000	12.105991
2270.000000	12.118153
2269.000000	12.148338
2268.000000	12.184273
2267.000000	12.223193
2266.000000	12.240331
2265.000000	12.297605
2264.000000	12.343159
2263.000000	12.393247
2262.000000	12.466553
2261.000000	12.523717
2260.000000	12.585967
2259.000000	12.673537
2258.000000	12.747839
2257.000000	12.838615
2256.000000	12.928949
2255.000000	13.021163
2254.000000	13.111718
2253.000000	13.199620
2252.000000	13.325999
2251.000000	13.419429
2250.000000	13.529776
2249.000000	13.609827
2248.000000	13.687225
2247.000000	13.782314
2246.000000	13.876075
2245.000000	13.984211
2244.000000	14.020698
2243.000000	14.102851
2242.000000	14.166206
2241.000000	14.211097
2240.000000	14.262511
2239.000000	14.316136
2238.000000	14.348091
2237.000000	14.364344
2236.000000	14.417749
2235.000000	14.429026
2234.000000	14.428252
2233.000000	14.432675
2232.000000	14.451472
2231.000000	14.460317
2230.000000	14.434002
2229.000000	14.419628
2228.000000	14.402490
2227.000000	14.383804
2226.000000	14.390880
2225.000000	14.343336
2224.000000	14.282745
2223.000000	14.282303
2222.000000	14.227129
2221.000000	14.196723
2220.000000	14.128281
2219.000000	14.090578
2218.000000	14.041485
2217.000000	13.999469
2216.000000	13.946065
2215.000000	13.901838
2214.000000	13.855731
2213.000000	13.826430
2212.000000	13.769377
2211.000000	13.736317
2210.000000	13.720617
2209.000000	13.659362
2208.000000	13.617567
2207.000000	13.598881
2206.000000	13.579974
2205.000000	13.559187
2204.000000	13.533978
2203.000000	13.494837
2202.000000	13.471949
2201.000000	13.469406
2200.000000	13.448509
2199.000000	13.428275
2198.000000	13.412132
2197.000000	13.395325
2196.000000	13.362487
2195.000000	13.345127
2194.000000	13.347007
2193.000000	13.316933
2192.000000	13.292055
2191.000000	13.301011
2190.000000	13.306539
2189.000000	13.277570
2188.000000	13.250371
2187.000000	13.258110
2186.000000	13.249928
2185.000000	13.222839
2184.000000	13.213330
2183.000000	13.208576
2182.000000	13.184693
2181.000000	13.181708
2180.000000	13.163243
2179.000000	13.134827
2178.000000	13.147653
2177.000000	13.146989
2176.000000	13.144889
2175.000000	13.134274
2174.000000	13.135601
2173.000000	13.119900
2172.000000	13.130957
2171.000000	13.137370
2170.000000	13.146437
2169.000000	13.152518
2168.000000	13.167002
2167.000000	13.171978
2166.000000	13.202937
2165.000000	13.213551
2164.000000	13.231353
2163.000000	13.250039
2162.000000	13.288959
2161.000000	13.326773
2160.000000	13.364366
2159.000000	13.393003
2158.000000	13.440105
2157.000000	13.481679
2156.000000	13.548130
2155.000000	13.599545
2154.000000	13.665996
2153.000000	13.709339
2152.000000	13.787400
2151.000000	13.851972
2150.000000	13.904381
2149.000000	13.963535
2148.000000	14.021362
2147.000000	14.096216
2146.000000	14.167643
2145.000000	14.228345
2144.000000	14.289821
2143.000000	14.344000
2142.000000	14.394087
2141.000000	14.485306
2140.000000	14.542469
2139.000000	14.601402
2138.000000	14.669070
2137.000000	14.731872
2136.000000	14.784724
2135.000000	14.829836
2134.000000	14.889764
2133.000000	14.946043
2132.000000	14.989717
2131.000000	15.036598
2130.000000	15.089229
2129.000000	15.128701
2128.000000	15.181774
2127.000000	15.216161
2126.000000	15.251100
2125.000000	15.276863
2124.000000	15.296212
2123.000000	15.324849
2122.000000	15.368634
2121.000000	15.398598
2120.000000	15.433427
2119.000000	15.461733
2118.000000	15.471794
2117.000000	15.483072
2116.000000	15.501537
2115.000000	15.525973
2114.000000	15.544659
2113.000000	15.547312
2112.000000	15.549745
2111.000000	15.567436
2110.000000	15.570863
2109.000000	15.572301
2108.000000	15.571969
2107.000000	15.587891
2106.000000	15.598616
2105.000000	15.610225
2104.000000	15.599943
2103.000000	15.582915
2102.000000	15.588886
2101.000000	15.592535
2100.000000	15.589107
2099.000000	15.584463
2098.000000	15.584574
2097.000000	15.588001
2096.000000	15.590987
2095.000000	15.600385
2094.000000	15.597952
2093.000000	15.600385
2092.000000	15.598837
2091.000000	15.595299
2090.000000	15.617965
2089.000000	15.618960
2088.000000	15.611884
2087.000000	15.609894
2086.000000	15.597510
2085.000000	15.604697
2084.000000	15.597289
2083.000000	15.571416
2082.000000	15.548528
2081.000000	15.521882
2080.000000	15.479202
2079.000000	15.437518
2078.000000	15.405785
2077.000000	15.358351
2076.000000	15.297981
2075.000000	15.243913
2074.000000	15.188076
2073.000000	15.118419
2072.000000	15.054510
2071.000000	14.980430
2070.000000	14.895956
2069.000000	14.830720
2068.000000	14.760178
2067.000000	14.682227
2066.000000	14.618872
2065.000000	14.554300
2064.000000	14.469716
2063.000000	14.387895
2062.000000	14.321775
2061.000000	14.272020
2060.000000	14.224365
2059.000000	14.160014
2058.000000	14.106831
2057.000000	14.064815
2056.000000	14.037394
2055.000000	14.014175
2054.000000	14.013843
2053.000000	14.038500
2052.000000	14.054311
2051.000000	14.079078
2050.000000	14.114350
2049.000000	14.174388
2048.000000	14.240176
2047.000000	14.304416
2046.000000	14.360364
2045.000000	14.449371
2044.000000	14.551094
2043.000000	14.629265
2042.000000	14.716172
2041.000000	14.803852
2040.000000	14.874284
2039.000000	14.954446
2038.000000	15.044227
2037.000000	15.134119
2036.000000	15.206431
2035.000000	15.262157
2034.000000	15.329161
2033.000000	15.380907
2032.000000	15.433538
2031.000000	15.495014
2030.000000	15.555937
2029.000000	15.585679
2028.000000	15.628359
2027.000000	15.661971
2026.000000	15.707968
2025.000000	15.743239
2024.000000	15.768448
2023.000000	15.787024
2022.000000	15.796864
2021.000000	15.831362
2020.000000	15.858672
2019.000000	15.881781
2018.000000	15.877358
2017.000000	15.897924
2016.000000	15.911302
2015.000000	15.899361
2014.000000	15.886977
2013.000000	15.894828
2012.000000	15.896265
2011.000000	15.870392
2010.000000	15.863537
2009.000000	15.845625
2008.000000	15.825612
2007.000000	15.810022
2006.000000	15.780500
2005.000000	15.746777
2004.000000	15.719798
2003.000000	15.686296
2002.000000	15.626700
2001.000000	15.584574
2000.000000	15.541894
1999.000000	15.493908
1998.000000	15.435528
1997.000000	15.395060
1996.000000	15.356914
1995.000000	15.280401
1994.000000	15.213175
1993.000000	15.165410
1992.000000	15.112890
1991.000000	15.043675
1990.000000	14.971031
1989.000000	14.907344
1988.000000	14.862011
1987.000000	14.797550
1986.000000	14.733752
1985.000000	14.655912
1984.000000	14.581279
1983.000000	14.518918
1982.000000	14.453904
1981.000000	14.383030
1980.000000	14.326972
1979.000000	14.266491
1978.000000	14.190642
1977.000000	14.141439
1976.000000	14.061940
1975.000000	14.008647
1974.000000	13.933129
1973.000000	13.884257
1972.000000	13.841136
1971.000000	13.767829
1970.000000	13.701820
1969.000000	13.670640
1968.000000	13.600871
1967.000000	13.553438
1966.000000	13.489529
1965.000000	13.456469
1964.000000	13.395325
1963.000000	13.346786
1962.000000	13.293271
1961.000000	13.250371
1960.000000	13.176622
1959.000000	13.132615
1958.000000	13.071140
1957.000000	12.994627
1956.000000	12.942659
1955.000000	12.907499
1954.000000	12.859402
1953.000000	12.802017
1952.000000	12.752372
1951.000000	12.692112
1950.000000	12.660932
1949.000000	12.627430
1948.000000	12.557551
1947.000000	12.517967
1946.000000	12.490657
1945.000000	12.433051
1944.000000	12.417019
1943.000000	12.365826
1942.000000	12.316291
1941.000000	12.315186
1940.000000	12.294620
1939.000000	12.284116
1938.000000	12.263882
1937.000000	12.289755
1936.000000	12.277592
1935.000000	12.279472
1934.000000	12.259570
1933.000000	12.270184
1932.000000	12.306230
1931.000000	12.316623
1930.000000	12.343712
1929.000000	12.403198
1928.000000	12.433936
1927.000000	12.484908
1926.000000	12.523828
1925.000000	12.615267
1924.000000	12.680281
1923.000000	12.717764
1922.000000	12.824462
1921.000000	12.920988
1920.000000	13.056987
1919.000000	13.158710
1918.000000	13.286195
1917.000000	13.411800
1916.000000	13.484001
1915.000000	13.603967
1914.000000	13.766945
1913.000000	13.969284
1912.000000	14.185334
1911.000000	14.358816
1910.000000	14.532850
1909.000000	14.715951
1908.000000	14.864333
1907.000000	15.084364
1906.000000	15.377922
1905.000000	15.702108
1904.000000	16.033148
1903.000000	16.333120
1902.000000	16.661618
1901.000000	16.979833
1900.000000	17.344597
1899.000000	17.767741
1898.000000	18.196524
1897.000000	18.656487
1896.000000	19.011190
1895.000000	19.359147
1894.000000	19.719378
1893.000000	20.128370
1892.000000	20.632560
1891.000000	21.201875
1890.000000	21.702417
1889.000000	22.169567
1888.000000	22.659052
1887.000000	23.088941
1886.000000	23.521152
1885.000000	23.966631
1884.000000	24.444396
1883.000000	24.932001
1882.000000	25.349838
1881.000000	25.743128
1880.000000	26.093850
1879.000000	26.386082
1878.000000	26.715133
1877.000000	27.050264
1876.000000	27.354769
1875.000000	27.668119
1874.000000	27.975167
1873.000000	28.285752
1872.000000	28.598439
1871.000000	28.872980
1870.000000	29.154928
1869.000000	29.420292
1868.000000	29.650716
1867.000000	29.791137
1866.000000	29.901705
1865.000000	29.968488
1864.000000	30.045001
1863.000000	30.089560
1862.000000	30.162425
1861.000000	30.289910
1860.000000	30.411203
1859.000000	30.539573
1858.000000	30.658433
1857.000000	30.736605
1856.000000	30.783154
1855.000000	30.810133
1854.000000	30.878685
1853.000000	30.951992
1852.000000	30.970125
1851.000000	30.946795
1850.000000	30.910086
1849.000000	30.931758
1848.000000	31.001194
1847.000000	31.127353
1846.000000	31.158422
1845.000000	31.078482
1844.000000	30.989364
1843.000000	30.897703
1842.000000	30.896486
1841.000000	30.955419
1840.000000	30.963601
1839.000000	30.938171
1838.000000	30.902015
1837.000000	30.859114
1836.000000	30.848279
1835.000000	30.831583
1834.000000	30.780169
1833.000000	30.687623
1832.000000	30.593640
1831.000000	30.561023
1830.000000	30.549634
1829.000000	30.528074
1828.000000	30.496783
1827.000000	30.460848
1826.000000	30.431326
1825.000000	30.399593
1824.000000	30.334800
1823.000000	30.263373
1822.000000	30.219478
1821.000000	30.264700
1820.000000	30.317441
1819.000000	30.330157
1818.000000	30.290463
1817.000000	30.228655
1816.000000	30.177794
1815.000000	30.162535
1814.000000	30.145950
1813.000000	30.117202
1812.000000	30.088344
1811.000000	30.076956
1810.000000	30.063245
1809.000000	30.022335
1808.000000	29.959864
1807.000000	29.921939
1806.000000	29.910219
1805.000000	29.883904
1804.000000	29.847859
1803.000000	29.810044
1802.000000	29.772562
1801.000000	29.763716
1800.000000	29.738838
1799.000000	29.692842
1798.000000	29.653480
1797.000000	29.635900
1796.000000	29.608257
1795.000000	29.568011
1794.000000	29.550099
1793.000000	29.531965
1792.000000	29.513501
1791.000000	29.497247
1790.000000	29.464961
1789.000000	29.446496
1788.000000	29.435550
1787.000000	29.422945
1786.000000	29.414653
1785.000000	29.415427
1784.000000	29.401274
1783.000000	29.374517
1782.000000	29.350966
1781.000000	29.328410
1780.000000	29.302647
1779.000000	29.269809
1778.000000	29.227350
1777.000000	29.178811
1776.000000	29.137790
1775.000000	29.092900
1774.000000	29.023352
1773.000000	28.948608
1772.000000	28.892661
1771.000000	28.826873
1770.000000	28.762412
1769.000000	28.683687
1768.000000	28.616683
1767.000000	28.554433
1766.000000	28.476040
1765.000000	28.406161
1764.000000	28.356848
1763.000000	28.314832
1762.000000	28.265961
1761.000000	28.239093
1760.000000	28.238208
1759.000000	28.218416
1758.000000	28.220296
1757.000000	28.215099
1756.000000	28.198183
1755.000000	28.183919
1754.000000	28.166118
1753.000000	28.149754
1752.000000	28.138586
1751.000000	28.125760
1750.000000	28.119347
1749.000000	28.084076
1748.000000	28.037416
1747.000000	28.006126
1746.000000	27.965989
1745.000000	27.902634
1744.000000	27.860397
1743.000000	27.804671
1742.000000	27.741757
1741.000000	27.678623
1740.000000	27.608965
1739.000000	27.539971
1738.000000	27.469428
1737.000000	27.403087
1736.000000	27.337189
1735.000000	27.268526
1734.000000	27.214348
1733.000000	27.133522
1732.000000	27.073263
1731.000000	27.019084
1730.000000	26.984255
1729.000000	26.936822
1728.000000	26.891599
1727.000000	26.874351
1726.000000	26.862520
1725.000000	26.854559
1724.000000	26.875788
1723.000000	26.891046
1722.000000	26.944893
1721.000000	27.028593
1720.000000	27.131090
1719.000000	27.269632
1718.000000	27.416466
1717.000000	27.557662
1716.000000	27.712346
1715.000000	27.869242
1714.000000	28.041286
1713.000000	28.197409
1712.000000	28.326884
1711.000000	28.461003
1710.000000	28.561067
1709.000000	28.656598
1708.000000	28.763075
1707.000000	28.870989
1706.000000	28.926384
1705.000000	28.967626
1704.000000	29.039827
1703.000000	29.098096
1702.000000	29.141218
1701.000000	29.194843
1700.000000	29.241835
1699.000000	29.300215
1698.000000	29.352956
1697.000000	29.390881
1696.000000	29.427258
1695.000000	29.445501
1694.000000	29.441631
1693.000000	29.445833
1692.000000	29.443732
1691.000000	29.450366
1690.000000	29.451472
1689.000000	29.512727
1688.000000	29.579841
1687.000000	29.670065
1686.000000	29.820991
1685.000000	30.014042
1684.000000	30.214392
1683.000000	30.424803
1682.000000	30.667721
1681.000000	30.879238
1680.000000	31.135645
1679.000000	31.356450
1678.000000	31.581566
1677.000000	31.798501
1676.000000	32.028261
1675.000000	32.200416
1674.000000	32.405078
1673.000000	32.628425
1672.000000	32.821698
1671.000000	33.005683
1670.000000	33.192654
1669.000000	33.398974
1668.000000	33.572234
1667.000000	33.771699
1666.000000	33.914996
1665.000000	34.071118
1664.000000	34.254108
1663.000000	34.379271
1662.000000	34.520135
1661.000000	34.654696
1660.000000	34.808939
1659.000000	34.926583
1658.000000	35.023551
1657.000000	35.143849
1656.000000	35.241370
1655.000000	35.279959
1654.000000	35.362000
1653.000000	35.399815
1652.000000	35.418832
1651.000000	35.445590
1650.000000	35.455209
1649.000000	35.468367
1648.000000	35.473232
1647.000000	35.437739
1646.000000	35.439619
1645.000000	35.436744
1644.000000	35.425245
1643.000000	35.406891
1642.000000	35.409876
1641.000000	35.362111
1640.000000	35.363659
1639.000000	35.346300
1638.000000	35.343204
1637.000000	35.300303
1636.000000	35.279406
1635.000000	35.249000
1634.000000	35.215608
1633.000000	35.181332
1632.000000	35.150926
1631.000000	35.105814
1630.000000	35.056501
1629.000000	35.004644
1628.000000	34.940846
1627.000000	34.889874
1626.000000	34.852613
1625.000000	34.814135
1624.000000	34.763716
1623.000000	34.724796
1622.000000	34.669181
1621.000000	34.611464
1620.000000	34.583933
1619.000000	34.520356
1618.000000	34.497800
1617.000000	34.466841
1616.000000	34.414432
1615.000000	34.369099
1614.000000	34.319564
1613.000000	34.275779
1612.000000	34.221159
1611.000000	34.180691
1610.000000	34.105062
1609.000000	34.043807
1608.000000	33.977356
1607.000000	33.908251
1606.000000	33.832401
1605.000000	33.754672
