PE UV       SUBTECH     SPECTRUM    ASCII       PEDS        4.00        
   -1
CICIMAUCR0020-3.Sample.ASC
24/04/17
10:21:33.00
24/04/17
10:21:33.00
Vinicio Soto Monge
C. resplendens
250,000000
1
Lambda 1050
1050L1511233
PerkinElmer UV WinLab 6.3.2.0749 / 2.02.05 Lambda 900 UV/VIS/NIR, Aug  7 2015 09:38:08

0
0
3350/servo 860,8/2
0
0
UV/VIS
1
1
1
DoubleDePol,CommonBeamDepol,RBeamAtt,SBeamAtt,60mm sphere, WB InGaAs Detector
0
0
0
0
Program
Program
3350/servo 860,8/2
3350/0,2 860,8/0,2
3350/0,2 860,8/0,2
0
15.00
 
 
 
0
 
860,8
319,2
860,8
Front
100
on
S:100 R:100
0
0
0
0
 
0
 
 
 
0
 
 
0
0
0
0
0
 
 
 
 
0
0


0
0
#HDR
-1
-1
#GR
nm
%R
1.0
0.0
2500,000000
-1,000000
2251
8
47,307500
3,086100
#DATA
2482.000000	13.612078
2481.000000	13.556361
2480.000000	13.544358
2479.000000	13.590386
2478.000000	13.621438
2477.000000	13.582568
2476.000000	13.564619
2475.000000	13.650618
2474.000000	13.734854
2473.000000	13.683762
2472.000000	13.671759
2471.000000	13.694773
2470.000000	13.723953
2469.000000	13.767337
2468.000000	13.773504
2467.000000	13.767337
2466.000000	13.832745
2465.000000	13.822724
2464.000000	13.854217
2463.000000	13.877341
2462.000000	13.922487
2461.000000	13.960476
2460.000000	13.966532
2459.000000	14.010798
2458.000000	14.039317
2457.000000	14.070809
2456.000000	14.112983
2455.000000	14.175417
2454.000000	14.209882
2453.000000	14.265159
2452.000000	14.325171
2451.000000	14.392119
2450.000000	14.467217
2449.000000	14.523705
2448.000000	14.596600
2447.000000	14.656501
2446.000000	14.714861
2445.000000	14.785664
2444.000000	14.853824
2443.000000	14.910642
2442.000000	14.959312
2441.000000	15.029675
2440.000000	15.081978
2439.000000	15.154873
2438.000000	15.227878
2437.000000	15.296589
2436.000000	15.354398
2435.000000	15.406482
2434.000000	15.456143
2433.000000	15.508006
2432.000000	15.570991
2431.000000	15.623955
2430.000000	15.682646
2429.000000	15.706871
2428.000000	15.777563
2427.000000	15.811038
2426.000000	15.849357
2425.000000	15.899238
2424.000000	15.935796
2423.000000	15.979951
2422.000000	16.023226
2421.000000	16.067491
2420.000000	16.110986
2419.000000	16.145561
2418.000000	16.192359
2417.000000	16.240038
2416.000000	16.308969
2415.000000	16.338369
2414.000000	16.360722
2413.000000	16.410934
2412.000000	16.457402
2411.000000	16.492858
2410.000000	16.508494
2409.000000	16.538445
2408.000000	16.560688
2407.000000	16.583261
2406.000000	16.617947
2405.000000	16.623012
2404.000000	16.643823
2403.000000	16.671021
2402.000000	16.677518
2401.000000	16.699761
2400.000000	16.730703
2399.000000	16.747770
2398.000000	16.778161
2397.000000	16.780804
2396.000000	16.772215
2395.000000	16.793247
2394.000000	16.802937
2393.000000	16.817031
2392.000000	16.832778
2391.000000	16.838393
2390.000000	16.845661
2389.000000	16.849515
2388.000000	16.852708
2387.000000	16.857443
2386.000000	16.879686
2385.000000	16.904902
2384.000000	16.881448
2383.000000	16.861737
2382.000000	16.871317
2381.000000	16.879355
2380.000000	16.862508
2379.000000	16.854250
2378.000000	16.851277
2377.000000	16.840155
2376.000000	16.831016
2375.000000	16.840155
2374.000000	16.833658
2373.000000	16.816701
2372.000000	16.815820
2371.000000	16.810425
2370.000000	16.816921
2369.000000	16.806901
2368.000000	16.805139
2367.000000	16.823418
2366.000000	16.821986
2365.000000	16.820775
2364.000000	16.833548
2363.000000	16.839274
2362.000000	16.829034
2361.000000	16.814499
2360.000000	16.813508
2359.000000	16.819234
2358.000000	16.815159
2357.000000	16.796660
2356.000000	16.800404
2355.000000	16.801616
2354.000000	16.798422
2353.000000	16.789283
2352.000000	16.806350
2351.000000	16.817031
2350.000000	16.807452
2349.000000	16.791265
2348.000000	16.787081
2347.000000	16.801285
2346.000000	16.801505
2345.000000	16.808553
2344.000000	16.814279
2343.000000	16.799964
2342.000000	16.818793
2341.000000	16.841587
2340.000000	16.837843
2339.000000	16.843238
2338.000000	16.864270
2337.000000	16.871758
2336.000000	16.877043
2335.000000	16.886182
2334.000000	16.922410
2333.000000	16.926264
2332.000000	16.937385
2331.000000	16.955003
2330.000000	16.969979
2329.000000	16.973832
2328.000000	16.984624
2327.000000	17.000590
2326.000000	17.022282
2325.000000	17.036817
2324.000000	17.053444
2323.000000	17.075247
2322.000000	17.081303
2321.000000	17.071283
2320.000000	17.064125
2319.000000	17.071283
2318.000000	17.039680
2317.000000	17.018649
2316.000000	16.991561
2315.000000	16.980439
2314.000000	16.964693
2313.000000	16.944873
2312.000000	16.906223
2311.000000	16.887063
2310.000000	16.854250
2309.000000	16.841917
2308.000000	16.818132
2307.000000	16.810975
2306.000000	16.789393
2305.000000	16.776510
2304.000000	16.761094
2303.000000	16.764507
2302.000000	16.759222
2301.000000	16.743145
2300.000000	16.759332
2299.000000	16.762635
2298.000000	16.779042
2297.000000	16.765278
2296.000000	16.796991
2295.000000	16.814609
2294.000000	16.836301
2293.000000	16.840596
2292.000000	16.844780
2291.000000	16.871978
2290.000000	16.903690
2289.000000	16.923291
2288.000000	16.948396
2287.000000	16.980329
2286.000000	16.995745
2285.000000	17.035276
2284.000000	17.101233
2283.000000	17.123476
2282.000000	17.131735
2281.000000	17.148692
2280.000000	17.179304
2279.000000	17.183378
2278.000000	17.209915
2277.000000	17.238324
2276.000000	17.270037
2275.000000	17.300538
2274.000000	17.310889
2273.000000	17.348988
2272.000000	17.368478
2271.000000	17.415937
2270.000000	17.455688
2269.000000	17.471103
2268.000000	17.516250
2267.000000	17.564259
2266.000000	17.615131
2265.000000	17.691880
2264.000000	17.749470
2263.000000	17.829302
2262.000000	17.921246
2261.000000	18.011649
2260.000000	18.111632
2259.000000	18.235399
2258.000000	18.344191
2257.000000	18.469499
2256.000000	18.610995
2255.000000	18.725182
2254.000000	18.868660
2253.000000	18.970735
2252.000000	19.074681
2251.000000	19.214415
2250.000000	19.310764
2249.000000	19.434201
2248.000000	19.526145
2247.000000	19.627339
2246.000000	19.740756
2245.000000	19.821909
2244.000000	19.892272
2243.000000	19.954485
2242.000000	20.025729
2241.000000	20.063828
2240.000000	20.111837
2239.000000	20.165132
2238.000000	20.197836
2237.000000	20.235274
2236.000000	20.229768
2235.000000	20.246395
2234.000000	20.263353
2233.000000	20.263353
2232.000000	20.242211
2231.000000	20.216665
2230.000000	20.216004
2229.000000	20.170417
2228.000000	20.137604
2227.000000	20.090035
2226.000000	20.055569
2225.000000	20.016920
2224.000000	19.967038
2223.000000	19.877847
2222.000000	19.838536
2221.000000	19.804401
2220.000000	19.746261
2219.000000	19.669182
2218.000000	19.611593
2217.000000	19.552462
2216.000000	19.521521
2215.000000	19.461619
2214.000000	19.440147
2213.000000	19.386962
2212.000000	19.338182
2211.000000	19.288741
2210.000000	19.244256
2209.000000	19.216727
2208.000000	19.172242
2207.000000	19.131610
2206.000000	19.104412
2205.000000	19.039555
2204.000000	19.035151
2203.000000	19.014890
2202.000000	18.993968
2201.000000	18.945519
2200.000000	18.935168
2199.000000	18.915678
2198.000000	18.897289
2197.000000	18.871192
2196.000000	18.837167
2195.000000	18.841572
2194.000000	18.783983
2193.000000	18.765594
2192.000000	18.747755
2191.000000	18.730468
2190.000000	18.698315
2189.000000	18.671337
2188.000000	18.670566
2187.000000	18.638964
2186.000000	18.591395
2185.000000	18.594698
2184.000000	18.561114
2183.000000	18.528520
2182.000000	18.529401
2181.000000	18.504846
2180.000000	18.494165
2179.000000	18.474785
2178.000000	18.479740
2177.000000	18.454084
2176.000000	18.452872
2175.000000	18.464214
2174.000000	18.462122
2173.000000	18.461131
2172.000000	18.459699
2171.000000	18.472362
2170.000000	18.482052
2169.000000	18.483924
2168.000000	18.500992
2167.000000	18.530612
2166.000000	18.547239
2165.000000	18.579392
2164.000000	18.612977
2163.000000	18.642707
2162.000000	18.684330
2161.000000	18.736964
2160.000000	18.797416
2159.000000	18.848289
2158.000000	18.923386
2157.000000	19.003768
2156.000000	19.082720
2155.000000	19.165304
2154.000000	19.249211
2153.000000	19.329924
2152.000000	19.421868
2151.000000	19.499057
2150.000000	19.590231
2149.000000	19.678542
2148.000000	19.743068
2147.000000	19.835233
2146.000000	19.936757
2145.000000	20.022425
2144.000000	20.094659
2143.000000	20.183741
2142.000000	20.260270
2141.000000	20.350783
2140.000000	20.420925
2139.000000	20.505932
2138.000000	20.600850
2137.000000	20.681122
2136.000000	20.748291
2135.000000	20.833629
2134.000000	20.904432
2133.000000	20.974684
2132.000000	21.029410
2131.000000	21.103406
2130.000000	21.168483
2129.000000	21.220346
2128.000000	21.269016
2127.000000	21.326826
2126.000000	21.374505
2125.000000	21.436608
2124.000000	21.489022
2123.000000	21.523598
2122.000000	21.558724
2121.000000	21.586583
2120.000000	21.617855
2119.000000	21.640538
2118.000000	21.662340
2117.000000	21.663992
2116.000000	21.682932
2115.000000	21.706496
2114.000000	21.715745
2113.000000	21.717397
2112.000000	21.720150
2111.000000	21.715745
2110.000000	21.726757
2109.000000	21.745256
2108.000000	21.752083
2107.000000	21.757698
2106.000000	21.764525
2105.000000	21.770031
2104.000000	21.779281
2103.000000	21.770912
2102.000000	21.759791
2101.000000	21.758139
2100.000000	21.754835
2099.000000	21.757809
2098.000000	21.759791
2097.000000	21.788090
2096.000000	21.818811
2095.000000	21.801854
2094.000000	21.798000
2093.000000	21.825969
2092.000000	21.840173
2091.000000	21.830924
2090.000000	21.828832
2089.000000	21.845899
2088.000000	21.842375
2087.000000	21.832575
2086.000000	21.845018
2085.000000	21.852286
2084.000000	21.838632
2083.000000	21.822335
2082.000000	21.787429
2081.000000	21.751973
2080.000000	21.714975
2079.000000	21.669167
2078.000000	21.611248
2077.000000	21.558944
2076.000000	21.517982
2075.000000	21.457970
2074.000000	21.386067
2073.000000	21.304913
2072.000000	21.232459
2071.000000	21.146570
2070.000000	21.059251
2069.000000	20.989769
2068.000000	20.934052
2067.000000	20.861598
2066.000000	20.768001
2065.000000	20.674075
2064.000000	20.587526
2063.000000	20.504391
2062.000000	20.422246
2061.000000	20.363556
2060.000000	20.314335
2059.000000	20.282402
2058.000000	20.232521
2057.000000	20.198056
2056.000000	20.184512
2055.000000	20.178786
2054.000000	20.186714
2053.000000	20.213912
2052.000000	20.263573
2051.000000	20.306958
2050.000000	20.370493
2049.000000	20.450325
2048.000000	20.541389
2047.000000	20.644675
2046.000000	20.746639
2045.000000	20.869856
2044.000000	20.995936
2043.000000	21.100213
2042.000000	21.190506
2041.000000	21.316695
2040.000000	21.411062
2039.000000	21.525470
2038.000000	21.638446
2037.000000	21.753844
2036.000000	21.847881
2035.000000	21.951938
2034.000000	22.041900
2033.000000	22.129771
2032.000000	22.212906
2031.000000	22.285801
2030.000000	22.370588
2029.000000	22.429499
2028.000000	22.511533
2027.000000	22.576830
2026.000000	22.616581
2025.000000	22.686723
2024.000000	22.749378
2023.000000	22.783733
2022.000000	22.803003
2021.000000	22.842533
2020.000000	22.886799
2019.000000	22.913116
2018.000000	22.902215
2017.000000	22.926660
2016.000000	22.954408
2015.000000	22.984139
2014.000000	23.021247
2013.000000	23.051638
2012.000000	23.064301
2011.000000	23.073771
2010.000000	23.033029
2009.000000	23.020696
2008.000000	23.013979
2007.000000	22.975880
2006.000000	22.954408
2005.000000	22.932055
2004.000000	22.919062
2003.000000	22.898030
2002.000000	22.852994
2001.000000	22.823043
2000.000000	22.767766
1999.000000	22.738586
1998.000000	22.672188
1997.000000	22.611736
1996.000000	22.555248
1995.000000	22.491272
1994.000000	22.414303
1993.000000	22.350327
1992.000000	22.272257
1991.000000	22.222266
1990.000000	22.162034
1989.000000	22.103454
1988.000000	22.008536
1987.000000	21.951828
1986.000000	21.902167
1985.000000	21.792935
1984.000000	21.726536
1983.000000	21.625012
1982.000000	21.554870
1981.000000	21.446078
1980.000000	21.396527
1979.000000	21.344884
1978.000000	21.287515
1977.000000	21.197222
1976.000000	21.117501
1975.000000	21.043945
1974.000000	20.984704
1973.000000	20.887034
1972.000000	20.843209
1971.000000	20.770534
1970.000000	20.708100
1969.000000	20.632672
1968.000000	20.581690
1967.000000	20.481487
1966.000000	20.418833
1965.000000	20.329971
1964.000000	20.259719
1963.000000	20.255755
1962.000000	20.136833
1961.000000	20.052376
1960.000000	20.019012
1959.000000	19.937198
1958.000000	19.830168
1957.000000	19.770046
1956.000000	19.703758
1955.000000	19.643196
1954.000000	19.569970
1953.000000	19.512822
1952.000000	19.415592
1951.000000	19.331906
1950.000000	19.290063
1949.000000	19.192833
1948.000000	19.145044
1947.000000	19.075232
1946.000000	19.018964
1945.000000	18.972937
1944.000000	18.918871
1943.000000	18.854235
1942.000000	18.775394
1941.000000	18.724522
1940.000000	18.658233
1939.000000	18.709326
1938.000000	18.788277
1937.000000	18.802482
1936.000000	18.784423
1935.000000	18.762951
1934.000000	18.718135
1933.000000	18.719566
1932.000000	18.708665
1931.000000	18.732009
1930.000000	18.784753
1929.000000	18.883415
1928.000000	19.011036
1927.000000	19.119608
1926.000000	19.268591
1925.000000	19.356351
1924.000000	19.315499
1923.000000	19.342587
1922.000000	19.490469
1921.000000	19.800878
1920.000000	20.121087
1919.000000	20.367740
1918.000000	20.498665
1917.000000	20.468384
1916.000000	20.459685
1915.000000	20.577616
1914.000000	20.893861
1913.000000	21.401042
1912.000000	21.805377
1911.000000	22.076806
1910.000000	22.224248
1909.000000	22.180313
1908.000000	22.259925
1907.000000	22.529482
1906.000000	22.998894
1905.000000	23.689854
1904.000000	24.213662
1903.000000	24.516914
1902.000000	24.735268
1901.000000	24.997668
1900.000000	25.523899
1899.000000	26.251967
1898.000000	26.840081
1897.000000	27.280424
1896.000000	27.425443
1895.000000	27.496906
1894.000000	27.768555
1893.000000	28.158356
1892.000000	28.761556
1891.000000	29.420473
1890.000000	29.958486
1889.000000	30.375154
1888.000000	30.625661
1887.000000	30.774534
1886.000000	31.047285
1885.000000	31.478267
1884.000000	31.960123
1883.000000	32.332085
1882.000000	32.626748
1881.000000	32.846754
1880.000000	32.887385
1879.000000	32.978449
1878.000000	33.126441
1877.000000	33.257696
1876.000000	33.409982
1875.000000	33.620078
1874.000000	33.785909
1873.000000	34.140473
1872.000000	34.517611
1871.000000	34.858741
1870.000000	35.385743
1869.000000	35.786995
1868.000000	35.925297
1867.000000	36.034860
1866.000000	35.887198
1865.000000	35.757925
1864.000000	35.573155
1863.000000	35.355792
1862.000000	35.281576
1861.000000	35.329255
1860.000000	35.492553
1859.000000	35.752530
1858.000000	35.951064
1857.000000	35.927279
1856.000000	35.781049
1855.000000	35.818157
1854.000000	36.009203
1853.000000	36.102469
1852.000000	36.091568
1851.000000	35.862973
1850.000000	35.467777
1849.000000	35.391469
1848.000000	35.884115
1847.000000	36.541050
1846.000000	36.747622
1845.000000	36.376100
1844.000000	35.754512
1843.000000	35.385853
1842.000000	35.532083
1841.000000	35.876627
1840.000000	36.014048
1839.000000	35.958882
1838.000000	35.851962
1837.000000	35.971985
1836.000000	36.194524
1835.000000	36.318511
1834.000000	36.142220
1833.000000	35.761669
1832.000000	35.531973
1831.000000	35.532964
1830.000000	35.676772
1829.000000	35.725772
1828.000000	35.689765
1827.000000	35.723790
1826.000000	35.842712
1825.000000	35.810229
1824.000000	35.572164
1823.000000	35.210663
1822.000000	35.111451
1821.000000	35.425163
1820.000000	35.817717
1819.000000	35.901623
1818.000000	35.691857
1817.000000	35.468107
1816.000000	35.455444
1815.000000	35.538910
1814.000000	35.530431
1813.000000	35.462382
1812.000000	35.435624
1811.000000	35.519640
1810.000000	35.583836
1809.000000	35.507528
1808.000000	35.362068
1807.000000	35.317693
1806.000000	35.362179
1805.000000	35.391799
1804.000000	35.352929
1803.000000	35.265169
1802.000000	35.279484
1801.000000	35.381669
1800.000000	35.427916
1799.000000	35.385412
1798.000000	35.320336
1797.000000	35.262967
1796.000000	35.241825
1795.000000	35.241054
1794.000000	35.248652
1793.000000	35.229272
1792.000000	35.231915
1791.000000	35.245018
1790.000000	35.237751
1789.000000	35.227180
1788.000000	35.212645
1787.000000	35.214847
1786.000000	35.228061
1785.000000	35.260764
1784.000000	35.264618
1783.000000	35.227290
1782.000000	35.182474
1781.000000	35.173995
1780.000000	35.188971
1779.000000	35.199101
1778.000000	35.201413
1777.000000	35.182804
1776.000000	35.162874
1775.000000	35.157478
1774.000000	35.137548
1773.000000	35.083702
1772.000000	35.086015
1771.000000	35.073132
1770.000000	35.041199
1769.000000	34.988565
1768.000000	34.934829
1767.000000	34.928002
1766.000000	34.941656
1765.000000	34.922497
1764.000000	34.893207
1763.000000	34.843876
1762.000000	34.831323
1761.000000	34.820422
1760.000000	34.837599
1759.000000	34.807979
1758.000000	34.783754
1757.000000	34.776707
1756.000000	34.779240
1755.000000	34.773293
1754.000000	34.749509
1753.000000	34.756116
1752.000000	34.765475
1751.000000	34.763493
1750.000000	34.727266
1749.000000	34.684873
1748.000000	34.643250
1747.000000	34.600085
1746.000000	34.563418
1745.000000	34.507921
1744.000000	34.484136
1743.000000	34.441082
1742.000000	34.357066
1741.000000	34.320508
1740.000000	34.297935
1739.000000	34.270737
1738.000000	34.210285
1737.000000	34.142565
1736.000000	34.111073
1735.000000	34.074956
1734.000000	34.060201
1733.000000	34.037407
1732.000000	33.997877
1731.000000	33.973872
1730.000000	33.952180
1729.000000	33.933130
1728.000000	33.938526
1727.000000	33.932910
1726.000000	33.889085
1725.000000	33.874550
1724.000000	33.884460
1723.000000	33.917824
1722.000000	33.991820
1721.000000	34.065816
1720.000000	34.168442
1719.000000	34.308175
1718.000000	34.451102
1717.000000	34.567382
1716.000000	34.716915
1715.000000	34.851143
1714.000000	35.001228
1713.000000	35.082711
1712.000000	35.180272
1711.000000	35.296221
1710.000000	35.364491
1709.000000	35.448507
1708.000000	35.494314
1707.000000	35.533294
1706.000000	35.591875
1705.000000	35.638563
1704.000000	35.652217
1703.000000	35.650675
1702.000000	35.678974
1701.000000	35.661246
1700.000000	35.657942
1699.000000	35.649023
1698.000000	35.632837
1697.000000	35.591324
1696.000000	35.553555
1695.000000	35.540672
1694.000000	35.547719
1693.000000	35.512043
1692.000000	35.508629
1691.000000	35.459078
1690.000000	35.441680
1689.000000	35.428246
1688.000000	35.454674
1687.000000	35.527348
1686.000000	35.613016
1685.000000	35.735682
1684.000000	35.852402
1683.000000	35.944016
1682.000000	36.061838
1681.000000	36.222603
1680.000000	36.383038
1679.000000	36.557677
1678.000000	36.713707
1677.000000	36.859497
1676.000000	36.976768
1675.000000	37.071465
1674.000000	37.176953
1673.000000	37.302042
1672.000000	37.441996
1671.000000	37.585143
1670.000000	37.716067
1669.000000	37.828383
1668.000000	37.954132
1667.000000	38.076908
1666.000000	38.162686
1665.000000	38.327085
1664.000000	38.438850
1663.000000	38.530244
1662.000000	38.621418
1661.000000	38.705324
1660.000000	38.790221
1659.000000	38.852545
1658.000000	38.926872
1657.000000	39.004612
1656.000000	39.049648
1655.000000	39.061100
1654.000000	39.082792
1653.000000	39.109990
1652.000000	39.147759
1651.000000	39.153705
1650.000000	39.179361
1649.000000	39.187179
1648.000000	39.172534
1647.000000	39.170552
1646.000000	39.194226
1645.000000	39.204247
1644.000000	39.164606
1643.000000	39.154806
1642.000000	39.153374
1641.000000	39.125956
1640.000000	39.128159
1639.000000	39.143684
1638.000000	39.134435
1637.000000	39.155797
1636.000000	39.174626
1635.000000	39.154586
1634.000000	39.125075
1633.000000	39.084664
1632.000000	39.067596
1631.000000	39.059668
1630.000000	39.057136
1629.000000	39.047996
1628.000000	38.996904
1627.000000	38.957924
1626.000000	38.900445
1625.000000	38.879853
1624.000000	38.856509
1623.000000	38.819732
1622.000000	38.810152
1621.000000	38.802224
1620.000000	38.777889
1619.000000	38.745846
1618.000000	38.720960
1617.000000	38.701140
1616.000000	38.696405
1615.000000	38.696074
1614.000000	38.688256
1613.000000	38.639036
1612.000000	38.601377
1611.000000	38.576602
1610.000000	38.512186
1609.000000	38.478381
1608.000000	38.452174
1607.000000	38.447990
1606.000000	38.431142
