PE UV       SUBTECH     SPECTRUM    ASCII       PEDS        4.00        
   -1
CICIMAUCR0258-2.Sample.ASC
24/07/01
11:22:22.00
24/07/01
11:22:22.00
Vinicio Soto Monge
C. resplendens. Sex M. Dorsal.
250,000000
1
Lambda 1050
1050L1511233
PerkinElmer UV WinLab 6.3.2.0749 / 2.02.05 Lambda 900 UV/VIS/NIR, Aug  7 2015 09:38:08

0
0
3350/servo 860,8/2
0
0
UV/VIS
1
1
1
DoubleDePol,CommonBeamDepol,RBeamAtt,SBeamAtt,60mm sphere, WB InGaAs Detector
0
0
0
0
Program
Program
3350/servo 860,8/2
3350/0,2 860,8/0,2
3350/0,2 860,8/0,2
0
15.00
 
 
 
0
 
860,8
319,2
860,8
Front
100
on
S:100 R:100
0
0
0
0
 
0
 
 
 
0
 
 
0
0
0
0
0
 
 
 
 
0
0


0
0
#HDR
-1
-1
#GR
nm
%R
1.0
0.0
2500,000000
-1,000000
2251
8
91,691800
5,008200
#DATA
2482.000000	8.774636
2481.000000	8.777346
2480.000000	8.758065
2479.000000	8.748268
2478.000000	8.821744
2477.000000	8.736179
2476.000000	8.816846
2475.000000	8.817158
2474.000000	8.844881
2473.000000	8.805798
2472.000000	8.870728
2471.000000	8.880107
2470.000000	8.909498
2469.000000	8.924714
2468.000000	8.914188
2467.000000	8.942119
2466.000000	8.957335
2465.000000	9.024140
2464.000000	9.034666
2463.000000	9.067392
2462.000000	9.105953
2461.000000	9.110747
2460.000000	9.165255
2459.000000	9.221430
2458.000000	9.250507
2457.000000	9.302826
2456.000000	9.348057
2455.000000	9.369006
2454.000000	9.445816
2453.000000	9.523565
2452.000000	9.573486
2451.000000	9.640188
2450.000000	9.719812
2449.000000	9.792037
2448.000000	9.860614
2447.000000	9.922417
2446.000000	9.979008
2445.000000	10.057174
2444.000000	10.145761
2443.000000	10.234557
2442.000000	10.293025
2441.000000	10.342842
2440.000000	10.413087
2439.000000	10.467594
2438.000000	10.565144
2437.000000	10.624550
2436.000000	10.695733
2435.000000	10.759724
2434.000000	10.807978
2433.000000	10.888541
2432.000000	10.952845
2431.000000	11.006831
2430.000000	11.054772
2429.000000	11.138878
2428.000000	11.188800
2427.000000	11.234970
2426.000000	11.295417
2425.000000	11.332728
2424.000000	11.386819
2423.000000	11.451852
2422.000000	11.492707
2421.000000	11.540231
2420.000000	11.604431
2419.000000	11.631841
2418.000000	11.694686
2417.000000	11.745442
2416.000000	11.779939
2415.000000	11.806932
2414.000000	11.846223
2413.000000	11.892601
2412.000000	11.932622
2411.000000	11.961282
2410.000000	11.996300
2409.000000	12.051016
2408.000000	12.073945
2407.000000	12.105940
2406.000000	12.151380
2405.000000	12.211307
2404.000000	12.258727
2403.000000	12.306460
2402.000000	12.348357
2401.000000	12.389628
2400.000000	12.425584
2399.000000	12.447054
2398.000000	12.480196
2397.000000	12.525636
2396.000000	12.554714
2395.000000	12.576287
2394.000000	12.621832
2393.000000	12.646428
2392.000000	12.671649
2391.000000	12.703228
2390.000000	12.729179
2389.000000	12.757006
2388.000000	12.768887
2387.000000	12.803280
2386.000000	12.824749
2385.000000	12.847990
2384.000000	12.857578
2383.000000	12.876651
2382.000000	12.908855
2381.000000	12.901976
2380.000000	12.916255
2379.000000	12.914587
2378.000000	12.918860
2377.000000	12.929491
2376.000000	12.933868
2375.000000	12.932930
2374.000000	12.925218
2373.000000	12.927198
2372.000000	12.934910
2371.000000	12.925739
2370.000000	12.912190
2369.000000	12.908334
2368.000000	12.907813
2367.000000	12.896348
2366.000000	12.887177
2365.000000	12.870919
2364.000000	12.847052
2363.000000	12.838923
2362.000000	12.829335
2361.000000	12.801820
2360.000000	12.767532
2359.000000	12.749189
2358.000000	12.737621
2357.000000	12.708752
2356.000000	12.691659
2355.000000	12.667480
2354.000000	12.641529
2353.000000	12.636110
2352.000000	12.626626
2351.000000	12.617976
2350.000000	12.613286
2349.000000	12.622040
2348.000000	12.638299
2347.000000	12.655599
2346.000000	12.677069
2345.000000	12.707814
2344.000000	12.741685
2343.000000	12.784416
2342.000000	12.821518
2341.000000	12.871440
2340.000000	12.897703
2339.000000	12.927823
2338.000000	12.980350
2337.000000	13.015889
2336.000000	13.027666
2335.000000	13.055702
2334.000000	13.086134
2333.000000	13.086864
2332.000000	13.082903
2331.000000	13.084154
2330.000000	13.081444
2329.000000	13.085926
2328.000000	13.075816
2327.000000	13.042570
2326.000000	13.018912
2325.000000	12.988063
2324.000000	12.975139
2323.000000	12.939079
2322.000000	12.878423
2321.000000	12.827459
2320.000000	12.767636
2319.000000	12.701560
2318.000000	12.621519
2317.000000	12.556485
2316.000000	12.490827
2315.000000	12.412244
2314.000000	12.328868
2313.000000	12.222876
2312.000000	12.139708
2311.000000	12.069359
2310.000000	11.985461
2309.000000	11.920636
2308.000000	11.857270
2307.000000	11.806515
2306.000000	11.788276
2305.000000	11.755968
2304.000000	11.738563
2303.000000	11.732935
2302.000000	11.759407
2301.000000	11.793175
2300.000000	11.833195
2299.000000	11.887181
2298.000000	11.957113
2297.000000	12.029859
2296.000000	12.110526
2295.000000	12.179207
2294.000000	12.264564
2293.000000	12.337310
2292.000000	12.394735
2291.000000	12.474881
2290.000000	12.541269
2289.000000	12.591608
2288.000000	12.624125
2287.000000	12.660497
2286.000000	12.689888
2285.000000	12.698746
2284.000000	12.709377
2283.000000	12.710940
2282.000000	12.688324
2281.000000	12.667376
2280.000000	12.655599
2279.000000	12.612765
2278.000000	12.581915
2277.000000	12.530013
2276.000000	12.503229
2275.000000	12.457997
2274.000000	12.428920
2273.000000	12.390045
2272.000000	12.354610
2271.000000	12.352943
2270.000000	12.355965
2269.000000	12.351067
2268.000000	12.381708
2267.000000	12.408701
2266.000000	12.468419
2265.000000	12.549398
2264.000000	12.640800
2263.000000	12.759924
2262.000000	12.883529
2261.000000	13.034545
2260.000000	13.193064
2259.000000	13.381182
2258.000000	13.570968
2257.000000	13.790352
2256.000000	13.989934
2255.000000	14.205149
2254.000000	14.429745
2253.000000	14.633808
2252.000000	14.856528
2251.000000	15.036308
2250.000000	15.232242
2249.000000	15.419110
2248.000000	15.615670
2247.000000	15.756159
2246.000000	15.938024
2245.000000	16.094146
2244.000000	16.190446
2243.000000	16.331143
2242.000000	16.444118
2241.000000	16.545942
2240.000000	16.626296
2239.000000	16.732392
2238.000000	16.822543
2237.000000	16.885596
2236.000000	16.953652
2235.000000	17.003261
2234.000000	17.052453
2233.000000	17.102167
2232.000000	17.125825
2231.000000	17.174287
2230.000000	17.184605
2229.000000	17.200551
2228.000000	17.207638
2227.000000	17.220040
2226.000000	17.217330
2225.000000	17.199092
2224.000000	17.198779
2223.000000	17.188044
2222.000000	17.162927
2221.000000	17.135100
2220.000000	17.080385
2219.000000	17.056935
2218.000000	17.033277
2217.000000	16.982834
2216.000000	16.942813
2215.000000	16.894976
2214.000000	16.846410
2213.000000	16.830881
2212.000000	16.779917
2211.000000	16.736144
2210.000000	16.721032
2209.000000	16.677051
2208.000000	16.631507
2207.000000	16.624733
2206.000000	16.588360
2205.000000	16.577625
2204.000000	16.526453
2203.000000	16.517073
2202.000000	16.505087
2201.000000	16.475280
2200.000000	16.460377
2199.000000	16.441617
2198.000000	16.413269
2197.000000	16.398261
2196.000000	16.394509
2195.000000	16.373144
2194.000000	16.352404
2193.000000	16.338439
2192.000000	16.337605
2191.000000	16.313426
2190.000000	16.299460
2189.000000	16.290289
2188.000000	16.279554
2187.000000	16.251102
2186.000000	16.235990
2185.000000	16.240993
2184.000000	16.207017
2183.000000	16.198783
2182.000000	16.159388
2181.000000	16.164599
2180.000000	16.130519
2179.000000	16.110613
2178.000000	16.119993
2177.000000	16.101233
2176.000000	16.080702
2175.000000	16.079034
2174.000000	16.074865
2173.000000	16.072572
2172.000000	16.049435
2171.000000	16.052041
2170.000000	16.049435
2169.000000	16.071843
2168.000000	16.077158
2167.000000	16.072989
2166.000000	16.094459
2165.000000	16.110613
2164.000000	16.143442
2163.000000	16.154177
2162.000000	16.177835
2161.000000	16.199304
2160.000000	16.215042
2159.000000	16.248392
2158.000000	16.279137
2157.000000	16.313217
2156.000000	16.363035
2155.000000	16.391487
2154.000000	16.422753
2153.000000	16.487683
2152.000000	16.520304
2151.000000	16.563555
2150.000000	16.621919
2149.000000	16.670590
2148.000000	16.701751
2147.000000	16.741043
2146.000000	16.793674
2145.000000	16.848807
2144.000000	16.896644
2143.000000	16.935622
2142.000000	16.976164
2141.000000	17.026607
2140.000000	17.046826
2139.000000	17.084970
2138.000000	17.120197
2137.000000	17.154694
2136.000000	17.184709
2135.000000	17.228378
2134.000000	17.254954
2133.000000	17.257872
2132.000000	17.292682
2131.000000	17.303625
2130.000000	17.321655
2129.000000	17.340519
2128.000000	17.343437
2127.000000	17.347502
2126.000000	17.361259
2125.000000	17.363864
2124.000000	17.369701
2123.000000	17.355631
2122.000000	17.359070
2121.000000	17.346668
2120.000000	17.333849
2119.000000	17.318737
2118.000000	17.303312
2117.000000	17.286533
2116.000000	17.275277
2115.000000	17.272880
2114.000000	17.261624
2113.000000	17.238070
2112.000000	17.196903
2111.000000	17.156361
2110.000000	17.131244
2109.000000	17.111755
2108.000000	17.093412
2107.000000	17.066627
2106.000000	17.032860
2105.000000	17.019311
2104.000000	16.986899
2103.000000	16.945523
2102.000000	16.904669
2101.000000	16.866003
2100.000000	16.844325
2099.000000	16.825878
2098.000000	16.800969
2097.000000	16.768453
2096.000000	16.731350
2095.000000	16.710193
2094.000000	16.696124
2093.000000	16.663398
2092.000000	16.632132
2091.000000	16.620876
2090.000000	16.593675
2089.000000	16.564180
2088.000000	16.556364
2087.000000	16.516031
2086.000000	16.487161
2085.000000	16.464129
2084.000000	16.419627
2083.000000	16.381795
2082.000000	16.351883
2081.000000	16.320409
2080.000000	16.280388
2079.000000	16.225568
2078.000000	16.170435
2077.000000	16.131770
2076.000000	16.081118
2075.000000	16.028696
2074.000000	15.976794
2073.000000	15.904465
2072.000000	15.844851
2071.000000	15.796492
2070.000000	15.737399
2069.000000	15.666634
2068.000000	15.597848
2067.000000	15.526144
2066.000000	15.460902
2065.000000	15.401705
2064.000000	15.329272
2063.000000	15.269553
2062.000000	15.204311
2061.000000	15.145010
2060.000000	15.096860
2059.000000	15.044437
2058.000000	14.996913
2057.000000	14.957517
2056.000000	14.920311
2055.000000	14.893734
2054.000000	14.878310
2053.000000	14.870702
2052.000000	14.871118
2051.000000	14.884354
2050.000000	14.901134
2049.000000	14.925730
2048.000000	14.962207
2047.000000	15.001811
2046.000000	15.047772
2045.000000	15.088522
2044.000000	15.139903
2043.000000	15.209001
2042.000000	15.257464
2041.000000	15.299256
2040.000000	15.360329
2039.000000	15.404206
2038.000000	15.450376
2037.000000	15.490814
2036.000000	15.535837
2035.000000	15.574503
2034.000000	15.607228
2033.000000	15.632032
2032.000000	15.651522
2031.000000	15.675805
2030.000000	15.682683
2029.000000	15.705820
2028.000000	15.727915
2027.000000	15.739171
2026.000000	15.728332
2025.000000	15.734481
2024.000000	15.723225
2023.000000	15.727707
2022.000000	15.722913
2021.000000	15.697379
2020.000000	15.700088
2019.000000	15.690813
2018.000000	15.671845
2017.000000	15.654544
2016.000000	15.609938
2015.000000	15.582006
2014.000000	15.547822
2013.000000	15.521767
2012.000000	15.493732
2011.000000	15.460694
2010.000000	15.410043
2009.000000	15.363248
2008.000000	15.315515
2007.000000	15.271221
2006.000000	15.220778
2005.000000	15.165020
2004.000000	15.121143
2003.000000	15.057569
2002.000000	14.978361
2001.000000	14.921040
2000.000000	14.856528
1999.000000	14.783469
1998.000000	14.718957
1997.000000	14.645273
1996.000000	14.565231
1995.000000	14.491652
1994.000000	14.404211
1993.000000	14.323961
1992.000000	14.268203
1991.000000	14.173362
1990.000000	14.079460
1989.000000	14.002441
1988.000000	13.900721
1987.000000	13.825578
1986.000000	13.733135
1985.000000	13.637044
1984.000000	13.558566
1983.000000	13.471437
1982.000000	13.382746
1981.000000	13.294471
1980.000000	13.210573
1979.000000	13.101976
1978.000000	13.015160
1977.000000	12.944186
1976.000000	12.864770
1975.000000	12.746584
1974.000000	12.663311
1973.000000	12.581498
1972.000000	12.526678
1971.000000	12.430900
1970.000000	12.327617
1969.000000	12.259978
1968.000000	12.168577
1967.000000	12.097186
1966.000000	11.996300
1965.000000	11.938666
1964.000000	11.839240
1963.000000	11.787234
1962.000000	11.691664
1961.000000	11.613915
1960.000000	11.542107
1959.000000	11.478533
1958.000000	11.375771
1957.000000	11.347632
1956.000000	11.273635
1955.000000	11.177752
1954.000000	11.110113
1953.000000	11.053105
1952.000000	10.993074
1951.000000	10.929291
1950.000000	10.869156
1949.000000	10.811417
1948.000000	10.744716
1947.000000	10.701361
1946.000000	10.654878
1945.000000	10.625384
1944.000000	10.558787
1943.000000	10.529397
1942.000000	10.519183
1941.000000	10.487813
1940.000000	10.462383
1939.000000	10.454879
1938.000000	10.444249
1937.000000	10.423196
1936.000000	10.399746
1935.000000	10.426844
1934.000000	10.443311
1933.000000	10.457485
1932.000000	10.479892
1931.000000	10.498756
1930.000000	10.546280
1929.000000	10.613920
1928.000000	10.658109
1927.000000	10.706155
1926.000000	10.769938
1925.000000	10.893439
1924.000000	10.947425
1923.000000	11.029655
1922.000000	11.139712
1921.000000	11.262588
1920.000000	11.404536
1919.000000	11.512613
1918.000000	11.649246
1917.000000	11.766286
1916.000000	11.910631
1915.000000	12.063522
1914.000000	12.208181
1913.000000	12.423709
1912.000000	12.633504
1911.000000	12.802446
1910.000000	13.010678
1909.000000	13.200360
1908.000000	13.400984
1907.000000	13.612239
1906.000000	13.866641
1905.000000	14.162523
1904.000000	14.465075
1903.000000	14.763667
1902.000000	15.044229
1901.000000	15.339277
1900.000000	15.653919
1899.000000	16.013479
1898.000000	16.399199
1897.000000	16.771892
1896.000000	17.120822
1895.000000	17.479862
1894.000000	17.846093
1893.000000	18.252761
1892.000000	18.706641
1891.000000	19.222324
1890.000000	19.722061
1889.000000	20.187823
1888.000000	20.696940
1887.000000	21.221690
1886.000000	21.727993
1885.000000	22.256912
1884.000000	22.801777
1883.000000	23.374469
1882.000000	23.965086
1881.000000	24.486397
1880.000000	25.035743
1879.000000	25.530270
1878.000000	26.024588
1877.000000	26.531412
1876.000000	27.035214
1875.000000	27.512439
1874.000000	27.977992
1873.000000	28.423952
1872.000000	28.880854
1871.000000	29.295861
1870.000000	29.674910
1869.000000	30.025612
1868.000000	30.376106
1867.000000	30.629674
1866.000000	30.859689
1865.000000	31.074904
1864.000000	31.272923
1863.000000	31.453537
1862.000000	31.633318
1861.000000	31.836235
1860.000000	32.055098
1859.000000	32.235400
1858.000000	32.390167
1857.000000	32.541808
1856.000000	32.683235
1855.000000	32.757440
1854.000000	32.867601
1853.000000	32.937950
1852.000000	32.985162
1851.000000	33.069268
1850.000000	33.130862
1849.000000	33.197459
1848.000000	33.256031
1847.000000	33.310330
1846.000000	33.320543
1845.000000	33.288131
1844.000000	33.283441
1843.000000	33.278230
1842.000000	33.308350
1841.000000	33.355249
1840.000000	33.385785
1839.000000	33.387245
1838.000000	33.368381
1837.000000	33.360460
1836.000000	33.350767
1835.000000	33.316479
1834.000000	33.259262
1833.000000	33.200794
1832.000000	33.153686
1831.000000	33.124609
1830.000000	33.100430
1829.000000	33.071456
1828.000000	33.035500
1827.000000	32.975261
1826.000000	32.923463
1825.000000	32.884693
1824.000000	32.830916
1823.000000	32.791520
1822.000000	32.793188
1821.000000	32.820493
1820.000000	32.797148
1819.000000	32.758587
1818.000000	32.702620
1817.000000	32.662599
1816.000000	32.633105
1815.000000	32.621537
1814.000000	32.595690
1813.000000	32.573595
1812.000000	32.545143
1811.000000	32.515440
1810.000000	32.492303
1809.000000	32.445091
1808.000000	32.412158
1807.000000	32.379641
1806.000000	32.334305
1805.000000	32.285425
1804.000000	32.245405
1803.000000	32.216431
1802.000000	32.181101
1801.000000	32.146708
1800.000000	32.096786
1799.000000	32.029356
1798.000000	31.992983
1797.000000	31.954317
1796.000000	31.894286
1795.000000	31.859059
1794.000000	31.828731
1793.000000	31.782874
1792.000000	31.742749
1791.000000	31.715548
1790.000000	31.675944
1789.000000	31.634464
1788.000000	31.608513
1787.000000	31.582146
1786.000000	31.534829
1785.000000	31.507003
1784.000000	31.467503
1783.000000	31.414351
1782.000000	31.374330
1781.000000	31.338270
1780.000000	31.297415
1779.000000	31.246556
1778.000000	31.197676
1777.000000	31.166827
1776.000000	31.131809
1775.000000	31.079282
1774.000000	31.021335
1773.000000	30.969850
1772.000000	30.918157
1771.000000	30.845307
1770.000000	30.799241
1769.000000	30.764744
1768.000000	30.686891
1767.000000	30.627694
1766.000000	30.581316
1765.000000	30.526392
1764.000000	30.485329
1763.000000	30.454792
1762.000000	30.451145
1761.000000	30.456460
1760.000000	30.479076
1759.000000	30.510863
1758.000000	30.560159
1757.000000	30.610394
1756.000000	30.665318
1755.000000	30.719304
1754.000000	30.769538
1753.000000	30.821649
1752.000000	30.854582
1751.000000	30.883347
1750.000000	30.904504
1749.000000	30.911070
1748.000000	30.904817
1747.000000	30.891476
1746.000000	30.860731
1745.000000	30.834051
1744.000000	30.807787
1743.000000	30.738585
1742.000000	30.660524
1741.000000	30.570581
1740.000000	30.466674
1739.000000	30.349530
1738.000000	30.226341
1737.000000	30.113575
1736.000000	29.994346
1735.000000	29.905238
1734.000000	29.832388
1733.000000	29.765374
1732.000000	29.723894
1731.000000	29.714514
1730.000000	29.738798
1729.000000	29.769855
1728.000000	29.813941
1727.000000	29.873972
1726.000000	29.920246
1725.000000	29.981631
1724.000000	30.039891
1723.000000	30.098150
1722.000000	30.155471
1721.000000	30.230614
1720.000000	30.299504
1719.000000	30.375168
1718.000000	30.455939
1717.000000	30.543484
1716.000000	30.636553
1715.000000	30.738585
1714.000000	30.833947
1713.000000	30.948485
1712.000000	31.041137
1711.000000	31.107630
1710.000000	31.195383
1709.000000	31.232798
1708.000000	31.269484
1707.000000	31.305127
1706.000000	31.315237
1705.000000	31.319406
1704.000000	31.280948
1703.000000	31.238843
1702.000000	31.187046
1701.000000	31.117426
1700.000000	31.048849
1699.000000	30.961617
1698.000000	30.866359
1697.000000	30.765370
1696.000000	30.679075
1695.000000	30.607371
1694.000000	30.570165
1693.000000	30.553906
1692.000000	30.592780
1691.000000	30.631238
1690.000000	30.701274
1689.000000	30.809038
1688.000000	30.888767
1687.000000	30.960575
1686.000000	31.070319
1685.000000	31.145566
1684.000000	31.234049
1683.000000	31.358697
1682.000000	31.474382
1681.000000	31.687929
1680.000000	31.928053
1679.000000	32.215494
1678.000000	32.517316
1677.000000	32.840087
1676.000000	33.171821
1675.000000	33.490631
1674.000000	33.745763
1673.000000	34.001312
1672.000000	34.212358
1671.000000	34.424655
1670.000000	34.590783
1669.000000	34.766707
1668.000000	34.903444
1667.000000	35.029238
1666.000000	35.116888
1665.000000	35.209436
1664.000000	35.300837
1663.000000	35.374417
1662.000000	35.449977
1661.000000	35.514593
1660.000000	35.552946
1659.000000	35.601513
1658.000000	35.662899
1657.000000	35.669569
1656.000000	35.718136
1655.000000	35.755655
1654.000000	35.735020
1653.000000	35.754196
1652.000000	35.740648
1651.000000	35.741064
1650.000000	35.724389
1649.000000	35.696562
1648.000000	35.670611
1647.000000	35.619752
1646.000000	35.604640
1645.000000	35.581711
1644.000000	35.538877
1643.000000	35.493228
1642.000000	35.468841
1641.000000	35.414646
1640.000000	35.386298
1639.000000	35.350342
1638.000000	35.285725
1637.000000	35.230071
1636.000000	35.193386
1635.000000	35.145132
1634.000000	35.075095
1633.000000	35.041849
1632.000000	34.977545
1631.000000	34.926477
1630.000000	34.850396
1629.000000	34.794221
1628.000000	34.729917
1627.000000	34.653732
1626.000000	34.579110
1625.000000	34.532107
1624.000000	34.458423
1623.000000	34.384635
1622.000000	34.324291
1621.000000	34.249565
1620.000000	34.192348
1619.000000	34.127523
1618.000000	34.056444
1617.000000	34.004230
1616.000000	33.950661
1615.000000	33.881458
1614.000000	33.822469
1613.000000	33.747326
1612.000000	33.687816
1611.000000	33.619448
1610.000000	33.568797
1609.000000	33.514810
1608.000000	33.444045
1607.000000	33.365984
1606.000000	33.301888
1605.000000	33.249361
