PE UV       SUBTECH     SPECTRUM    ASCII       PEDS        4.00        
   -1
CICIMAUCR0158-1.Sample.ASC
24/04/19
10:31:38.00
24/04/19
10:31:38.00
Vinicio Soto Monge
C. cupreomarginata
250,000000
1
Lambda 1050
1050L1511233
PerkinElmer UV WinLab 6.3.2.0749 / 2.02.05 Lambda 900 UV/VIS/NIR, Aug  7 2015 09:38:08

0
0
3350/servo 860,8/2
0
0
UV/VIS
1
1
1
DoubleDePol,CommonBeamDepol,RBeamAtt,SBeamAtt,60mm sphere, WB InGaAs Detector
0
0
0
0
Program
Program
3350/servo 860,8/2
3350/0,2 860,8/0,2
3350/0,2 860,8/0,2
0
15.00
 
 
 
0
 
860,8
319,2
860,8
Front
100
on
S:100 R:100
0
0
0
0
 
0
 
 
 
0
 
 
0
0
0
0
0
 
 
 
 
0
0


0
0
#HDR
-1
-1
#GR
nm
%R
1.0
0.0
2500,000000
-1,000000
2251
8
62,375300
4,764000
#DATA
2482.000000	15.732145
2481.000000	15.769949
2480.000000	15.805293
2479.000000	15.755745
2478.000000	15.818491
2477.000000	15.809320
2476.000000	15.861776
2475.000000	15.879672
2474.000000	15.905173
2473.000000	15.975637
2472.000000	15.990736
2471.000000	16.040732
2470.000000	16.059523
2469.000000	16.131329
2468.000000	16.158955
2467.000000	16.210405
2466.000000	16.241611
2465.000000	16.284448
2464.000000	16.386789
2463.000000	16.433988
2462.000000	16.508926
2461.000000	16.527829
2460.000000	16.596950
2459.000000	16.684639
2458.000000	16.762373
2457.000000	16.797829
2456.000000	16.900505
2455.000000	16.986627
2454.000000	17.078007
2453.000000	17.146346
2452.000000	17.231350
2451.000000	17.327427
2450.000000	17.450012
2449.000000	17.557721
2448.000000	17.635791
2447.000000	17.735894
2446.000000	17.845729
2445.000000	17.961715
2444.000000	18.058015
2443.000000	18.165948
2442.000000	18.278355
2441.000000	18.372866
2440.000000	18.457535
2439.000000	18.571843
2438.000000	18.666019
2437.000000	18.750799
2436.000000	18.852021
2435.000000	18.951566
2434.000000	19.043057
2433.000000	19.130522
2432.000000	19.224809
2431.000000	19.320215
2430.000000	19.407680
2429.000000	19.508007
2428.000000	19.588202
2427.000000	19.665824
2426.000000	19.727117
2425.000000	19.812568
2424.000000	19.875986
2423.000000	19.941417
2422.000000	20.027987
2421.000000	20.102813
2420.000000	20.158289
2419.000000	20.222713
2418.000000	20.298658
2417.000000	20.374602
2416.000000	20.426500
2415.000000	20.484213
2414.000000	20.553335
2413.000000	20.606351
2412.000000	20.642813
2411.000000	20.700526
2410.000000	20.755108
2409.000000	20.797051
2408.000000	20.832730
2407.000000	20.866955
2406.000000	20.920866
2405.000000	20.974553
2404.000000	21.007771
2403.000000	21.033608
2402.000000	21.064366
2401.000000	21.100046
2400.000000	21.131922
2399.000000	21.164582
2398.000000	21.192656
2397.000000	21.206301
2396.000000	21.243322
2395.000000	21.263679
2394.000000	21.275311
2393.000000	21.296897
2392.000000	21.335373
2391.000000	21.358190
2390.000000	21.382908
2389.000000	21.396442
2388.000000	21.399126
2387.000000	21.404495
2386.000000	21.424963
2385.000000	21.442523
2384.000000	21.436260
2383.000000	21.460195
2382.000000	21.474400
2381.000000	21.469702
2380.000000	21.452925
2379.000000	21.461425
2378.000000	21.474288
2377.000000	21.453931
2376.000000	21.451918
2375.000000	21.454267
2374.000000	21.446661
2373.000000	21.432904
2372.000000	21.456280
2371.000000	21.467801
2370.000000	21.449793
2369.000000	21.448675
2368.000000	21.467577
2367.000000	21.482341
2366.000000	21.470485
2365.000000	21.485361
2364.000000	21.494868
2363.000000	21.474400
2362.000000	21.475182
2361.000000	21.489163
2360.000000	21.499342
2359.000000	21.509408
2358.000000	21.498335
2357.000000	21.494756
2356.000000	21.502250
2355.000000	21.500684
2354.000000	21.479321
2353.000000	21.491065
2352.000000	21.492071
2351.000000	21.465452
2350.000000	21.465340
2349.000000	21.475965
2348.000000	21.485920
2347.000000	21.477308
2346.000000	21.479656
2345.000000	21.494868
2344.000000	21.479321
2343.000000	21.485025
2342.000000	21.508849
2341.000000	21.508289
2340.000000	21.523612
2339.000000	21.545758
2338.000000	21.565220
2337.000000	21.573832
2336.000000	21.577859
2335.000000	21.600564
2334.000000	21.629197
2333.000000	21.661632
2332.000000	21.674942
2331.000000	21.686239
2330.000000	21.724155
2329.000000	21.728182
2328.000000	21.771802
2327.000000	21.823923
2326.000000	21.831529
2325.000000	21.877498
2324.000000	21.907138
2323.000000	21.906690
2322.000000	21.929507
2321.000000	21.935323
2320.000000	21.936777
2319.000000	21.930850
2318.000000	21.914855
2317.000000	21.902664
2316.000000	21.907026
2315.000000	21.900427
2314.000000	21.885216
2313.000000	21.855912
2312.000000	21.809830
2311.000000	21.766098
2310.000000	21.761848
2309.000000	21.733327
2308.000000	21.703799
2307.000000	21.691160
2306.000000	21.640941
2305.000000	21.618795
2304.000000	21.616558
2303.000000	21.623269
2302.000000	21.581661
2301.000000	21.567792
2300.000000	21.593182
2299.000000	21.576740
2298.000000	21.576293
2297.000000	21.581550
2296.000000	21.598103
2295.000000	21.603807
2294.000000	21.625058
2293.000000	21.689482
2292.000000	21.714424
2291.000000	21.725833
2290.000000	21.736123
2289.000000	21.762631
2288.000000	21.817883
2287.000000	21.857589
2286.000000	21.867656
2285.000000	21.937113
2284.000000	21.965970
2283.000000	22.006123
2282.000000	22.078265
2281.000000	22.117076
2280.000000	22.144478
2279.000000	22.156334
2278.000000	22.181612
2277.000000	22.240779
2276.000000	22.272768
2275.000000	22.303414
2274.000000	22.335514
2273.000000	22.376115
2272.000000	22.394681
2271.000000	22.425775
2270.000000	22.452059
2269.000000	22.517602
2268.000000	22.560328
2267.000000	22.596343
2266.000000	22.687275
2265.000000	22.758857
2264.000000	22.834019
2263.000000	22.909851
2262.000000	23.023712
2261.000000	23.123368
2260.000000	23.249980
2259.000000	23.382519
2258.000000	23.519980
2257.000000	23.651736
2256.000000	23.812573
2255.000000	23.930125
2254.000000	24.081119
2253.000000	24.245423
2252.000000	24.379640
2251.000000	24.522022
2250.000000	24.646621
2249.000000	24.805109
2248.000000	24.928253
2247.000000	25.022876
2246.000000	25.170962
2245.000000	25.277217
2244.000000	25.370386
2243.000000	25.445100
2242.000000	25.534467
2241.000000	25.637255
2240.000000	25.696086
2239.000000	25.728522
2238.000000	25.763866
2237.000000	25.854910
2236.000000	25.860167
2235.000000	25.852561
2234.000000	25.882536
2233.000000	25.873477
2232.000000	25.862292
2231.000000	25.841936
2230.000000	25.840370
2229.000000	25.824487
2228.000000	25.776729
2227.000000	25.716107
2226.000000	25.665999
2225.000000	25.617122
2224.000000	25.556836
2223.000000	25.509189
2222.000000	25.441745
2221.000000	25.393762
2220.000000	25.308199
2219.000000	25.239525
2218.000000	25.151165
2217.000000	25.075444
2216.000000	25.018737
2215.000000	24.931161
2214.000000	24.874678
2213.000000	24.799069
2212.000000	24.743033
2211.000000	24.679616
2210.000000	24.600204
2209.000000	24.545510
2208.000000	24.506364
2207.000000	24.474935
2206.000000	24.409616
2205.000000	24.381654
2204.000000	24.349889
2203.000000	24.297768
2202.000000	24.270365
2201.000000	24.212764
2200.000000	24.179098
2199.000000	24.153596
2198.000000	24.125746
2197.000000	24.104943
2196.000000	24.060987
2195.000000	24.035709
2194.000000	24.020162
2193.000000	24.001819
2192.000000	23.968712
2191.000000	23.934487
2190.000000	23.915249
2189.000000	23.899367
2188.000000	23.870734
2187.000000	23.867490
2186.000000	23.823534
2185.000000	23.809441
2184.000000	23.788414
2183.000000	23.750498
2182.000000	23.756426
2181.000000	23.721417
2180.000000	23.702291
2179.000000	23.689653
2178.000000	23.662474
2177.000000	23.639098
2176.000000	23.642789
2175.000000	23.644466
2174.000000	23.648605
2173.000000	23.649835
2172.000000	23.647822
2171.000000	23.649835
2170.000000	23.675001
2169.000000	23.702180
2168.000000	23.727793
2167.000000	23.728016
2166.000000	23.778460
2165.000000	23.816823
2164.000000	23.838298
2163.000000	23.898137
2162.000000	23.966811
2161.000000	24.021728
2160.000000	24.095436
2159.000000	24.145879
2158.000000	24.225067
2157.000000	24.302577
2156.000000	24.407826
2155.000000	24.494508
2154.000000	24.590697
2153.000000	24.662838
2152.000000	24.752876
2151.000000	24.856894
2150.000000	24.960465
2149.000000	25.062582
2148.000000	25.157205
2147.000000	25.261223
2146.000000	25.360096
2145.000000	25.450134
2144.000000	25.550796
2143.000000	25.660631
2142.000000	25.747984
2141.000000	25.832876
2140.000000	25.924927
2139.000000	26.018655
2138.000000	26.096724
2137.000000	26.186203
2136.000000	26.280937
2135.000000	26.364935
2134.000000	26.445018
2133.000000	26.519396
2132.000000	26.598137
2131.000000	26.657640
2130.000000	26.720387
2129.000000	26.786265
2128.000000	26.844426
2127.000000	26.879993
2126.000000	26.941286
2125.000000	26.988038
2124.000000	27.022822
2123.000000	27.080424
2122.000000	27.127735
2121.000000	27.147532
2120.000000	27.179633
2119.000000	27.214529
2118.000000	27.251886
2117.000000	27.272578
2116.000000	27.288908
2115.000000	27.305126
2114.000000	27.321791
2113.000000	27.336555
2112.000000	27.359931
2111.000000	27.375142
2110.000000	27.372793
2109.000000	27.382636
2108.000000	27.390913
2107.000000	27.397400
2106.000000	27.405677
2105.000000	27.415072
2104.000000	27.406571
2103.000000	27.389906
2102.000000	27.392926
2101.000000	27.396505
2100.000000	27.402098
2099.000000	27.416414
2098.000000	27.425362
2097.000000	27.419210
2096.000000	27.438224
2095.000000	27.449968
2094.000000	27.442251
2093.000000	27.449856
2092.000000	27.468311
2091.000000	27.478937
2090.000000	27.498063
2089.000000	27.517301
2088.000000	27.517189
2087.000000	27.521551
2086.000000	27.517412
2085.000000	27.506451
2084.000000	27.483634
2083.000000	27.456008
2082.000000	27.429724
2081.000000	27.407802
2080.000000	27.389123
2079.000000	27.327048
2078.000000	27.269111
2077.000000	27.203456
2076.000000	27.132209
2075.000000	27.061186
2074.000000	26.986025
2073.000000	26.901468
2072.000000	26.803713
2071.000000	26.721281
2070.000000	26.626099
2069.000000	26.524094
2068.000000	26.431261
2067.000000	26.317847
2066.000000	26.214053
2065.000000	26.113278
2064.000000	26.011720
2063.000000	25.933651
2062.000000	25.845067
2061.000000	25.757155
2060.000000	25.680316
2059.000000	25.623833
2058.000000	25.556277
2057.000000	25.491070
2056.000000	25.460312
2055.000000	25.466463
2054.000000	25.463779
2053.000000	25.495544
2052.000000	25.540618
2051.000000	25.589608
2050.000000	25.671927
2049.000000	25.735345
2048.000000	25.839363
2047.000000	25.954007
2046.000000	26.059815
2045.000000	26.184972
2044.000000	26.322433
2043.000000	26.466940
2042.000000	26.575991
2041.000000	26.693879
2040.000000	26.809976
2039.000000	26.945536
2038.000000	27.048324
2037.000000	27.142499
2036.000000	27.264078
2035.000000	27.360490
2034.000000	27.451982
2033.000000	27.539670
2032.000000	27.634852
2031.000000	27.704533
2030.000000	27.775780
2029.000000	27.831145
2028.000000	27.915478
2027.000000	27.972520
2026.000000	28.031799
2025.000000	28.074413
2024.000000	28.115573
2023.000000	28.189952
2022.000000	28.216348
2021.000000	28.236928
2020.000000	28.265113
2019.000000	28.285917
2018.000000	28.331327
2017.000000	28.332558
2016.000000	28.362421
2015.000000	28.364322
2014.000000	28.367790
2013.000000	28.374500
2012.000000	28.363427
2011.000000	28.341953
2010.000000	28.307727
2009.000000	28.293635
2008.000000	28.255718
2007.000000	28.225855
2006.000000	28.206505
2005.000000	28.148233
2004.000000	28.117475
2003.000000	28.065242
2002.000000	28.011555
2001.000000	27.929235
2000.000000	27.882483
1999.000000	27.797031
1998.000000	27.707553
1997.000000	27.654761
1996.000000	27.583402
1995.000000	27.511149
1994.000000	27.402209
1993.000000	27.320561
1992.000000	27.237793
1991.000000	27.154691
1990.000000	27.064765
1989.000000	26.967122
1988.000000	26.874401
1987.000000	26.777093
1986.000000	26.676319
1985.000000	26.586281
1984.000000	26.488415
1983.000000	26.378357
1982.000000	26.283063
1981.000000	26.181952
1980.000000	26.081066
1979.000000	25.994943
1978.000000	25.904570
1977.000000	25.824487
1976.000000	25.711186
1975.000000	25.625175
1974.000000	25.517801
1973.000000	25.432574
1972.000000	25.370051
1971.000000	25.243775
1970.000000	25.165817
1969.000000	25.068845
1968.000000	24.962590
1967.000000	24.890448
1966.000000	24.808911
1965.000000	24.719881
1964.000000	24.643601
1963.000000	24.540254
1962.000000	24.448315
1961.000000	24.361633
1960.000000	24.270253
1959.000000	24.173282
1958.000000	24.077428
1957.000000	24.009537
1956.000000	23.912341
1955.000000	23.799375
1954.000000	23.727345
1953.000000	23.654644
1952.000000	23.554541
1951.000000	23.484412
1950.000000	23.377486
1949.000000	23.324470
1948.000000	23.255684
1947.000000	23.178845
1946.000000	23.112184
1945.000000	23.054023
1944.000000	23.005257
1943.000000	22.928865
1942.000000	22.912759
1941.000000	22.844868
1940.000000	22.838716
1939.000000	22.825854
1938.000000	22.822387
1937.000000	22.827867
1936.000000	22.810307
1935.000000	22.837262
1934.000000	22.839835
1933.000000	22.868020
1932.000000	22.891620
1931.000000	22.927300
1930.000000	22.979421
1929.000000	23.074827
1928.000000	23.159383
1927.000000	23.268547
1926.000000	23.369209
1925.000000	23.506558
1924.000000	23.573219
1923.000000	23.696811
1922.000000	23.887511
1921.000000	24.104384
1920.000000	24.317453
1919.000000	24.477619
1918.000000	24.673017
1917.000000	24.864164
1916.000000	25.045469
1915.000000	25.270395
1914.000000	25.611082
1913.000000	25.964744
1912.000000	26.289773
1911.000000	26.575544
1910.000000	26.821720
1909.000000	27.061522
1908.000000	27.390577
1907.000000	27.786406
1906.000000	28.262317
1905.000000	28.777823
1904.000000	29.200159
1903.000000	29.617574
1902.000000	30.038904
1901.000000	30.523428
1900.000000	31.110404
1899.000000	31.677583
1898.000000	32.264000
1897.000000	32.752326
1896.000000	33.158892
1895.000000	33.592190
1894.000000	34.084990
1893.000000	34.639419
1892.000000	35.270015
1891.000000	35.854084
1890.000000	36.350799
1889.000000	36.827269
1888.000000	37.299154
1887.000000	37.739274
1886.000000	38.185882
1885.000000	38.685841
1884.000000	39.158061
1883.000000	39.539238
1882.000000	39.912361
1881.000000	40.248463
1880.000000	40.521259
1879.000000	40.808484
1878.000000	41.101301
1877.000000	41.355083
1876.000000	41.612892
1875.000000	41.887254
1874.000000	42.155464
1873.000000	42.418530
1872.000000	42.676115
1871.000000	42.935937
1870.000000	43.176185
1869.000000	43.394512
1868.000000	43.529959
1867.000000	43.605233
1866.000000	43.658472
1865.000000	43.721666
1864.000000	43.756339
1863.000000	43.815059
1862.000000	43.917064
1861.000000	44.019740
1860.000000	44.113692
1859.000000	44.212341
1858.000000	44.301596
1857.000000	44.331235
1856.000000	44.343091
1855.000000	44.426865
1854.000000	44.492519
1853.000000	44.491513
1852.000000	44.502586
1851.000000	44.475183
1850.000000	44.461426
1849.000000	44.548891
1848.000000	44.663422
1847.000000	44.708721
1846.000000	44.663982
1845.000000	44.560187
1844.000000	44.453596
1843.000000	44.488381
1842.000000	44.581774
1841.000000	44.603584
1840.000000	44.571372
1839.000000	44.503704
1838.000000	44.480328
1837.000000	44.501579
1836.000000	44.523054
1835.000000	44.485920
1834.000000	44.385369
1833.000000	44.297793
1832.000000	44.256409
1831.000000	44.261330
1830.000000	44.263791
1829.000000	44.224085
1828.000000	44.189748
1827.000000	44.200821
1826.000000	44.183820
1825.000000	44.149483
1824.000000	44.103290
1823.000000	44.103737
1822.000000	44.136397
1821.000000	44.193998
1820.000000	44.213236
1819.000000	44.166260
1818.000000	44.114363
1817.000000	44.088190
1816.000000	44.099599
1815.000000	44.094789
1814.000000	44.071861
1813.000000	44.040655
1812.000000	44.047925
1811.000000	44.039872
1810.000000	44.016943
1809.000000	43.987416
1808.000000	43.948381
1807.000000	43.957105
1806.000000	43.956881
1805.000000	43.932051
1804.000000	43.900734
1803.000000	43.892793
1802.000000	43.891227
1801.000000	43.865390
1800.000000	43.848837
1799.000000	43.831724
1798.000000	43.824230
1797.000000	43.811256
1796.000000	43.780162
1795.000000	43.756227
1794.000000	43.760253
1793.000000	43.753878
1792.000000	43.741798
1791.000000	43.740568
1790.000000	43.733634
1789.000000	43.735088
1788.000000	43.723567
1787.000000	43.723232
1786.000000	43.743476
1785.000000	43.757905
1784.000000	43.753095
1783.000000	43.755891
1782.000000	43.750634
1781.000000	43.747615
1780.000000	43.741127
1779.000000	43.727818
1778.000000	43.685875
1777.000000	43.663729
1776.000000	43.637333
1775.000000	43.609818
1774.000000	43.589909
1773.000000	43.555908
1772.000000	43.527946
1771.000000	43.516314
1770.000000	43.494727
1769.000000	43.459719
1768.000000	43.412855
1767.000000	43.372478
1766.000000	43.351562
1765.000000	43.333778
1764.000000	43.323824
1763.000000	43.294856
1762.000000	43.295079
1761.000000	43.305705
1760.000000	43.301119
1759.000000	43.314653
1758.000000	43.319350
1757.000000	43.312192
1756.000000	43.313758
1755.000000	43.342726
1754.000000	43.318120
1753.000000	43.305257
1752.000000	43.296869
1751.000000	43.275730
1750.000000	43.270473
1749.000000	43.250788
1748.000000	43.223385
1747.000000	43.175290
1746.000000	43.149789
1745.000000	43.102366
1744.000000	43.042527
1743.000000	43.009532
1742.000000	42.968932
1741.000000	42.935825
1740.000000	42.880908
1739.000000	42.836952
1738.000000	42.808542
1737.000000	42.774876
1736.000000	42.754296
1735.000000	42.727341
1734.000000	42.678240
1733.000000	42.664930
1732.000000	42.656541
1731.000000	42.622763
1730.000000	42.572208
1729.000000	42.555767
1728.000000	42.553865
1727.000000	42.536417
1726.000000	42.547043
1725.000000	42.564043
1724.000000	42.594354
1723.000000	42.623323
1722.000000	42.710676
1721.000000	42.833932
1720.000000	42.969491
1719.000000	43.134802
1718.000000	43.282664
1717.000000	43.472469
1716.000000	43.634201
1715.000000	43.803315
1714.000000	43.967059
1713.000000	44.080361
1712.000000	44.189077
1711.000000	44.319939
1710.000000	44.407403
1709.000000	44.485697
1708.000000	44.569359
1707.000000	44.627743
1706.000000	44.679976
1705.000000	44.714984
1704.000000	44.753683
1703.000000	44.772474
1702.000000	44.800995
1701.000000	44.797640
1700.000000	44.804462
1699.000000	44.814417
1698.000000	44.817101
1697.000000	44.817437
1696.000000	44.781086
1695.000000	44.777731
1694.000000	44.728182
1693.000000	44.671923
1692.000000	44.662528
1691.000000	44.634230
1690.000000	44.598104
1689.000000	44.643737
1688.000000	44.670581
1687.000000	44.742051
1686.000000	44.877834
1685.000000	45.009814
1684.000000	45.170092
1683.000000	45.337416
1682.000000	45.521182
1681.000000	45.691973
1680.000000	45.848783
1679.000000	46.024496
1678.000000	46.190254
1677.000000	46.348854
1676.000000	46.495374
1675.000000	46.601182
1674.000000	46.746807
1673.000000	46.901604
1672.000000	47.026762
1671.000000	47.150130
1670.000000	47.296091
1669.000000	47.435565
1668.000000	47.570453
1667.000000	47.768647
1666.000000	47.838328
1665.000000	47.935076
1664.000000	48.044463
1663.000000	48.155863
1662.000000	48.240755
1661.000000	48.323411
1660.000000	48.397342
1659.000000	48.465793
1658.000000	48.532901
1657.000000	48.579877
1656.000000	48.616563
1655.000000	48.629985
1654.000000	48.659513
1653.000000	48.676290
1652.000000	48.683113
1651.000000	48.692172
1650.000000	48.698771
1649.000000	48.682553
1648.000000	48.677520
1647.000000	48.652466
1646.000000	48.641393
1645.000000	48.628419
1644.000000	48.614774
1643.000000	48.595648
1642.000000	48.578088
1641.000000	48.561646
1640.000000	48.545540
1639.000000	48.552810
1638.000000	48.527644
1637.000000	48.511650
1636.000000	48.496775
1635.000000	48.465457
1634.000000	48.413336
1633.000000	48.382578
1632.000000	48.357524
1631.000000	48.316812
1630.000000	48.276882
1629.000000	48.250262
1628.000000	48.199260
1627.000000	48.162238
1626.000000	48.120855
1625.000000	48.088643
1624.000000	48.057325
1623.000000	48.022876
1622.000000	47.981940
1621.000000	47.938208
1620.000000	47.914832
1619.000000	47.877810
1618.000000	47.857342
1617.000000	47.819985
1616.000000	47.805668
1615.000000	47.783075
1614.000000	47.725362
1613.000000	47.681406
1612.000000	47.638456
1611.000000	47.598974
1610.000000	47.553340
1609.000000	47.523253
1608.000000	47.465987
1607.000000	47.403017
