PE UV       SUBTECH     SPECTRUM    ASCII       PEDS        4.00        
   -1
CICIMAUCR0242-1.Sample.ASC
24/06/21
13:33:23.00
24/06/21
13:33:23.00
Vinicio Soto Monge
C. cupreomarginata. Ventral. Sex M
250,000000
1
Lambda 1050
1050L1511233
PerkinElmer UV WinLab 6.3.2.0749 / 2.02.05 Lambda 900 UV/VIS/NIR, Aug  7 2015 09:38:08

0
0
3350/servo 860,8/2
0
0
UV/VIS
1
1
1
DoubleDePol,CommonBeamDepol,RBeamAtt,SBeamAtt,60mm sphere, WB InGaAs Detector
0
0
0
0
Program
Program
3350/servo 860,8/2
3350/0,2 860,8/0,2
3350/0,2 860,8/0,2
0
15.00
 
 
 
0
 
860,8
319,2
860,8
Front
100
on
S:100 R:100
0
0
0
0
 
0
 
 
 
0
 
 
0
0
0
0
0
 
 
 
 
0
0


0
0
#HDR
-1
-1
#GR
nm
%R
1.0
0.0
2500,000000
-1,000000
2251
8
53,395800
3,911100
#DATA
2482.000000	5.580683
2481.000000	5.558890
2480.000000	5.596629
2479.000000	5.481817
2478.000000	5.531356
2477.000000	5.544964
2476.000000	5.557721
2475.000000	5.527529
2474.000000	5.493724
2473.000000	5.556126
2472.000000	5.531463
2471.000000	5.468954
2470.000000	5.490641
2469.000000	5.500740
2468.000000	5.512221
2467.000000	5.538054
2466.000000	5.494149
2465.000000	5.519025
2464.000000	5.475652
2463.000000	5.491279
2462.000000	5.540711
2461.000000	5.530187
2460.000000	5.510733
2459.000000	5.498508
2458.000000	5.523702
2457.000000	5.523915
2456.000000	5.517962
2455.000000	5.545921
2454.000000	5.592908
2453.000000	5.582384
2452.000000	5.578982
2451.000000	5.590995
2450.000000	5.591420
2449.000000	5.647656
2448.000000	5.637132
2447.000000	5.630328
2446.000000	5.673382
2445.000000	5.660626
2444.000000	5.685395
2443.000000	5.729406
2442.000000	5.731851
2441.000000	5.770122
2440.000000	5.793296
2439.000000	5.785323
2438.000000	5.794997
2437.000000	5.825401
2436.000000	5.832098
2435.000000	5.856974
2434.000000	5.847726
2433.000000	5.879192
2432.000000	5.908958
2431.000000	5.892800
2430.000000	5.923841
2429.000000	5.931495
2428.000000	5.946591
2427.000000	5.970829
2426.000000	5.970404
2425.000000	5.989433
2424.000000	5.984755
2423.000000	5.977633
2422.000000	6.017604
2421.000000	6.027065
2420.000000	6.047689
2419.000000	6.051835
2418.000000	6.049390
2417.000000	6.041098
2416.000000	6.053748
2415.000000	6.072458
2414.000000	6.090424
2413.000000	6.099035
2412.000000	6.094357
2411.000000	6.103075
2410.000000	6.121359
2409.000000	6.122316
2408.000000	6.131565
2407.000000	6.135498
2406.000000	6.133691
2405.000000	6.143577
2404.000000	6.151444
2403.000000	6.162925
2402.000000	6.172918
2401.000000	6.185569
2400.000000	6.189502
2399.000000	6.191416
2398.000000	6.204491
2397.000000	6.220012
2396.000000	6.228623
2395.000000	6.237127
2394.000000	6.242230
2393.000000	6.251160
2392.000000	6.269870
2391.000000	6.265618
2390.000000	6.267212
2389.000000	6.278375
2388.000000	6.272740
2387.000000	6.278056
2386.000000	6.279012
2385.000000	6.284966
2384.000000	6.288899
2383.000000	6.292620
2382.000000	6.292939
2381.000000	6.295490
2380.000000	6.286560
2379.000000	6.275185
2378.000000	6.272209
2377.000000	6.272634
2376.000000	6.268169
2375.000000	6.251373
2374.000000	6.261046
2373.000000	6.251054
2372.000000	6.233619
2371.000000	6.236383
2370.000000	6.223626
2369.000000	6.221713
2368.000000	6.229686
2367.000000	6.219693
2366.000000	6.178552
2365.000000	6.157823
2364.000000	6.172174
2363.000000	6.154208
2362.000000	6.134967
2361.000000	6.114768
2360.000000	6.097972
2359.000000	6.102330
2358.000000	6.085959
2357.000000	6.067037
2356.000000	6.046838
2355.000000	6.032806
2354.000000	6.038759
2353.000000	6.023663
2352.000000	6.003571
2351.000000	6.019943
2350.000000	6.029935
2349.000000	6.013139
2348.000000	6.002402
2347.000000	6.008355
2346.000000	6.022175
2345.000000	6.027490
2344.000000	6.037696
2343.000000	6.049071
2342.000000	6.056406
2341.000000	6.057256
2340.000000	6.047157
2339.000000	6.056831
2338.000000	6.055981
2337.000000	6.063635
2336.000000	6.054492
2335.000000	6.036526
2334.000000	6.040141
2333.000000	6.036952
2332.000000	6.030148
2331.000000	6.015584
2330.000000	6.002508
2329.000000	5.980928
2328.000000	5.982097
2327.000000	5.959241
2326.000000	5.928306
2325.000000	5.909384
2324.000000	5.890780
2323.000000	5.863459
2322.000000	5.845812
2321.000000	5.826039
2320.000000	5.810624
2319.000000	5.786068
2318.000000	5.750455
2317.000000	5.716011
2316.000000	5.691880
2315.000000	5.657330
2314.000000	5.611406
2313.000000	5.601732
2312.000000	5.576962
2311.000000	5.572072
2310.000000	5.545070
2309.000000	5.519450
2308.000000	5.495425
2307.000000	5.490322
2306.000000	5.485751
2305.000000	5.483306
2304.000000	5.486070
2303.000000	5.491066
2302.000000	5.495531
2301.000000	5.491704
2300.000000	5.508075
2299.000000	5.500315
2298.000000	5.519025
2297.000000	5.534546
2296.000000	5.555276
2295.000000	5.558358
2294.000000	5.580895
2293.000000	5.593865
2292.000000	5.620973
2291.000000	5.620442
2290.000000	5.608429
2289.000000	5.631285
2288.000000	5.635218
2287.000000	5.618953
2286.000000	5.620654
2285.000000	5.623524
2284.000000	5.608110
2283.000000	5.585786
2282.000000	5.579620
2281.000000	5.557721
2280.000000	5.569840
2279.000000	5.562185
2278.000000	5.547621
2277.000000	5.525616
2276.000000	5.529018
2275.000000	5.525829
2274.000000	5.529443
2273.000000	5.508819
2272.000000	5.488409
2271.000000	5.500209
2270.000000	5.494681
2269.000000	5.493192
2268.000000	5.494574
2267.000000	5.505949
2266.000000	5.538266
2265.000000	5.550704
2264.000000	5.564312
2263.000000	5.603326
2262.000000	5.663708
2261.000000	5.688372
2260.000000	5.731639
2259.000000	5.770122
2258.000000	5.826783
2257.000000	5.898009
2256.000000	5.968065
2255.000000	6.019305
2254.000000	6.084577
2253.000000	6.133691
2252.000000	6.206617
2251.000000	6.293257
2250.000000	6.372988
2249.000000	6.407750
2248.000000	6.471321
2247.000000	6.525963
2246.000000	6.569761
2245.000000	6.622702
2244.000000	6.712425
2243.000000	6.735813
2242.000000	6.775678
2241.000000	6.812992
2240.000000	6.853707
2239.000000	6.892509
2238.000000	6.928972
2237.000000	6.972027
2236.000000	6.997115
2235.000000	7.010403
2234.000000	7.027944
2233.000000	7.056753
2232.000000	7.065151
2231.000000	7.085775
2230.000000	7.093323
2229.000000	7.126065
2228.000000	7.124789
2227.000000	7.133613
2226.000000	7.131593
2225.000000	7.125746
2224.000000	7.122982
2223.000000	7.149453
2222.000000	7.137653
2221.000000	7.125108
2220.000000	7.126916
2219.000000	7.095023
2218.000000	7.093110
2217.000000	7.100870
2216.000000	7.098106
2215.000000	7.084393
2214.000000	7.056222
2213.000000	7.035066
2212.000000	7.056753
2211.000000	7.053351
2210.000000	7.031346
2209.000000	7.028263
2208.000000	7.024755
2207.000000	7.027519
2206.000000	7.019333
2205.000000	6.989355
2204.000000	7.001367
2203.000000	6.990311
2202.000000	6.997965
2201.000000	6.980425
2200.000000	6.973834
2199.000000	6.961715
2198.000000	6.963628
2197.000000	6.967668
2196.000000	6.957037
2195.000000	6.955230
2194.000000	6.929185
2193.000000	6.924720
2192.000000	6.914621
2191.000000	6.930035
2190.000000	6.925996
2189.000000	6.917916
2188.000000	6.916109
2187.000000	6.918767
2186.000000	6.905797
2185.000000	6.878051
2184.000000	6.887194
2183.000000	6.893253
2182.000000	6.875500
2181.000000	6.885493
2180.000000	6.897612
2179.000000	6.892403
2178.000000	6.888150
2177.000000	6.871460
2176.000000	6.869015
2175.000000	6.868484
2174.000000	6.867527
2173.000000	6.872842
2172.000000	6.882197
2171.000000	6.886556
2170.000000	6.882516
2169.000000	6.888682
2168.000000	6.886556
2167.000000	6.900057
2166.000000	6.907711
2165.000000	6.910475
2164.000000	6.924188
2163.000000	6.945875
2162.000000	6.946832
2161.000000	6.961821
2160.000000	6.962140
2159.000000	6.980531
2158.000000	6.982019
2157.000000	6.992118
2156.000000	7.027519
2155.000000	7.047292
2154.000000	7.046654
2153.000000	7.071317
2152.000000	7.085775
2151.000000	7.087157
2150.000000	7.115647
2149.000000	7.140523
2148.000000	7.170289
2147.000000	7.150622
2146.000000	7.167950
2145.000000	7.192613
2144.000000	7.207815
2143.000000	7.232372
2142.000000	7.227375
2141.000000	7.234817
2140.000000	7.244491
2139.000000	7.254909
2138.000000	7.259586
2137.000000	7.273087
2136.000000	7.284887
2135.000000	7.302747
2134.000000	7.308062
2133.000000	7.310189
2132.000000	7.312634
2131.000000	7.304979
2130.000000	7.300302
2129.000000	7.311570
2128.000000	7.326879
2127.000000	7.311039
2126.000000	7.310720
2125.000000	7.304661
2124.000000	7.304342
2123.000000	7.297219
2122.000000	7.293924
2121.000000	7.271174
2120.000000	7.262563
2119.000000	7.261606
2118.000000	7.245022
2117.000000	7.232797
2116.000000	7.224399
2115.000000	7.206220
2114.000000	7.185703
2113.000000	7.190700
2112.000000	7.166462
2111.000000	7.147645
2110.000000	7.142224
2109.000000	7.134570
2108.000000	7.128085
2107.000000	7.112777
2106.000000	7.098532
2105.000000	7.073231
2104.000000	7.046760
2103.000000	7.041020
2102.000000	7.035704
2101.000000	7.030495
2100.000000	7.021353
2099.000000	7.000623
2098.000000	6.993819
2097.000000	6.981382
2096.000000	6.978192
2095.000000	6.965435
2094.000000	6.956399
2093.000000	6.947044
2092.000000	6.930354
2091.000000	6.923657
2090.000000	6.914408
2089.000000	6.898462
2088.000000	6.886450
2087.000000	6.872417
2086.000000	6.874862
2085.000000	6.864657
2084.000000	6.844565
2083.000000	6.827556
2082.000000	6.820646
2081.000000	6.819157
2080.000000	6.809590
2079.000000	6.794388
2078.000000	6.773233
2077.000000	6.754523
2076.000000	6.741766
2075.000000	6.732305
2074.000000	6.708598
2073.000000	6.681809
2072.000000	6.676919
2071.000000	6.667457
2070.000000	6.651724
2069.000000	6.628018
2068.000000	6.604630
2067.000000	6.597295
2066.000000	6.564446
2065.000000	6.555516
2064.000000	6.550414
2063.000000	6.530215
2062.000000	6.510655
2061.000000	6.499812
2060.000000	6.486523
2059.000000	6.462711
2058.000000	6.455375
2057.000000	6.463667
2056.000000	6.456545
2055.000000	6.463136
2054.000000	6.482271
2053.000000	6.488543
2052.000000	6.476318
2051.000000	6.486417
2050.000000	6.498749
2049.000000	6.506509
2048.000000	6.513206
2047.000000	6.539251
2046.000000	6.564552
2045.000000	6.590810
2044.000000	6.622171
2043.000000	6.646409
2042.000000	6.677557
2041.000000	6.703389
2040.000000	6.712532
2039.000000	6.729966
2038.000000	6.754629
2037.000000	6.784289
2036.000000	6.815649
2035.000000	6.832977
2034.000000	6.848179
2033.000000	6.871141
2032.000000	6.890489
2031.000000	6.898250
2030.000000	6.922488
2029.000000	6.924720
2028.000000	6.928547
2027.000000	6.940028
2026.000000	6.943005
2025.000000	6.962565
2024.000000	6.968412
2023.000000	6.974578
2022.000000	6.985634
2021.000000	6.982551
2020.000000	6.998391
2019.000000	7.008065
2018.000000	7.011573
2017.000000	7.012955
2016.000000	6.999241
2015.000000	6.999028
2014.000000	6.999879
2013.000000	6.981169
2012.000000	6.976704
2011.000000	6.984145
2010.000000	6.975109
2009.000000	6.969688
2008.000000	6.946194
2007.000000	6.949702
2006.000000	6.922488
2005.000000	6.899950
2004.000000	6.883686
2003.000000	6.884430
2002.000000	6.857003
2001.000000	6.852644
2000.000000	6.831276
1999.000000	6.802255
1998.000000	6.762815
1997.000000	6.767280
1996.000000	6.736238
1995.000000	6.707429
1994.000000	6.682872
1993.000000	6.663843
1992.000000	6.647472
1991.000000	6.630356
1990.000000	6.599740
1989.000000	6.575502
1988.000000	6.546693
1987.000000	6.534787
1986.000000	6.519585
1985.000000	6.499280
1984.000000	6.449847
1983.000000	6.414766
1982.000000	6.411683
1981.000000	6.379260
1980.000000	6.351939
1979.000000	6.325787
1978.000000	6.284966
1977.000000	6.266787
1976.000000	6.242230
1975.000000	6.223095
1974.000000	6.199920
1973.000000	6.196093
1972.000000	6.159736
1971.000000	6.142302
1970.000000	6.127313
1969.000000	6.099248
1968.000000	6.078305
1967.000000	6.058000
1966.000000	6.030148
1965.000000	6.016328
1964.000000	6.014946
1963.000000	5.985393
1962.000000	5.963813
1961.000000	5.937236
1960.000000	5.916187
1959.000000	5.909065
1958.000000	5.888441
1957.000000	5.871432
1956.000000	5.862609
1955.000000	5.838689
1954.000000	5.832949
1953.000000	5.825189
1952.000000	5.795635
1951.000000	5.775543
1950.000000	5.771610
1949.000000	5.757258
1948.000000	5.763956
1947.000000	5.711653
1946.000000	5.719520
1945.000000	5.685289
1944.000000	5.697301
1943.000000	5.687096
1942.000000	5.687202
1941.000000	5.660413
1940.000000	5.670937
1939.000000	5.671363
1938.000000	5.669768
1937.000000	5.671256
1936.000000	5.700916
1935.000000	5.660519
1934.000000	5.675402
1933.000000	5.689860
1932.000000	5.698896
1931.000000	5.705593
1930.000000	5.700597
1929.000000	5.696876
1928.000000	5.735040
1927.000000	5.759491
1926.000000	5.783516
1925.000000	5.805841
1924.000000	5.815621
1923.000000	5.835713
1922.000000	5.866329
1921.000000	5.876428
1920.000000	5.948611
1919.000000	5.958497
1918.000000	6.020793
1917.000000	6.019305
1916.000000	6.061934
1915.000000	6.102330
1914.000000	6.133159
1913.000000	6.205767
1912.000000	6.267425
1911.000000	6.331315
1910.000000	6.364483
1909.000000	6.420188
1908.000000	6.447509
1907.000000	6.497473
1906.000000	6.586345
1905.000000	6.663630
1904.000000	6.773764
1903.000000	6.833721
1902.000000	6.929929
1901.000000	7.006364
1900.000000	7.093642
1899.000000	7.195483
1898.000000	7.331450
1897.000000	7.448919
1896.000000	7.561498
1895.000000	7.646331
1894.000000	7.734991
1893.000000	7.845762
1892.000000	7.983855
1891.000000	8.153627
1890.000000	8.308941
1889.000000	8.498061
1888.000000	8.682078
1887.000000	8.837073
1886.000000	9.010460
1885.000000	9.263895
1884.000000	9.501491
1883.000000	9.776613
1882.000000	10.122217
1881.000000	10.405418
1880.000000	10.710200
1879.000000	10.996059
1878.000000	11.298289
1877.000000	11.630072
1876.000000	11.945804
1875.000000	12.282371
1874.000000	12.591618
1873.000000	12.914471
1872.000000	13.265284
1871.000000	13.601745
1870.000000	13.927894
1869.000000	14.238204
1868.000000	14.527040
1867.000000	14.710844
1866.000000	14.901027
1865.000000	15.026150
1864.000000	15.157014
1863.000000	15.249394
1862.000000	15.351024
1861.000000	15.478805
1860.000000	15.599782
1859.000000	15.743402
1858.000000	15.875329
1857.000000	15.961756
1856.000000	16.021501
1855.000000	16.060728
1854.000000	16.101869
1853.000000	16.157786
1852.000000	16.172138
1851.000000	16.162783
1850.000000	16.156829
1849.000000	16.122705
1848.000000	16.150983
1847.000000	16.206794
1846.000000	16.230925
1845.000000	16.204242
1844.000000	16.136844
1843.000000	16.058283
1842.000000	16.020650
1841.000000	16.036278
1840.000000	16.065406
1839.000000	16.072953
1838.000000	16.065299
1837.000000	16.024903
1836.000000	16.006618
1835.000000	16.004067
1834.000000	15.950594
1833.000000	15.886066
1832.000000	15.807505
1831.000000	15.733409
1830.000000	15.701305
1829.000000	15.662822
1828.000000	15.608074
1827.000000	15.562468
1826.000000	15.507295
1825.000000	15.447019
1824.000000	15.378238
1823.000000	15.318707
1822.000000	15.275652
1821.000000	15.248225
1820.000000	15.239083
1819.000000	15.244079
1818.000000	15.224200
1817.000000	15.184760
1816.000000	15.154462
1815.000000	15.131288
1814.000000	15.131181
1813.000000	15.124484
1812.000000	15.108644
1811.000000	15.098332
1810.000000	15.065165
1809.000000	15.034123
1808.000000	14.997447
1807.000000	14.958539
1806.000000	14.926222
1805.000000	14.899326
1804.000000	14.849256
1803.000000	14.794295
1802.000000	14.748902
1801.000000	14.706167
1800.000000	14.669384
1799.000000	14.632921
1798.000000	14.594119
1797.000000	14.542135
1796.000000	14.497274
1795.000000	14.449542
1794.000000	14.407444
1793.000000	14.386715
1792.000000	14.342278
1791.000000	14.297311
1790.000000	14.261591
1789.000000	14.215773
1788.000000	14.156667
1787.000000	14.100324
1786.000000	14.045789
1785.000000	13.992316
1784.000000	13.950431
1783.000000	13.896002
1782.000000	13.837321
1781.000000	13.777470
1780.000000	13.712410
1779.000000	13.665317
1778.000000	13.620987
1777.000000	13.564431
1776.000000	13.495545
1775.000000	13.435906
1774.000000	13.364787
1773.000000	13.287077
1772.000000	13.200756
1771.000000	13.105292
1770.000000	13.031622
1769.000000	12.941367
1768.000000	12.845266
1767.000000	12.762027
1766.000000	12.711532
1765.000000	12.642645
1764.000000	12.589066
1763.000000	12.559938
1762.000000	12.567911
1761.000000	12.570356
1760.000000	12.583538
1759.000000	12.633715
1758.000000	12.687506
1757.000000	12.731517
1756.000000	12.774040
1755.000000	12.826024
1754.000000	12.872374
1753.000000	12.894486
1752.000000	12.907562
1751.000000	12.929673
1750.000000	12.924039
1749.000000	12.916598
1748.000000	12.879497
1747.000000	12.844415
1746.000000	12.801999
1745.000000	12.746507
1744.000000	12.683573
1743.000000	12.595019
1742.000000	12.484673
1741.000000	12.364015
1740.000000	12.226666
1739.000000	12.098992
1738.000000	11.946229
1737.000000	11.799632
1736.000000	11.672595
1735.000000	11.591696
1734.000000	11.511647
1733.000000	11.461151
1732.000000	11.452009
1731.000000	11.471250
1730.000000	11.514517
1729.000000	11.576494
1728.000000	11.642723
1727.000000	11.695983
1726.000000	11.760617
1725.000000	11.856506
1724.000000	11.908490
1723.000000	11.950162
1722.000000	11.987582
1721.000000	12.029148
1720.000000	12.043819
1719.000000	12.071671
1718.000000	12.084428
1717.000000	12.109410
1716.000000	12.156398
1715.000000	12.207212
1714.000000	12.243888
1713.000000	12.300868
1712.000000	12.337225
1711.000000	12.374220
1710.000000	12.409833
1709.000000	12.442894
1708.000000	12.427374
1707.000000	12.395907
1706.000000	12.402392
1705.000000	12.379536
1704.000000	12.344667
1703.000000	12.320323
1702.000000	12.223690
1701.000000	12.169792
1700.000000	12.081876
1699.000000	11.988539
1698.000000	11.891906
1697.000000	11.776670
1696.000000	11.696727
1695.000000	11.632836
1694.000000	11.613276
1693.000000	11.632092
1692.000000	11.700766
1691.000000	11.769866
1690.000000	11.869369
1689.000000	11.980247
1688.000000	12.073053
1687.000000	12.162457
1686.000000	12.205299
1685.000000	12.216992
1684.000000	12.255582
1683.000000	12.328189
1682.000000	12.455439
1681.000000	12.639668
1680.000000	12.908518
1679.000000	13.248381
1678.000000	13.647776
1677.000000	14.046214
1676.000000	14.416693
1675.000000	14.782495
1674.000000	15.115342
1673.000000	15.404815
1672.000000	15.646982
1671.000000	15.862785
1670.000000	16.041805
1669.000000	16.232733
1668.000000	16.380286
1667.000000	16.527415
1666.000000	16.621709
1665.000000	16.730993
1664.000000	16.809766
1663.000000	16.861431
1662.000000	16.924152
1661.000000	16.999098
1660.000000	17.033010
1659.000000	17.092967
1658.000000	17.099877
1657.000000	17.129749
1656.000000	17.156645
1655.000000	17.149523
1654.000000	17.158559
1653.000000	17.141975
1652.000000	17.140168
1651.000000	17.139104
1650.000000	17.101791
1649.000000	17.071706
1648.000000	17.061501
1647.000000	16.995590
1646.000000	16.967206
1645.000000	16.925853
1644.000000	16.865258
1643.000000	16.831771
1642.000000	16.766074
1641.000000	16.742155
1640.000000	16.666571
1639.000000	16.620646
1638.000000	16.565048
1637.000000	16.517635
1636.000000	16.452788
1635.000000	16.390598
1634.000000	16.337551
1633.000000	16.244958
1632.000000	16.199459
1631.000000	16.135037
1630.000000	16.067000
1629.000000	15.999176
1628.000000	15.947405
1627.000000	15.861084
1626.000000	15.785075
1625.000000	15.727775
1624.000000	15.656975
1623.000000	15.574800
1622.000000	15.530470
1621.000000	15.473808
1620.000000	15.401094
1619.000000	15.318388
1618.000000	15.254072
1617.000000	15.205383
1616.000000	15.140855
1615.000000	15.071437
1614.000000	15.017220
1613.000000	14.954925
1612.000000	14.897625
1611.000000	14.839475
1610.000000	14.785790
1609.000000	14.735507
1608.000000	14.667896
1607.000000	14.603793
1606.000000	14.545643
1605.000000	14.500569
1604.000000	14.444652
1603.000000	14.373639
1602.000000	14.324206
1601.000000	14.278069
1600.000000	14.219281
1599.000000	14.171550
1598.000000	14.108403
1597.000000	14.041855
1596.000000	13.999226
1595.000000	13.953089
1594.000000	13.903231
1593.000000	13.842211
1592.000000	13.799051
1591.000000	13.753976
1590.000000	13.718364
1589.000000	13.674140
1588.000000	13.622794
1587.000000	13.588138
1586.000000	13.537004
1585.000000	13.490229
1584.000000	13.468011
1583.000000	13.440265
1582.000000	13.407522
1581.000000	13.361492
1580.000000	13.351499
