PE UV       SUBTECH     SPECTRUM    ASCII       PEDS        4.00        
   -1
CICIMAUCR0209-2.Sample.ASC
24/06/12
12:28:59.00
24/06/12
12:28:59.00
Vinicio Soto Monge
C. cupreomarginata. Sex F. Ventral
250,000000
1
Lambda 1050
1050L1511233
PerkinElmer UV WinLab 6.3.2.0749 / 2.02.05 Lambda 900 UV/VIS/NIR, Aug  7 2015 09:38:08

0
0
3350/servo 860,8/2
0
0
UV/VIS
1
1
1
DoubleDePol,CommonBeamDepol,RBeamAtt,SBeamAtt,60mm sphere, WB InGaAs Detector
0
0
0
0
Program
Program
3350/servo 860,8/2
3350/0,2 860,8/0,2
3350/0,2 860,8/0,2
0
15.00
 
 
 
0
 
860,8
319,2
860,8
Front
100
on
S:100 R:100
0
0
0
0
 
0
 
 
 
0
 
 
0
0
0
0
0
 
 
 
 
0
0


0
0
#HDR
-1
-1
#GR
nm
%R
1.0
0.0
2500,000000
-1,000000
2251
8
56,865700
3,647200
#DATA
2482.000000	7.063192
2481.000000	6.935282
2480.000000	6.959355
2479.000000	6.868369
2478.000000	6.849397
2477.000000	6.896420
2476.000000	6.855415
2475.000000	6.917024
2474.000000	6.853579
2473.000000	6.866023
2472.000000	6.886526
2471.000000	6.877141
2470.000000	6.774630
2469.000000	6.882751
2468.000000	6.938648
2467.000000	6.911414
2466.000000	6.976899
2465.000000	7.038100
2464.000000	7.057174
2463.000000	6.968637
2462.000000	7.008519
2461.000000	6.959253
2460.000000	7.072372
2459.000000	7.118987
2458.000000	7.127555
2457.000000	7.130921
2456.000000	7.153361
2455.000000	7.163357
2454.000000	7.221600
2453.000000	7.211502
2452.000000	7.282801
2451.000000	7.317992
2450.000000	7.375214
2449.000000	7.350734
2448.000000	7.439475
2447.000000	7.430499
2446.000000	7.479766
2445.000000	7.581053
2444.000000	7.577381
2443.000000	7.580339
2442.000000	7.690093
2441.000000	7.747214
2440.000000	7.779854
2439.000000	7.780466
2438.000000	7.832385
2437.000000	7.869921
2436.000000	7.951829
2435.000000	8.023536
2434.000000	8.033940
2433.000000	8.062500
2432.000000	8.113603
2431.000000	8.175620
2430.000000	8.180924
2429.000000	8.186840
2428.000000	8.246919
2427.000000	8.291595
2426.000000	8.336884
2425.000000	8.363506
2424.000000	8.426747
2423.000000	8.421545
2422.000000	8.460816
2421.000000	8.548333
2420.000000	8.573017
2419.000000	8.616062
2418.000000	8.612288
2417.000000	8.612186
2416.000000	8.680425
2415.000000	8.703783
2414.000000	8.736322
2413.000000	8.763760
2412.000000	8.771308
2411.000000	8.801909
2410.000000	8.824961
2409.000000	8.824757
2408.000000	8.872698
2407.000000	8.877492
2406.000000	8.924514
2405.000000	8.960113
2404.000000	8.960725
2403.000000	8.972761
2402.000000	9.004280
2401.000000	9.027842
2400.000000	9.054158
2399.000000	9.061196
2398.000000	9.060278
2397.000000	9.093327
2396.000000	9.117195
2395.000000	9.131067
2394.000000	9.152182
2393.000000	9.175846
2392.000000	9.200020
2391.000000	9.211852
2390.000000	9.229193
2389.000000	9.226847
2388.000000	9.232763
2387.000000	9.232355
2386.000000	9.252551
2385.000000	9.280091
2384.000000	9.304470
2383.000000	9.304776
2382.000000	9.285090
2381.000000	9.308958
2380.000000	9.321912
2379.000000	9.329664
2378.000000	9.354246
2377.000000	9.359449
2376.000000	9.359041
2375.000000	9.364549
2374.000000	9.338946
2373.000000	9.336498
2372.000000	9.358633
2371.000000	9.347616
2370.000000	9.329256
2369.000000	9.354042
2368.000000	9.364753
2367.000000	9.368323
2366.000000	9.398821
2365.000000	9.387805
2364.000000	9.385255
2363.000000	9.386071
2362.000000	9.374953
2361.000000	9.382195
2360.000000	9.375157
2359.000000	9.385969
2358.000000	9.401779
2357.000000	9.388723
2356.000000	9.376075
2355.000000	9.376177
2354.000000	9.370057
2353.000000	9.371893
2352.000000	9.384541
2351.000000	9.389539
2350.000000	9.375463
2349.000000	9.372811
2348.000000	9.390661
2347.000000	9.393517
2346.000000	9.401779
2345.000000	9.420547
2344.000000	9.406981
2343.000000	9.385255
2342.000000	9.415753
2341.000000	9.441968
2340.000000	9.450026
2339.000000	9.469610
2338.000000	9.485114
2337.000000	9.488276
2336.000000	9.487052
2335.000000	9.481442
2334.000000	9.487766
2333.000000	9.504903
2332.000000	9.511941
2331.000000	9.508065
2330.000000	9.520203
2329.000000	9.549783
2328.000000	9.564777
2327.000000	9.562941
2326.000000	9.554679
2325.000000	9.558759
2324.000000	9.588340
2323.000000	9.582526
2322.000000	9.580282
2321.000000	9.571204
2320.000000	9.549273
2319.000000	9.553047
2318.000000	9.542949
2317.000000	9.520713
2316.000000	9.502659
2315.000000	9.497763
2314.000000	9.480626
2313.000000	9.443396
2312.000000	9.420241
2311.000000	9.397495
2310.000000	9.371689
2309.000000	9.350064
2308.000000	9.334458
2307.000000	9.330174
2306.000000	9.312222
2305.000000	9.291006
2304.000000	9.296922
2303.000000	9.291210
2302.000000	9.291312
2301.000000	9.297228
2300.000000	9.321810
2299.000000	9.325992
2298.000000	9.342108
2297.000000	9.362917
2296.000000	9.390559
2295.000000	9.404737
2294.000000	9.439418
2293.000000	9.466958
2292.000000	9.499905
2291.000000	9.518877
2290.000000	9.541623
2289.000000	9.571102
2288.000000	9.596092
2287.000000	9.614248
2286.000000	9.640667
2285.000000	9.651683
2284.000000	9.672797
2283.000000	9.717066
2282.000000	9.722472
2281.000000	9.705743
2280.000000	9.735732
2279.000000	9.720432
2278.000000	9.733080
2277.000000	9.746442
2276.000000	9.735834
2275.000000	9.741342
2274.000000	9.773064
2273.000000	9.773574
2272.000000	9.772656
2271.000000	9.780205
2270.000000	9.794587
2269.000000	9.816007
2268.000000	9.845077
2267.000000	9.861296
2266.000000	9.877820
2265.000000	9.923007
2264.000000	9.951261
2263.000000	10.018072
2262.000000	10.106711
2261.000000	10.137822
2260.000000	10.237783
2259.000000	10.306838
2258.000000	10.388541
2257.000000	10.488809
2256.000000	10.562862
2255.000000	10.656091
2254.000000	10.769109
2253.000000	10.876822
2252.000000	10.955363
2251.000000	11.049307
2250.000000	11.166914
2249.000000	11.248413
2248.000000	11.335115
2247.000000	11.417634
2246.000000	11.502193
2245.000000	11.564312
2244.000000	11.637039
2243.000000	11.704768
2242.000000	11.762093
2241.000000	11.819213
2240.000000	11.860320
2239.000000	11.908363
2238.000000	11.932435
2237.000000	11.980376
2236.000000	12.016076
2235.000000	12.045351
2234.000000	12.076971
2233.000000	12.071055
2232.000000	12.069525
2231.000000	12.088701
2230.000000	12.104205
2229.000000	12.076053
2228.000000	12.084621
2227.000000	12.062385
2226.000000	12.043821
2225.000000	12.010874
2224.000000	12.010364
2223.000000	11.987516
2222.000000	11.955487
2221.000000	11.932129
2220.000000	11.889186
2219.000000	11.873172
2218.000000	11.831046
2217.000000	11.768621
2216.000000	11.759339
2215.000000	11.723536
2214.000000	11.685184
2213.000000	11.671005
2212.000000	11.645199
2211.000000	11.608274
2210.000000	11.583896
2209.000000	11.551868
2208.000000	11.532487
2207.000000	11.489341
2206.000000	11.487811
2205.000000	11.460678
2204.000000	11.457108
2203.000000	11.413962
2202.000000	11.402436
2201.000000	11.416410
2200.000000	11.391011
2199.000000	11.386217
2198.000000	11.363165
2197.000000	11.345417
2196.000000	11.344805
2195.000000	11.339297
2194.000000	11.326954
2193.000000	11.311246
2192.000000	11.289418
2191.000000	11.274730
2190.000000	11.285644
2189.000000	11.282074
2188.000000	11.275444
2187.000000	11.263204
2186.000000	11.267794
2185.000000	11.244741
2184.000000	11.232195
2183.000000	11.217507
2182.000000	11.220771
2181.000000	11.197821
2180.000000	11.183336
2179.000000	11.174870
2178.000000	11.174462
2177.000000	11.174564
2176.000000	11.168138
2175.000000	11.160590
2174.000000	11.156000
2173.000000	11.160080
2172.000000	11.160998
2171.000000	11.143148
2170.000000	11.153144
2169.000000	11.142128
2168.000000	11.155592
2167.000000	11.179664
2166.000000	11.190477
2165.000000	11.190171
2164.000000	11.208939
2163.000000	11.222505
2162.000000	11.262388
2161.000000	11.266978
2160.000000	11.263204
2159.000000	11.303494
2158.000000	11.331034
2157.000000	11.359901
2156.000000	11.398253
2155.000000	11.421918
2154.000000	11.447826
2153.000000	11.487913
2152.000000	11.542789
2151.000000	11.589710
2150.000000	11.612252
2149.000000	11.645811
2148.000000	11.679879
2147.000000	11.723230
2146.000000	11.766785
2145.000000	11.798303
2144.000000	11.835330
2143.000000	11.863176
2142.000000	11.904181
2141.000000	11.933047
2140.000000	11.973440
2139.000000	12.009344
2138.000000	12.037701
2137.000000	12.050451
2136.000000	12.094005
2135.000000	12.119302
2134.000000	12.134806
2133.000000	12.161938
2132.000000	12.196517
2131.000000	12.210899
2130.000000	12.219977
2129.000000	12.245681
2128.000000	12.251598
2127.000000	12.269754
2126.000000	12.277812
2125.000000	12.284850
2124.000000	12.282198
2123.000000	12.287910
2122.000000	12.312186
2121.000000	12.317388
2120.000000	12.316674
2119.000000	12.305352
2118.000000	12.295458
2117.000000	12.306984
2116.000000	12.302292
2115.000000	12.274344
2114.000000	12.273528
2113.000000	12.269856
2112.000000	12.265572
2111.000000	12.256494
2110.000000	12.238949
2109.000000	12.212837
2108.000000	12.203147
2107.000000	12.190907
2106.000000	12.166324
2105.000000	12.148372
2104.000000	12.140008
2103.000000	12.131746
2102.000000	12.113692
2101.000000	12.095127
2100.000000	12.075339
2099.000000	12.051777
2098.000000	12.038721
2097.000000	12.028520
2096.000000	12.019952
2095.000000	12.002408
2094.000000	11.971196
2093.000000	11.951509
2092.000000	11.952121
2091.000000	11.941513
2090.000000	11.917645
2089.000000	11.911423
2088.000000	11.892246
2087.000000	11.864502
2086.000000	11.853282
2085.000000	11.832066
2084.000000	11.815133
2083.000000	11.793713
2082.000000	11.760155
2081.000000	11.734246
2080.000000	11.698546
2079.000000	11.666313
2078.000000	11.624187
2077.000000	11.592770
2076.000000	11.567168
2075.000000	11.529733
2074.000000	11.485465
2073.000000	11.436912
2072.000000	11.398763
2071.000000	11.332565
2070.000000	11.261572
2069.000000	11.195577
2068.000000	11.140088
2067.000000	11.096023
2066.000000	11.050021
2065.000000	10.997388
2064.000000	10.936697
2063.000000	10.885084
2062.000000	10.837246
2061.000000	10.778901
2060.000000	10.721576
2059.000000	10.687405
2058.000000	10.645177
2057.000000	10.611006
2056.000000	10.585302
2055.000000	10.554702
2054.000000	10.539809
2053.000000	10.536647
2052.000000	10.532771
2051.000000	10.537565
2050.000000	10.546337
2049.000000	10.559190
2048.000000	10.566228
2047.000000	10.573164
2046.000000	10.599174
2045.000000	10.652725
2044.000000	10.687915
2043.000000	10.711784
2042.000000	10.726370
2041.000000	10.760132
2040.000000	10.791243
2039.000000	10.820007
2038.000000	10.852648
2037.000000	10.873354
2036.000000	10.885288
2035.000000	10.920479
2034.000000	10.931495
2033.000000	10.948529
2032.000000	10.959035
2031.000000	10.953323
2030.000000	10.963115
2029.000000	10.970357
2028.000000	10.989534
2027.000000	10.996266
2026.000000	10.988106
2025.000000	10.981374
2024.000000	10.980558
2023.000000	10.978007
2022.000000	10.978722
2021.000000	10.959137
2020.000000	10.947509
2019.000000	10.946591
2018.000000	10.926905
2017.000000	10.904464
2016.000000	10.884472
2015.000000	10.876516
2014.000000	10.858054
2013.000000	10.844386
2012.000000	10.825515
2011.000000	10.791957
2010.000000	10.767375
2009.000000	10.746668
2008.000000	10.719026
2007.000000	10.680775
2006.000000	10.652011
2005.000000	10.595094
2004.000000	10.561536
2003.000000	10.525529
2002.000000	10.495235
2001.000000	10.461370
2000.000000	10.417714
1999.000000	10.380891
1998.000000	10.342845
1997.000000	10.302350
1996.000000	10.247473
1995.000000	10.194228
1994.000000	10.148430
1993.000000	10.108547
1992.000000	10.071929
1991.000000	10.029700
1990.000000	9.962481
1989.000000	9.896078
1988.000000	9.868130
1987.000000	9.824371
1986.000000	9.762558
1985.000000	9.716352
1984.000000	9.682691
1983.000000	9.617308
1982.000000	9.563553
1981.000000	9.530709
1980.000000	9.458900
1979.000000	9.416365
1978.000000	9.354961
1977.000000	9.317220
1976.000000	9.263975
1975.000000	9.216443
1974.000000	9.182680
1973.000000	9.134535
1972.000000	9.072825
1971.000000	9.039878
1970.000000	8.985307
1969.000000	8.946649
1968.000000	8.913396
1967.000000	8.869536
1966.000000	8.829857
1965.000000	8.780080
1964.000000	8.749378
1963.000000	8.710311
1962.000000	8.672877
1961.000000	8.621876
1960.000000	8.598212
1959.000000	8.545783
1958.000000	8.496210
1957.000000	8.473668
1956.000000	8.426951
1955.000000	8.408489
1954.000000	8.367383
1953.000000	8.310874
1952.000000	8.285883
1951.000000	8.244267
1950.000000	8.229783
1949.000000	8.180516
1948.000000	8.163074
1947.000000	8.142367
1946.000000	8.115031
1945.000000	8.105545
1944.000000	8.066682
1943.000000	8.045160
1942.000000	8.031900
1941.000000	8.005277
1940.000000	7.998341
1939.000000	8.007827
1938.000000	7.978247
1937.000000	7.969985
1936.000000	7.972229
1935.000000	7.973351
1934.000000	7.987529
1933.000000	7.974269
1932.000000	7.987223
1931.000000	8.027820
1930.000000	8.019048
1929.000000	8.056074
1928.000000	8.088511
1927.000000	8.096569
1926.000000	8.133187
1925.000000	8.167562
1924.000000	8.215808
1923.000000	8.264769
1922.000000	8.317096
1921.000000	8.367485
1920.000000	8.439600
1919.000000	8.499882
1918.000000	8.567611
1917.000000	8.634116
1916.000000	8.699091
1915.000000	8.784160
1914.000000	8.876166
1913.000000	8.968579
1912.000000	9.085269
1911.000000	9.184516
1910.000000	9.286008
1909.000000	9.394435
1908.000000	9.496131
1907.000000	9.638627
1906.000000	9.767862
1905.000000	9.963909
1904.000000	10.157406
1903.000000	10.314080
1902.000000	10.482280
1901.000000	10.669453
1900.000000	10.899670
1899.000000	11.139782
1898.000000	11.428752
1897.000000	11.661111
1896.000000	11.908873
1895.000000	12.154186
1894.000000	12.413066
1893.000000	12.691938
1892.000000	13.016608
1891.000000	13.383100
1890.000000	13.763463
1889.000000	14.121182
1888.000000	14.497669
1887.000000	14.837844
1886.000000	15.211679
1885.000000	15.570113
1884.000000	15.991277
1883.000000	16.401832
1882.000000	16.786276
1881.000000	17.191528
1880.000000	17.544657
1879.000000	17.867899
1878.000000	18.262747
1877.000000	18.637398
1876.000000	18.966455
1875.000000	19.319278
1874.000000	19.675875
1873.000000	20.049200
1872.000000	20.403859
1871.000000	20.743218
1870.000000	21.085433
1869.000000	21.405615
1868.000000	21.719882
1867.000000	21.966011
1866.000000	22.186538
1865.000000	22.388909
1864.000000	22.573430
1863.000000	22.732552
1862.000000	22.920235
1861.000000	23.114139
1860.000000	23.314980
1859.000000	23.478795
1858.000000	23.654747
1857.000000	23.805505
1856.000000	23.941065
1855.000000	24.039191
1854.000000	24.173118
1853.000000	24.295418
1852.000000	24.380487
1851.000000	24.449542
1850.000000	24.496259
1849.000000	24.535938
1848.000000	24.632635
1847.000000	24.763095
1846.000000	24.817666
1845.000000	24.812259
1844.000000	24.815625
1843.000000	24.797775
1842.000000	24.831232
1841.000000	24.893657
1840.000000	24.918239
1839.000000	24.931499
1838.000000	24.930683
1837.000000	24.929867
1836.000000	24.944759
1835.000000	24.943535
1834.000000	24.922523
1833.000000	24.889475
1832.000000	24.855508
1831.000000	24.834394
1830.000000	24.835822
1829.000000	24.827560
1828.000000	24.812667
1827.000000	24.783903
1826.000000	24.756363
1825.000000	24.761055
1824.000000	24.731066
1823.000000	24.698120
1822.000000	24.676700
1821.000000	24.706178
1820.000000	24.737186
1819.000000	24.749325
1818.000000	24.695060
1817.000000	24.637429
1816.000000	24.631921
1815.000000	24.627637
1814.000000	24.601932
1813.000000	24.595404
1812.000000	24.583266
1811.000000	24.545832
1810.000000	24.515333
1809.000000	24.491261
1808.000000	24.456478
1807.000000	24.425470
1806.000000	24.408232
1805.000000	24.381507
1804.000000	24.353559
1803.000000	24.324795
1802.000000	24.291338
1801.000000	24.277874
1800.000000	24.248293
1799.000000	24.210247
1798.000000	24.181687
1797.000000	24.155676
1796.000000	24.137316
1795.000000	24.105491
1794.000000	24.085907
1793.000000	24.069893
1792.000000	24.047657
1791.000000	24.026746
1790.000000	24.020014
1789.000000	24.003796
1788.000000	23.989822
1787.000000	23.986660
1786.000000	23.975236
1785.000000	23.965749
1784.000000	23.956875
1783.000000	23.945655
1782.000000	23.941983
1781.000000	23.916687
1780.000000	23.896286
1779.000000	23.890370
1778.000000	23.874050
1777.000000	23.856812
1776.000000	23.826007
1775.000000	23.813155
1774.000000	23.796835
1773.000000	23.769193
1772.000000	23.758177
1771.000000	23.739000
1770.000000	23.714112
1769.000000	23.674229
1768.000000	23.654951
1767.000000	23.627411
1766.000000	23.600686
1765.000000	23.589364
1764.000000	23.582938
1763.000000	23.583448
1762.000000	23.584672
1761.000000	23.597524
1760.000000	23.613640
1759.000000	23.635979
1758.000000	23.661887
1757.000000	23.688612
1756.000000	23.718192
1755.000000	23.750832
1754.000000	23.785207
1753.000000	23.812441
1752.000000	23.849876
1751.000000	23.877620
1750.000000	23.900265
1749.000000	23.906385
1748.000000	23.893940
1747.000000	23.888024
1746.000000	23.891288
1745.000000	23.881496
1744.000000	23.872418
1743.000000	23.819173
1742.000000	23.768887
1741.000000	23.731248
1740.000000	23.687184
1739.000000	23.655053
1738.000000	23.602318
1737.000000	23.550196
1736.000000	23.501439
1735.000000	23.445134
1734.000000	23.401681
1733.000000	23.372407
1732.000000	23.349151
1731.000000	23.323752
1730.000000	23.303760
1729.000000	23.279076
1728.000000	23.281422
1727.000000	23.298762
1726.000000	23.304576
1725.000000	23.310594
1724.000000	23.325078
1723.000000	23.353945
1722.000000	23.416676
1721.000000	23.485323
1720.000000	23.577226
1719.000000	23.687694
1718.000000	23.795509
1717.000000	23.911485
1716.000000	24.043883
1715.000000	24.159858
1714.000000	24.278690
1713.000000	24.393952
1712.000000	24.493097
1711.000000	24.600402
1710.000000	24.674762
1709.000000	24.769725
1708.000000	24.834598
1707.000000	24.889883
1706.000000	24.937823
1705.000000	24.996780
1704.000000	25.022994
1703.000000	25.043905
1702.000000	25.033399
1701.000000	25.047985
1700.000000	25.042171
1699.000000	25.040743
1698.000000	25.028911
1697.000000	25.035847
1696.000000	25.013100
1695.000000	24.982194
1694.000000	24.953123
1693.000000	24.941291
1692.000000	24.935579
1691.000000	24.926195
1690.000000	24.923543
1689.000000	24.944045
1688.000000	24.970668
1687.000000	25.052983
1686.000000	25.115102
1685.000000	25.195173
1684.000000	25.314617
1683.000000	25.446402
1682.000000	25.593795
1681.000000	25.768217
1680.000000	25.901839
1679.000000	26.088910
1678.000000	26.250582
1677.000000	26.438060
1676.000000	26.587493
1675.000000	26.754571
1674.000000	26.901351
1673.000000	27.062207
1672.000000	27.200317
1671.000000	27.326595
1670.000000	27.481637
1669.000000	27.607609
1668.000000	27.704816
1667.000000	27.815590
1666.000000	27.900659
1665.000000	28.009189
1664.000000	28.055293
1663.000000	28.161987
1662.000000	28.216048
1661.000000	28.299281
1660.000000	28.361910
1659.000000	28.420051
1658.000000	28.459321
1657.000000	28.493186
1656.000000	28.534598
1655.000000	28.544186
1654.000000	28.565913
1653.000000	28.554182
1652.000000	28.578867
1651.000000	28.579479
1650.000000	28.564485
1649.000000	28.552142
1648.000000	28.518482
1647.000000	28.492370
1646.000000	28.469827
1645.000000	28.449529
1644.000000	28.418623
1643.000000	28.396590
1642.000000	28.370580
1641.000000	28.328249
1640.000000	28.292345
1639.000000	28.261846
1638.000000	28.229002
1637.000000	28.192485
1636.000000	28.153623
1635.000000	28.123226
1634.000000	28.078244
1633.000000	28.019695
1632.000000	27.971040
1631.000000	27.917285
1630.000000	27.876893
1629.000000	27.818956
1628.000000	27.775095
1627.000000	27.704306
1626.000000	27.651062
1625.000000	27.600061
1624.000000	27.536718
1623.000000	27.471131
1622.000000	27.428699
1621.000000	27.379636
1620.000000	27.312417
1619.000000	27.259070
1618.000000	27.201133
1617.000000	27.175123
1616.000000	27.112902
1615.000000	27.047825
1614.000000	26.984278
1613.000000	26.939704
1612.000000	26.867589
1611.000000	26.808836
1610.000000	26.765281
1609.000000	26.700000
1608.000000	26.631965
1607.000000	26.561992
1606.000000	26.484165
1605.000000	26.431634
1604.000000	26.335141
1603.000000	26.286384
1602.000000	26.204273
1601.000000	26.113900
1600.000000	26.049435
1599.000000	25.980788
1598.000000	25.900819
1597.000000	25.809426
1596.000000	25.760567
1595.000000	25.686616
1594.000000	25.608381
1593.000000	25.530452
