PE UV       SUBTECH     SPECTRUM    ASCII       PEDS        4.00        
   -1
CICIMAUCR0238-3.ASC
24/06/20
15:10:05.00
24/06/20
15:10:05.00
Vinicio Soto Monge
C. cupreomarginata. Sex M. Ventral 
250,000000
1
Lambda 1050
1050L1511233
PerkinElmer UV WinLab 6.3.2.0749 / 2.02.05 Lambda 900 UV/VIS/NIR, Aug  7 2015 09:38:08

0
0
3350/servo 860,8/2
0
0
UV/VIS
1
1
1
DoubleDePol,CommonBeamDepol,RBeamAtt,SBeamAtt,60mm sphere, WB InGaAs Detector
0
0
0
0
Program
Program
3350/servo 860,8/2
3350/0,2 860,8/0,2
3350/0,2 860,8/0,2
0
15.00
 
 
 
0
 
860,8
319,2
860,8
Front
100
on
S:100 R:100
0
0
0
0
 
0
 
 
 
0
 
 
0
0
0
0
0
 
 
 
 
0
0


0
0
#HDR
-1
-1
#GR
nm
%R
1.0
0.0
2500,000000
-1,000000
2251
8
58,836000
3,946800
#DATA
2482.000000	6.220970
2481.000000	6.299036
2480.000000	6.256597
2479.000000	6.260617
2478.000000	6.203883
2477.000000	6.205446
2476.000000	6.269776
2475.000000	6.222869
2474.000000	6.171159
2473.000000	6.181658
2472.000000	6.195060
2471.000000	6.214157
2470.000000	6.153848
2469.000000	6.146031
2468.000000	6.148599
2467.000000	6.179536
2466.000000	6.152285
2465.000000	6.164458
2464.000000	6.153960
2463.000000	6.191374
2462.000000	6.178865
2461.000000	6.167921
2460.000000	6.144690
2459.000000	6.172835
2458.000000	6.197293
2457.000000	6.192714
2456.000000	6.223539
2455.000000	6.243977
2454.000000	6.212259
2453.000000	6.207680
2452.000000	6.238951
2451.000000	6.294904
2450.000000	6.316124
2449.000000	6.357782
2448.000000	6.331536
2447.000000	6.352868
2446.000000	6.357670
2445.000000	6.373752
2444.000000	6.424233
2443.000000	6.460195
2442.000000	6.464216
2441.000000	6.451149
2440.000000	6.475942
2439.000000	6.481638
2438.000000	6.486441
2437.000000	6.534018
2436.000000	6.549318
2435.000000	6.572102
2434.000000	6.582823
2433.000000	6.574670
2432.000000	6.611079
2431.000000	6.616105
2430.000000	6.611526
2429.000000	6.661783
2428.000000	6.679206
2427.000000	6.687135
2426.000000	6.690486
2425.000000	6.700984
2424.000000	6.706791
2423.000000	6.725666
2422.000000	6.733595
2421.000000	6.732255
2420.000000	6.758612
2419.000000	6.771568
2418.000000	6.765983
2417.000000	6.767547
2416.000000	6.793569
2415.000000	6.790442
2414.000000	6.804514
2413.000000	6.823947
2412.000000	6.816911
2411.000000	6.833440
2410.000000	6.851198
2409.000000	6.865493
2408.000000	6.866051
2407.000000	6.873422
2406.000000	6.893637
2405.000000	6.898104
2404.000000	6.897546
2403.000000	6.907709
2402.000000	6.911618
2401.000000	6.920218
2400.000000	6.931721
2399.000000	6.944900
2398.000000	6.953052
2397.000000	6.972597
2396.000000	6.987674
2395.000000	6.993035
2394.000000	6.999624
2393.000000	7.025088
2392.000000	7.035028
2391.000000	7.041617
2390.000000	7.053009
2389.000000	7.053456
2388.000000	7.069650
2387.000000	7.067863
2386.000000	7.065852
2385.000000	7.078808
2384.000000	7.078473
2383.000000	7.087966
2382.000000	7.096230
2381.000000	7.094555
2380.000000	7.088412
2379.000000	7.089082
2378.000000	7.087631
2377.000000	7.085732
2376.000000	7.080148
2375.000000	7.071548
2374.000000	7.060268
2373.000000	7.053344
2372.000000	7.038937
2371.000000	7.037262
2370.000000	7.033464
2369.000000	7.021738
2368.000000	7.012468
2367.000000	6.995269
2366.000000	6.968241
2365.000000	6.966231
2364.000000	6.961875
2363.000000	6.950707
2362.000000	6.942889
2361.000000	6.910725
2360.000000	6.870742
2359.000000	6.864823
2358.000000	6.865270
2357.000000	6.854883
2356.000000	6.836902
2355.000000	6.820150
2354.000000	6.815794
2353.000000	6.815012
2352.000000	6.806524
2351.000000	6.802392
2350.000000	6.801499
2349.000000	6.814119
2348.000000	6.824394
2347.000000	6.825845
2346.000000	6.849299
2345.000000	6.859685
2344.000000	6.874204
2343.000000	6.880123
2342.000000	6.887606
2341.000000	6.894196
2340.000000	6.898775
2339.000000	6.924797
2338.000000	6.929711
2337.000000	6.920888
2336.000000	6.917537
2335.000000	6.928147
2334.000000	6.932168
2333.000000	6.925355
2332.000000	6.924462
2331.000000	6.912288
2330.000000	6.893860
2329.000000	6.886713
2328.000000	6.872641
2327.000000	6.853878
2326.000000	6.837796
2325.000000	6.821825
2324.000000	6.797478
2323.000000	6.762856
2322.000000	6.737839
2321.000000	6.723991
2320.000000	6.690151
2319.000000	6.672393
2318.000000	6.633751
2317.000000	6.608510
2316.000000	6.584722
2315.000000	6.544404
2314.000000	6.514138
2313.000000	6.470023
2312.000000	6.449027
2311.000000	6.427807
2310.000000	6.409491
2309.000000	6.391510
2308.000000	6.367275
2307.000000	6.366158
2306.000000	6.351304
2305.000000	6.344827
2304.000000	6.345385
2303.000000	6.353649
2302.000000	6.365488
2301.000000	6.399551
2300.000000	6.401115
2299.000000	6.421664
2298.000000	6.428365
2297.000000	6.451707
2296.000000	6.467343
2295.000000	6.486106
2294.000000	6.510676
2293.000000	6.529662
2292.000000	6.556578
2291.000000	6.578579
2290.000000	6.579473
2289.000000	6.587402
2288.000000	6.597677
2287.000000	6.602703
2286.000000	6.598235
2285.000000	6.589077
2284.000000	6.587402
2283.000000	6.575899
2282.000000	6.576234
2281.000000	6.569198
2280.000000	6.543622
2279.000000	6.538373
2278.000000	6.519611
2277.000000	6.508889
2276.000000	6.498949
2275.000000	6.476948
2274.000000	6.478176
2273.000000	6.463434
2272.000000	6.463099
2271.000000	6.470917
2270.000000	6.480745
2269.000000	6.482532
2268.000000	6.509112
2267.000000	6.510117
2266.000000	6.520951
2265.000000	6.543622
2264.000000	6.594326
2263.000000	6.653407
2262.000000	6.690151
2261.000000	6.743200
2260.000000	6.807865
2259.000000	6.869290
2258.000000	6.922451
2257.000000	7.027322
2256.000000	7.089641
2255.000000	7.185353
2254.000000	7.269562
2253.000000	7.345283
2252.000000	7.439991
2251.000000	7.527327
2250.000000	7.616003
2249.000000	7.715401
2248.000000	7.769344
2247.000000	7.847522
2246.000000	7.914979
2245.000000	8.032469
2244.000000	8.065863
2243.000000	8.126953
2242.000000	8.203233
2241.000000	8.255277
2240.000000	8.311565
2239.000000	8.343283
2238.000000	8.401135
2237.000000	8.441341
2236.000000	8.490035
2235.000000	8.497518
2234.000000	8.549785
2233.000000	8.582620
2232.000000	8.628745
2231.000000	8.636005
2230.000000	8.659681
2229.000000	8.673753
2228.000000	8.693745
2227.000000	8.713736
2226.000000	8.721330
2225.000000	8.708264
2224.000000	8.725351
2223.000000	8.720437
2222.000000	8.727473
2221.000000	8.745342
2220.000000	8.726356
2219.000000	8.699329
2218.000000	8.712284
2217.000000	8.674312
2216.000000	8.679561
2215.000000	8.665489
2214.000000	8.660687
2213.000000	8.668058
2212.000000	8.632096
2211.000000	8.657001
2210.000000	8.639913
2209.000000	8.633436
2208.000000	8.622826
2207.000000	8.617800
2206.000000	8.634999
2205.000000	8.605627
2204.000000	8.584742
2203.000000	8.583402
2202.000000	8.585859
2201.000000	8.579493
2200.000000	8.599708
2199.000000	8.567543
2198.000000	8.559948
2197.000000	8.564639
2196.000000	8.548222
2195.000000	8.573797
2194.000000	8.544089
2193.000000	8.578264
2192.000000	8.544871
2191.000000	8.546546
2190.000000	8.527114
2189.000000	8.523205
2188.000000	8.513600
2187.000000	8.524657
2186.000000	8.512818
2185.000000	8.527560
2184.000000	8.526779
2183.000000	8.499416
2182.000000	8.480653
2181.000000	8.482217
2180.000000	8.501873
2179.000000	8.484339
2178.000000	8.465576
2177.000000	8.475404
2176.000000	8.478755
2175.000000	8.477303
2174.000000	8.469932
2173.000000	8.471830
2172.000000	8.474176
2171.000000	8.480542
2170.000000	8.464571
2169.000000	8.473282
2168.000000	8.491710
2167.000000	8.478643
2166.000000	8.495172
2165.000000	8.507457
2164.000000	8.515834
2163.000000	8.510249
2162.000000	8.536607
2161.000000	8.546658
2160.000000	8.561512
2159.000000	8.567655
2158.000000	8.589098
2157.000000	8.596357
2156.000000	8.585077
2155.000000	8.622044
2154.000000	8.649071
2153.000000	8.649295
2152.000000	8.671520
2151.000000	8.685257
2150.000000	8.716193
2149.000000	8.745566
2148.000000	8.756064
2147.000000	8.771364
2146.000000	8.771476
2145.000000	8.784766
2144.000000	8.809002
2143.000000	8.825642
2142.000000	8.839714
2141.000000	8.857025
2140.000000	8.864396
2139.000000	8.873219
2138.000000	8.881707
2137.000000	8.905049
2136.000000	8.923812
2135.000000	8.931853
2134.000000	8.939001
2133.000000	8.940899
2132.000000	8.947154
2131.000000	8.950392
2130.000000	8.947712
2129.000000	8.963683
2128.000000	8.963459
2127.000000	8.966586
2126.000000	8.966921
2125.000000	8.956200
2124.000000	8.972059
2123.000000	8.959215
2122.000000	8.960221
2121.000000	8.949611
2120.000000	8.933305
2119.000000	8.935092
2118.000000	8.928614
2117.000000	8.914207
2116.000000	8.898571
2115.000000	8.884276
2114.000000	8.873666
2113.000000	8.870874
2112.000000	8.854345
2111.000000	8.836811
2110.000000	8.824637
2109.000000	8.805875
2108.000000	8.789680
2107.000000	8.771923
2106.000000	8.767679
2105.000000	8.752937
2104.000000	8.748693
2103.000000	8.738306
2102.000000	8.724234
2101.000000	8.703908
2100.000000	8.694080
2099.000000	8.690059
2098.000000	8.673195
2097.000000	8.662585
2096.000000	8.661580
2095.000000	8.648066
2094.000000	8.628075
2093.000000	8.617912
2092.000000	8.608642
2091.000000	8.608642
2090.000000	8.606185
2089.000000	8.576254
2088.000000	8.565644
2087.000000	8.568436
2086.000000	8.557491
2085.000000	8.538282
2084.000000	8.530799
2083.000000	8.530017
2082.000000	8.513265
2081.000000	8.491933
2080.000000	8.474511
2079.000000	8.474846
2078.000000	8.472054
2077.000000	8.449382
2076.000000	8.435198
2075.000000	8.414425
2074.000000	8.389743
2073.000000	8.383042
2072.000000	8.375671
2071.000000	8.342166
2070.000000	8.315921
2069.000000	8.310560
2068.000000	8.301737
2067.000000	8.272923
2066.000000	8.259074
2065.000000	8.252597
2064.000000	8.237184
2063.000000	8.214513
2062.000000	8.199547
2061.000000	8.187597
2060.000000	8.179668
2059.000000	8.168834
2058.000000	8.157554
2057.000000	8.153869
2056.000000	8.155321
2055.000000	8.158448
2054.000000	8.169728
2053.000000	8.186480
2052.000000	8.207588
2051.000000	8.213284
2050.000000	8.238860
2049.000000	8.273370
2048.000000	8.300397
2047.000000	8.329323
2046.000000	8.352106
2045.000000	8.387621
2044.000000	8.438661
2043.000000	8.489141
2042.000000	8.535825
2041.000000	8.572122
2040.000000	8.612886
2039.000000	8.648066
2038.000000	8.682800
2037.000000	8.713289
2036.000000	8.739870
2035.000000	8.790462
2034.000000	8.833684
2033.000000	8.852223
2032.000000	8.879697
2031.000000	8.929284
2030.000000	8.965246
2029.000000	8.986913
2028.000000	9.013270
2027.000000	9.016956
2026.000000	9.024662
2025.000000	9.049120
2024.000000	9.070005
2023.000000	9.086646
2022.000000	9.080168
2021.000000	9.092677
2020.000000	9.102393
2019.000000	9.137797
2018.000000	9.137908
2017.000000	9.142599
2016.000000	9.150528
2015.000000	9.157676
2014.000000	9.161920
2013.000000	9.156224
2012.000000	9.166722
2011.000000	9.174875
2010.000000	9.162032
2009.000000	9.156001
2008.000000	9.155554
2007.000000	9.115907
2006.000000	9.105855
2005.000000	9.109988
2004.000000	9.099154
2003.000000	9.069670
2002.000000	9.038510
2001.000000	9.007686
2000.000000	8.992832
1999.000000	8.982222
1998.000000	8.962678
1997.000000	8.941569
1996.000000	8.912085
1995.000000	8.885393
1994.000000	8.847644
1993.000000	8.828434
1992.000000	8.796046
1991.000000	8.771029
1990.000000	8.734509
1989.000000	8.708487
1988.000000	8.677886
1987.000000	8.633994
1986.000000	8.609871
1985.000000	8.576142
1984.000000	8.552131
1983.000000	8.496512
1982.000000	8.464013
1981.000000	8.426934
1980.000000	8.394322
1979.000000	8.374443
1978.000000	8.329658
1977.000000	8.277949
1976.000000	8.251480
1975.000000	8.229478
1974.000000	8.188826
1973.000000	8.166712
1972.000000	8.128740
1971.000000	8.108749
1970.000000	8.071112
1969.000000	8.046318
1968.000000	8.002985
1967.000000	8.000751
1966.000000	7.963449
1965.000000	7.924472
1964.000000	7.894094
1963.000000	7.878012
1962.000000	7.856904
1961.000000	7.808098
1960.000000	7.788889
1959.000000	7.756836
1958.000000	7.773588
1957.000000	7.723554
1956.000000	7.685917
1955.000000	7.668271
1954.000000	7.643924
1953.000000	7.619689
1952.000000	7.603830
1951.000000	7.614328
1950.000000	7.569320
1949.000000	7.551785
1948.000000	7.508676
1947.000000	7.496949
1946.000000	7.499741
1945.000000	7.483994
1944.000000	7.483435
1943.000000	7.440996
1942.000000	7.434965
1941.000000	7.407379
1940.000000	7.412740
1939.000000	7.409389
1938.000000	7.395988
1937.000000	7.395429
1936.000000	7.419329
1935.000000	7.396546
1934.000000	7.402577
1933.000000	7.428264
1932.000000	7.425919
1931.000000	7.456631
1930.000000	7.441666
1929.000000	7.469475
1928.000000	7.509346
1927.000000	7.518727
1926.000000	7.534586
1925.000000	7.567644
1924.000000	7.620024
1923.000000	7.644147
1922.000000	7.701217
1921.000000	7.738184
1920.000000	7.761191
1919.000000	7.815246
1918.000000	7.880022
1917.000000	7.938991
1916.000000	7.990476
1915.000000	8.059720
1914.000000	8.117907
1913.000000	8.171180
1912.000000	8.283421
1911.000000	8.374555
1910.000000	8.429279
1909.000000	8.494502
1908.000000	8.593677
1907.000000	8.672302
1906.000000	8.770806
1905.000000	8.864508
1904.000000	8.988811
1903.000000	9.111439
1902.000000	9.228483
1901.000000	9.360269
1900.000000	9.493842
1899.000000	9.634004
1898.000000	9.798179
1897.000000	9.936777
1896.000000	10.109216
1895.000000	10.260211
1894.000000	10.385408
1893.000000	10.545897
1892.000000	10.747596
1891.000000	10.939021
1890.000000	11.189526
1889.000000	11.401277
1888.000000	11.629781
1887.000000	11.873697
1886.000000	12.131126
1885.000000	12.424741
1884.000000	12.760460
1883.000000	13.126781
1882.000000	13.549613
1881.000000	13.942737
1880.000000	14.373834
1879.000000	14.733900
1878.000000	15.135624
1877.000000	15.575878
1876.000000	15.968668
1875.000000	16.365366
1874.000000	16.744083
1873.000000	17.136873
1872.000000	17.540384
1871.000000	17.896206
1870.000000	18.239743
1869.000000	18.575127
1868.000000	18.910735
1867.000000	19.164255
1866.000000	19.357355
1865.000000	19.541409
1864.000000	19.707705
1863.000000	19.852335
1862.000000	19.958322
1861.000000	20.100159
1860.000000	20.224128
1859.000000	20.358817
1858.000000	20.465363
1857.000000	20.557948
1856.000000	20.615242
1855.000000	20.669296
1854.000000	20.677337
1853.000000	20.707604
1852.000000	20.709279
1851.000000	20.713634
1850.000000	20.698446
1849.000000	20.695542
1848.000000	20.676556
1847.000000	20.657011
1846.000000	20.663824
1845.000000	20.626187
1844.000000	20.558283
1843.000000	20.528799
1842.000000	20.499091
1841.000000	20.485578
1840.000000	20.479770
1839.000000	20.464023
1838.000000	20.428954
1837.000000	20.410415
1836.000000	20.357030
1835.000000	20.321627
1834.000000	20.273045
1833.000000	20.197435
1832.000000	20.117247
1831.000000	20.070340
1830.000000	20.013382
1829.000000	19.933305
1828.000000	19.872549
1827.000000	19.812464
1826.000000	19.739200
1825.000000	19.669621
1824.000000	19.608084
1823.000000	19.547217
1822.000000	19.486349
1821.000000	19.461667
1820.000000	19.460550
1819.000000	19.449941
1818.000000	19.410963
1817.000000	19.375560
1816.000000	19.342278
1815.000000	19.318155
1814.000000	19.321282
1813.000000	19.302519
1812.000000	19.294589
1811.000000	19.277502
1810.000000	19.243997
1809.000000	19.218087
1808.000000	19.174307
1807.000000	19.125278
1806.000000	19.076919
1805.000000	19.033921
1804.000000	18.986233
1803.000000	18.940331
1802.000000	18.887170
1801.000000	18.830993
1800.000000	18.795143
1799.000000	18.749241
1798.000000	18.687815
1797.000000	18.646381
1796.000000	18.583503
1795.000000	18.533134
1794.000000	18.490918
1793.000000	18.436975
1792.000000	18.389845
1791.000000	18.343273
1790.000000	18.294468
1789.000000	18.215731
1788.000000	18.160783
1787.000000	18.109185
1786.000000	18.038825
1785.000000	17.971815
1784.000000	17.901455
1783.000000	17.821602
1782.000000	17.754927
1781.000000	17.685683
1780.000000	17.606053
1779.000000	17.535581
1778.000000	17.452154
1777.000000	17.375539
1776.000000	17.294346
1775.000000	17.197740
1774.000000	17.107388
1773.000000	17.004975
1772.000000	16.899658
1771.000000	16.790320
1770.000000	16.678079
1769.000000	16.569746
1768.000000	16.460855
1767.000000	16.352299
1766.000000	16.261277
1765.000000	16.182429
1764.000000	16.126699
1763.000000	16.085153
1762.000000	16.060583
1761.000000	16.053212
1760.000000	16.092524
1759.000000	16.138091
1758.000000	16.192816
1757.000000	16.267085
1756.000000	16.324602
1755.000000	16.372849
1754.000000	16.427015
1753.000000	16.462977
1752.000000	16.476602
1751.000000	16.477496
1750.000000	16.467556
1749.000000	16.437067
1748.000000	16.414507
1747.000000	16.350289
1746.000000	16.287523
1745.000000	16.207335
1744.000000	16.109165
1743.000000	15.996254
1742.000000	15.850507
1741.000000	15.683318
1740.000000	15.506412
1739.000000	15.316550
1738.000000	15.136629
1737.000000	14.973125
1736.000000	14.807722
1735.000000	14.669570
1734.000000	14.599322
1733.000000	14.546161
1732.000000	14.538901
1731.000000	14.555207
1730.000000	14.592844
1729.000000	14.670687
1728.000000	14.781477
1727.000000	14.855411
1726.000000	14.953245
1725.000000	15.056999
1724.000000	15.107033
1723.000000	15.178175
1722.000000	15.213802
1721.000000	15.236362
1720.000000	15.279248
1719.000000	15.296224
1718.000000	15.294102
1717.000000	15.317220
1716.000000	15.363569
1715.000000	15.430132
1714.000000	15.501274
1713.000000	15.555217
1712.000000	15.604469
1711.000000	15.652046
1710.000000	15.685216
1709.000000	15.705543
1708.000000	15.728438
1707.000000	15.696831
1706.000000	15.669581
1705.000000	15.641883
1704.000000	15.594865
1703.000000	15.544272
1702.000000	15.487314
1701.000000	15.388474
1700.000000	15.282375
1699.000000	15.137076
1698.000000	15.018468
1697.000000	14.909019
1696.000000	14.800575
1695.000000	14.719046
1694.000000	14.715360
1693.000000	14.735128
1692.000000	14.812748
1691.000000	14.950565
1690.000000	15.095306
1689.000000	15.237926
1688.000000	15.341344
1687.000000	15.415613
1686.000000	15.479273
1685.000000	15.517692
1684.000000	15.544049
1683.000000	15.619882
1682.000000	15.783944
1681.000000	16.015128
1680.000000	16.406354
1679.000000	16.850964
1678.000000	17.301493
1677.000000	17.827744
1676.000000	18.313119
1675.000000	18.787437
1674.000000	19.200887
1673.000000	19.563076
1672.000000	19.852893
1671.000000	20.142599
1670.000000	20.397795
1669.000000	20.601281
1668.000000	20.770258
1667.000000	20.934990
1666.000000	21.066665
1665.000000	21.180023
1664.000000	21.277969
1663.000000	21.364300
1662.000000	21.443372
1661.000000	21.506361
1660.000000	21.554943
1659.000000	21.614135
1658.000000	21.656128
1657.000000	21.698791
1656.000000	21.697562
1655.000000	21.705715
1654.000000	21.701359
1653.000000	21.688963
1652.000000	21.690303
1651.000000	21.677459
1650.000000	21.627202
1649.000000	21.592468
1648.000000	21.580853
1647.000000	21.523560
1646.000000	21.485253
1645.000000	21.397023
1644.000000	21.355924
1643.000000	21.319403
1642.000000	21.252394
1641.000000	21.190856
1640.000000	21.129542
1639.000000	21.050806
1638.000000	20.993512
1637.000000	20.929629
1636.000000	20.856924
1635.000000	20.794828
1634.000000	20.713523
1633.000000	20.622054
1632.000000	20.558953
1631.000000	20.475638
1630.000000	20.406841
1629.000000	20.333577
1628.000000	20.254170
1627.000000	20.156448
1626.000000	20.062522
1625.000000	19.984344
1624.000000	19.908065
1623.000000	19.825642
1622.000000	19.749140
1621.000000	19.660463
1620.000000	19.584630
1619.000000	19.510473
1618.000000	19.437767
1617.000000	19.353558
1616.000000	19.282639
1615.000000	19.198765
1614.000000	19.161352
1613.000000	19.083620
1612.000000	19.002985
1611.000000	18.918776
1610.000000	18.863269
1609.000000	18.808880
1608.000000	18.739860
1607.000000	18.665590
1606.000000	18.589869
1605.000000	18.545643
1604.000000	18.463891
1603.000000	18.395988
1602.000000	18.321942
1601.000000	18.272913
1600.000000	18.184013
1599.000000	18.103713
1598.000000	18.054796
1597.000000	18.001523
1596.000000	17.919324
1595.000000	17.865158
1594.000000	17.814342
1593.000000	17.752470
1592.000000	17.702547
1591.000000	17.638665
1590.000000	17.601698
1589.000000	17.557248
1588.000000	17.505427
1587.000000	17.458185
1586.000000	17.407257
1585.000000	17.366381
1584.000000	17.328074
1583.000000	17.294569
1582.000000	17.263633
1581.000000	17.218513
1580.000000	17.200755
