PE UV       SUBTECH     SPECTRUM    ASCII       PEDS        4.00        
   -1
CICIMAUCR0212-1.Sample.ASC
24/06/12
11:41:40.00
24/06/12
11:41:40.00
Vinicio Soto Monge
C. resplendens. Sex F. Ventral
250,000000
1
Lambda 1050
1050L1511233
PerkinElmer UV WinLab 6.3.2.0749 / 2.02.05 Lambda 900 UV/VIS/NIR, Aug  7 2015 09:38:08

0
0
3350/servo 860,8/2
0
0
UV/VIS
1
1
1
DoubleDePol,CommonBeamDepol,RBeamAtt,SBeamAtt,60mm sphere, WB InGaAs Detector
0
0
0
0
Program
Program
3350/servo 860,8/2
3350/0,2 860,8/0,2
3350/0,2 860,8/0,2
0
15.00
 
 
 
0
 
860,8
319,2
860,8
Front
100
on
S:100 R:100
0
0
0
0
 
0
 
 
 
0
 
 
0
0
0
0
0
 
 
 
 
0
0


0
0
#HDR
-1
-1
#GR
nm
%R
1.0
0.0
2500,000000
-1,000000
2251
8
64,687900
3,751900
#DATA
2482.000000	5.616222
2481.000000	5.534607
2480.000000	5.471616
2479.000000	5.439967
2478.000000	5.384303
2477.000000	5.458895
2476.000000	5.571446
2475.000000	5.447192
2474.000000	5.439051
2473.000000	5.454723
2472.000000	5.407505
2471.000000	5.421548
2470.000000	5.378807
2469.000000	5.403638
2468.000000	5.445666
2467.000000	5.399160
2466.000000	5.366494
2465.000000	5.386745
2464.000000	5.446582
2463.000000	5.456962
2462.000000	5.448312
2461.000000	5.492681
2460.000000	5.473040
2459.000000	5.416663
2458.000000	5.480978
2457.000000	5.487593
2456.000000	5.385422
2455.000000	5.526568
2454.000000	5.537355
2453.000000	5.536032
2452.000000	5.551907
2451.000000	5.539492
2450.000000	5.576737
2449.000000	5.636981
2448.000000	5.621004
2447.000000	5.704756
2446.000000	5.725923
2445.000000	5.733860
2444.000000	5.784640
2443.000000	5.760624
2442.000000	5.783114
2441.000000	5.847530
2440.000000	5.828704
2439.000000	5.851295
2438.000000	5.915813
2437.000000	5.925481
2436.000000	6.015236
2435.000000	5.999361
2434.000000	5.956722
2433.000000	5.986437
2432.000000	6.030093
2431.000000	6.078227
2430.000000	6.109876
2429.000000	6.114557
2428.000000	6.122698
2427.000000	6.139387
2426.000000	6.169611
2425.000000	6.182433
2424.000000	6.200751
2423.000000	6.255805
2422.000000	6.269339
2421.000000	6.248681
2420.000000	6.273308
2419.000000	6.312385
2418.000000	6.315234
2417.000000	6.314420
2416.000000	6.343118
2415.000000	6.354006
2414.000000	6.357975
2413.000000	6.393084
2412.000000	6.400512
2411.000000	6.421170
2410.000000	6.424528
2409.000000	6.432364
2408.000000	6.470933
2407.000000	6.470627
2406.000000	6.451699
2405.000000	6.476224
2404.000000	6.497187
2403.000000	6.504922
2402.000000	6.520390
2401.000000	6.559568
2400.000000	6.576970
2399.000000	6.595796
2398.000000	6.603937
2397.000000	6.606380
2396.000000	6.627750
2395.000000	6.643014
2394.000000	6.660721
2393.000000	6.664894
2392.000000	6.676800
2391.000000	6.695423
2390.000000	6.695524
2389.000000	6.711501
2388.000000	6.720253
2387.000000	6.708652
2386.000000	6.729819
2385.000000	6.760246
2384.000000	6.773475
2383.000000	6.764724
2382.000000	6.766759
2381.000000	6.784771
2380.000000	6.766962
2379.000000	6.760144
2378.000000	6.784364
2377.000000	6.763095
2376.000000	6.766046
2375.000000	6.764011
2374.000000	6.761467
2373.000000	6.782329
2372.000000	6.781311
2371.000000	6.786806
2370.000000	6.777953
2369.000000	6.761467
2368.000000	6.752919
2367.000000	6.751596
2366.000000	6.756684
2365.000000	6.750375
2364.000000	6.722899
2363.000000	6.704276
2362.000000	6.706210
2361.000000	6.700714
2360.000000	6.679751
2359.000000	6.654819
2358.000000	6.638944
2357.000000	6.611163
2356.000000	6.610145
2355.000000	6.617167
2354.000000	6.574121
2353.000000	6.574426
2352.000000	6.593965
2351.000000	6.593252
2350.000000	6.592235
2349.000000	6.595593
2348.000000	6.594575
2347.000000	6.599460
2346.000000	6.615844
2345.000000	6.633245
2344.000000	6.655430
2343.000000	6.678021
2342.000000	6.704276
2341.000000	6.714249
2340.000000	6.747322
2339.000000	6.764520
2338.000000	6.759534
2337.000000	6.757193
2336.000000	6.777139
2335.000000	6.805429
2334.000000	6.802681
2333.000000	6.794337
2332.000000	6.794337
2331.000000	6.799018
2330.000000	6.794235
2329.000000	6.775103
2328.000000	6.753733
2327.000000	6.736739
2326.000000	6.737146
2325.000000	6.729005
2324.000000	6.691047
2323.000000	6.658991
2322.000000	6.635077
2321.000000	6.623476
2320.000000	6.591929
2319.000000	6.566183
2318.000000	6.524664
2317.000000	6.484772
2316.000000	6.449867
2315.000000	6.396951
2314.000000	6.369881
2313.000000	6.346476
2312.000000	6.308925
2311.000000	6.274427
2310.000000	6.228939
2309.000000	6.220696
2308.000000	6.210113
2307.000000	6.172460
2306.000000	6.171239
2305.000000	6.170832
2304.000000	6.158112
2303.000000	6.160758
2302.000000	6.177447
2301.000000	6.170527
2300.000000	6.173682
2299.000000	6.214082
2298.000000	6.246544
2297.000000	6.254278
2296.000000	6.287657
2295.000000	6.319101
2294.000000	6.362249
2293.000000	6.400614
2292.000000	6.425037
2291.000000	6.444678
2290.000000	6.473273
2289.000000	6.488843
2288.000000	6.486299
2287.000000	6.511740
2286.000000	6.509297
2285.000000	6.504006
2284.000000	6.523850
2283.000000	6.491183
2282.000000	6.494440
2281.000000	6.474494
2280.000000	6.448850
2279.000000	6.437758
2278.000000	6.432059
2277.000000	6.406109
2276.000000	6.376089
2275.000000	6.358077
2274.000000	6.339556
2273.000000	6.337419
2272.000000	6.317372
2271.000000	6.307908
2270.000000	6.296510
2269.000000	6.316150
2268.000000	6.318491
2267.000000	6.341795
2266.000000	6.363877
2265.000000	6.405804
2264.000000	6.431143
2263.000000	6.500037
2262.000000	6.536366
2261.000000	6.610552
2260.000000	6.686569
2259.000000	6.772865
2258.000000	6.852444
2257.000000	6.951663
2256.000000	7.070319
2255.000000	7.177476
2254.000000	7.275576
2253.000000	7.379578
2252.000000	7.492332
2251.000000	7.608037
2250.000000	7.711632
2249.000000	7.798538
2248.000000	7.917703
2247.000000	8.005016
2246.000000	8.077777
2245.000000	8.194296
2244.000000	8.226250
2243.000000	8.310510
2242.000000	8.376961
2241.000000	8.437002
2240.000000	8.505794
2239.000000	8.544668
2238.000000	8.607863
2237.000000	8.658744
2236.000000	8.670549
2235.000000	8.727231
2234.000000	8.758065
2233.000000	8.779639
2232.000000	8.802231
2231.000000	8.845684
2230.000000	8.865629
2229.000000	8.889544
2228.000000	8.888730
2227.000000	8.893106
2226.000000	8.900229
2225.000000	8.886389
2224.000000	8.894835
2223.000000	8.881912
2222.000000	8.867461
2221.000000	8.891274
2220.000000	8.865629
2219.000000	8.847007
2218.000000	8.840494
2217.000000	8.845887
2216.000000	8.803045
2215.000000	8.779843
2214.000000	8.788900
2213.000000	8.750128
2212.000000	8.733235
2211.000000	8.714205
2210.000000	8.696906
2209.000000	8.692326
2208.000000	8.715834
2207.000000	8.657116
2206.000000	8.663425
2205.000000	8.647143
2204.000000	8.615698
2203.000000	8.622110
2202.000000	8.617937
2201.000000	8.603589
2200.000000	8.608575
2199.000000	8.576316
2198.000000	8.559525
2197.000000	8.579369
2196.000000	8.564918
2195.000000	8.549756
2194.000000	8.553724
2193.000000	8.555658
2192.000000	8.546398
2191.000000	8.538867
2190.000000	8.540902
2189.000000	8.524213
2188.000000	8.511391
2187.000000	8.495007
2186.000000	8.506099
2185.000000	8.490631
2184.000000	8.477300
2183.000000	8.453488
2182.000000	8.455116
2181.000000	8.459085
2180.000000	8.441378
2179.000000	8.441072
2178.000000	8.427945
2177.000000	8.415428
2176.000000	8.415326
2175.000000	8.413698
2174.000000	8.402911
2173.000000	8.399960
2172.000000	8.405150
2171.000000	8.406168
2170.000000	8.414512
2169.000000	8.408508
2168.000000	8.411765
2167.000000	8.402199
2166.000000	8.417667
2165.000000	8.417870
2164.000000	8.425706
2163.000000	8.448399
2162.000000	8.467633
2161.000000	8.458779
2160.000000	8.454607
2159.000000	8.471296
2158.000000	8.494091
2157.000000	8.495414
2156.000000	8.505082
2155.000000	8.547212
2154.000000	8.549959
2153.000000	8.554946
2152.000000	8.589443
2151.000000	8.589036
2150.000000	8.609389
2149.000000	8.637069
2148.000000	8.643073
2147.000000	8.677062
2146.000000	8.682150
2145.000000	8.688052
2144.000000	8.700060
2143.000000	8.707286
2142.000000	8.733439
2141.000000	8.734863
2140.000000	8.761729
2139.000000	8.767631
2138.000000	8.782692
2137.000000	8.795820
2136.000000	8.804368
2135.000000	8.797957
2134.000000	8.794090
2133.000000	8.811898
2132.000000	8.811593
2131.000000	8.807319
2130.000000	8.799280
2129.000000	8.790324
2128.000000	8.780962
2127.000000	8.787577
2126.000000	8.787780
2125.000000	8.772312
2124.000000	8.778622
2123.000000	8.759083
2122.000000	8.743208
2121.000000	8.742292
2120.000000	8.738629
2119.000000	8.725399
2118.000000	8.712984
2117.000000	8.710135
2116.000000	8.691410
2115.000000	8.663629
2114.000000	8.643683
2113.000000	8.628928
2112.000000	8.607964
2111.000000	8.609491
2110.000000	8.581099
2109.000000	8.552096
2108.000000	8.536934
2107.000000	8.520855
2106.000000	8.503453
2105.000000	8.485441
2104.000000	8.461323
2103.000000	8.450842
2102.000000	8.431507
2101.000000	8.414919
2100.000000	8.391107
2099.000000	8.368006
2098.000000	8.342769
2097.000000	8.320279
2096.000000	8.300842
2095.000000	8.286188
2094.000000	8.274893
2093.000000	8.265938
2092.000000	8.244669
2091.000000	8.222078
2090.000000	8.211494
2089.000000	8.180049
2088.000000	8.145348
2087.000000	8.139954
2086.000000	8.126929
2085.000000	8.119398
2084.000000	8.108611
2083.000000	8.067601
2082.000000	8.042262
2081.000000	8.036563
2080.000000	8.020179
2079.000000	7.992194
2078.000000	7.957289
2077.000000	7.925844
2076.000000	7.910783
2075.000000	7.884325
2074.000000	7.856034
2073.000000	7.829067
2072.000000	7.795485
2071.000000	7.770248
2070.000000	7.761903
2069.000000	7.729034
2068.000000	7.686191
2067.000000	7.654645
2066.000000	7.632562
2065.000000	7.600608
2064.000000	7.565703
2063.000000	7.546674
2062.000000	7.524591
2061.000000	7.500168
2060.000000	7.478899
2059.000000	7.466789
2058.000000	7.441552
2057.000000	7.419775
2056.000000	7.416315
2055.000000	7.407563
2054.000000	7.395860
2053.000000	7.386396
2052.000000	7.412448
2051.000000	7.410514
2050.000000	7.404408
2049.000000	7.416009
2048.000000	7.425168
2047.000000	7.446335
2046.000000	7.464856
2045.000000	7.492027
2044.000000	7.494062
2043.000000	7.507291
2042.000000	7.538227
2041.000000	7.563770
2040.000000	7.563973
2039.000000	7.580256
2038.000000	7.611293
2037.000000	7.621368
2036.000000	7.629916
2035.000000	7.634801
2034.000000	7.636938
2033.000000	7.650778
2032.000000	7.647521
2031.000000	7.650574
2030.000000	7.660750
2029.000000	7.670113
2028.000000	7.672657
2027.000000	7.658206
2026.000000	7.646504
2025.000000	7.650472
2024.000000	7.655662
2023.000000	7.654950
2022.000000	7.649455
2021.000000	7.641619
2020.000000	7.619943
2019.000000	7.605696
2018.000000	7.608342
2017.000000	7.598980
2016.000000	7.576897
2015.000000	7.576694
2014.000000	7.556138
2013.000000	7.534055
2012.000000	7.507800
2011.000000	7.488261
2010.000000	7.464042
2009.000000	7.456715
2008.000000	7.433818
2007.000000	7.422726
2006.000000	7.379578
2005.000000	7.359836
2004.000000	7.348133
2003.000000	7.313737
2002.000000	7.287075
2001.000000	7.247998
2000.000000	7.222150
1999.000000	7.195793
1998.000000	7.175339
1997.000000	7.142673
1996.000000	7.112653
1995.000000	7.079376
1994.000000	7.054953
1993.000000	7.021676
1992.000000	6.984634
1991.000000	6.959499
1990.000000	6.920523
1989.000000	6.891317
1988.000000	6.857328
1987.000000	6.824255
1986.000000	6.777953
1985.000000	6.746203
1984.000000	6.716793
1983.000000	6.682804
1982.000000	6.632228
1981.000000	6.623679
1980.000000	6.603327
1979.000000	6.558754
1978.000000	6.520898
1977.000000	6.499528
1976.000000	6.455872
1975.000000	6.431957
1974.000000	6.401632
1973.000000	6.377208
1972.000000	6.345967
1971.000000	6.323172
1970.000000	6.287453
1969.000000	6.242677
1968.000000	6.226904
1967.000000	6.207162
1966.000000	6.178973
1965.000000	6.154245
1964.000000	6.138878
1963.000000	6.112827
1962.000000	6.082502
1961.000000	6.053397
1960.000000	6.044137
1959.000000	5.981858
1958.000000	5.980535
1957.000000	5.973818
1956.000000	5.952855
1955.000000	5.917136
1954.000000	5.918866
1953.000000	5.864830
1952.000000	5.841729
1951.000000	5.827482
1950.000000	5.825854
1949.000000	5.784742
1948.000000	5.762863
1947.000000	5.777720
1946.000000	5.762456
1945.000000	5.748107
1944.000000	5.736506
1943.000000	5.740983
1942.000000	5.751669
1941.000000	5.709030
1940.000000	5.707809
1939.000000	5.717476
1938.000000	5.722055
1937.000000	5.699464
1936.000000	5.694681
1935.000000	5.705468
1934.000000	5.710556
1933.000000	5.720122
1932.000000	5.721343
1931.000000	5.763270
1930.000000	5.746072
1929.000000	5.774158
1928.000000	5.781485
1927.000000	5.803059
1926.000000	5.830535
1925.000000	5.865237
1924.000000	5.878466
1923.000000	5.926600
1922.000000	5.964659
1921.000000	5.969239
1920.000000	6.025005
1919.000000	6.030195
1918.000000	6.077922
1917.000000	6.152922
1916.000000	6.195764
1915.000000	6.259366
1914.000000	6.325106
1913.000000	6.352073
1912.000000	6.393999
1911.000000	6.473171
1910.000000	6.547967
1909.000000	6.624290
1908.000000	6.708245
1907.000000	6.789249
1906.000000	6.885110
1905.000000	6.972931
1904.000000	7.069098
1903.000000	7.150814
1902.000000	7.271811
1901.000000	7.385684
1900.000000	7.510141
1899.000000	7.636429
1898.000000	7.776150
1897.000000	7.908239
1896.000000	8.062614
1895.000000	8.237138
1894.000000	8.428148
1893.000000	8.655793
1892.000000	8.840799
1891.000000	9.088491
1890.000000	9.320817
1889.000000	9.591813
1888.000000	9.892117
1887.000000	10.191709
1886.000000	10.547677
1885.000000	10.873625
1884.000000	11.260530
1883.000000	11.668296
1882.000000	12.076469
1881.000000	12.530537
1880.000000	12.975243
1879.000000	13.402446
1878.000000	13.849595
1877.000000	14.307835
1876.000000	14.752135
1875.000000	15.203557
1874.000000	15.662714
1873.000000	16.103248
1872.000000	16.515491
1871.000000	16.920611
1870.000000	17.285230
1869.000000	17.623390
1868.000000	17.972133
1867.000000	18.261751
1866.000000	18.533765
1865.000000	18.798452
1864.000000	19.042175
1863.000000	19.290376
1862.000000	19.511406
1861.000000	19.730299
1860.000000	19.942171
1859.000000	20.140813
1858.000000	20.305263
1857.000000	20.442440
1856.000000	20.575445
1855.000000	20.694711
1854.000000	20.791488
1853.000000	20.873815
1852.000000	20.939554
1851.000000	21.024221
1850.000000	21.095252
1849.000000	21.170354
1848.000000	21.195693
1847.000000	21.181039
1846.000000	21.165876
1845.000000	21.176358
1844.000000	21.185618
1843.000000	21.230292
1842.000000	21.289417
1841.000000	21.299695
1840.000000	21.283616
1839.000000	21.264383
1838.000000	21.245760
1837.000000	21.227239
1836.000000	21.210550
1835.000000	21.168217
1834.000000	21.128224
1833.000000	21.102884
1832.000000	21.059839
1831.000000	21.030124
1830.000000	20.992573
1829.000000	20.957668
1828.000000	20.896712
1827.000000	20.821203
1826.000000	20.747527
1825.000000	20.709467
1824.000000	20.672120
1823.000000	20.653497
1822.000000	20.658992
1821.000000	20.633246
1820.000000	20.571171
1819.000000	20.515201
1818.000000	20.484773
1817.000000	20.461673
1816.000000	20.444170
1815.000000	20.421884
1814.000000	20.412114
1813.000000	20.397359
1812.000000	20.370798
1811.000000	20.340269
1810.000000	20.298750
1809.000000	20.248072
1808.000000	20.222020
1807.000000	20.194544
1806.000000	20.150175
1805.000000	20.086777
1804.000000	20.044545
1803.000000	20.007707
1802.000000	19.964661
1801.000000	19.924057
1800.000000	19.859335
1799.000000	19.794309
1798.000000	19.747803
1797.000000	19.705876
1796.000000	19.660083
1795.000000	19.608183
1794.000000	19.556793
1793.000000	19.512220
1792.000000	19.460830
1791.000000	19.415749
1790.000000	19.372703
1789.000000	19.322330
1788.000000	19.272975
1787.000000	19.220770
1786.000000	19.177521
1785.000000	19.115547
1784.000000	19.064767
1783.000000	19.019278
1782.000000	18.958729
1781.000000	18.901436
1780.000000	18.840175
1779.000000	18.787665
1778.000000	18.730474
1777.000000	18.664938
1776.000000	18.609884
1775.000000	18.557272
1774.000000	18.488379
1773.000000	18.411140
1772.000000	18.340720
1771.000000	18.267043
1770.000000	18.175354
1769.000000	18.116026
1768.000000	18.028713
1767.000000	17.950661
1766.000000	17.883802
1765.000000	17.838314
1764.000000	17.807683
1763.000000	17.771761
1762.000000	17.762500
1761.000000	17.781225
1760.000000	17.827731
1759.000000	17.873321
1758.000000	17.935701
1757.000000	18.010498
1756.000000	18.086006
1755.000000	18.162023
1754.000000	18.215754
1753.000000	18.261039
1752.000000	18.287905
1751.000000	18.325862
1750.000000	18.354865
1749.000000	18.350794
1748.000000	18.341839
1747.000000	18.310089
1746.000000	18.291975
1745.000000	18.228882
1744.000000	18.153272
1743.000000	18.085599
1742.000000	17.990348
1741.000000	17.860804
1740.000000	17.728206
1739.000000	17.591843
1738.000000	17.442556
1737.000000	17.276173
1736.000000	17.153853
1735.000000	17.042524
1734.000000	16.962538
1733.000000	16.912470
1732.000000	16.908502
1731.000000	16.920917
1730.000000	16.972612
1729.000000	17.027870
1728.000000	17.110807
1727.000000	17.212367
1726.000000	17.310772
1725.000000	17.397068
1724.000000	17.473390
1723.000000	17.555819
1722.000000	17.622067
1721.000000	17.666435
1720.000000	17.717317
1719.000000	17.770743
1718.000000	17.816231
1717.000000	17.878918
1716.000000	17.936414
1715.000000	18.010905
1714.000000	18.080409
1713.000000	18.152254
1712.000000	18.216670
1711.000000	18.269282
1710.000000	18.322810
1709.000000	18.346113
1708.000000	18.351202
1707.000000	18.328610
1706.000000	18.312023
1705.000000	18.283020
1704.000000	18.217688
1703.000000	18.154289
1702.000000	18.081834
1701.000000	17.985159
1700.000000	17.849915
1699.000000	17.715587
1698.000000	17.592657
1697.000000	17.461077
1696.000000	17.353106
1695.000000	17.269863
1694.000000	17.275155
1693.000000	17.293981
1692.000000	17.360738
1691.000000	17.477054
1690.000000	17.588994
1689.000000	17.725560
1688.000000	17.858768
1687.000000	17.957682
1686.000000	18.042350
1685.000000	18.118469
1684.000000	18.198251
1683.000000	18.289838
1682.000000	18.451235
1681.000000	18.685901
1680.000000	19.004523
1679.000000	19.398245
1678.000000	19.799092
1677.000000	20.238404
1676.000000	20.655736
1675.000000	21.049968
1674.000000	21.386906
1673.000000	21.692502
1672.000000	21.948640
1671.000000	22.188700
1670.000000	22.397010
1669.000000	22.551487
1668.000000	22.722348
1667.000000	22.852198
1666.000000	22.929843
1665.000000	23.048296
1664.000000	23.121871
1663.000000	23.173465
1662.000000	23.232488
1661.000000	23.274516
1660.000000	23.331911
1659.000000	23.353790
1658.000000	23.388695
1657.000000	23.370581
1656.000000	23.358878
1655.000000	23.388287
1654.000000	23.373634
1653.000000	23.347989
1652.000000	23.321327
1651.000000	23.280622
1650.000000	23.271870
1649.000000	23.209998
1648.000000	23.181199
1647.000000	23.136932
1646.000000	23.067936
1645.000000	23.004436
1644.000000	22.956709
1643.000000	22.907252
1642.000000	22.853724
1641.000000	22.787985
1640.000000	22.727436
1639.000000	22.653556
1638.000000	22.597484
1637.000000	22.545279
1636.000000	22.444635
1635.000000	22.387342
1634.000000	22.306644
1633.000000	22.248435
1632.000000	22.173741
1631.000000	22.078592
1630.000000	22.020791
1629.000000	21.920045
1628.000000	21.835072
1627.000000	21.760683
1626.000000	21.685073
1625.000000	21.596234
1624.000000	21.498948
1623.000000	21.417232
1622.000000	21.329105
1621.000000	21.271303
1620.000000	21.189892
1619.000000	21.087111
1618.000000	21.017607
1617.000000	20.949120
1616.000000	20.880735
1615.000000	20.804718
1614.000000	20.741116
1613.000000	20.658382
1612.000000	20.570458
1611.000000	20.503600
1610.000000	20.411504
1609.000000	20.339150
1608.000000	20.281247
1607.000000	20.190067
1606.000000	20.110081
1605.000000	20.047089
1604.000000	19.976160
1603.000000	19.900244
1602.000000	19.808759
1601.000000	19.738339
1600.000000	19.656114
1599.000000	19.575110
1598.000000	19.512017
1597.000000	19.406590
1596.000000	19.348483
1595.000000	19.278673
1594.000000	19.195227
1593.000000	19.117277
1592.000000	19.068837
1591.000000	19.006660
1590.000000	18.936748
1589.000000	18.868872
1588.000000	18.792550
1587.000000	18.726098
1586.000000	18.651709
1585.000000	18.598588
1584.000000	18.538141
1583.000000	18.471079
1582.000000	18.425692
1581.000000	18.353237
1580.000000	18.308563
