PE UV       SUBTECH     SPECTRUM    ASCII       PEDS        4.00        
   -1
CICIMAUCR0225-3.ASC
24/05/30
11:57:32.00
24/05/30
11:57:32.00
Vinicio Soto Monge
C. resplendens, F Ventral
250,000000
1
Lambda 1050
1050L1511233
PerkinElmer UV WinLab 6.3.2.0749 / 2.02.05 Lambda 900 UV/VIS/NIR, Aug  7 2015 09:38:08

0
0
3350/servo 860,8/2
0
0
UV/VIS
1
1
1
DoubleDePol,CommonBeamDepol,RBeamAtt,SBeamAtt,60mm sphere, WB InGaAs Detector
0
0
0
0
Program
Program
3350/servo 860,8/2
3350/0,2 860,8/0,2
3350/0,2 860,8/0,2
0
15.00
 
 
 
0
 
860,8
319,2
860,8
Front
100
on
S:100 R:100
0
0
0
0
 
0
 
 
 
0
 
 
0
0
0
0
0
 
 
 
 
0
0


0
0
#HDR
-1
-1
#GR
nm
%R
1.0
0.0
2500,000000
-1,000000
2251
8
54,354700
4,244400
#DATA
2482.000000	5.180826
2481.000000	5.147942
2480.000000	5.127783
2479.000000	5.109990
2478.000000	5.099967
2477.000000	5.014604
2476.000000	5.087354
2475.000000	5.052443
2474.000000	5.056722
2473.000000	5.011225
2472.000000	5.002216
2471.000000	4.984422
2470.000000	5.067759
2469.000000	5.018883
2468.000000	5.040843
2467.000000	5.065619
2466.000000	4.975075
2465.000000	4.956381
2464.000000	5.042307
2463.000000	5.041519
2462.000000	4.974850
2461.000000	5.006946
2460.000000	5.066182
2459.000000	5.039041
2458.000000	5.041406
2457.000000	5.036902
2456.000000	5.072489
2455.000000	5.071137
2454.000000	5.076655
2453.000000	5.085552
2452.000000	5.097152
2451.000000	5.105373
2450.000000	5.118774
2449.000000	5.131838
2448.000000	5.144338
2447.000000	5.179475
2446.000000	5.161005
2445.000000	5.153010
2444.000000	5.164947
2443.000000	5.191412
2442.000000	5.226323
2441.000000	5.251212
2440.000000	5.235558
2439.000000	5.248959
2438.000000	5.260446
2437.000000	5.298060
2436.000000	5.296709
2435.000000	5.308759
2434.000000	5.325426
2433.000000	5.315966
2432.000000	5.320921
2431.000000	5.341643
2430.000000	5.339391
2429.000000	5.361689
2428.000000	5.381509
2427.000000	5.392884
2426.000000	5.383874
2425.000000	5.401442
2424.000000	5.411128
2423.000000	5.424078
2422.000000	5.430272
2421.000000	5.431511
2420.000000	5.436804
2419.000000	5.462931
2418.000000	5.475544
2417.000000	5.473517
2416.000000	5.476445
2415.000000	5.484666
2414.000000	5.475770
2413.000000	5.481400
2412.000000	5.511582
2411.000000	5.519690
2410.000000	5.514622
2409.000000	5.535344
2408.000000	5.514510
2407.000000	5.521830
2406.000000	5.533880
2405.000000	5.534781
2404.000000	5.553813
2403.000000	5.553700
2402.000000	5.563723
2401.000000	5.577463
2400.000000	5.576449
2399.000000	5.590639
2398.000000	5.596382
2397.000000	5.598297
2396.000000	5.597959
2395.000000	5.597959
2394.000000	5.609784
2393.000000	5.606067
2392.000000	5.621158
2391.000000	5.640979
2390.000000	5.641767
2389.000000	5.624874
2388.000000	5.618343
2387.000000	5.621045
2386.000000	5.624086
2385.000000	5.640866
2384.000000	5.653141
2383.000000	5.645483
2382.000000	5.640979
2381.000000	5.646609
2380.000000	5.639177
2379.000000	5.627464
2378.000000	5.622397
2377.000000	5.624086
2376.000000	5.628028
2375.000000	5.608207
2374.000000	5.598972
2373.000000	5.602013
2372.000000	5.607644
2371.000000	5.606180
2370.000000	5.610797
2369.000000	5.605392
2368.000000	5.581517
2367.000000	5.564512
2366.000000	5.559106
2365.000000	5.542664
2364.000000	5.524871
2363.000000	5.522280
2362.000000	5.527123
2361.000000	5.516424
2360.000000	5.493000
2359.000000	5.489171
2358.000000	5.477346
2357.000000	5.451557
2356.000000	5.439394
2355.000000	5.453246
2354.000000	5.452796
2353.000000	5.453809
2352.000000	5.450769
2351.000000	5.443111
2350.000000	5.446489
2349.000000	5.446714
2348.000000	5.452796
2347.000000	5.452796
2346.000000	5.462030
2345.000000	5.482414
2344.000000	5.506514
2343.000000	5.493000
2342.000000	5.489734
2341.000000	5.500658
2340.000000	5.507753
2339.000000	5.518564
2338.000000	5.527686
2337.000000	5.529938
2336.000000	5.528812
2335.000000	5.530501
2334.000000	5.508766
2333.000000	5.502235
2332.000000	5.503023
2331.000000	5.504149
2330.000000	5.501108
2329.000000	5.476671
2328.000000	5.453246
2327.000000	5.450093
2326.000000	5.449305
2325.000000	5.447841
2324.000000	5.412366
2323.000000	5.397163
2322.000000	5.381847
2321.000000	5.355720
2320.000000	5.339616
2319.000000	5.325539
2318.000000	5.309209
2317.000000	5.302565
2316.000000	5.278690
2315.000000	5.243554
2314.000000	5.233756
2313.000000	5.213823
2312.000000	5.197043
2311.000000	5.194678
2310.000000	5.169902
2309.000000	5.143325
2308.000000	5.157627
2307.000000	5.164947
2306.000000	5.138820
2305.000000	5.135216
2304.000000	5.127783
2303.000000	5.137356
2302.000000	5.146253
2301.000000	5.151996
2300.000000	5.157289
2299.000000	5.181389
2298.000000	5.205827
2297.000000	5.200647
2296.000000	5.223057
2295.000000	5.240062
2294.000000	5.238148
2293.000000	5.249522
2292.000000	5.253239
2291.000000	5.273735
2290.000000	5.282406
2289.000000	5.267091
2288.000000	5.272834
2287.000000	5.285447
2286.000000	5.269906
2285.000000	5.275199
2284.000000	5.269455
2283.000000	5.242315
2282.000000	5.250423
2281.000000	5.263262
2280.000000	5.234206
2279.000000	5.237810
2278.000000	5.240626
2277.000000	5.231616
2276.000000	5.204588
2275.000000	5.211233
2274.000000	5.192651
2273.000000	5.190624
2272.000000	5.203687
2271.000000	5.207066
2270.000000	5.213147
2269.000000	5.209205
2268.000000	5.216075
2267.000000	5.235445
2266.000000	5.216300
2265.000000	5.244229
2264.000000	5.283195
2263.000000	5.315291
2262.000000	5.315854
2261.000000	5.370022
2260.000000	5.411578
2259.000000	5.455161
2258.000000	5.481851
2257.000000	5.552011
2256.000000	5.598409
2255.000000	5.648299
2254.000000	5.715756
2253.000000	5.784340
2252.000000	5.819476
2251.000000	5.853149
2250.000000	5.941666
2249.000000	6.000564
2248.000000	6.020835
2247.000000	6.093135
2246.000000	6.129623
2245.000000	6.165548
2244.000000	6.215550
2243.000000	6.261948
2242.000000	6.294945
2241.000000	6.364204
2240.000000	6.366569
2239.000000	6.393484
2238.000000	6.438869
2237.000000	6.457338
2236.000000	6.483127
2235.000000	6.517701
2234.000000	6.556779
2233.000000	6.559482
2232.000000	6.571081
2231.000000	6.594393
2230.000000	6.591127
2229.000000	6.604979
2228.000000	6.617817
2227.000000	6.622434
2226.000000	6.631669
2225.000000	6.631444
2224.000000	6.634034
2223.000000	6.615677
2222.000000	6.634710
2221.000000	6.621421
2220.000000	6.621871
2219.000000	6.614777
2218.000000	6.614101
2217.000000	6.597884
2216.000000	6.576712
2215.000000	6.582118
2214.000000	6.580766
2213.000000	6.569167
2212.000000	6.558130
2211.000000	6.553288
2210.000000	6.560833
2209.000000	6.555878
2208.000000	6.545855
2207.000000	6.524458
2206.000000	6.533580
2205.000000	6.537071
2204.000000	6.503173
2203.000000	6.514210
2202.000000	6.520291
2201.000000	6.507903
2200.000000	6.528625
2199.000000	6.502047
2198.000000	6.509255
2197.000000	6.492700
2196.000000	6.485718
2195.000000	6.497430
2194.000000	6.506101
2193.000000	6.495403
2192.000000	6.482226
2191.000000	6.483015
2190.000000	6.479974
2189.000000	6.472091
2188.000000	6.461392
2187.000000	6.460154
2186.000000	6.493376
2185.000000	6.461843
2184.000000	6.447090
2183.000000	6.443824
2182.000000	6.472992
2181.000000	6.451595
2180.000000	6.440446
2179.000000	6.456325
2178.000000	6.454973
2177.000000	6.427945
2176.000000	6.444950
2175.000000	6.446527
2174.000000	6.428621
2173.000000	6.449117
2172.000000	6.446076
2171.000000	6.435153
2170.000000	6.464095
2169.000000	6.464320
2168.000000	6.469951
2167.000000	6.480650
2166.000000	6.469951
2165.000000	6.495290
2164.000000	6.495740
2163.000000	6.493713
2162.000000	6.521079
2161.000000	6.519615
2160.000000	6.541688
2159.000000	6.543941
2158.000000	6.570743
2157.000000	6.567590
2156.000000	6.564099
2155.000000	6.581667
2154.000000	6.602501
2153.000000	6.635048
2152.000000	6.627727
2151.000000	6.641354
2150.000000	6.649125
2149.000000	6.672887
2148.000000	6.685838
2147.000000	6.695185
2146.000000	6.691581
2145.000000	6.711965
2144.000000	6.717145
2143.000000	6.751381
2142.000000	6.764670
2141.000000	6.775030
2140.000000	6.782576
2139.000000	6.783702
2138.000000	6.794175
2137.000000	6.815460
2136.000000	6.803748
2135.000000	6.828636
2134.000000	6.845416
2133.000000	6.833591
2132.000000	6.829762
2131.000000	6.840686
2130.000000	6.831113
2129.000000	6.828073
2128.000000	6.852736
2127.000000	6.864899
2126.000000	6.854988
2125.000000	6.837420
2124.000000	6.833929
2123.000000	6.839222
2122.000000	6.831001
2121.000000	6.834830
2120.000000	6.834942
2119.000000	6.817825
2118.000000	6.801045
2117.000000	6.793274
2116.000000	6.766697
2115.000000	6.765796
2114.000000	6.777620
2113.000000	6.751831
2112.000000	6.743272
2111.000000	6.746876
2110.000000	6.738768
2109.000000	6.721875
2108.000000	6.702280
2107.000000	6.693496
2106.000000	6.691581
2105.000000	6.673900
2104.000000	6.662639
2103.000000	6.651940
2102.000000	6.643269
2101.000000	6.635385
2100.000000	6.626376
2099.000000	6.625025
2098.000000	6.615114
2097.000000	6.602952
2096.000000	6.583694
2095.000000	6.581104
2094.000000	6.588312
2093.000000	6.575811
2092.000000	6.563536
2091.000000	6.558919
2090.000000	6.547094
2089.000000	6.533580
2088.000000	6.536733
2087.000000	6.551711
2086.000000	6.535156
2085.000000	6.513309
2084.000000	6.505426
2083.000000	6.498669
2082.000000	6.494502
2081.000000	6.485492
2080.000000	6.473442
2079.000000	6.461618
2078.000000	6.453397
2077.000000	6.448554
2076.000000	6.435265
2075.000000	6.418711
2074.000000	6.411390
2073.000000	6.399453
2072.000000	6.378056
2071.000000	6.367019
2070.000000	6.370173
2069.000000	6.354969
2068.000000	6.335261
2067.000000	6.313189
2066.000000	6.302152
2065.000000	6.292805
2064.000000	6.294044
2063.000000	6.291904
2062.000000	6.268367
2061.000000	6.260596
2060.000000	6.266002
2059.000000	6.259921
2058.000000	6.249110
2057.000000	6.253727
2056.000000	6.243591
2055.000000	6.235483
2054.000000	6.256655
2053.000000	6.274674
2052.000000	6.293481
2051.000000	6.305531
2050.000000	6.320621
2049.000000	6.335825
2048.000000	6.348325
2047.000000	6.384137
2046.000000	6.414769
2045.000000	6.431887
2044.000000	6.442135
2043.000000	6.485155
2042.000000	6.516912
2041.000000	6.539999
2040.000000	6.563874
2039.000000	6.600474
2038.000000	6.629642
2037.000000	6.647886
2036.000000	6.674013
2035.000000	6.696649
2034.000000	6.714780
2033.000000	6.733024
2032.000000	6.766584
2031.000000	6.793612
2030.000000	6.813095
2029.000000	6.811969
2028.000000	6.839560
2027.000000	6.872557
2026.000000	6.863097
2025.000000	6.884269
2024.000000	6.898233
2023.000000	6.913211
2022.000000	6.917941
2021.000000	6.924135
2020.000000	6.929203
2019.000000	6.930554
2018.000000	6.944293
2017.000000	6.959835
2016.000000	6.970083
2015.000000	6.961186
2014.000000	6.964339
2013.000000	6.968393
2012.000000	6.953303
2011.000000	6.955893
2010.000000	6.957470
2009.000000	6.944744
2008.000000	6.933482
2007.000000	6.936635
2006.000000	6.930104
2005.000000	6.906792
2004.000000	6.920644
2003.000000	6.924248
2002.000000	6.898571
2001.000000	6.855664
2000.000000	6.845528
1999.000000	6.849921
1998.000000	6.823681
1997.000000	6.795639
1996.000000	6.793837
1995.000000	6.782463
1994.000000	6.755322
1993.000000	6.717370
1992.000000	6.696424
1991.000000	6.654643
1990.000000	6.643944
1989.000000	6.658359
1988.000000	6.618380
1987.000000	6.579753
1986.000000	6.561171
1985.000000	6.537972
1984.000000	6.505200
1983.000000	6.479636
1982.000000	6.464320
1981.000000	6.434026
1980.000000	6.392921
1979.000000	6.370961
1978.000000	6.379745
1977.000000	6.356884
1976.000000	6.305868
1975.000000	6.254515
1974.000000	6.277714
1973.000000	6.250911
1972.000000	6.231879
1971.000000	6.189873
1970.000000	6.166899
1969.000000	6.146065
1968.000000	6.133114
1967.000000	6.143925
1966.000000	6.102370
1965.000000	6.067796
1964.000000	6.047075
1963.000000	6.031196
1962.000000	6.022412
1961.000000	6.011938
1960.000000	5.979167
1959.000000	5.968356
1958.000000	5.947972
1957.000000	5.931305
1956.000000	5.906304
1955.000000	5.899772
1954.000000	5.887722
1953.000000	5.895155
1952.000000	5.860469
1951.000000	5.846842
1950.000000	5.837044
1949.000000	5.818575
1948.000000	5.794363
1947.000000	5.775556
1946.000000	5.787043
1945.000000	5.793124
1944.000000	5.760803
1943.000000	5.778934
1942.000000	5.756523
1941.000000	5.736252
1940.000000	5.740532
1939.000000	5.733437
1938.000000	5.750217
1937.000000	5.758776
1936.000000	5.752807
1935.000000	5.753258
1934.000000	5.771839
1933.000000	5.753933
1932.000000	5.768236
1931.000000	5.764407
1930.000000	5.787606
1929.000000	5.816661
1928.000000	5.855964
1927.000000	5.864073
1926.000000	5.886258
1925.000000	5.916214
1924.000000	5.929503
1923.000000	5.931192
1922.000000	6.004844
1921.000000	6.014866
1920.000000	6.074666
1919.000000	6.090095
1918.000000	6.142799
1917.000000	6.173994
1916.000000	6.219266
1915.000000	6.233231
1914.000000	6.303278
1913.000000	6.375916
1912.000000	6.407224
1911.000000	6.494389
1910.000000	6.537859
1909.000000	6.604979
1908.000000	6.660386
1907.000000	6.695635
1906.000000	6.797216
1905.000000	6.885057
1904.000000	6.982358
1903.000000	7.068059
1902.000000	7.172343
1901.000000	7.270770
1900.000000	7.358723
1899.000000	7.444763
1898.000000	7.578214
1897.000000	7.687227
1896.000000	7.805700
1895.000000	7.922033
1894.000000	8.010550
1893.000000	8.120013
1892.000000	8.267091
1891.000000	8.445927
1890.000000	8.602802
1889.000000	8.792223
1888.000000	8.975001
1887.000000	9.153048
1886.000000	9.348213
1885.000000	9.587636
1884.000000	9.867827
1883.000000	10.176848
1882.000000	10.480012
1881.000000	10.810768
1880.000000	11.121928
1879.000000	11.441535
1878.000000	11.761705
1877.000000	12.095839
1876.000000	12.445177
1875.000000	12.764558
1874.000000	13.087656
1873.000000	13.390708
1872.000000	13.712567
1871.000000	14.001204
1870.000000	14.268331
1869.000000	14.532530
1868.000000	14.791324
1867.000000	14.981083
1866.000000	15.154063
1865.000000	15.273436
1864.000000	15.394612
1863.000000	15.488872
1862.000000	15.591129
1861.000000	15.700817
1860.000000	15.795979
1859.000000	15.892266
1858.000000	15.979657
1857.000000	16.037654
1856.000000	16.063444
1855.000000	16.069750
1854.000000	16.085404
1853.000000	16.117612
1852.000000	16.109729
1851.000000	16.091485
1850.000000	16.071777
1849.000000	16.051168
1848.000000	16.046439
1847.000000	16.031123
1846.000000	15.987315
1845.000000	15.950714
1844.000000	15.908032
1843.000000	15.848683
1842.000000	15.841588
1841.000000	15.870081
1840.000000	15.844967
1839.000000	15.814673
1838.000000	15.793051
1837.000000	15.749806
1836.000000	15.714219
1835.000000	15.684150
1834.000000	15.627279
1833.000000	15.569281
1832.000000	15.503175
1831.000000	15.440447
1830.000000	15.403509
1829.000000	15.360602
1828.000000	15.289878
1827.000000	15.206655
1826.000000	15.158680
1825.000000	15.122980
1824.000000	15.056987
1823.000000	15.003156
1822.000000	14.962839
1821.000000	14.944933
1820.000000	14.941442
1819.000000	14.925112
1818.000000	14.884007
1817.000000	14.852137
1816.000000	14.841438
1815.000000	14.837834
1814.000000	14.833780
1813.000000	14.810469
1812.000000	14.807766
1811.000000	14.801009
1810.000000	14.762944
1809.000000	14.729159
1808.000000	14.711929
1807.000000	14.679382
1806.000000	14.633097
1805.000000	14.591429
1804.000000	14.554603
1803.000000	14.504038
1802.000000	14.463045
1801.000000	14.442437
1800.000000	14.405386
1799.000000	14.344798
1798.000000	14.287476
1797.000000	14.246483
1796.000000	14.215851
1795.000000	14.182742
1794.000000	14.141637
1793.000000	14.094451
1792.000000	14.039606
1791.000000	13.989717
1790.000000	13.952778
1789.000000	13.905367
1788.000000	13.851761
1787.000000	13.798831
1786.000000	13.741622
1785.000000	13.685201
1784.000000	13.640154
1783.000000	13.572922
1782.000000	13.506140
1781.000000	13.453998
1780.000000	13.383388
1779.000000	13.321111
1778.000000	13.253653
1777.000000	13.187322
1776.000000	13.111080
1775.000000	13.029433
1774.000000	12.947786
1773.000000	12.856791
1772.000000	12.762306
1771.000000	12.662415
1770.000000	12.563312
1769.000000	12.460718
1768.000000	12.370061
1767.000000	12.297649
1766.000000	12.228051
1765.000000	12.158792
1764.000000	12.112394
1763.000000	12.083564
1762.000000	12.068586
1761.000000	12.096627
1760.000000	12.122980
1759.000000	12.164535
1758.000000	12.220393
1757.000000	12.263300
1756.000000	12.310036
1755.000000	12.357223
1754.000000	12.391120
1753.000000	12.392585
1752.000000	12.406211
1751.000000	12.413081
1750.000000	12.397202
1749.000000	12.372313
1748.000000	12.323888
1747.000000	12.295171
1746.000000	12.225799
1745.000000	12.142012
1744.000000	12.061266
1743.000000	11.955969
1742.000000	11.836708
1741.000000	11.691545
1740.000000	11.531966
1739.000000	11.378132
1738.000000	11.227225
1737.000000	11.084990
1736.000000	10.992532
1735.000000	10.884983
1734.000000	10.821467
1733.000000	10.802660
1732.000000	10.791060
1731.000000	10.837233
1730.000000	10.879802
1729.000000	10.924624
1728.000000	11.018771
1727.000000	11.081837
1726.000000	11.155150
1725.000000	11.214725
1724.000000	11.276326
1723.000000	11.302341
1722.000000	11.333648
1721.000000	11.365068
1720.000000	11.380609
1719.000000	11.398853
1718.000000	11.419350
1717.000000	11.421039
1716.000000	11.471266
1715.000000	11.528588
1714.000000	11.586586
1713.000000	11.625438
1712.000000	11.656746
1711.000000	11.698865
1710.000000	11.730623
1709.000000	11.753371
1708.000000	11.742898
1707.000000	11.726681
1706.000000	11.703595
1705.000000	11.690306
1704.000000	11.636024
1703.000000	11.594807
1702.000000	11.524759
1701.000000	11.433990
1700.000000	11.366082
1699.000000	11.283646
1698.000000	11.161119
1697.000000	11.039042
1696.000000	10.991856
1695.000000	10.956945
1694.000000	10.946134
1693.000000	10.987464
1692.000000	11.062467
1691.000000	11.151659
1690.000000	11.261799
1689.000000	11.357072
1688.000000	11.428359
1687.000000	11.502236
1686.000000	11.544805
1685.000000	11.579716
1684.000000	11.599199
1683.000000	11.685688
1682.000000	11.854051
1681.000000	12.078046
1680.000000	12.415446
1679.000000	12.793951
1678.000000	13.201399
1677.000000	13.613914
1676.000000	14.067986
1675.000000	14.416197
1674.000000	14.747403
1673.000000	15.025341
1672.000000	15.296410
1671.000000	15.512972
1670.000000	15.718048
1669.000000	15.896320
1668.000000	16.041483
1667.000000	16.191376
1666.000000	16.310750
1665.000000	16.397353
1664.000000	16.484518
1663.000000	16.560197
1662.000000	16.615379
1661.000000	16.667971
1660.000000	16.731149
1659.000000	16.769439
1658.000000	16.814936
1657.000000	16.819666
1656.000000	16.824508
1655.000000	16.849172
1654.000000	16.841288
1653.000000	16.840950
1652.000000	16.823382
1651.000000	16.791286
1650.000000	16.752546
1649.000000	16.749618
1648.000000	16.691958
1647.000000	16.650966
1646.000000	16.610536
1645.000000	16.574499
1644.000000	16.532268
1643.000000	16.488460
1642.000000	16.423705
1641.000000	16.373928
1640.000000	16.319084
1639.000000	16.273024
1638.000000	16.210521
1637.000000	16.142388
1636.000000	16.072340
1635.000000	16.027969
1634.000000	15.949363
1633.000000	15.885059
1632.000000	15.824809
1631.000000	15.775032
1630.000000	15.685164
1629.000000	15.636288
1628.000000	15.543492
1627.000000	15.484030
1626.000000	15.405423
1625.000000	15.327718
1624.000000	15.253616
1623.000000	15.196519
1622.000000	15.124219
1621.000000	15.062843
1620.000000	14.994935
1619.000000	14.927928
1618.000000	14.848083
1617.000000	14.806189
1616.000000	14.726794
1615.000000	14.686477
1614.000000	14.642782
1613.000000	14.540751
1612.000000	14.496267
1611.000000	14.430724
1610.000000	14.382524
1609.000000	14.330270
1608.000000	14.277453
1607.000000	14.217879
1606.000000	14.161683
1605.000000	14.097153
1604.000000	14.032061
1603.000000	13.982059
1602.000000	13.922034
1601.000000	13.866627
1600.000000	13.809980
1599.000000	13.759415
1598.000000	13.685539
1597.000000	13.629906
1596.000000	13.587112
1595.000000	13.551299
1594.000000	13.493302
1593.000000	13.468976
1592.000000	13.414132
1591.000000	13.368860
1590.000000	13.324714
1589.000000	13.276739
1588.000000	13.238450
1587.000000	13.204552
1586.000000	13.172907
1585.000000	13.154888
1584.000000	13.116373
1583.000000	13.091597
1582.000000	13.071552
1581.000000	13.019635
1580.000000	13.007135
1579.000000	12.992945
