PE UV       SUBTECH     SPECTRUM    ASCII       PEDS        4.00        
   -1
INBUCR0127-3.Sample.ASC
24/04/29
11:41:18.00
24/04/29
11:41:18.00
Vinicio Soto Monge
C. resplendens
250,000000
1
Lambda 1050
1050L1511233
PerkinElmer UV WinLab 6.3.2.0749 / 2.02.05 Lambda 900 UV/VIS/NIR, Aug  7 2015 09:38:08

0
0
3350/servo 860,8/2
0
0
UV/VIS
1
1
1
DoubleDePol,CommonBeamDepol,RBeamAtt,SBeamAtt,60mm sphere, WB InGaAs Detector
0
0
0
0
Program
Program
3350/servo 860,8/2
3350/0,2 860,8/0,2
3350/0,2 860,8/0,2
0
15.00
 
 
 
0
 
860,8
319,2
860,8
Front
100
on
S:100 R:100
0
0
0
0
 
0
 
 
 
0
 
 
0
0
0
0
0
 
 
 
 
0
0


0
0
#HDR
-1
-1
#GR
nm
%R
1.0
0.0
2500,000000
-1,000000
2251
8
88,075900
5,824900
#DATA
2482.000000	12.521808
2481.000000	12.508542
2480.000000	12.511681
2479.000000	12.541656
2478.000000	12.540137
2477.000000	12.576289
2476.000000	12.639479
2475.000000	12.696896
2474.000000	12.677352
2473.000000	12.697099
2472.000000	12.751884
2471.000000	12.783276
2470.000000	12.804035
2469.000000	12.851225
2468.000000	12.939934
2467.000000	12.997959
2466.000000	13.003428
2465.000000	13.093048
2464.000000	13.149554
2463.000000	13.190870
2462.000000	13.250617
2461.000000	13.367883
2460.000000	13.393807
2459.000000	13.457807
2458.000000	13.530212
2457.000000	13.615984
2456.000000	13.689604
2455.000000	13.780237
2454.000000	13.887376
2453.000000	13.986211
2452.000000	14.053958
2451.000000	14.172743
2450.000000	14.288996
2449.000000	14.373856
2448.000000	14.475223
2447.000000	14.587021
2446.000000	14.691527
2445.000000	14.821046
2444.000000	14.915527
2443.000000	15.031375
2442.000000	15.162514
2441.000000	15.271779
2440.000000	15.358463
2439.000000	15.488691
2438.000000	15.622361
2437.000000	15.748336
2436.000000	15.859627
2435.000000	15.960589
2434.000000	16.064285
2433.000000	16.178310
2432.000000	16.299728
2431.000000	16.379424
2430.000000	16.499424
2429.000000	16.600689
2428.000000	16.694056
2427.000000	16.788537
2426.000000	16.893955
2425.000000	16.975170
2424.000000	17.067727
2423.000000	17.155119
2422.000000	17.240688
2421.000000	17.319372
2420.000000	17.404435
2419.000000	17.477346
2418.000000	17.543473
2417.000000	17.595929
2416.000000	17.661853
2415.000000	17.723523
2414.000000	17.792384
2413.000000	17.841194
2412.000000	17.890713
2411.000000	17.937802
2410.000000	17.982662
2409.000000	18.020738
2408.000000	18.062156
2407.000000	18.093143
2406.000000	18.116232
2405.000000	18.153903
2404.000000	18.185194
2403.000000	18.202105
2402.000000	18.215573
2401.000000	18.207472
2400.000000	18.215067
2399.000000	18.228738
2398.000000	18.247978
2397.000000	18.259624
2396.000000	18.282611
2395.000000	18.295978
2394.000000	18.299725
2393.000000	18.310662
2392.000000	18.309244
2391.000000	18.322510
2390.000000	18.327168
2389.000000	18.311472
2388.000000	18.301447
2387.000000	18.299624
2386.000000	18.285042
2385.000000	18.268738
2384.000000	18.256586
2383.000000	18.241801
2382.000000	18.223371
2381.000000	18.204434
2380.000000	18.180130
2379.000000	18.167067
2378.000000	18.139017
2377.000000	18.107219
2376.000000	18.090713
2375.000000	18.065599
2374.000000	18.046763
2373.000000	18.032181
2372.000000	17.999067
2371.000000	17.969093
2370.000000	17.964839
2369.000000	17.946915
2368.000000	17.919776
2367.000000	17.911371
2366.000000	17.909650
2365.000000	17.892637
2364.000000	17.861954
2363.000000	17.850207
2362.000000	17.850916
2361.000000	17.831270
2360.000000	17.804637
2359.000000	17.782156
2358.000000	17.762713
2357.000000	17.746004
2356.000000	17.722612
2355.000000	17.699726
2354.000000	17.670663
2353.000000	17.626612
2352.000000	17.590359
2351.000000	17.562410
2350.000000	17.528688
2349.000000	17.506308
2348.000000	17.468536
2347.000000	17.438157
2346.000000	17.407271
2345.000000	17.369498
2344.000000	17.335979
2343.000000	17.314815
2342.000000	17.290511
2341.000000	17.259828
2340.000000	17.240385
2339.000000	17.210916
2338.000000	17.186410
2337.000000	17.196840
2336.000000	17.179625
2335.000000	17.170309
2334.000000	17.166461
2333.000000	17.168081
2332.000000	17.174056
2331.000000	17.190663
2330.000000	17.208182
2329.000000	17.229650
2328.000000	17.246764
2327.000000	17.258815
2326.000000	17.261245
2325.000000	17.289093
2324.000000	17.309650
2323.000000	17.334663
2322.000000	17.336587
2321.000000	17.334258
2320.000000	17.337600
2319.000000	17.327169
2318.000000	17.327169
2317.000000	17.317853
2316.000000	17.297093
2315.000000	17.268435
2314.000000	17.240992
2313.000000	17.200283
2312.000000	17.172334
2311.000000	17.128385
2310.000000	17.090511
2309.000000	17.049803
2308.000000	17.009904
2307.000000	16.983474
2306.000000	16.951271
2305.000000	16.912689
2304.000000	16.877448
2303.000000	16.874107
2302.000000	16.848689
2301.000000	16.847778
2300.000000	16.835727
2299.000000	16.822664
2298.000000	16.840284
2297.000000	16.850107
2296.000000	16.872486
2295.000000	16.871069
2294.000000	16.884537
2293.000000	16.893651
2292.000000	16.923322
2291.000000	16.975980
2290.000000	16.980638
2289.000000	17.008891
2288.000000	17.042410
2287.000000	17.068435
2286.000000	17.119777
2285.000000	17.143170
2284.000000	17.175676
2283.000000	17.193397
2282.000000	17.240081
2281.000000	17.292942
2280.000000	17.328182
2279.000000	17.346612
2278.000000	17.371929
2277.000000	17.390055
2276.000000	17.423777
2275.000000	17.444536
2274.000000	17.474207
2273.000000	17.486055
2272.000000	17.513296
2271.000000	17.564334
2270.000000	17.584891
2269.000000	17.624485
2268.000000	17.660334
2267.000000	17.745295
2266.000000	17.800384
2265.000000	17.883726
2264.000000	17.958460
2263.000000	18.048890
2262.000000	18.167371
2261.000000	18.286054
2260.000000	18.449193
2259.000000	18.573750
2258.000000	18.715826
2257.000000	18.874914
2256.000000	19.080990
2255.000000	19.240078
2254.000000	19.426509
2253.000000	19.584179
2252.000000	19.767470
2251.000000	19.945900
2250.000000	20.131419
2249.000000	20.291622
2248.000000	20.459318
2247.000000	20.633697
2246.000000	20.764735
2245.000000	20.912482
2244.000000	21.060735
2243.000000	21.122304
2242.000000	21.245443
2241.000000	21.323114
2240.000000	21.422861
2239.000000	21.500329
2238.000000	21.549139
2237.000000	21.560785
2236.000000	21.599266
2235.000000	21.612531
2234.000000	21.639772
2233.000000	21.609190
2232.000000	21.615164
2231.000000	21.603215
2230.000000	21.584785
2229.000000	21.526456
2228.000000	21.492228
2227.000000	21.440785
2226.000000	21.377899
2225.000000	21.307924
2224.000000	21.232076
2223.000000	21.162304
2222.000000	21.066507
2221.000000	20.987722
2220.000000	20.892937
2219.000000	20.809494
2218.000000	20.722811
2217.000000	20.645241
2216.000000	20.551469
2215.000000	20.462761
2214.000000	20.379723
2213.000000	20.304887
2212.000000	20.226508
2211.000000	20.146305
2210.000000	20.068432
2209.000000	20.007774
2208.000000	19.964331
2207.000000	19.897799
2206.000000	19.829040
2205.000000	19.764939
2204.000000	19.707825
2203.000000	19.664382
2202.000000	19.634407
2201.000000	19.577395
2200.000000	19.522407
2199.000000	19.485749
2198.000000	19.438458
2197.000000	19.403420
2196.000000	19.352888
2195.000000	19.340332
2194.000000	19.308534
2193.000000	19.263268
2192.000000	19.242306
2191.000000	19.227522
2190.000000	19.200180
2189.000000	19.182560
2188.000000	19.159471
2187.000000	19.125851
2186.000000	19.119471
2185.000000	19.079775
2184.000000	19.047572
2183.000000	19.033496
2182.000000	18.997142
2181.000000	18.987218
2180.000000	18.975066
2179.000000	18.944686
2178.000000	18.927066
2177.000000	18.913902
2176.000000	18.907421
2175.000000	18.898611
2174.000000	18.903978
2173.000000	18.908737
2172.000000	18.915016
2171.000000	18.933446
2170.000000	18.951269
2169.000000	18.963927
2168.000000	18.986610
2167.000000	19.024990
2166.000000	19.055876
2165.000000	19.115015
2164.000000	19.154205
2163.000000	19.196636
2162.000000	19.244737
2161.000000	19.312382
2160.000000	19.377699
2159.000000	19.458812
2158.000000	19.543774
2157.000000	19.628534
2156.000000	19.739420
2155.000000	19.839369
2154.000000	19.936280
2153.000000	20.062255
2152.000000	20.170913
2151.000000	20.280786
2150.000000	20.401596
2149.000000	20.526355
2148.000000	20.656988
2147.000000	20.782153
2146.000000	20.898102
2145.000000	21.031773
2144.000000	21.151165
2143.000000	21.276228
2142.000000	21.405848
2141.000000	21.523823
2140.000000	21.638658
2139.000000	21.750050
2138.000000	21.857291
2137.000000	21.975468
2136.000000	22.084430
2135.000000	22.168683
2134.000000	22.265088
2133.000000	22.355923
2132.000000	22.448480
2131.000000	22.530910
2130.000000	22.600581
2129.000000	22.685442
2128.000000	22.757948
2127.000000	22.822353
2126.000000	22.883213
2125.000000	22.940631
2124.000000	22.996428
2123.000000	23.055568
2122.000000	23.105492
2121.000000	23.129087
2120.000000	23.169694
2119.000000	23.215466
2118.000000	23.249289
2117.000000	23.286960
2116.000000	23.308428
2115.000000	23.330099
2114.000000	23.334960
2113.000000	23.349643
2112.000000	23.371517
2111.000000	23.378605
2110.000000	23.396529
2109.000000	23.396631
2108.000000	23.392782
2107.000000	23.395618
2106.000000	23.393795
2105.000000	23.401998
2104.000000	23.409187
2103.000000	23.398555
2102.000000	23.395517
2101.000000	23.393390
2100.000000	23.386605
2099.000000	23.398150
2098.000000	23.421339
2097.000000	23.430960
2096.000000	23.440175
2095.000000	23.456479
2094.000000	23.484023
2093.000000	23.521997
2092.000000	23.544782
2091.000000	23.566251
2090.000000	23.590757
2089.000000	23.607263
2088.000000	23.636529
2087.000000	23.664073
2086.000000	23.670858
2085.000000	23.666504
2084.000000	23.672580
2083.000000	23.662453
2082.000000	23.630149
2081.000000	23.602808
2080.000000	23.579415
2079.000000	23.532124
2078.000000	23.476630
2077.000000	23.409694
2076.000000	23.329188
2075.000000	23.248681
2074.000000	23.152276
2073.000000	23.051213
2072.000000	22.940125
2071.000000	22.824479
2070.000000	22.706707
2069.000000	22.573847
2068.000000	22.436024
2067.000000	22.308024
2066.000000	22.187923
2065.000000	22.057493
2064.000000	21.935468
2063.000000	21.806151
2062.000000	21.673088
2061.000000	21.559468
2060.000000	21.446253
2059.000000	21.335063
2058.000000	21.250810
2057.000000	21.194000
2056.000000	21.142456
2055.000000	21.117241
2054.000000	21.134456
2053.000000	21.170709
2052.000000	21.198253
2051.000000	21.257393
2050.000000	21.367367
2049.000000	21.482000
2048.000000	21.619012
2047.000000	21.765240
2046.000000	21.908632
2045.000000	22.096075
2044.000000	22.280986
2043.000000	22.458404
2042.000000	22.644125
2041.000000	22.836834
2040.000000	23.020834
2039.000000	23.190555
2038.000000	23.387618
2037.000000	23.541643
2036.000000	23.707415
2035.000000	23.870149
2034.000000	24.023161
2033.000000	24.176478
2032.000000	24.321490
2031.000000	24.467617
2030.000000	24.572427
2029.000000	24.700832
2028.000000	24.830857
2027.000000	24.940224
2026.000000	25.023667
2025.000000	25.129692
2024.000000	25.233185
2023.000000	25.340324
2022.000000	25.421540
2021.000000	25.497691
2020.000000	25.570805
2019.000000	25.639160
2018.000000	25.723311
2017.000000	25.765539
2016.000000	25.820121
2015.000000	25.872577
2014.000000	25.901134
2013.000000	25.922096
2012.000000	25.947210
2011.000000	25.963210
2010.000000	25.979210
2009.000000	25.980526
2008.000000	25.965741
2007.000000	25.970703
2006.000000	25.953184
2005.000000	25.905488
2004.000000	25.872374
2003.000000	25.834400
2002.000000	25.794906
2001.000000	25.730096
2000.000000	25.677235
1999.000000	25.597337
1998.000000	25.532122
1997.000000	25.462248
1996.000000	25.395919
1995.000000	25.309641
1994.000000	25.213742
1993.000000	25.117540
1992.000000	25.007970
1991.000000	24.935464
1990.000000	24.840882
1989.000000	24.721388
1988.000000	24.638857
1987.000000	24.522806
1986.000000	24.417895
1985.000000	24.313591
1984.000000	24.205845
1983.000000	24.093946
1982.000000	23.992377
1981.000000	23.871162
1980.000000	23.761795
1979.000000	23.655364
1978.000000	23.557744
1977.000000	23.429643
1976.000000	23.346099
1975.000000	23.255162
1974.000000	23.137795
1973.000000	23.041796
1972.000000	22.931011
1971.000000	22.832479
1970.000000	22.737897
1969.000000	22.654454
1968.000000	22.552378
1967.000000	22.457391
1966.000000	22.359366
1965.000000	22.271366
1964.000000	22.181442
1963.000000	22.057695
1962.000000	21.956835
1961.000000	21.866607
1960.000000	21.738708
1959.000000	21.638962
1958.000000	21.545493
1957.000000	21.457392
1956.000000	21.327063
1955.000000	21.232582
1954.000000	21.135874
1953.000000	20.996836
1952.000000	20.943368
1951.000000	20.844532
1950.000000	20.763317
1949.000000	20.653646
1948.000000	20.564026
1947.000000	20.489900
1946.000000	20.385697
1945.000000	20.345090
1944.000000	20.281900
1943.000000	20.203925
1942.000000	20.179824
1941.000000	20.131115
1940.000000	20.082103
1939.000000	20.062559
1938.000000	20.042710
1937.000000	20.036837
1936.000000	20.005040
1935.000000	20.017698
1934.000000	20.049698
1933.000000	20.081191
1932.000000	20.092938
1931.000000	20.174558
1930.000000	20.226812
1929.000000	20.332128
1928.000000	20.427824
1927.000000	20.528482
1926.000000	20.627722
1925.000000	20.765545
1924.000000	20.877241
1923.000000	21.034102
1922.000000	21.224481
1921.000000	21.458405
1920.000000	21.679873
1919.000000	21.865999
1918.000000	22.081493
1917.000000	22.324834
1916.000000	22.540226
1915.000000	22.837745
1914.000000	23.204935
1913.000000	23.585592
1912.000000	23.936782
1911.000000	24.299718
1910.000000	24.616578
1909.000000	24.964325
1908.000000	25.408780
1907.000000	25.915615
1906.000000	26.499817
1905.000000	27.080677
1904.000000	27.625182
1903.000000	28.195511
1902.000000	28.788624
1901.000000	29.451813
1900.000000	30.178192
1899.000000	30.904672
1898.000000	31.561887
1897.000000	32.195101
1896.000000	32.772822
1895.000000	33.376163
1894.000000	34.014745
1893.000000	34.724820
1892.000000	35.498186
1891.000000	36.190945
1890.000000	36.834387
1889.000000	37.452411
1888.000000	38.017474
1887.000000	38.572208
1886.000000	39.097878
1885.000000	39.670029
1884.000000	40.200560
1883.000000	40.661521
1882.000000	41.091192
1881.000000	41.483596
1880.000000	41.838431
1879.000000	42.216355
1878.000000	42.573620
1877.000000	42.882886
1876.000000	43.197215
1875.000000	43.510835
1874.000000	43.809973
1873.000000	44.093011
1872.000000	44.348910
1871.000000	44.581112
1870.000000	44.783542
1869.000000	44.957314
1868.000000	45.075390
1867.000000	45.160453
1866.000000	45.228807
1865.000000	45.309921
1864.000000	45.378174
1863.000000	45.486933
1862.000000	45.612604
1861.000000	45.731186
1860.000000	45.831541
1859.000000	45.916199
1858.000000	45.973819
1857.000000	46.006224
1856.000000	46.035186
1855.000000	46.108199
1854.000000	46.145971
1853.000000	46.145161
1852.000000	46.163388
1851.000000	46.194781
1850.000000	46.235692
1849.000000	46.266477
1848.000000	46.291186
1847.000000	46.243793
1846.000000	46.176755
1845.000000	46.150528
1844.000000	46.119135
1843.000000	46.152755
1842.000000	46.168249
1841.000000	46.121059
1840.000000	46.083186
1839.000000	46.038224
1838.000000	45.996097
1837.000000	45.958629
1836.000000	45.914275
1835.000000	45.841060
1834.000000	45.761465
1833.000000	45.709009
1832.000000	45.683693
1831.000000	45.667592
1830.000000	45.639743
1829.000000	45.605212
1828.000000	45.564300
1827.000000	45.542427
1826.000000	45.531085
1825.000000	45.497971
1824.000000	45.483490
1823.000000	45.540807
1822.000000	45.598022
1821.000000	45.614731
1820.000000	45.607440
1819.000000	45.584452
1818.000000	45.558933
1817.000000	45.554073
1816.000000	45.562984
1815.000000	45.549516
1814.000000	45.541009
1813.000000	45.528655
1812.000000	45.499997
1811.000000	45.459389
1810.000000	45.421415
1809.000000	45.383946
1808.000000	45.374934
1807.000000	45.363896
1806.000000	45.326731
1805.000000	45.290984
1804.000000	45.275086
1803.000000	45.274681
1802.000000	45.255744
1801.000000	45.215541
1800.000000	45.166630
1799.000000	45.146782
1798.000000	45.134529
1797.000000	45.103845
1796.000000	45.075896
1795.000000	45.045618
1794.000000	45.025769
1793.000000	45.002276
1792.000000	44.978580
1791.000000	44.961567
1790.000000	44.959137
1789.000000	44.970782
1788.000000	44.985972
1787.000000	44.990225
1786.000000	44.998630
1785.000000	44.988200
1784.000000	44.981314
1783.000000	44.964099
1782.000000	44.952251
1781.000000	44.935744
1780.000000	44.902529
1779.000000	44.862934
1778.000000	44.823238
1777.000000	44.780808
1776.000000	44.724707
1775.000000	44.655542
1774.000000	44.593365
1773.000000	44.544150
1772.000000	44.490682
1771.000000	44.436808
1770.000000	44.380707
1769.000000	44.340201
1768.000000	44.281669
1767.000000	44.245011
1766.000000	44.224960
1765.000000	44.198530
1764.000000	44.162581
1763.000000	44.148100
1762.000000	44.141416
1761.000000	44.126530
1760.000000	44.120758
1759.000000	44.139695
1758.000000	44.126834
1757.000000	44.137771
1756.000000	44.152150
1755.000000	44.150226
1754.000000	44.137872
1753.000000	44.134429
1752.000000	44.129163
1751.000000	44.111340
1750.000000	44.078631
1749.000000	44.019593
1748.000000	43.960150
1747.000000	43.890176
1746.000000	43.806328
1745.000000	43.714176
1744.000000	43.597113
1743.000000	43.501012
1742.000000	43.387493
1741.000000	43.270025
1740.000000	43.152860
1739.000000	43.042987
1738.000000	42.946380
1737.000000	42.849873
1736.000000	42.756203
1735.000000	42.688456
1734.000000	42.590937
1733.000000	42.533621
1732.000000	42.457165
1731.000000	42.365519
1730.000000	42.272152
1729.000000	42.184254
1728.000000	42.102026
1727.000000	42.037216
1726.000000	41.990836
1725.000000	41.959647
1724.000000	41.976558
1723.000000	42.050482
1722.000000	42.174937
1721.000000	42.380406
1720.000000	42.600355
1719.000000	42.876607
1718.000000	43.181417
1717.000000	43.482581
1716.000000	43.788809
1715.000000	44.062328
1714.000000	44.320555
1713.000000	44.567846
1712.000000	44.776757
1711.000000	44.975238
1710.000000	45.133111
1709.000000	45.286630
1708.000000	45.421921
1707.000000	45.532908
1706.000000	45.642275
1705.000000	45.715895
1704.000000	45.778984
1703.000000	45.829617
1702.000000	45.876503
1701.000000	45.869313
1700.000000	45.893515
1699.000000	45.898579
1698.000000	45.865971
1697.000000	45.851085
1696.000000	45.788705
1695.000000	45.700199
1694.000000	45.573313
1693.000000	45.432858
1692.000000	45.304250
1691.000000	45.166225
1690.000000	45.073364
1689.000000	45.037618
1688.000000	45.060909
1687.000000	45.119339
1686.000000	45.301313
1685.000000	45.479440
1684.000000	45.728756
1683.000000	45.975541
1682.000000	46.237515
1681.000000	46.515996
1680.000000	46.739185
1679.000000	46.985970
1678.000000	47.203995
1677.000000	47.414931
1676.000000	47.590222
1675.000000	47.774830
1674.000000	47.956601
1673.000000	48.152146
1672.000000	48.359436
1671.000000	48.555993
1670.000000	48.774018
1669.000000	48.991031
1668.000000	49.199132
1667.000000	49.415840
1666.000000	49.605106
1665.000000	49.794473
1664.000000	49.964093
1663.000000	50.127738
1662.000000	50.303130
1661.000000	50.445510
1660.000000	50.581712
1659.000000	50.710927
1658.000000	50.831636
1657.000000	50.907282
1656.000000	50.992243
1655.000000	51.080547
1654.000000	51.135433
1653.000000	51.183433
1652.000000	51.227484
1651.000000	51.263028
1650.000000	51.288749
1649.000000	51.307079
1648.000000	51.296648
1647.000000	51.296243
1646.000000	51.288041
1645.000000	51.277408
1644.000000	51.282775
1643.000000	51.271939
1642.000000	51.253205
1641.000000	51.249357
1640.000000	51.257256
1639.000000	51.232142
1638.000000	51.224041
1637.000000	51.209256
1636.000000	51.184446
1635.000000	51.158623
1634.000000	51.125408
1633.000000	51.080851
1632.000000	51.054927
1631.000000	51.019889
1630.000000	50.951838
1629.000000	50.902623
1628.000000	50.861104
1627.000000	50.800446
1626.000000	50.756092
1625.000000	50.707889
1624.000000	50.651991
1623.000000	50.608649
1622.000000	50.574522
1621.000000	50.518826
1620.000000	50.468092
1619.000000	50.430523
1618.000000	50.398219
1617.000000	50.349611
1616.000000	50.302016
1615.000000	50.250978
1614.000000	50.193561
1613.000000	50.149308
1612.000000	50.077004
1611.000000	50.014118
1610.000000	49.947789
1609.000000	49.880447
1608.000000	49.804397
1607.000000	49.729258
1606.000000	49.645815
