PE UV       SUBTECH     SPECTRUM    ASCII       PEDS        4.00        
   -1
CICIMAUCR0245-2.Sample.ASC
24/06/21
14:52:02.00
24/06/21
14:52:02.00
Vinicio Soto Monge
C. resplendens. Ventral. Sex M
250,000000
1
Lambda 1050
1050L1511233
PerkinElmer UV WinLab 6.3.2.0749 / 2.02.05 Lambda 900 UV/VIS/NIR, Aug  7 2015 09:38:08

0
0
3350/servo 860,8/2
0
0
UV/VIS
1
1
1
DoubleDePol,CommonBeamDepol,RBeamAtt,SBeamAtt,60mm sphere, WB InGaAs Detector
0
0
0
0
Program
Program
3350/servo 860,8/2
3350/0,2 860,8/0,2
3350/0,2 860,8/0,2
0
15.00
 
 
 
0
 
860,8
319,2
860,8
Front
100
on
S:100 R:100
0
0
0
0
 
0
 
 
 
0
 
 
0
0
0
0
0
 
 
 
 
0
0


0
0
#HDR
-1
-1
#GR
nm
%R
1.0
0.0
2500,000000
-1,000000
2251
8
56,779300
4,473100
#DATA
2482.000000	6.245372
2481.000000	6.217787
2480.000000	6.226177
2479.000000	6.184339
2478.000000	6.214683
2477.000000	6.179167
2476.000000	6.179512
2475.000000	6.148593
2474.000000	6.120662
2473.000000	6.191350
2472.000000	6.130892
2471.000000	6.195029
2470.000000	6.160202
2469.000000	6.132731
2468.000000	6.133306
2467.000000	6.177788
2466.000000	6.133306
2465.000000	6.119513
2464.000000	6.105950
2463.000000	6.124685
2462.000000	6.090548
2461.000000	6.144455
2460.000000	6.162041
2459.000000	6.147903
2458.000000	6.198592
2457.000000	6.180316
2456.000000	6.183879
2455.000000	6.173765
2454.000000	6.182385
2453.000000	6.207557
2452.000000	6.240315
2451.000000	6.233993
2450.000000	6.240545
2449.000000	6.275027
2448.000000	6.302842
2447.000000	6.299394
2446.000000	6.345830
2445.000000	6.357554
2444.000000	6.383415
2443.000000	6.382495
2442.000000	6.417207
2441.000000	6.432035
2440.000000	6.420655
2439.000000	6.475827
2438.000000	6.516400
2437.000000	6.507205
2436.000000	6.517205
2435.000000	6.536860
2434.000000	6.553871
2433.000000	6.571457
2432.000000	6.595364
2431.000000	6.610881
2430.000000	6.641915
2429.000000	6.660190
2428.000000	6.667087
2427.000000	6.664788
2426.000000	6.677201
2425.000000	6.698120
2424.000000	6.707316
2423.000000	6.720649
2422.000000	6.717315
2421.000000	6.720304
2420.000000	6.747315
2419.000000	6.783406
2418.000000	6.787199
2417.000000	6.788923
2416.000000	6.791222
2415.000000	6.789727
2414.000000	6.799612
2413.000000	6.810187
2412.000000	6.825474
2411.000000	6.842370
2410.000000	6.864208
2409.000000	6.861450
2408.000000	6.850186
2407.000000	6.865358
2406.000000	6.890070
2405.000000	6.896277
2404.000000	6.901219
2403.000000	6.904552
2402.000000	6.904667
2401.000000	6.932138
2400.000000	6.939264
2399.000000	6.944666
2398.000000	6.967195
2397.000000	6.993516
2396.000000	7.022251
2395.000000	7.048342
2394.000000	7.077077
2393.000000	7.073514
2392.000000	7.067997
2391.000000	7.076962
2390.000000	7.091674
2389.000000	7.108915
2388.000000	7.123283
2387.000000	7.138685
2386.000000	7.161098
2385.000000	7.165006
2384.000000	7.149719
2383.000000	7.152133
2382.000000	7.172707
2381.000000	7.162018
2380.000000	7.144892
2379.000000	7.150179
2378.000000	7.154432
2377.000000	7.161213
2376.000000	7.169834
2375.000000	7.168914
2374.000000	7.165696
2373.000000	7.161328
2372.000000	7.154661
2371.000000	7.149604
2370.000000	7.139030
2369.000000	7.119490
2368.000000	7.116042
2367.000000	7.123743
2366.000000	7.115697
2365.000000	7.103513
2364.000000	7.083514
2363.000000	7.073744
2362.000000	7.055468
2361.000000	7.031446
2360.000000	7.027653
2359.000000	7.002596
2358.000000	6.987884
2357.000000	6.992022
2356.000000	6.961448
2355.000000	6.943172
2354.000000	6.939954
2353.000000	6.936161
2352.000000	6.936391
2351.000000	6.937540
2350.000000	6.947540
2349.000000	6.944896
2348.000000	6.940988
2347.000000	6.971217
2346.000000	6.992022
2345.000000	6.981102
2344.000000	7.011906
2343.000000	7.032710
2342.000000	7.027308
2341.000000	7.036733
2340.000000	7.063399
2339.000000	7.069721
2338.000000	7.072479
2337.000000	7.081100
2336.000000	7.082364
2335.000000	7.100640
2334.000000	7.093628
2333.000000	7.064089
2332.000000	7.059951
2331.000000	7.048687
2330.000000	7.050411
2329.000000	7.050756
2328.000000	7.032136
2327.000000	7.005010
2326.000000	6.987999
2325.000000	6.963976
2324.000000	6.938115
2323.000000	6.934092
2322.000000	6.885587
2321.000000	6.847657
2320.000000	6.831680
2319.000000	6.818577
2318.000000	6.799267
2317.000000	6.765590
2316.000000	6.733522
2315.000000	6.709844
2314.000000	6.653639
2313.000000	6.630651
2312.000000	6.616053
2311.000000	6.593640
2310.000000	6.560767
2309.000000	6.531343
2308.000000	6.506171
2307.000000	6.487895
2306.000000	6.499504
2305.000000	6.487091
2304.000000	6.485367
2303.000000	6.508699
2302.000000	6.514561
2301.000000	6.506401
2300.000000	6.525825
2299.000000	6.553411
2298.000000	6.572261
2297.000000	6.583066
2296.000000	6.590077
2295.000000	6.597778
2294.000000	6.656167
2293.000000	6.686856
2292.000000	6.688006
2291.000000	6.695707
2290.000000	6.714442
2289.000000	6.736050
2288.000000	6.740648
2287.000000	6.742487
2286.000000	6.739843
2285.000000	6.705476
2284.000000	6.720189
2283.000000	6.717430
2282.000000	6.701913
2281.000000	6.668696
2280.000000	6.672259
2279.000000	6.675822
2278.000000	6.670190
2277.000000	6.646168
2276.000000	6.628467
2275.000000	6.602490
2274.000000	6.620766
2273.000000	6.597778
2272.000000	6.579847
2271.000000	6.578928
2270.000000	6.578238
2269.000000	6.596513
2268.000000	6.620651
2267.000000	6.625478
2266.000000	6.636168
2265.000000	6.676742
2264.000000	6.712718
2263.000000	6.747315
2262.000000	6.791222
2261.000000	6.850875
2260.000000	6.926736
2259.000000	6.992251
2258.000000	7.078226
2257.000000	7.138455
2256.000000	7.220407
2255.000000	7.303164
2254.000000	7.376610
2253.000000	7.462700
2252.000000	7.546721
2251.000000	7.635915
2250.000000	7.714304
2249.000000	7.789015
2248.000000	7.866139
2247.000000	7.938206
2246.000000	8.022113
2245.000000	8.076134
2244.000000	8.157397
2243.000000	8.214637
2242.000000	8.251877
2241.000000	8.325094
2240.000000	8.339576
2239.000000	8.418195
2238.000000	8.464746
2237.000000	8.489918
2236.000000	8.535204
2235.000000	8.576123
2234.000000	8.584858
2233.000000	8.621409
2232.000000	8.646581
2231.000000	8.675661
2230.000000	8.690258
2229.000000	8.699683
2228.000000	8.730027
2227.000000	8.739222
2226.000000	8.745659
2225.000000	8.765429
2224.000000	8.746464
2223.000000	8.749567
2222.000000	8.770831
2221.000000	8.747958
2220.000000	8.764969
2219.000000	8.729452
2218.000000	8.708993
2217.000000	8.728533
2216.000000	8.731751
2215.000000	8.696005
2214.000000	8.701637
2213.000000	8.666350
2212.000000	8.678534
2211.000000	8.652903
2210.000000	8.657615
2209.000000	8.653362
2208.000000	8.653937
2207.000000	8.626466
2206.000000	8.621524
2205.000000	8.606237
2204.000000	8.592904
2203.000000	8.620949
2202.000000	8.602789
2201.000000	8.580146
2200.000000	8.579686
2199.000000	8.584283
2198.000000	8.579916
2197.000000	8.570835
2196.000000	8.566468
2195.000000	8.543020
2194.000000	8.574284
2193.000000	8.554054
2192.000000	8.555663
2191.000000	8.572330
2190.000000	8.540147
2189.000000	8.557502
2188.000000	8.542560
2187.000000	8.549916
2186.000000	8.548882
2185.000000	8.545089
2184.000000	8.537503
2183.000000	8.516354
2182.000000	8.503021
2181.000000	8.529227
2180.000000	8.515434
2179.000000	8.497849
2178.000000	8.494171
2177.000000	8.482906
2176.000000	8.488539
2175.000000	8.498653
2174.000000	8.496239
2173.000000	8.481527
2172.000000	8.485320
2171.000000	8.487734
2170.000000	8.504975
2169.000000	8.511067
2168.000000	8.521066
2167.000000	8.520837
2166.000000	8.530032
2165.000000	8.522791
2164.000000	8.518423
2163.000000	8.532446
2162.000000	8.566238
2161.000000	8.566238
2160.000000	8.583824
2159.000000	8.598421
2158.000000	8.610375
2157.000000	8.626811
2156.000000	8.647385
2155.000000	8.666006
2154.000000	8.663592
2153.000000	8.660144
2152.000000	8.685430
2151.000000	8.720027
2150.000000	8.723591
2149.000000	8.748188
2148.000000	8.756923
2147.000000	8.775773
2146.000000	8.779106
2145.000000	8.806232
2144.000000	8.835772
2143.000000	8.853243
2142.000000	8.848530
2141.000000	8.859679
2140.000000	8.862093
2139.000000	8.889334
2138.000000	8.888989
2137.000000	8.896575
2136.000000	8.926459
2135.000000	8.943011
2134.000000	8.951171
2133.000000	8.958987
2132.000000	8.959102
2131.000000	8.971056
2130.000000	8.983814
2129.000000	8.958872
2128.000000	8.968527
2127.000000	8.971516
2126.000000	8.961861
2125.000000	8.974044
2124.000000	8.979677
2123.000000	8.976113
2122.000000	8.973355
2121.000000	8.957263
2120.000000	8.944620
2119.000000	8.941861
2118.000000	8.944620
2117.000000	8.924850
2116.000000	8.903931
2115.000000	8.897609
2114.000000	8.900253
2113.000000	8.878070
2112.000000	8.863932
2111.000000	8.847611
2110.000000	8.836576
2109.000000	8.820715
2108.000000	8.806002
2107.000000	8.805773
2106.000000	8.799566
2105.000000	8.783014
2104.000000	8.763819
2103.000000	8.755429
2102.000000	8.727269
2101.000000	8.717958
2100.000000	8.717614
2099.000000	8.697614
2098.000000	8.688994
2097.000000	8.679683
2096.000000	8.673247
2095.000000	8.667155
2094.000000	8.661753
2093.000000	8.638765
2092.000000	8.622558
2091.000000	8.632213
2090.000000	8.629340
2089.000000	8.627271
2088.000000	8.610605
2087.000000	8.599800
2086.000000	8.595777
2085.000000	8.576123
2084.000000	8.555893
2083.000000	8.541066
2082.000000	8.537963
2081.000000	8.546353
2080.000000	8.541871
2079.000000	8.529917
2078.000000	8.508768
2077.000000	8.500377
2076.000000	8.480723
2075.000000	8.470723
2074.000000	8.471757
2073.000000	8.434632
2072.000000	8.418885
2071.000000	8.418655
2070.000000	8.396817
2069.000000	8.369921
2068.000000	8.359461
2067.000000	8.359691
2066.000000	8.336588
2065.000000	8.308658
2064.000000	8.301072
2063.000000	8.288428
2062.000000	8.261762
2061.000000	8.256820
2060.000000	8.266245
2059.000000	8.254061
2058.000000	8.236360
2057.000000	8.243142
2056.000000	8.244981
2055.000000	8.237510
2054.000000	8.254751
2053.000000	8.266820
2052.000000	8.272567
2051.000000	8.281992
2050.000000	8.297853
2049.000000	8.337393
2048.000000	8.361300
2047.000000	8.395782
2046.000000	8.434517
2045.000000	8.469229
2044.000000	8.510147
2043.000000	8.540147
2042.000000	8.578881
2041.000000	8.632673
2040.000000	8.672097
2039.000000	8.685775
2038.000000	8.731177
2037.000000	8.771520
2036.000000	8.806922
2035.000000	8.837036
2034.000000	8.883472
2033.000000	8.917954
2032.000000	8.941287
2031.000000	8.950252
2030.000000	8.974159
2029.000000	9.009561
2028.000000	9.026802
2027.000000	9.039215
2026.000000	9.071169
2025.000000	9.079329
2024.000000	9.073812
2023.000000	9.093812
2022.000000	9.096226
2021.000000	9.124846
2020.000000	9.139558
2019.000000	9.140822
2018.000000	9.144960
2017.000000	9.159328
2016.000000	9.164960
2015.000000	9.183120
2014.000000	9.171051
2013.000000	9.163235
2012.000000	9.168523
2011.000000	9.179097
2010.000000	9.168638
2009.000000	9.154960
2008.000000	9.136110
2007.000000	9.131972
2006.000000	9.115880
2005.000000	9.099099
2004.000000	9.088754
2003.000000	9.074042
2002.000000	9.068065
2001.000000	9.024733
2000.000000	9.014618
1999.000000	8.991975
1998.000000	8.965539
1997.000000	8.933011
1996.000000	8.884736
1995.000000	8.876116
1994.000000	8.865771
1993.000000	8.831059
1992.000000	8.784509
1991.000000	8.774164
1990.000000	8.727728
1989.000000	8.688534
1988.000000	8.660489
1987.000000	8.663477
1986.000000	8.620375
1985.000000	8.573134
1984.000000	8.528308
1983.000000	8.499573
1982.000000	8.467160
1981.000000	8.438425
1980.000000	8.402793
1979.000000	8.354634
1978.000000	8.331761
1977.000000	8.286359
1976.000000	8.286704
1975.000000	8.215556
1974.000000	8.204407
1973.000000	8.168661
1972.000000	8.139926
1971.000000	8.119122
1970.000000	8.086824
1969.000000	8.046825
1968.000000	8.017400
1967.000000	7.995217
1966.000000	7.964528
1965.000000	7.930161
1964.000000	7.919701
1963.000000	7.881426
1962.000000	7.849128
1961.000000	7.817175
1960.000000	7.817060
1959.000000	7.778900
1958.000000	7.776831
1957.000000	7.745222
1956.000000	7.715683
1955.000000	7.700281
1954.000000	7.659477
1953.000000	7.640512
1952.000000	7.641662
1951.000000	7.595801
1950.000000	7.564882
1949.000000	7.544537
1948.000000	7.529825
1947.000000	7.520515
1946.000000	7.490401
1945.000000	7.495573
1944.000000	7.509711
1943.000000	7.466034
1942.000000	7.464194
1941.000000	7.440517
1940.000000	7.451781
1939.000000	7.434195
1938.000000	7.444195
1937.000000	7.430517
1936.000000	7.455229
1935.000000	7.430172
1934.000000	7.462011
1933.000000	7.474884
1932.000000	7.473849
1931.000000	7.489251
1930.000000	7.515113
1929.000000	7.535227
1928.000000	7.557641
1927.000000	7.550744
1926.000000	7.595571
1925.000000	7.653271
1924.000000	7.645914
1923.000000	7.724533
1922.000000	7.710626
1921.000000	7.787520
1920.000000	7.839588
1919.000000	7.889472
1918.000000	7.948091
1917.000000	7.982803
1916.000000	8.051307
1915.000000	8.104180
1914.000000	8.159696
1913.000000	8.269233
1912.000000	8.347507
1911.000000	8.418080
1910.000000	8.493251
1909.000000	8.544859
1908.000000	8.634397
1907.000000	8.731062
1906.000000	8.820485
1905.000000	8.937149
1904.000000	9.072778
1903.000000	9.179442
1902.000000	9.284957
1901.000000	9.399437
1900.000000	9.539319
1899.000000	9.668856
1898.000000	9.835404
1897.000000	9.969539
1896.000000	10.128271
1895.000000	10.253670
1894.000000	10.384127
1893.000000	10.533434
1892.000000	10.728716
1891.000000	10.907678
1890.000000	11.113305
1889.000000	11.364334
1888.000000	11.549042
1887.000000	11.799611
1886.000000	12.010985
1885.000000	12.292703
1884.000000	12.584880
1883.000000	12.908781
1882.000000	13.301415
1881.000000	13.636465
1880.000000	14.024617
1879.000000	14.382310
1878.000000	14.722647
1877.000000	15.092868
1876.000000	15.477342
1875.000000	15.829747
1874.000000	16.193532
1873.000000	16.553179
1872.000000	16.916274
1871.000000	17.233623
1870.000000	17.549937
1869.000000	17.854758
1868.000000	18.138659
1867.000000	18.342103
1866.000000	18.528305
1865.000000	18.650831
1864.000000	18.787265
1863.000000	18.887148
1862.000000	18.977260
1861.000000	19.089212
1860.000000	19.195991
1859.000000	19.324149
1858.000000	19.423457
1857.000000	19.495409
1856.000000	19.549661
1855.000000	19.572534
1854.000000	19.582879
1853.000000	19.611499
1852.000000	19.633337
1851.000000	19.608970
1850.000000	19.570695
1849.000000	19.552190
1848.000000	19.550006
1847.000000	19.551960
1846.000000	19.561385
1845.000000	19.519662
1844.000000	19.460353
1843.000000	19.391159
1842.000000	19.350010
1841.000000	19.353114
1840.000000	19.383573
1839.000000	19.365297
1838.000000	19.332425
1837.000000	19.296678
1836.000000	19.271621
1835.000000	19.236450
1834.000000	19.178405
1833.000000	19.114269
1832.000000	19.042316
1831.000000	18.968065
1830.000000	18.907377
1829.000000	18.874159
1828.000000	18.809793
1827.000000	18.744507
1826.000000	18.682555
1825.000000	18.630372
1824.000000	18.568994
1823.000000	18.497846
1822.000000	18.446008
1821.000000	18.430262
1820.000000	18.440261
1819.000000	18.407963
1818.000000	18.365665
1817.000000	18.333367
1816.000000	18.315437
1815.000000	18.318195
1814.000000	18.310379
1813.000000	18.307851
1812.000000	18.283254
1811.000000	18.253369
1810.000000	18.234749
1809.000000	18.212106
1808.000000	18.179693
1807.000000	18.139349
1806.000000	18.086706
1805.000000	18.047512
1804.000000	18.013490
1803.000000	17.966709
1802.000000	17.916480
1801.000000	17.872573
1800.000000	17.837862
1799.000000	17.794874
1798.000000	17.746714
1797.000000	17.702118
1796.000000	17.650165
1795.000000	17.594534
1794.000000	17.549707
1793.000000	17.516260
1792.000000	17.473732
1791.000000	17.421894
1790.000000	17.375344
1789.000000	17.323966
1788.000000	17.267760
1787.000000	17.231324
1786.000000	17.170406
1785.000000	17.109143
1784.000000	17.058454
1783.000000	16.981560
1782.000000	16.916619
1781.000000	16.859494
1780.000000	16.794667
1779.000000	16.719037
1778.000000	16.646510
1777.000000	16.574558
1776.000000	16.501456
1775.000000	16.415941
1774.000000	16.332379
1773.000000	16.248358
1772.000000	16.158016
1771.000000	16.056294
1770.000000	15.944687
1769.000000	15.850781
1768.000000	15.762967
1767.000000	15.661935
1766.000000	15.582627
1765.000000	15.529295
1764.000000	15.465618
1763.000000	15.423435
1762.000000	15.402516
1761.000000	15.408033
1760.000000	15.444814
1759.000000	15.492744
1758.000000	15.540214
1757.000000	15.589753
1756.000000	15.649752
1755.000000	15.694808
1754.000000	15.748945
1753.000000	15.786530
1752.000000	15.806070
1751.000000	15.793771
1750.000000	15.768599
1749.000000	15.757220
1748.000000	15.718945
1747.000000	15.677222
1746.000000	15.631591
1745.000000	15.548030
1744.000000	15.447802
1743.000000	15.350218
1742.000000	15.220221
1741.000000	15.087006
1740.000000	14.921837
1739.000000	14.767703
1738.000000	14.600466
1737.000000	14.440354
1736.000000	14.295070
1735.000000	14.186682
1734.000000	14.097029
1733.000000	14.058754
1732.000000	14.045076
1731.000000	14.067949
1730.000000	14.105075
1729.000000	14.155878
1728.000000	14.240934
1727.000000	14.321047
1726.000000	14.413918
1725.000000	14.484146
1724.000000	14.557478
1723.000000	14.601270
1722.000000	14.640005
1721.000000	14.655177
1720.000000	14.682418
1719.000000	14.698394
1718.000000	14.702302
1717.000000	14.743566
1716.000000	14.788507
1715.000000	14.845632
1714.000000	14.904711
1713.000000	14.951722
1712.000000	15.001491
1711.000000	15.049651
1710.000000	15.080799
1709.000000	15.119879
1708.000000	15.111373
1707.000000	15.088500
1706.000000	15.100684
1705.000000	15.082178
1704.000000	15.042524
1703.000000	14.996203
1702.000000	14.934941
1701.000000	14.854598
1700.000000	14.738049
1699.000000	14.646901
1698.000000	14.509318
1697.000000	14.400355
1696.000000	14.328863
1695.000000	14.269209
1694.000000	14.266910
1693.000000	14.288059
1692.000000	14.363230
1691.000000	14.472193
1690.000000	14.561271
1689.000000	14.681268
1688.000000	14.795633
1687.000000	14.879654
1686.000000	14.897930
1685.000000	14.910688
1684.000000	14.956779
1683.000000	15.043674
1682.000000	15.177579
1681.000000	15.411136
1680.000000	15.739634
1679.000000	16.095948
1678.000000	16.538696
1677.000000	16.990985
1676.000000	17.422929
1675.000000	17.829816
1674.000000	18.215669
1673.000000	18.509800
1672.000000	18.778529
1671.000000	19.012432
1670.000000	19.223347
1669.000000	19.415871
1668.000000	19.560580
1667.000000	19.721381
1666.000000	19.844712
1665.000000	19.933330
1664.000000	20.023443
1663.000000	20.134130
1662.000000	20.191255
1661.000000	20.249875
1660.000000	20.320563
1659.000000	20.357803
1658.000000	20.402745
1657.000000	20.426192
1656.000000	20.459065
1655.000000	20.459525
1654.000000	20.469065
1653.000000	20.489524
1652.000000	20.475157
1651.000000	20.475387
1650.000000	20.438836
1649.000000	20.412974
1648.000000	20.381021
1647.000000	20.338033
1646.000000	20.290448
1645.000000	20.259989
1644.000000	20.214128
1643.000000	20.152750
1642.000000	20.115165
1641.000000	20.038500
1640.000000	20.007466
1639.000000	19.938388
1638.000000	19.897699
1637.000000	19.836896
1636.000000	19.771955
1635.000000	19.716439
1634.000000	19.629199
1633.000000	19.581040
1632.000000	19.517708
1631.000000	19.454031
1630.000000	19.384377
1629.000000	19.292885
1628.000000	19.222657
1627.000000	19.154038
1626.000000	19.069902
1625.000000	19.011283
1624.000000	18.926112
1623.000000	18.856918
1622.000000	18.771863
1621.000000	18.724967
1620.000000	18.649452
1619.000000	18.550489
1618.000000	18.513478
1617.000000	18.426584
1616.000000	18.356585
1615.000000	18.299805
1614.000000	18.235324
1613.000000	18.184980
1612.000000	18.104177
1611.000000	18.031765
1610.000000	17.983720
1609.000000	17.930043
1608.000000	17.865792
1607.000000	17.794184
1606.000000	17.742002
1605.000000	17.670509
1604.000000	17.622464
1603.000000	17.558903
1602.000000	17.494191
1601.000000	17.439595
1600.000000	17.382930
1599.000000	17.321092
1598.000000	17.266496
1597.000000	17.193164
1596.000000	17.136728
1595.000000	17.096959
1594.000000	17.063742
1593.000000	16.983973
1592.000000	16.936503
1591.000000	16.912021
1590.000000	16.865126
1589.000000	16.828920
1588.000000	16.788576
1587.000000	16.749036
1586.000000	16.705474
1585.000000	16.665705
1584.000000	16.626051
1583.000000	16.588695
1582.000000	16.561569
1581.000000	16.531685
1580.000000	16.513065
