PE UV       SUBTECH     SPECTRUM    ASCII       PEDS        4.00        
   -1
CICIMAUCR0215-3.Sample.ASC
24/06/13
14:57:01.00
24/06/13
14:57:01.00
Vinicio Soto Monge
C. cupreomarginata. Sex M. Ventral 
250,000000
1
Lambda 1050
1050L1511233
PerkinElmer UV WinLab 6.3.2.0749 / 2.02.05 Lambda 900 UV/VIS/NIR, Aug  7 2015 09:38:08

0
0
3350/servo 860,8/2
0
0
UV/VIS
1
1
1
DoubleDePol,CommonBeamDepol,RBeamAtt,SBeamAtt,60mm sphere, WB InGaAs Detector
0
0
0
0
Program
Program
3350/servo 860,8/2
3350/0,2 860,8/0,2
3350/0,2 860,8/0,2
0
15.00
 
 
 
0
 
860,8
319,2
860,8
Front
100
on
S:100 R:100
0
0
0
0
 
0
 
 
 
0
 
 
0
0
0
0
0
 
 
 
 
0
0


0
0
#HDR
-1
-1
#GR
nm
%R
1.0
0.0
2500,000000
-1,000000
2251
8
61,258900
4,228600
#DATA
2482.000000	6.927568
2481.000000	6.892701
2480.000000	6.808730
2479.000000	6.860862
2478.000000	6.853911
2477.000000	6.827565
2476.000000	6.826780
2475.000000	6.834516
2474.000000	6.800770
2473.000000	6.840009
2472.000000	6.851108
2471.000000	6.825547
2470.000000	6.879248
2469.000000	6.837543
2468.000000	6.820726
2467.000000	6.848978
2466.000000	6.828013
2465.000000	6.861759
2464.000000	6.847184
2463.000000	6.829695
2462.000000	6.884854
2461.000000	6.921850
2460.000000	6.929474
2459.000000	6.891468
2458.000000	6.937322
2457.000000	7.002570
2456.000000	7.037213
2455.000000	7.035979
2454.000000	7.082393
2453.000000	7.091811
2452.000000	7.096968
2451.000000	7.147754
2450.000000	7.182957
2449.000000	7.211097
2448.000000	7.239573
2447.000000	7.280269
2446.000000	7.319732
2445.000000	7.355384
2444.000000	7.427247
2443.000000	7.432965
2442.000000	7.457965
2441.000000	7.509537
2440.000000	7.554045
2439.000000	7.582185
2438.000000	7.599898
2437.000000	7.650348
2436.000000	7.689251
2435.000000	7.706964
2434.000000	7.764029
2433.000000	7.790151
2432.000000	7.831520
2431.000000	7.841946
2430.000000	7.873561
2429.000000	7.893741
2428.000000	7.915379
2427.000000	7.942958
2426.000000	7.983879
2425.000000	8.031189
2424.000000	8.047894
2423.000000	8.063814
2422.000000	8.075810
2421.000000	8.099353
2420.000000	8.141507
2419.000000	8.154848
2418.000000	8.179176
2417.000000	8.202944
2416.000000	8.221890
2415.000000	8.244425
2414.000000	8.282542
2413.000000	8.292632
2412.000000	8.318082
2411.000000	8.334001
2410.000000	8.348464
2409.000000	8.374474
2408.000000	8.384003
2407.000000	8.389945
2406.000000	8.425820
2405.000000	8.462593
2404.000000	8.456427
2403.000000	8.461696
2402.000000	8.480082
2401.000000	8.503962
2400.000000	8.517639
2399.000000	8.553066
2398.000000	8.598135
2397.000000	8.615064
2396.000000	8.643204
2395.000000	8.666523
2394.000000	8.699708
2393.000000	8.709798
2392.000000	8.698362
2391.000000	8.728408
2390.000000	8.756884
2389.000000	8.764844
2388.000000	8.774037
2387.000000	8.778970
2386.000000	8.807334
2385.000000	8.831438
2384.000000	8.837604
2383.000000	8.840071
2382.000000	8.825048
2381.000000	8.831102
2380.000000	8.853300
2379.000000	8.862157
2378.000000	8.850721
2377.000000	8.844219
2376.000000	8.841192
2375.000000	8.827514
2374.000000	8.822021
2373.000000	8.819106
2372.000000	8.815519
2371.000000	8.806438
2370.000000	8.794554
2369.000000	8.777177
2368.000000	8.763051
2367.000000	8.753857
2366.000000	8.732444
2365.000000	8.706098
2364.000000	8.691412
2363.000000	8.663384
2362.000000	8.638607
2361.000000	8.615961
2360.000000	8.598247
2359.000000	8.572910
2358.000000	8.544770
2357.000000	8.521900
2356.000000	8.498805
2355.000000	8.487033
2354.000000	8.478513
2353.000000	8.473692
2352.000000	8.469095
2351.000000	8.476270
2350.000000	8.469880
2349.000000	8.469768
2348.000000	8.482549
2347.000000	8.508895
2346.000000	8.528850
2345.000000	8.555869
2344.000000	8.577955
2343.000000	8.598584
2342.000000	8.643316
2341.000000	8.662487
2340.000000	8.671456
2339.000000	8.694887
2338.000000	8.705425
2337.000000	8.729866
2336.000000	8.733677
2335.000000	8.737041
2334.000000	8.740965
2333.000000	8.743767
2332.000000	8.733341
2331.000000	8.727960
2330.000000	8.723924
2329.000000	8.707107
2328.000000	8.673362
2327.000000	8.653070
2326.000000	8.615512
2325.000000	8.584570
2324.000000	8.555869
2323.000000	8.522348
2322.000000	8.468759
2321.000000	8.424363
2320.000000	8.388712
2319.000000	8.332880
2318.000000	8.285569
2317.000000	8.235456
2316.000000	8.194535
2315.000000	8.142516
2314.000000	8.085900
2313.000000	8.031526
2312.000000	7.988699
2311.000000	7.934998
2310.000000	7.897329
2309.000000	7.866274
2308.000000	7.831632
2307.000000	7.824120
2306.000000	7.797326
2305.000000	7.793065
2304.000000	7.794187
2303.000000	7.796765
2302.000000	7.824344
2301.000000	7.845758
2300.000000	7.868740
2299.000000	7.928159
2298.000000	7.975134
2297.000000	8.016951
2296.000000	8.031077
2295.000000	8.079285
2294.000000	8.139825
2293.000000	8.173795
2292.000000	8.203840
2291.000000	8.244200
2290.000000	8.245322
2289.000000	8.271219
2288.000000	8.282655
2287.000000	8.289830
2286.000000	8.302386
2285.000000	8.291623
2284.000000	8.284897
2283.000000	8.252385
2282.000000	8.272901
2281.000000	8.240501
2280.000000	8.226151
2279.000000	8.213594
2278.000000	8.179288
2277.000000	8.154512
2276.000000	8.135677
2275.000000	8.106864
2274.000000	8.095877
2273.000000	8.079173
2272.000000	8.079285
2271.000000	8.074464
2270.000000	8.078724
2269.000000	8.083994
2268.000000	8.106864
2267.000000	8.145767
2266.000000	8.200253
2265.000000	8.214043
2264.000000	8.295099
2263.000000	8.386694
2262.000000	8.478513
2261.000000	8.606543
2260.000000	8.695560
2259.000000	8.816864
2258.000000	8.954424
2257.000000	9.091760
2256.000000	9.261721
2255.000000	9.371141
2254.000000	9.547043
2253.000000	9.692900
2252.000000	9.845931
2251.000000	10.012080
2250.000000	10.136635
2249.000000	10.288322
2248.000000	10.432160
2247.000000	10.576559
2246.000000	10.678580
2245.000000	10.800557
2244.000000	10.930382
2243.000000	11.038233
2242.000000	11.113123
2241.000000	11.209763
2240.000000	11.290707
2239.000000	11.370866
2238.000000	11.454838
2237.000000	11.513135
2236.000000	11.573003
2235.000000	11.623901
2234.000000	11.679172
2233.000000	11.729285
2232.000000	11.761125
2231.000000	11.790610
2230.000000	11.814378
2229.000000	11.857877
2228.000000	11.859559
2227.000000	11.868415
2226.000000	11.860680
2225.000000	11.874918
2224.000000	11.875478
2223.000000	11.873797
2222.000000	11.848123
2221.000000	11.859110
2220.000000	11.799803
2219.000000	11.784893
2218.000000	11.778726
2217.000000	11.737021
2216.000000	11.717065
2215.000000	11.701930
2214.000000	11.691280
2213.000000	11.653386
2212.000000	11.626816
2211.000000	11.626592
2210.000000	11.592174
2209.000000	11.583205
2208.000000	11.569079
2207.000000	11.529840
2206.000000	11.526701
2205.000000	11.519526
2204.000000	11.514817
2203.000000	11.470533
2202.000000	11.478157
2201.000000	11.483538
2200.000000	11.456071
2199.000000	11.450241
2198.000000	11.422325
2197.000000	11.414478
2196.000000	11.421092
2195.000000	11.405733
2194.000000	11.406742
2193.000000	11.401024
2192.000000	11.398446
2191.000000	11.382526
2190.000000	11.379499
2189.000000	11.364700
2188.000000	11.352929
2187.000000	11.367167
2186.000000	11.338803
2185.000000	11.316717
2184.000000	11.321313
2183.000000	11.301470
2182.000000	11.289474
2181.000000	11.291155
2180.000000	11.276245
2179.000000	11.269070
2178.000000	11.255168
2177.000000	11.266043
2176.000000	11.256962
2175.000000	11.234651
2174.000000	11.234203
2173.000000	11.234315
2172.000000	11.217835
2171.000000	11.245078
2170.000000	11.227476
2169.000000	11.229158
2168.000000	11.270751
2167.000000	11.251917
2166.000000	11.263016
2165.000000	11.277142
2164.000000	11.264809
2163.000000	11.273330
2162.000000	11.299900
2161.000000	11.325237
2160.000000	11.343399
2159.000000	11.332973
2158.000000	11.369409
2157.000000	11.426137
2156.000000	11.431182
2155.000000	11.454053
2154.000000	11.498112
2153.000000	11.517508
2152.000000	11.565267
2151.000000	11.589819
2150.000000	11.611233
2149.000000	11.655404
2148.000000	11.690495
2147.000000	11.707760
2146.000000	11.737806
2145.000000	11.765834
2144.000000	11.807875
2143.000000	11.844872
2142.000000	11.870658
2141.000000	11.904739
2140.000000	11.934673
2139.000000	11.971333
2138.000000	11.974921
2137.000000	11.993980
2136.000000	12.020550
2135.000000	12.045551
2134.000000	12.060574
2133.000000	12.080754
2132.000000	12.095440
2131.000000	12.087480
2130.000000	12.108782
2129.000000	12.130531
2128.000000	12.150038
2127.000000	12.152393
2126.000000	12.142415
2125.000000	12.140733
2124.000000	12.138491
2123.000000	12.151272
2122.000000	12.134455
2121.000000	12.129298
2120.000000	12.136249
2119.000000	12.119320
2118.000000	12.111136
2117.000000	12.098804
2116.000000	12.075260
2115.000000	12.067413
2114.000000	12.061022
2113.000000	12.046111
2112.000000	12.012254
2111.000000	11.998576
2110.000000	11.989495
2109.000000	11.976042
2108.000000	11.957207
2107.000000	11.937252
2106.000000	11.918417
2105.000000	11.877160
2104.000000	11.876487
2103.000000	11.864043
2102.000000	11.836239
2101.000000	11.806642
2100.000000	11.789265
2099.000000	11.774690
2098.000000	11.741730
2097.000000	11.730743
2096.000000	11.720204
2095.000000	11.696101
2094.000000	11.673903
2093.000000	11.661683
2092.000000	11.644417
2091.000000	11.622780
2090.000000	11.603161
2089.000000	11.584550
2088.000000	11.575469
2087.000000	11.563249
2086.000000	11.536454
2085.000000	11.518068
2084.000000	11.512351
2083.000000	11.484771
2082.000000	11.460107
2081.000000	11.447662
2080.000000	11.417056
2079.000000	11.396091
2078.000000	11.372996
2077.000000	11.333870
2076.000000	11.300573
2075.000000	11.273330
2074.000000	11.227925
2073.000000	11.188798
2072.000000	11.163012
2071.000000	11.119962
2070.000000	11.088122
2069.000000	11.054265
2068.000000	11.011999
2067.000000	10.981841
2066.000000	10.940808
2065.000000	10.889461
2064.000000	10.863003
2063.000000	10.844729
2062.000000	10.811656
2061.000000	10.782732
2060.000000	10.739569
2059.000000	10.713447
2058.000000	10.700778
2057.000000	10.683289
2056.000000	10.694724
2055.000000	10.700891
2054.000000	10.711541
2053.000000	10.715017
2052.000000	10.724770
2051.000000	10.762103
2050.000000	10.784413
2049.000000	10.820401
2048.000000	10.875111
2047.000000	10.935875
2046.000000	10.976908
2045.000000	11.035318
2044.000000	11.092719
2043.000000	11.155725
2042.000000	11.214696
2041.000000	11.280729
2040.000000	11.346426
2039.000000	11.400464
2038.000000	11.445981
2037.000000	11.516611
2036.000000	11.560110
2035.000000	11.616165
2034.000000	11.663028
2033.000000	11.708209
2032.000000	11.735788
2031.000000	11.766170
2030.000000	11.821441
2029.000000	11.845433
2028.000000	11.857765
2027.000000	11.885680
2026.000000	11.916063
2025.000000	11.930861
2024.000000	11.956871
2023.000000	11.970661
2022.000000	11.973800
2021.000000	11.978733
2020.000000	12.009675
2019.000000	12.014160
2018.000000	12.015505
2017.000000	12.027949
2016.000000	12.024586
2015.000000	12.017972
2014.000000	12.009451
2013.000000	11.993083
2012.000000	11.976378
2011.000000	11.976715
2010.000000	11.962364
2009.000000	11.931198
2008.000000	11.924247
2007.000000	11.904964
2006.000000	11.888820
2005.000000	11.855859
2004.000000	11.808548
2003.000000	11.790722
2002.000000	11.739039
2001.000000	11.686908
2000.000000	11.674015
1999.000000	11.639821
1998.000000	11.599461
1997.000000	11.542172
1996.000000	11.488135
1995.000000	11.441496
1994.000000	11.376248
1993.000000	11.346650
1992.000000	11.283644
1991.000000	11.247768
1990.000000	11.187341
1989.000000	11.123325
1988.000000	11.075229
1987.000000	11.006842
1986.000000	10.945068
1985.000000	10.896524
1984.000000	10.831948
1983.000000	10.772530
1982.000000	10.707954
1981.000000	10.661764
1980.000000	10.602233
1979.000000	10.542926
1978.000000	10.478126
1977.000000	10.399200
1976.000000	10.348189
1975.000000	10.323637
1974.000000	10.252895
1973.000000	10.207714
1972.000000	10.161076
1971.000000	10.108832
1970.000000	10.053673
1969.000000	9.997057
1968.000000	9.936517
1967.000000	9.887076
1966.000000	9.847389
1965.000000	9.788755
1964.000000	9.752094
1963.000000	9.682586
1962.000000	9.660163
1961.000000	9.619243
1960.000000	9.567784
1959.000000	9.532581
1958.000000	9.492557
1957.000000	9.445807
1956.000000	9.412286
1955.000000	9.379998
1954.000000	9.306341
1953.000000	9.285712
1952.000000	9.226742
1951.000000	9.195463
1950.000000	9.155776
1949.000000	9.133466
1948.000000	9.101178
1947.000000	9.060145
1946.000000	9.017767
1945.000000	9.002520
1944.000000	8.983685
1943.000000	8.979985
1942.000000	8.962496
1941.000000	8.941643
1940.000000	8.944895
1939.000000	8.908346
1938.000000	8.899153
1937.000000	8.886036
1936.000000	8.902741
1935.000000	8.910589
1934.000000	8.909804
1933.000000	8.917315
1932.000000	8.950500
1931.000000	8.963393
1930.000000	8.988506
1929.000000	9.020682
1928.000000	9.060033
1927.000000	9.085594
1926.000000	9.132457
1925.000000	9.161157
1924.000000	9.232460
1923.000000	9.313516
1922.000000	9.358809
1921.000000	9.417891
1920.000000	9.482579
1919.000000	9.577538
1918.000000	9.659379
1917.000000	9.762297
1916.000000	9.861291
1915.000000	9.951652
1914.000000	10.046722
1913.000000	10.165000
1912.000000	10.289891
1911.000000	10.430254
1910.000000	10.542926
1909.000000	10.677123
1908.000000	10.853025
1907.000000	10.989464
1906.000000	11.163573
1905.000000	11.345529
1904.000000	11.544863
1903.000000	11.705182
1902.000000	11.908663
1901.000000	12.125038
1900.000000	12.348251
1899.000000	12.596465
1898.000000	12.846472
1897.000000	13.131235
1896.000000	13.395144
1895.000000	13.668359
1894.000000	13.934174
1893.000000	14.242592
1892.000000	14.563117
1891.000000	14.938689
1890.000000	15.327379
1889.000000	15.694430
1888.000000	16.076281
1887.000000	16.516989
1886.000000	16.965994
1885.000000	17.448632
1884.000000	17.988671
1883.000000	18.530728
1882.000000	19.081642
1881.000000	19.670562
1880.000000	20.262060
1879.000000	20.805238
1878.000000	21.372184
1877.000000	21.930049
1876.000000	22.496434
1875.000000	22.992413
1874.000000	23.486823
1873.000000	23.981345
1872.000000	24.463535
1871.000000	24.902450
1870.000000	25.327463
1869.000000	25.726354
1868.000000	26.106298
1867.000000	26.451601
1866.000000	26.760242
1865.000000	27.002178
1864.000000	27.241759
1863.000000	27.436945
1862.000000	27.603766
1861.000000	27.801754
1860.000000	27.998061
1859.000000	28.156025
1858.000000	28.298406
1857.000000	28.408387
1856.000000	28.520498
1855.000000	28.597967
1854.000000	28.658956
1853.000000	28.731604
1852.000000	28.752008
1851.000000	28.777569
1850.000000	28.801449
1849.000000	28.815687
1848.000000	28.827122
1847.000000	28.830261
1846.000000	28.797973
1845.000000	28.745169
1844.000000	28.739676
1843.000000	28.717029
1842.000000	28.722410
1841.000000	28.744160
1840.000000	28.718262
1839.000000	28.688889
1838.000000	28.659180
1837.000000	28.606375
1836.000000	28.567249
1835.000000	28.534624
1834.000000	28.479690
1833.000000	28.415787
1832.000000	28.354126
1831.000000	28.301545
1830.000000	28.241005
1829.000000	28.173290
1828.000000	28.107818
1827.000000	28.013196
1826.000000	27.946041
1825.000000	27.889313
1824.000000	27.815992
1823.000000	27.772381
1822.000000	27.748053
1821.000000	27.723725
1820.000000	27.687962
1819.000000	27.636951
1818.000000	27.587846
1817.000000	27.556455
1816.000000	27.545356
1815.000000	27.547823
1814.000000	27.525064
1813.000000	27.505108
1812.000000	27.487283
1811.000000	27.453537
1810.000000	27.417998
1809.000000	27.364297
1808.000000	27.320125
1807.000000	27.290079
1806.000000	27.249944
1805.000000	27.184471
1804.000000	27.116307
1803.000000	27.066530
1802.000000	27.009353
1801.000000	26.946122
1800.000000	26.887040
1799.000000	26.819101
1798.000000	26.754300
1797.000000	26.711586
1796.000000	26.660688
1795.000000	26.591067
1794.000000	26.533105
1793.000000	26.481870
1792.000000	26.419088
1791.000000	26.366508
1790.000000	26.306865
1789.000000	26.235338
1788.000000	26.169753
1787.000000	26.104392
1786.000000	26.058651
1785.000000	25.989254
1784.000000	25.893848
1783.000000	25.822097
1782.000000	25.740592
1781.000000	25.659872
1780.000000	25.583300
1779.000000	25.490360
1778.000000	25.399438
1777.000000	25.313897
1776.000000	25.228357
1775.000000	25.120618
1774.000000	25.007610
1773.000000	24.899535
1772.000000	24.774643
1771.000000	24.664101
1770.000000	24.538313
1769.000000	24.404004
1768.000000	24.289538
1767.000000	24.173279
1766.000000	24.062513
1765.000000	23.966322
1764.000000	23.880669
1763.000000	23.824053
1762.000000	23.801070
1761.000000	23.820914
1760.000000	23.855556
1759.000000	23.896028
1758.000000	23.958923
1757.000000	24.037737
1756.000000	24.097044
1755.000000	24.143233
1754.000000	24.193571
1753.000000	24.235501
1752.000000	24.251757
1751.000000	24.265098
1750.000000	24.253887
1749.000000	24.222832
1748.000000	24.197607
1747.000000	24.140206
1746.000000	24.064868
1745.000000	23.971143
1744.000000	23.856117
1743.000000	23.727750
1742.000000	23.581445
1741.000000	23.394219
1740.000000	23.185805
1739.000000	22.986135
1738.000000	22.777496
1737.000000	22.548565
1736.000000	22.346765
1735.000000	22.202815
1734.000000	22.093282
1733.000000	22.011217
1732.000000	21.983638
1731.000000	22.019737
1730.000000	22.067160
1729.000000	22.146199
1728.000000	22.247996
1727.000000	22.357752
1726.000000	22.468630
1725.000000	22.555068
1724.000000	22.653838
1723.000000	22.727831
1722.000000	22.769536
1721.000000	22.831085
1720.000000	22.878284
1719.000000	22.922680
1718.000000	22.960798
1717.000000	23.047123
1716.000000	23.133785
1715.000000	23.211366
1714.000000	23.306100
1713.000000	23.423704
1712.000000	23.495007
1711.000000	23.559359
1710.000000	23.639406
1709.000000	23.668443
1708.000000	23.693107
1707.000000	23.670573
1706.000000	23.659362
1705.000000	23.638733
1704.000000	23.582902
1703.000000	23.505546
1702.000000	23.415408
1701.000000	23.304867
1700.000000	23.173809
1699.000000	23.023468
1698.000000	22.888710
1697.000000	22.708099
1696.000000	22.586907
1695.000000	22.491389
1694.000000	22.466164
1693.000000	22.519753
1692.000000	22.581526
1691.000000	22.729849
1690.000000	22.874472
1689.000000	23.050711
1688.000000	23.171455
1687.000000	23.304867
1686.000000	23.380766
1685.000000	23.433907
1684.000000	23.546242
1683.000000	23.686156
1682.000000	23.867328
1681.000000	24.186508
1680.000000	24.607485
1679.000000	25.114564
1678.000000	25.664469
1677.000000	26.216055
1676.000000	26.760354
1675.000000	27.255437
1674.000000	27.715541
1673.000000	28.129343
1672.000000	28.487089
1671.000000	28.795058
1670.000000	29.054259
1669.000000	29.294177
1668.000000	29.493623
1667.000000	29.718181
1666.000000	29.857535
1665.000000	30.017293
1664.000000	30.141400
1663.000000	30.247794
1662.000000	30.340173
1661.000000	30.459460
1660.000000	30.509461
1659.000000	30.586594
1658.000000	30.639510
1657.000000	30.668547
1656.000000	30.682000
1655.000000	30.733123
1654.000000	30.736598
1653.000000	30.712606
1652.000000	30.728862
1651.000000	30.718436
1650.000000	30.681103
1649.000000	30.658008
1648.000000	30.599262
1647.000000	30.544440
1646.000000	30.481209
1645.000000	30.428517
1644.000000	30.385242
1643.000000	30.335913
1642.000000	30.261583
1641.000000	30.185236
1640.000000	30.128508
1639.000000	30.063595
1638.000000	29.988032
1637.000000	29.920317
1636.000000	29.847333
1635.000000	29.777376
1634.000000	29.692844
1633.000000	29.595307
1632.000000	29.502816
1631.000000	29.423889
1630.000000	29.339021
1629.000000	29.238682
1628.000000	29.123095
1627.000000	29.029258
1626.000000	28.952799
1625.000000	28.851002
1624.000000	28.765910
1623.000000	28.656938
1622.000000	28.545611
1621.000000	28.452671
1620.000000	28.365112
1619.000000	28.263428
1618.000000	28.184501
1617.000000	28.097615
1616.000000	28.027210
1615.000000	27.927655
1614.000000	27.841890
1613.000000	27.747380
1612.000000	27.665539
1611.000000	27.579102
1610.000000	27.514862
1609.000000	27.414298
1608.000000	27.326403
1607.000000	27.230997
1606.000000	27.155434
1605.000000	27.048928
1604.000000	26.960473
1603.000000	26.871457
1602.000000	26.790400
1601.000000	26.703738
1600.000000	26.609453
1599.000000	26.525818
1598.000000	26.427160
1597.000000	26.329848
1596.000000	26.249352
1595.000000	26.173117
1594.000000	26.092621
