PE UV       SUBTECH     SPECTRUM    ASCII       PEDS        4.00        
   -1
CICIMAUCR0240-3.ASC
24/06/20
16:02:23.00
24/06/20
16:02:23.00
Vinicio Soto Monge
C. resplendens. Sex M. Ventral
250,000000
1
Lambda 1050
1050L1511233
PerkinElmer UV WinLab 6.3.2.0749 / 2.02.05 Lambda 900 UV/VIS/NIR, Aug  7 2015 09:38:08

0
0
3350/servo 860,8/2
0
0
UV/VIS
1
1
1
DoubleDePol,CommonBeamDepol,RBeamAtt,SBeamAtt,60mm sphere, WB InGaAs Detector
0
0
0
0
Program
Program
3350/servo 860,8/2
3350/0,2 860,8/0,2
3350/0,2 860,8/0,2
0
15.00
 
 
 
0
 
860,8
319,2
860,8
Front
100
on
S:100 R:100
0
0
0
0
 
0
 
 
 
0
 
 
0
0
0
0
0
 
 
 
 
0
0


0
0
#HDR
-1
-1
#GR
nm
%R
1.0
0.0
2500,000000
-1,000000
2251
8
61,160800
4,474200
#DATA
2482.000000	6.463678
2481.000000	6.502287
2480.000000	6.465804
2479.000000	6.482703
2478.000000	6.454165
2477.000000	6.362062
2476.000000	6.463901
2475.000000	6.417122
2474.000000	6.386123
2473.000000	6.417346
2472.000000	6.385899
2471.000000	6.395635
2470.000000	6.421375
2469.000000	6.440848
2468.000000	6.408281
2467.000000	6.388137
2466.000000	6.440624
2465.000000	6.406715
2464.000000	6.482479
2463.000000	6.444765
2462.000000	6.479457
2461.000000	6.475652
2460.000000	6.468937
2459.000000	6.510121
2458.000000	6.483262
2457.000000	6.510904
2456.000000	6.551081
2455.000000	6.547611
2454.000000	6.559362
2453.000000	6.607148
2452.000000	6.630762
2451.000000	6.653927
2450.000000	6.681569
2449.000000	6.699140
2448.000000	6.703280
2447.000000	6.759908
2446.000000	6.807022
2445.000000	6.832091
2444.000000	6.830748
2443.000000	6.863426
2442.000000	6.908638
2441.000000	6.939414
2440.000000	6.963027
2439.000000	6.978583
2438.000000	7.009694
2437.000000	7.041925
2436.000000	7.067888
2435.000000	7.105938
2434.000000	7.121158
2433.000000	7.140855
2432.000000	7.158089
2431.000000	7.194013
2430.000000	7.215164
2429.000000	7.233405
2428.000000	7.265188
2427.000000	7.280632
2426.000000	7.308162
2425.000000	7.330657
2424.000000	7.354941
2423.000000	7.373631
2422.000000	7.402392
2421.000000	7.421193
2420.000000	7.441673
2419.000000	7.449171
2418.000000	7.459691
2417.000000	7.497853
2416.000000	7.508820
2415.000000	7.526502
2414.000000	7.545079
2413.000000	7.553025
2412.000000	7.588389
2411.000000	7.592642
2410.000000	7.607414
2409.000000	7.618717
2408.000000	7.644904
2407.000000	7.666951
2406.000000	7.680828
2405.000000	7.690564
2404.000000	7.693474
2403.000000	7.687207
2402.000000	7.704665
2401.000000	7.732867
2400.000000	7.747639
2399.000000	7.770357
2398.000000	7.776289
2397.000000	7.794418
2396.000000	7.837280
2395.000000	7.862572
2394.000000	7.871973
2393.000000	7.887753
2392.000000	7.890215
2391.000000	7.911030
2390.000000	7.919088
2389.000000	7.922781
2388.000000	7.963405
2387.000000	7.961167
2386.000000	7.952773
2385.000000	7.957362
2384.000000	7.981758
2383.000000	7.987801
2382.000000	7.987466
2381.000000	7.996642
2380.000000	7.992614
2379.000000	7.994964
2378.000000	8.009512
2377.000000	8.015220
2376.000000	8.020480
2375.000000	8.012310
2374.000000	7.991383
2373.000000	7.992502
2372.000000	8.004029
2371.000000	7.984892
2370.000000	7.981534
2369.000000	7.980527
2368.000000	7.972246
2367.000000	7.977729
2366.000000	7.971798
2365.000000	7.947625
2364.000000	7.936434
2363.000000	7.927705
2362.000000	7.899839
2361.000000	7.884171
2360.000000	7.878352
2359.000000	7.870630
2358.000000	7.858767
2357.000000	7.839742
2356.000000	7.830566
2355.000000	7.812212
2354.000000	7.792740
2353.000000	7.794866
2352.000000	7.801581
2351.000000	7.808183
2350.000000	7.807064
2349.000000	7.792516
2348.000000	7.809414
2347.000000	7.825530
2346.000000	7.844555
2345.000000	7.853508
2344.000000	7.859551
2343.000000	7.880143
2342.000000	7.898720
2341.000000	7.917409
2340.000000	7.921550
2339.000000	7.938337
2338.000000	7.955347
2337.000000	7.952549
2336.000000	7.955683
2335.000000	7.976498
2334.000000	7.980191
2333.000000	7.981870
2332.000000	7.956466
2331.000000	7.964748
2330.000000	7.959488
2329.000000	7.927257
2328.000000	7.932405
2327.000000	7.931958
2326.000000	7.895474
2325.000000	7.881374
2324.000000	7.883164
2323.000000	7.856977
2322.000000	7.829111
2321.000000	7.793187
2320.000000	7.768902
2319.000000	7.749542
2318.000000	7.727159
2317.000000	7.670756
2316.000000	7.634497
2315.000000	7.602826
2314.000000	7.557166
2313.000000	7.517997
2312.000000	7.494495
2311.000000	7.468867
2310.000000	7.428355
2309.000000	7.399147
2308.000000	7.376876
2307.000000	7.362440
2306.000000	7.344646
2305.000000	7.324278
2304.000000	7.320473
2303.000000	7.323159
2302.000000	7.336812
2301.000000	7.357292
2300.000000	7.360649
2299.000000	7.377212
2298.000000	7.409890
2297.000000	7.430706
2296.000000	7.476142
2295.000000	7.506246
2294.000000	7.535679
2293.000000	7.579100
2292.000000	7.595775
2291.000000	7.624760
2290.000000	7.643785
2289.000000	7.650948
2288.000000	7.679709
2287.000000	7.668294
2286.000000	7.684073
2285.000000	7.691012
2284.000000	7.679597
2283.000000	7.689445
2282.000000	7.678366
2281.000000	7.657886
2280.000000	7.657550
2279.000000	7.661467
2278.000000	7.628901
2277.000000	7.613233
2276.000000	7.602154
2275.000000	7.590068
2274.000000	7.562985
2273.000000	7.544184
2272.000000	7.546310
2271.000000	7.542617
2270.000000	7.528404
2269.000000	7.557949
2268.000000	7.566231
2267.000000	7.588837
2266.000000	7.615136
2265.000000	7.656319
2264.000000	7.702315
2263.000000	7.731188
2262.000000	7.800350
2261.000000	7.878128
2260.000000	7.981646
2259.000000	8.065132
2258.000000	8.160817
2257.000000	8.251018
2256.000000	8.368301
2255.000000	8.473722
2254.000000	8.552843
2253.000000	8.680870
2252.000000	8.772861
2251.000000	8.903910
2250.000000	9.017836
2249.000000	9.120459
2248.000000	9.200364
2247.000000	9.285640
2246.000000	9.395314
2245.000000	9.486074
2244.000000	9.552102
2243.000000	9.640400
2242.000000	9.690760
2241.000000	9.766860
2240.000000	9.842288
2239.000000	9.871385
2238.000000	9.934504
2237.000000	9.988781
2236.000000	10.020340
2235.000000	10.050556
2234.000000	10.097671
2233.000000	10.107855
2232.000000	10.150941
2231.000000	10.172763
2230.000000	10.187200
2229.000000	10.194362
2228.000000	10.186305
2227.000000	10.191564
2226.000000	10.181381
2225.000000	10.210142
2224.000000	10.207568
2223.000000	10.178918
2222.000000	10.195481
2221.000000	10.165825
2220.000000	10.143219
2219.000000	10.143554
2218.000000	10.105840
2217.000000	10.061635
2216.000000	10.044065
2215.000000	10.019892
2214.000000	10.023921
2213.000000	9.987773
2212.000000	9.976470
2211.000000	9.957334
2210.000000	9.945919
2209.000000	9.905518
2208.000000	9.888620
2207.000000	9.873400
2206.000000	9.871385
2205.000000	9.855830
2204.000000	9.836581
2203.000000	9.839267
2202.000000	9.835686
2201.000000	9.830202
2200.000000	9.807484
2199.000000	9.798867
2198.000000	9.786109
2197.000000	9.791145
2196.000000	9.772679
2195.000000	9.768539
2194.000000	9.749849
2193.000000	9.744813
2192.000000	9.759250
2191.000000	9.750297
2190.000000	9.726908
2189.000000	9.724110
2188.000000	9.700049
2187.000000	9.698706
2186.000000	9.692327
2185.000000	9.711576
2184.000000	9.693446
2183.000000	9.688970
2182.000000	9.670280
2181.000000	9.683038
2180.000000	9.648793
2179.000000	9.646443
2178.000000	9.627194
2177.000000	9.630775
2176.000000	9.626971
2175.000000	9.652934
2174.000000	9.637378
2173.000000	9.626747
2172.000000	9.632454
2171.000000	9.633685
2170.000000	9.627978
2169.000000	9.638945
2168.000000	9.653717
2167.000000	9.657187
2166.000000	9.675988
2165.000000	9.670056
2164.000000	9.683822
2163.000000	9.675988
2162.000000	9.690312
2161.000000	9.727019
2160.000000	9.732279
2159.000000	9.747499
2158.000000	9.761376
2157.000000	9.793943
2156.000000	9.808043
2155.000000	9.839714
2154.000000	9.877764
2153.000000	9.898692
2152.000000	9.912009
2151.000000	9.941666
2150.000000	9.972442
2149.000000	10.011499
2148.000000	10.035448
2147.000000	10.057606
2146.000000	10.089501
2145.000000	10.118710
2144.000000	10.158215
2143.000000	10.177911
2142.000000	10.204099
2141.000000	10.237336
2140.000000	10.254123
2139.000000	10.287920
2138.000000	10.324739
2137.000000	10.333245
2136.000000	10.351150
2135.000000	10.368273
2134.000000	10.394236
2133.000000	10.433965
2132.000000	10.440568
2131.000000	10.446163
2130.000000	10.454557
2129.000000	10.477722
2128.000000	10.481863
2127.000000	10.499657
2126.000000	10.498090
2125.000000	10.505365
2124.000000	10.501671
2123.000000	10.521927
2122.000000	10.558746
2121.000000	10.531104
2120.000000	10.513534
2119.000000	10.518346
2118.000000	10.518122
2117.000000	10.508162
2116.000000	10.506707
2115.000000	10.472239
2114.000000	10.471455
2113.000000	10.471903
2112.000000	10.448290
2111.000000	10.432846
2110.000000	10.429377
2109.000000	10.423893
2108.000000	10.413597
2107.000000	10.410240
2106.000000	10.390655
2105.000000	10.363796
2104.000000	10.361670
2103.000000	10.339623
2102.000000	10.334476
2101.000000	10.339847
2100.000000	10.306162
2099.000000	10.293404
2098.000000	10.291166
2097.000000	10.272141
2096.000000	10.260838
2095.000000	10.238791
2094.000000	10.226033
2093.000000	10.228607
2092.000000	10.220550
2091.000000	10.198839
2090.000000	10.200182
2089.000000	10.212828
2088.000000	10.198951
2087.000000	10.186640
2086.000000	10.178359
2085.000000	10.154186
2084.000000	10.131132
2083.000000	10.121732
2082.000000	10.121620
2081.000000	10.102259
2080.000000	10.078981
2079.000000	10.068350
2078.000000	10.036791
2077.000000	10.010380
2076.000000	9.989004
2075.000000	9.969196
2074.000000	9.945919
2073.000000	9.901713
2072.000000	9.860194
2071.000000	9.850794
2070.000000	9.814199
2069.000000	9.769434
2068.000000	9.735189
2067.000000	9.699489
2066.000000	9.668378
2065.000000	9.642302
2064.000000	9.608841
2063.000000	9.570119
2062.000000	9.539120
2061.000000	9.519088
2060.000000	9.477457
2059.000000	9.450038
2058.000000	9.430342
2057.000000	9.422060
2056.000000	9.411988
2055.000000	9.399007
2054.000000	9.399119
2053.000000	9.408519
2052.000000	9.414227
2051.000000	9.435826
2050.000000	9.451829
2049.000000	9.473204
2048.000000	9.498608
2047.000000	9.533189
2046.000000	9.566874
2045.000000	9.618129
2044.000000	9.666811
2043.000000	9.711576
2042.000000	9.751976
2041.000000	9.807708
2040.000000	9.850234
2039.000000	9.892984
2038.000000	9.944911
2037.000000	9.992809
2036.000000	10.004784
2035.000000	10.052794
2034.000000	10.094985
2033.000000	10.115912
2032.000000	10.153067
2031.000000	10.177687
2030.000000	10.191564
2029.000000	10.226593
2028.000000	10.255466
2027.000000	10.285123
2026.000000	10.300566
2025.000000	10.302133
2024.000000	10.325970
2023.000000	10.327985
2022.000000	10.351934
2021.000000	10.360663
2020.000000	10.352046
2019.000000	10.367154
2018.000000	10.369616
2017.000000	10.387634
2016.000000	10.376778
2015.000000	10.374540
2014.000000	10.370847
2013.000000	10.372637
2012.000000	10.367489
2011.000000	10.363573
2010.000000	10.348688
2009.000000	10.331118
2008.000000	10.322389
2007.000000	10.309855
2006.000000	10.269567
2005.000000	10.262516
2004.000000	10.236889
2003.000000	10.214394
2002.000000	10.186193
2001.000000	10.147695
2000.000000	10.121284
1999.000000	10.111436
1998.000000	10.060852
1997.000000	10.037574
1996.000000	9.984416
1995.000000	9.968413
1994.000000	9.945247
1993.000000	9.896230
1992.000000	9.856725
1991.000000	9.821697
1990.000000	9.780513
1989.000000	9.724557
1988.000000	9.697251
1987.000000	9.653382
1986.000000	9.617010
1985.000000	9.560831
1984.000000	9.506777
1983.000000	9.479583
1982.000000	9.435602
1981.000000	9.387144
1980.000000	9.343946
1979.000000	9.296719
1978.000000	9.247478
1977.000000	9.211107
1976.000000	9.185032
1975.000000	9.138588
1974.000000	9.093152
1973.000000	9.059019
1972.000000	9.006980
1971.000000	8.987732
1970.000000	8.937259
1969.000000	8.901000
1968.000000	8.846387
1967.000000	8.825124
1966.000000	8.772190
1965.000000	8.743988
1964.000000	8.717801
1963.000000	8.690718
1962.000000	8.635770
1961.000000	8.594922
1960.000000	8.571868
1959.000000	8.548590
1958.000000	8.494761
1957.000000	8.483346
1956.000000	8.451115
1955.000000	8.417766
1954.000000	8.362593
1953.000000	8.345471
1952.000000	8.307757
1951.000000	8.270826
1950.000000	8.246877
1949.000000	8.241393
1948.000000	8.201105
1947.000000	8.194726
1946.000000	8.156564
1945.000000	8.123326
1944.000000	8.112135
1943.000000	8.095349
1942.000000	8.075093
1941.000000	8.061439
1940.000000	8.039393
1939.000000	8.047338
1938.000000	8.023725
1937.000000	8.039057
1936.000000	7.999105
1935.000000	8.017682
1934.000000	8.008505
1933.000000	8.046779
1932.000000	8.046555
1931.000000	8.049577
1930.000000	8.089529
1929.000000	8.105980
1928.000000	8.119074
1927.000000	8.160481
1926.000000	8.189354
1925.000000	8.210841
1924.000000	8.268140
1923.000000	8.326670
1922.000000	8.342002
1921.000000	8.406798
1920.000000	8.462978
1919.000000	8.536952
1918.000000	8.598839
1917.000000	8.642149
1916.000000	8.731678
1915.000000	8.786291
1914.000000	8.877051
1913.000000	8.949122
1912.000000	9.066070
1911.000000	9.151458
1910.000000	9.274673
1909.000000	9.399678
1908.000000	9.479919
1907.000000	9.589032
1906.000000	9.724222
1905.000000	9.885598
1904.000000	10.026383
1903.000000	10.188319
1902.000000	10.320934
1901.000000	10.512415
1900.000000	10.652416
1899.000000	10.863929
1898.000000	11.083276
1897.000000	11.268378
1896.000000	11.501378
1895.000000	11.714569
1894.000000	11.916458
1893.000000	12.151472
1892.000000	12.416591
1891.000000	12.694579
1890.000000	12.967084
1889.000000	13.257606
1888.000000	13.581590
1887.000000	13.914751
1886.000000	14.246009
1885.000000	14.599762
1884.000000	14.993131
1883.000000	15.371952
1882.000000	15.759054
1881.000000	16.205805
1880.000000	16.606560
1879.000000	17.004070
1878.000000	17.376512
1877.000000	17.784990
1876.000000	18.206672
1875.000000	18.584374
1874.000000	18.946856
1873.000000	19.321759
1872.000000	19.694537
1871.000000	20.049856
1870.000000	20.401147
1869.000000	20.720319
1868.000000	21.021249
1867.000000	21.310540
1866.000000	21.551374
1865.000000	21.753039
1864.000000	21.966006
1863.000000	22.122347
1862.000000	22.289655
1861.000000	22.452710
1860.000000	22.623487
1859.000000	22.782401
1858.000000	22.932027
1857.000000	23.056697
1856.000000	23.146786
1855.000000	23.227698
1854.000000	23.302455
1853.000000	23.402615
1852.000000	23.451633
1851.000000	23.462264
1850.000000	23.499979
1849.000000	23.518556
1848.000000	23.558732
1847.000000	23.595327
1846.000000	23.610771
1845.000000	23.615136
1844.000000	23.591410
1843.000000	23.548660
1842.000000	23.535902
1841.000000	23.575743
1840.000000	23.585031
1839.000000	23.573616
1838.000000	23.545750
1837.000000	23.515422
1836.000000	23.489795
1835.000000	23.495278
1834.000000	23.445701
1833.000000	23.402280
1832.000000	23.353822
1831.000000	23.293054
1830.000000	23.257130
1829.000000	23.227586
1828.000000	23.180471
1827.000000	23.129999
1826.000000	23.089263
1825.000000	23.054235
1824.000000	22.994026
1823.000000	22.929901
1822.000000	22.914009
1821.000000	22.902818
1820.000000	22.892075
1819.000000	22.876295
1818.000000	22.843953
1817.000000	22.799972
1816.000000	22.783185
1815.000000	22.777589
1814.000000	22.761474
1813.000000	22.742225
1812.000000	22.734391
1811.000000	22.716821
1810.000000	22.692872
1809.000000	22.659746
1808.000000	22.603902
1807.000000	22.565293
1806.000000	22.535972
1805.000000	22.505980
1804.000000	22.457074
1803.000000	22.402350
1802.000000	22.366426
1801.000000	22.341694
1800.000000	22.317968
1799.000000	22.257312
1798.000000	22.206952
1797.000000	22.173938
1796.000000	22.134657
1795.000000	22.087095
1794.000000	22.032930
1793.000000	21.988277
1792.000000	21.958285
1791.000000	21.936462
1790.000000	21.886885
1789.000000	21.822760
1788.000000	21.796908
1787.000000	21.764230
1786.000000	21.708274
1785.000000	21.656907
1784.000000	21.623781
1783.000000	21.588752
1782.000000	21.527201
1781.000000	21.455801
1780.000000	21.413387
1779.000000	21.372539
1778.000000	21.315017
1777.000000	21.253353
1776.000000	21.187438
1775.000000	21.117493
1774.000000	21.040721
1773.000000	20.986220
1772.000000	20.919074
1771.000000	20.852934
1770.000000	20.766538
1769.000000	20.670294
1768.000000	20.581660
1767.000000	20.495152
1766.000000	20.441211
1765.000000	20.383017
1764.000000	20.330083
1763.000000	20.303560
1762.000000	20.284423
1761.000000	20.266517
1760.000000	20.273008
1759.000000	20.306693
1758.000000	20.367797
1757.000000	20.404616
1756.000000	20.451843
1755.000000	20.504441
1754.000000	20.542379
1753.000000	20.581996
1752.000000	20.627880
1751.000000	20.633923
1750.000000	20.625194
1749.000000	20.623963
1748.000000	20.614226
1747.000000	20.571924
1746.000000	20.540253
1745.000000	20.483961
1744.000000	20.405735
1743.000000	20.315422
1742.000000	20.227460
1741.000000	20.115436
1740.000000	19.990767
1739.000000	19.835098
1738.000000	19.684353
1737.000000	19.537189
1736.000000	19.415653
1735.000000	19.291543
1734.000000	19.203021
1733.000000	19.150311
1732.000000	19.120542
1731.000000	19.112820
1730.000000	19.130503
1729.000000	19.175379
1728.000000	19.223389
1727.000000	19.289865
1726.000000	19.342799
1725.000000	19.396516
1724.000000	19.448779
1723.000000	19.499251
1722.000000	19.557445
1721.000000	19.612953
1720.000000	19.666783
1719.000000	19.722851
1718.000000	19.803986
1717.000000	19.885010
1716.000000	19.965251
1715.000000	20.039560
1714.000000	20.146548
1713.000000	20.220521
1712.000000	20.309155
1711.000000	20.411778
1710.000000	20.457438
1709.000000	20.526376
1708.000000	20.551220
1707.000000	20.570133
1706.000000	20.580429
1705.000000	20.552675
1704.000000	20.527495
1703.000000	20.496160
1702.000000	20.441099
1701.000000	20.383353
1700.000000	20.301545
1699.000000	20.186500
1698.000000	20.073022
1697.000000	19.968608
1696.000000	19.899335
1695.000000	19.842820
1694.000000	19.782835
1693.000000	19.769182
1692.000000	19.835993
1691.000000	19.884451
1690.000000	19.970623
1689.000000	20.074812
1688.000000	20.172847
1687.000000	20.240330
1686.000000	20.320235
1685.000000	20.382234
1684.000000	20.468629
1683.000000	20.581660
1682.000000	20.741694
1681.000000	20.948171
1680.000000	21.241491
1679.000000	21.567377
1678.000000	21.950898
1677.000000	22.329160
1676.000000	22.739763
1675.000000	23.096537
1674.000000	23.438315
1673.000000	23.739917
1672.000000	23.997649
1671.000000	24.241281
1670.000000	24.460851
1669.000000	24.656809
1668.000000	24.834636
1667.000000	25.002951
1666.000000	25.128292
1665.000000	25.272434
1664.000000	25.364649
1663.000000	25.479695
1662.000000	25.570007
1661.000000	25.661327
1660.000000	25.684381
1659.000000	25.781520
1658.000000	25.818003
1657.000000	25.886717
1656.000000	25.884479
1655.000000	25.922305
1654.000000	25.924319
1653.000000	25.956438
1652.000000	25.958900
1651.000000	25.938420
1650.000000	25.919507
1649.000000	25.900482
1648.000000	25.874966
1647.000000	25.827068
1646.000000	25.816213
1645.000000	25.761376
1644.000000	25.733846
1643.000000	25.682031
1642.000000	25.603469
1641.000000	25.583884
1640.000000	25.504651
1639.000000	25.474994
1638.000000	25.409974
1637.000000	25.378638
1636.000000	25.310932
1635.000000	25.278366
1634.000000	25.210883
1633.000000	25.129747
1632.000000	25.072336
1631.000000	25.004070
1630.000000	24.948450
1629.000000	24.870895
1628.000000	24.780583
1627.000000	24.727872
1626.000000	24.631517
1625.000000	24.577575
1624.000000	24.473609
1623.000000	24.402881
1622.000000	24.322976
1621.000000	24.266237
1620.000000	24.194950
1619.000000	24.135301
1618.000000	24.054500
1617.000000	23.999328
1616.000000	23.945946
1615.000000	23.875778
1614.000000	23.786584
1613.000000	23.719549
1612.000000	23.646359
1611.000000	23.581450
1610.000000	23.532321
1609.000000	23.462936
1608.000000	23.398251
1607.000000	23.340281
1606.000000	23.251982
1605.000000	23.180359
1604.000000	23.105043
1603.000000	23.042260
1602.000000	22.967839
1601.000000	22.881779
1600.000000	22.816646
1599.000000	22.734503
1598.000000	22.663663
1597.000000	22.591816
1596.000000	22.527579
1595.000000	22.461103
1594.000000	22.397649
1593.000000	22.319535
1592.000000	22.257536
1591.000000	22.206393
1590.000000	22.134210
1589.000000	22.096719
1588.000000	22.005064
1587.000000	21.954256
