PE UV       SUBTECH     SPECTRUM    ASCII       PEDS        4.00        
   -1
CICIMAUCR0098-3.Sample.ASC
24/04/18
13:56:50.00
24/04/18
13:56:50.00
Vinicio Soto Monge
C. cupreomarginata
250,000000
1
Lambda 1050
1050L1511233
PerkinElmer UV WinLab 6.3.2.0749 / 2.02.05 Lambda 900 UV/VIS/NIR, Aug  7 2015 09:38:08

0
0
3350/servo 860,8/2
0
0
UV/VIS
1
1
1
DoubleDePol,CommonBeamDepol,RBeamAtt,SBeamAtt,60mm sphere, WB InGaAs Detector
0
0
0
0
Program
Program
3350/servo 860,8/2
3350/0,2 860,8/0,2
3350/0,2 860,8/0,2
0
15.00
 
 
 
0
 
860,8
319,2
860,8
Front
100
on
S:100 R:100
0
0
0
0
 
0
 
 
 
0
 
 
0
0
0
0
0
 
 
 
 
0
0


0
0
#HDR
-1
-1
#GR
nm
%R
1.0
0.0
2500,000000
-1,000000
2251
8
63,481300
4,596200
#DATA
2482.000000	15.077225
2481.000000	15.065552
2480.000000	15.074383
2479.000000	15.074079
2478.000000	15.074180
2477.000000	15.129399
2476.000000	15.118639
2475.000000	15.168377
2474.000000	15.196290
2473.000000	15.231208
2472.000000	15.195681
2471.000000	15.235268
2470.000000	15.248261
2469.000000	15.296983
2468.000000	15.347025
2467.000000	15.392195
2466.000000	15.454316
2465.000000	15.480707
2464.000000	15.514305
2463.000000	15.565057
2462.000000	15.626468
2461.000000	15.687168
2460.000000	15.721882
2459.000000	15.830594
2458.000000	15.884899
2457.000000	15.956866
2456.000000	16.035228
2455.000000	16.106789
2454.000000	16.171752
2453.000000	16.300866
2452.000000	16.393946
2451.000000	16.468755
2450.000000	16.577974
2449.000000	16.663746
2448.000000	16.754897
2447.000000	16.861985
2446.000000	16.962170
2445.000000	17.072607
2444.000000	17.184770
2443.000000	17.286072
2442.000000	17.385445
2441.000000	17.494868
2440.000000	17.579421
2439.000000	17.669354
2438.000000	17.777863
2437.000000	17.892056
2436.000000	17.980162
2435.000000	18.049592
2434.000000	18.147442
2433.000000	18.227022
2432.000000	18.325076
2431.000000	18.403539
2430.000000	18.487991
2429.000000	18.556202
2428.000000	18.636797
2427.000000	18.716783
2426.000000	18.797987
2425.000000	18.856352
2424.000000	18.928623
2423.000000	19.021703
2422.000000	19.108186
2421.000000	19.186141
2420.000000	19.251409
2419.000000	19.318301
2418.000000	19.368545
2417.000000	19.419095
2416.000000	19.476648
2415.000000	19.535927
2414.000000	19.601601
2413.000000	19.646770
2412.000000	19.677222
2411.000000	19.723203
2410.000000	19.766241
2409.000000	19.801768
2408.000000	19.837295
2407.000000	19.875867
2406.000000	19.902258
2405.000000	19.938698
2404.000000	19.984172
2403.000000	20.007721
2402.000000	20.026195
2401.000000	20.051064
2400.000000	20.061215
2399.000000	20.084155
2398.000000	20.107298
2397.000000	20.119072
2396.000000	20.139779
2395.000000	20.151858
2394.000000	20.173986
2393.000000	20.175611
2392.000000	20.188197
2391.000000	20.200682
2390.000000	20.202306
2389.000000	20.217938
2388.000000	20.211645
2387.000000	20.215400
2386.000000	20.209615
2385.000000	20.196825
2384.000000	20.204336
2383.000000	20.214081
2382.000000	20.196927
2381.000000	20.168404
2380.000000	20.154599
2379.000000	20.140490
2378.000000	20.122929
2377.000000	20.105471
2376.000000	20.069944
2375.000000	20.055226
2374.000000	20.048323
2373.000000	20.009346
2372.000000	19.971789
2371.000000	19.947326
2370.000000	19.940728
2369.000000	19.927431
2368.000000	19.901141
2367.000000	19.867137
2366.000000	19.831712
2365.000000	19.802783
2364.000000	19.780148
2363.000000	19.759644
2362.000000	19.736196
2361.000000	19.710109
2360.000000	19.686763
2359.000000	19.661488
2358.000000	19.621597
2357.000000	19.593074
2356.000000	19.570642
2355.000000	19.546280
2354.000000	19.525573
2353.000000	19.506897
2352.000000	19.495528
2351.000000	19.487103
2350.000000	19.491265
2349.000000	19.484870
2348.000000	19.479389
2347.000000	19.475126
2346.000000	19.476242
2345.000000	19.469137
2344.000000	19.481926
2343.000000	19.481419
2342.000000	19.485276
2341.000000	19.504359
2340.000000	19.503344
2339.000000	19.483347
2338.000000	19.483956
2337.000000	19.479287
2336.000000	19.472283
2335.000000	19.476445
2334.000000	19.460813
2333.000000	19.460610
2332.000000	19.466802
2331.000000	19.456246
2330.000000	19.431681
2329.000000	19.416151
2328.000000	19.404580
2327.000000	19.393719
2326.000000	19.393211
2325.000000	19.376666
2324.000000	19.342966
2323.000000	19.304394
2322.000000	19.280947
2321.000000	19.244304
2320.000000	19.195480
2319.000000	19.156400
2318.000000	19.113870
2317.000000	19.043121
2316.000000	18.970037
2315.000000	18.891777
2314.000000	18.835747
2313.000000	18.758603
2312.000000	18.694858
2311.000000	18.633447
2310.000000	18.547879
2309.000000	18.505856
2308.000000	18.452566
2307.000000	18.391257
2306.000000	18.371565
2305.000000	18.343448
2304.000000	18.320508
2303.000000	18.311880
2302.000000	18.302745
2301.000000	18.309444
2300.000000	18.332283
2299.000000	18.346493
2298.000000	18.374610
2297.000000	18.403234
2296.000000	18.438254
2295.000000	18.475303
2294.000000	18.486265
2293.000000	18.515600
2292.000000	18.560770
2291.000000	18.595586
2290.000000	18.609797
2289.000000	18.630707
2288.000000	18.651109
2287.000000	18.690899
2286.000000	18.715869
2285.000000	18.721554
2284.000000	18.731501
2283.000000	18.751802
2282.000000	18.763881
2281.000000	18.753832
2280.000000	18.776569
2279.000000	18.785908
2278.000000	18.786618
2277.000000	18.787024
2276.000000	18.789562
2275.000000	18.784385
2274.000000	18.804585
2273.000000	18.820013
2272.000000	18.827322
2271.000000	18.854829
2270.000000	18.895330
2269.000000	18.926898
2268.000000	18.979071
2267.000000	19.066061
2266.000000	19.148280
2265.000000	19.223089
2264.000000	19.339820
2263.000000	19.447922
2262.000000	19.587187
2261.000000	19.746448
2260.000000	19.902359
2259.000000	20.068117
2258.000000	20.257017
2257.000000	20.433636
2256.000000	20.646593
2255.000000	20.822095
2254.000000	20.996582
2253.000000	21.197967
2252.000000	21.393060
2251.000000	21.576580
2250.000000	21.738481
2249.000000	21.902817
2248.000000	22.081465
2247.000000	22.228241
2246.000000	22.363852
2245.000000	22.463733
2244.000000	22.583711
2243.000000	22.694453
2242.000000	22.801135
2241.000000	22.890358
2240.000000	22.932584
2239.000000	23.024953
2238.000000	23.057942
2237.000000	23.116206
2236.000000	23.165639
2235.000000	23.188173
2234.000000	23.179443
2233.000000	23.186549
2232.000000	23.192538
2231.000000	23.172440
2230.000000	23.151124
2229.000000	23.130721
2228.000000	23.091845
2227.000000	23.050735
2226.000000	23.003942
2225.000000	22.955625
2224.000000	22.903046
2223.000000	22.859399
2222.000000	22.780935
2221.000000	22.716175
2220.000000	22.625836
2219.000000	22.564426
2218.000000	22.487282
2217.000000	22.403236
2216.000000	22.336243
2215.000000	22.261332
2214.000000	22.197181
2213.000000	22.139831
2212.000000	22.047055
2211.000000	21.975190
2210.000000	21.927280
2209.000000	21.890332
2208.000000	21.830952
2207.000000	21.748834
2206.000000	21.700822
2205.000000	21.676563
2204.000000	21.641746
2203.000000	21.605103
2202.000000	21.574652
2201.000000	21.509790
2200.000000	21.503395
2199.000000	21.470812
2198.000000	21.433763
2197.000000	21.422496
2196.000000	21.407778
2195.000000	21.390217
2194.000000	21.359157
2193.000000	21.343627
2192.000000	21.340988
2191.000000	21.315104
2190.000000	21.312160
2189.000000	21.289017
2188.000000	21.276126
2187.000000	21.256333
2186.000000	21.250141
2185.000000	21.248111
2184.000000	21.229434
2183.000000	21.202231
2182.000000	21.186193
2181.000000	21.182133
2180.000000	21.176753
2179.000000	21.153711
2178.000000	21.129858
2177.000000	21.123564
2176.000000	21.141023
2175.000000	21.128436
2174.000000	21.141328
2173.000000	21.146301
2172.000000	21.160715
2171.000000	21.173606
2170.000000	21.198373
2169.000000	21.213904
2168.000000	21.242426
2167.000000	21.272167
2166.000000	21.302314
2165.000000	21.351849
2164.000000	21.398439
2163.000000	21.445639
2162.000000	21.486546
2161.000000	21.546332
2160.000000	21.600434
2159.000000	21.677882
2158.000000	21.747921
2157.000000	21.824557
2156.000000	21.893479
2155.000000	21.986457
2154.000000	22.062890
2153.000000	22.160538
2152.000000	22.266407
2151.000000	22.365679
2150.000000	22.455409
2149.000000	22.541485
2148.000000	22.659840
2147.000000	22.756067
2146.000000	22.859805
2145.000000	22.959279
2144.000000	23.055810
2143.000000	23.129198
2142.000000	23.232835
2141.000000	23.338400
2140.000000	23.422344
2139.000000	23.525270
2138.000000	23.623933
2137.000000	23.708893
2136.000000	23.795781
2135.000000	23.890688
2134.000000	23.967832
2133.000000	24.037159
2132.000000	24.116739
2131.000000	24.194187
2130.000000	24.248391
2129.000000	24.310106
2128.000000	24.371922
2127.000000	24.425009
2126.000000	24.478502
2125.000000	24.527123
2124.000000	24.563157
2123.000000	24.598989
2122.000000	24.646087
2121.000000	24.683035
2120.000000	24.711355
2119.000000	24.746780
2118.000000	24.765558
2117.000000	24.785047
2116.000000	24.806465
2115.000000	24.802607
2114.000000	24.816108
2113.000000	24.829506
2112.000000	24.843006
2111.000000	24.843818
2110.000000	24.851330
2109.000000	24.865642
2108.000000	24.855085
2107.000000	24.842296
2106.000000	24.848589
2105.000000	24.855288
2104.000000	24.854984
2103.000000	24.850112
2102.000000	24.838439
2101.000000	24.824634
2100.000000	24.819559
2099.000000	24.821183
2098.000000	24.830318
2097.000000	24.819254
2096.000000	24.804231
2095.000000	24.814585
2094.000000	24.806769
2093.000000	24.795096
2092.000000	24.796416
2091.000000	24.799765
2090.000000	24.805957
2089.000000	24.802506
2088.000000	24.788803
2087.000000	24.787382
2086.000000	24.776825
2085.000000	24.750535
2084.000000	24.731148
2083.000000	24.699986
2082.000000	24.660298
2081.000000	24.611677
2080.000000	24.551180
2079.000000	24.491292
2078.000000	24.430186
2077.000000	24.370603
2076.000000	24.287876
2075.000000	24.194086
2074.000000	24.102122
2073.000000	24.013306
2072.000000	23.907538
2071.000000	23.803800
2070.000000	23.706051
2069.000000	23.608910
2068.000000	23.483450
2067.000000	23.372912
2066.000000	23.277396
2065.000000	23.171729
2064.000000	23.061089
2063.000000	22.938166
2062.000000	22.855744
2061.000000	22.795146
2060.000000	22.718104
2059.000000	22.636189
2058.000000	22.590512
2057.000000	22.547576
2056.000000	22.511338
2055.000000	22.521083
2054.000000	22.530624
2053.000000	22.541384
2052.000000	22.598531
2051.000000	22.664509
2050.000000	22.763477
2049.000000	22.868027
2048.000000	22.973693
2047.000000	23.110319
2046.000000	23.258110
2045.000000	23.408743
2044.000000	23.558868
2043.000000	23.713968
2042.000000	23.870184
2041.000000	24.024065
2040.000000	24.195101
2039.000000	24.352738
2038.000000	24.495657
2037.000000	24.622436
2036.000000	24.771344
2035.000000	24.911116
2034.000000	25.027339
2033.000000	25.141025
2032.000000	25.268515
2031.000000	25.369309
2030.000000	25.454776
2029.000000	25.557905
2028.000000	25.642458
2027.000000	25.740512
2026.000000	25.801314
2025.000000	25.883329
2024.000000	25.950627
2023.000000	26.034064
2022.000000	26.090196
2021.000000	26.139020
2020.000000	26.192412
2019.000000	26.231593
2018.000000	26.297875
2017.000000	26.334721
2016.000000	26.347816
2015.000000	26.375831
2014.000000	26.411662
2013.000000	26.432166
2012.000000	26.447493
2011.000000	26.454903
2010.000000	26.473986
2009.000000	26.463937
2008.000000	26.459268
2007.000000	26.445057
2006.000000	26.440591
2005.000000	26.429019
2004.000000	26.404354
2003.000000	26.370045
2002.000000	26.324469
2001.000000	26.297368
2000.000000	26.250472
1999.000000	26.182261
1998.000000	26.137701
1997.000000	26.091922
1996.000000	26.040763
1995.000000	25.964330
1994.000000	25.900484
1993.000000	25.833186
1992.000000	25.770050
1991.000000	25.692805
1990.000000	25.619721
1989.000000	25.546739
1988.000000	25.464622
1987.000000	25.361290
1986.000000	25.282218
1985.000000	25.204161
1984.000000	25.112197
1983.000000	25.027948
1982.000000	24.965523
1981.000000	24.862394
1980.000000	24.794487
1979.000000	24.700189
1978.000000	24.610560
1977.000000	24.542247
1976.000000	24.457795
1975.000000	24.395370
1974.000000	24.306046
1973.000000	24.238646
1972.000000	24.173074
1971.000000	24.107705
1970.000000	24.008738
1969.000000	23.937380
1968.000000	23.853131
1967.000000	23.815168
1966.000000	23.758427
1965.000000	23.654588
1964.000000	23.620482
1963.000000	23.532173
1962.000000	23.459901
1961.000000	23.389254
1960.000000	23.314546
1959.000000	23.222278
1958.000000	23.151428
1957.000000	23.100676
1956.000000	23.009220
1955.000000	22.929437
1954.000000	22.844985
1953.000000	22.767638
1952.000000	22.661363
1951.000000	22.617817
1950.000000	22.550925
1949.000000	22.509613
1948.000000	22.444244
1947.000000	22.381514
1946.000000	22.318276
1945.000000	22.282750
1944.000000	22.240422
1943.000000	22.185711
1942.000000	22.184696
1941.000000	22.175865
1940.000000	22.155158
1939.000000	22.141049
1938.000000	22.125011
1937.000000	22.122575
1936.000000	22.145515
1935.000000	22.149271
1934.000000	22.193730
1933.000000	22.241843
1932.000000	22.317870
1931.000000	22.380803
1930.000000	22.448507
1929.000000	22.536715
1928.000000	22.643904
1927.000000	22.732213
1926.000000	22.826207
1925.000000	22.966689
1924.000000	23.128285
1923.000000	23.263185
1922.000000	23.411686
1921.000000	23.594294
1920.000000	23.784920
1919.000000	23.980317
1918.000000	24.179774
1917.000000	24.387250
1916.000000	24.610459
1915.000000	24.853867
1914.000000	25.129656
1913.000000	25.414377
1912.000000	25.700621
1911.000000	25.965751
1910.000000	26.271585
1909.000000	26.562194
1908.000000	26.875336
1907.000000	27.249686
1906.000000	27.675194
1905.000000	28.104560
1904.000000	28.489872
1903.000000	28.881377
1902.000000	29.332667
1901.000000	29.743559
1900.000000	30.198402
1899.000000	30.700648
1898.000000	31.162089
1897.000000	31.645861
1896.000000	32.076445
1895.000000	32.514641
1894.000000	32.988567
1893.000000	33.493757
1892.000000	34.009807
1891.000000	34.533572
1890.000000	35.016532
1889.000000	35.452293
1888.000000	35.913328
1887.000000	36.346855
1886.000000	36.784036
1885.000000	37.217360
1884.000000	37.655151
1883.000000	38.052948
1882.000000	38.420396
1881.000000	38.760945
1880.000000	39.071752
1879.000000	39.377485
1878.000000	39.671139
1877.000000	39.940837
1876.000000	40.206374
1875.000000	40.467241
1874.000000	40.725368
1873.000000	40.949186
1872.000000	41.161534
1871.000000	41.351856
1870.000000	41.474575
1869.000000	41.600847
1868.000000	41.737879
1867.000000	41.817560
1866.000000	41.866485
1865.000000	41.922211
1864.000000	41.991539
1863.000000	42.059548
1862.000000	42.142376
1861.000000	42.243677
1860.000000	42.328332
1859.000000	42.384160
1858.000000	42.428112
1857.000000	42.461202
1856.000000	42.480793
1855.000000	42.509011
1854.000000	42.548902
1853.000000	42.535301
1852.000000	42.519365
1851.000000	42.566970
1850.000000	42.617317
1849.000000	42.663907
1848.000000	42.676189
1847.000000	42.656904
1846.000000	42.599553
1845.000000	42.539158
1844.000000	42.496830
1843.000000	42.521090
1842.000000	42.567275
1841.000000	42.565549
1840.000000	42.538955
1839.000000	42.504849
1838.000000	42.470033
1837.000000	42.448920
1836.000000	42.394818
1835.000000	42.319603
1834.000000	42.255452
1833.000000	42.206324
1832.000000	42.170391
1831.000000	42.147755
1830.000000	42.123902
1829.000000	42.084010
1828.000000	42.034273
1827.000000	41.993671
1826.000000	41.972152
1825.000000	41.927896
1824.000000	41.905159
1823.000000	41.929317
1822.000000	41.958956
1821.000000	41.986058
1820.000000	41.976415
1819.000000	41.899982
1818.000000	41.860598
1817.000000	41.875215
1816.000000	41.893587
1815.000000	41.870647
1814.000000	41.835222
1813.000000	41.838673
1812.000000	41.841820
1811.000000	41.814616
1810.000000	41.761225
1809.000000	41.729454
1808.000000	41.718187
1807.000000	41.713822
1806.000000	41.696972
1805.000000	41.650788
1804.000000	41.609577
1803.000000	41.599426
1802.000000	41.594757
1801.000000	41.571817
1800.000000	41.522384
1799.000000	41.491323
1798.000000	41.472850
1797.000000	41.449503
1796.000000	41.430319
1795.000000	41.416413
1794.000000	41.399563
1793.000000	41.368604
1792.000000	41.348811
1791.000000	41.335920
1790.000000	41.314096
1789.000000	41.296231
1788.000000	41.284355
1787.000000	41.286487
1786.000000	41.267708
1785.000000	41.252483
1784.000000	41.229441
1783.000000	41.199192
1782.000000	41.182241
1781.000000	41.177166
1780.000000	41.137884
1779.000000	41.100124
1778.000000	41.066932
1777.000000	41.001563
1776.000000	40.945024
1775.000000	40.903204
1774.000000	40.847377
1773.000000	40.784139
1772.000000	40.723338
1771.000000	40.658984
1770.000000	40.588235
1769.000000	40.539919
1768.000000	40.472722
1767.000000	40.416895
1766.000000	40.382383
1765.000000	40.330006
1764.000000	40.285141
1763.000000	40.260679
1762.000000	40.242915
1761.000000	40.219874
1760.000000	40.210129
1759.000000	40.186174
1758.000000	40.169324
1757.000000	40.153896
1756.000000	40.142933
1755.000000	40.127707
1754.000000	40.109335
1753.000000	40.074011
1752.000000	40.052898
1751.000000	40.014732
1750.000000	39.976567
1749.000000	39.911299
1748.000000	39.852528
1747.000000	39.793553
1746.000000	39.704229
1745.000000	39.637033
1744.000000	39.562224
1743.000000	39.465693
1742.000000	39.385301
1741.000000	39.290800
1740.000000	39.190919
1739.000000	39.108396
1738.000000	39.023335
1737.000000	38.964056
1736.000000	38.914420
1735.000000	38.890363
1734.000000	38.866611
1733.000000	38.860825
1732.000000	38.840524
1731.000000	38.841235
1730.000000	38.841235
1729.000000	38.851182
1728.000000	38.847528
1727.000000	38.845600
1726.000000	38.856562
1725.000000	38.855446
1724.000000	38.875036
1723.000000	38.906300
1722.000000	38.974917
1721.000000	39.049117
1720.000000	39.164832
1719.000000	39.310796
1718.000000	39.458790
1717.000000	39.622721
1716.000000	39.772745
1715.000000	39.940735
1714.000000	40.079594
1713.000000	40.213783
1712.000000	40.309909
1711.000000	40.425015
1710.000000	40.494241
1709.000000	40.564483
1708.000000	40.635739
1707.000000	40.675935
1706.000000	40.710548
1705.000000	40.706386
1704.000000	40.713086
1703.000000	40.698977
1702.000000	40.675021
1701.000000	40.612596
1700.000000	40.582855
1699.000000	40.553520
1698.000000	40.524896
1697.000000	40.522358
1696.000000	40.474042
1695.000000	40.469373
1694.000000	40.468256
1693.000000	40.447752
1692.000000	40.459324
1691.000000	40.456786
1690.000000	40.443184
1689.000000	40.484700
1688.000000	40.513223
1687.000000	40.603258
1686.000000	40.722932
1685.000000	40.890212
1684.000000	41.082056
1683.000000	41.274205
1682.000000	41.520557
1681.000000	41.773202
1680.000000	42.021483
1679.000000	42.284990
1678.000000	42.517639
1677.000000	42.766427
1676.000000	42.984561
1675.000000	43.189296
1674.000000	43.375964
1673.000000	43.568011
1672.000000	43.768280
1671.000000	43.947030
1670.000000	44.142427
1669.000000	44.317523
1668.000000	44.482570
1667.000000	44.670557
1666.000000	44.823626
1665.000000	44.959947
1664.000000	45.088351
1663.000000	45.211374
1662.000000	45.331759
1661.000000	45.429508
1660.000000	45.555374
1659.000000	45.634345
1658.000000	45.703064
1657.000000	45.762647
1656.000000	45.830859
1655.000000	45.868923
1654.000000	45.924852
1653.000000	45.937033
1652.000000	45.942412
1651.000000	45.966266
1650.000000	45.970732
1649.000000	45.985755
1648.000000	45.957638
1647.000000	45.941905
1646.000000	45.950736
1645.000000	45.938758
1644.000000	45.914905
1643.000000	45.908307
1642.000000	45.896735
1641.000000	45.878160
1640.000000	45.861716
1639.000000	45.870344
1638.000000	45.847099
1637.000000	45.835122
1636.000000	45.814212
1635.000000	45.803554
1634.000000	45.782035
1633.000000	45.753106
1632.000000	45.715448
1631.000000	45.686113
1630.000000	45.655560
1629.000000	45.618612
1628.000000	45.547863
1627.000000	45.505434
1626.000000	45.483813
1625.000000	45.442501
1624.000000	45.412659
1623.000000	45.367996
1622.000000	45.347594
1621.000000	45.316635
1620.000000	45.293187
1619.000000	45.269537
1618.000000	45.222946
1617.000000	45.198889
1616.000000	45.180213
1615.000000	45.130069
1614.000000	45.111291
1613.000000	45.078200
1612.000000	45.029376
1611.000000	44.986643
1610.000000	44.936499
1609.000000	44.887980
1608.000000	44.834792
1607.000000	44.791550
