PE UV       SUBTECH     SPECTRUM    ASCII       PEDS        4.00        
   -1
CICIMAUCR0113-2.Sample.ASC
24/04/18
15:37:48.00
24/04/18
15:37:48.00
Vinicio Soto Monge
C. kalinini
250,000000
1
Lambda 1050
1050L1511233
PerkinElmer UV WinLab 6.3.2.0749 / 2.02.05 Lambda 900 UV/VIS/NIR, Aug  7 2015 09:38:08

0
0
3350/servo 860,8/2
0
0
UV/VIS
1
1
1
DoubleDePol,CommonBeamDepol,RBeamAtt,SBeamAtt,60mm sphere, WB InGaAs Detector
0
0
0
0
Program
Program
3350/servo 860,8/2
3350/0,2 860,8/0,2
3350/0,2 860,8/0,2
0
15.00
 
 
 
0
 
860,8
319,2
860,8
Front
100
on
S:100 R:100
0
0
0
0
 
0
 
 
 
0
 
 
0
0
0
0
0
 
 
 
 
0
0


0
0
#HDR
-1
-1
#GR
nm
%R
1.0
0.0
2500,000000
-1,000000
2251
8
36,527000
2,130400
#DATA
2482.000000	6.435360
2481.000000	6.492209
2480.000000	6.485103
2479.000000	6.494183
2478.000000	6.508868
2477.000000	6.526555
2476.000000	6.546768
2475.000000	6.532161
2474.000000	6.547873
2473.000000	6.563270
2472.000000	6.593036
2471.000000	6.588220
2470.000000	6.640568
2469.000000	6.680125
2468.000000	6.681705
2467.000000	6.719525
2466.000000	6.755371
2465.000000	6.800929
2464.000000	6.826274
2463.000000	6.868832
2462.000000	6.923549
2461.000000	6.959474
2460.000000	7.005427
2459.000000	7.071040
2458.000000	7.118808
2457.000000	7.158997
2456.000000	7.205661
2455.000000	7.272300
2454.000000	7.311936
2453.000000	7.371943
2452.000000	7.439056
2451.000000	7.493931
2450.000000	7.542253
2449.000000	7.585126
2448.000000	7.648923
2447.000000	7.698113
2446.000000	7.726380
2445.000000	7.776280
2444.000000	7.840235
2443.000000	7.894636
2442.000000	7.940352
2441.000000	7.980620
2440.000000	8.031310
2439.000000	8.092028
2438.000000	8.150929
2437.000000	8.190724
2436.000000	8.231544
2435.000000	8.278602
2434.000000	8.316028
2433.000000	8.376509
2432.000000	8.407538
2431.000000	8.443701
2430.000000	8.481995
2429.000000	8.536238
2428.000000	8.580296
2427.000000	8.613457
2426.000000	8.646066
2425.000000	8.682386
2424.000000	8.732682
2423.000000	8.757553
2422.000000	8.792215
2421.000000	8.808401
2420.000000	8.814402
2419.000000	8.811165
2418.000000	8.829404
2417.000000	8.847643
2416.000000	8.870698
2415.000000	8.890437
2414.000000	8.914045
2413.000000	8.937495
2412.000000	8.938206
2411.000000	8.940259
2410.000000	8.960709
2409.000000	8.977921
2408.000000	8.986054
2407.000000	8.993239
2406.000000	9.005161
2405.000000	9.016294
2404.000000	9.026322
2403.000000	9.032006
2402.000000	9.042350
2401.000000	9.044245
2400.000000	9.041007
2399.000000	9.066432
2398.000000	9.074722
2397.000000	9.063984
2396.000000	9.063826
2395.000000	9.068169
2394.000000	9.070379
2393.000000	9.077880
2392.000000	9.077328
2391.000000	9.058220
2390.000000	9.052219
2389.000000	9.062484
2388.000000	9.044718
2387.000000	9.045271
2386.000000	9.038323
2385.000000	9.030980
2384.000000	9.006898
2383.000000	8.984632
2382.000000	8.989923
2381.000000	8.971289
2380.000000	8.947602
2379.000000	8.938917
2378.000000	8.936706
2377.000000	8.918467
2376.000000	8.885858
2375.000000	8.870145
2374.000000	8.853959
2373.000000	8.834141
2372.000000	8.810691
2371.000000	8.800821
2370.000000	8.772002
2369.000000	8.742630
2368.000000	8.732682
2367.000000	8.711206
2366.000000	8.672754
2365.000000	8.639039
2364.000000	8.608720
2363.000000	8.593323
2362.000000	8.572953
2361.000000	8.548397
2360.000000	8.521947
2359.000000	8.495812
2358.000000	8.474494
2357.000000	8.447491
2356.000000	8.430278
2355.000000	8.406591
2354.000000	8.392853
2353.000000	8.390563
2352.000000	8.384167
2351.000000	8.357796
2350.000000	8.343505
2349.000000	8.351795
2348.000000	8.355269
2347.000000	8.346189
2346.000000	8.343820
2345.000000	8.339873
2344.000000	8.333398
2343.000000	8.324950
2342.000000	8.314449
2341.000000	8.294473
2340.000000	8.282155
2339.000000	8.268575
2338.000000	8.252389
2337.000000	8.252231
2336.000000	8.227280
2335.000000	8.203357
2334.000000	8.191987
2333.000000	8.166879
2332.000000	8.136480
2331.000000	8.126374
2330.000000	8.111925
2329.000000	8.109793
2328.000000	8.080658
2327.000000	8.055155
2326.000000	8.048128
2325.000000	8.025388
2324.000000	8.025704
2323.000000	7.997438
2322.000000	7.971382
2321.000000	7.956380
2320.000000	7.925982
2319.000000	7.911454
2318.000000	7.869528
2317.000000	7.856421
2316.000000	7.837551
2315.000000	7.824602
2314.000000	7.787097
2313.000000	7.774385
2312.000000	7.779596
2311.000000	7.762542
2310.000000	7.750619
2309.000000	7.752988
2308.000000	7.743592
2307.000000	7.748330
2306.000000	7.772411
2305.000000	7.813074
2304.000000	7.808416
2303.000000	7.851921
2302.000000	7.869291
2301.000000	7.892583
2300.000000	7.925271
2299.000000	7.957880
2298.000000	7.992306
2297.000000	8.003912
2296.000000	8.033442
2295.000000	8.035179
2294.000000	8.040390
2293.000000	8.061787
2292.000000	8.082553
2291.000000	8.082237
2290.000000	8.061235
2289.000000	8.065025
2288.000000	8.056576
2287.000000	8.026968
2286.000000	8.002570
2285.000000	7.984568
2284.000000	7.979515
2283.000000	7.933088
2282.000000	7.906559
2281.000000	7.879398
2280.000000	7.875450
2279.000000	7.827444
2278.000000	7.790808
2277.000000	7.759778
2276.000000	7.758436
2275.000000	7.716589
2274.000000	7.706404
2273.000000	7.705535
2272.000000	7.710825
2271.000000	7.717931
2270.000000	7.705614
2269.000000	7.732459
2268.000000	7.765621
2267.000000	7.813153
2266.000000	7.840630
2265.000000	7.918560
2264.000000	7.996490
2263.000000	8.064551
2262.000000	8.125979
2261.000000	8.219385
2260.000000	8.297315
2259.000000	8.396327
2258.000000	8.472915
2257.000000	8.582191
2256.000000	8.679465
2255.000000	8.781477
2254.000000	8.876462
2253.000000	8.952655
2252.000000	9.046534
2251.000000	9.123280
2250.000000	9.235715
2249.000000	9.273772
2248.000000	9.360782
2247.000000	9.443449
2246.000000	9.524775
2245.000000	9.581781
2244.000000	9.616917
2243.000000	9.685609
2242.000000	9.736457
2241.000000	9.805150
2240.000000	9.853550
2239.000000	9.888607
2238.000000	9.931322
2237.000000	9.979881
2236.000000	10.005700
2235.000000	10.048415
2234.000000	10.049047
2233.000000	10.074708
2232.000000	10.102658
2231.000000	10.143479
2230.000000	10.168271
2229.000000	10.164481
2228.000000	10.166929
2227.000000	10.158323
2226.000000	10.172851
2225.000000	10.189826
2224.000000	10.196932
2223.000000	10.212013
2222.000000	10.195590
2221.000000	10.203881
2220.000000	10.173640
2219.000000	10.184931
2218.000000	10.120502
2217.000000	10.143084
2216.000000	10.121450
2215.000000	10.115291
2214.000000	10.095394
2213.000000	10.089473
2212.000000	10.073839
2211.000000	10.065786
2210.000000	10.059469
2209.000000	10.033255
2208.000000	10.029544
2207.000000	10.011148
2206.000000	9.987776
2205.000000	9.988171
2204.000000	9.973248
2203.000000	9.955957
2202.000000	9.934165
2201.000000	9.911267
2200.000000	9.920584
2199.000000	9.904872
2198.000000	9.890739
2197.000000	9.891291
2196.000000	9.866973
2195.000000	9.834127
2194.000000	9.835311
2193.000000	9.826863
2192.000000	9.816046
2191.000000	9.826231
2190.000000	9.803492
2189.000000	9.800965
2188.000000	9.785095
2187.000000	9.792122
2186.000000	9.755407
2185.000000	9.757302
2184.000000	9.763934
2183.000000	9.775383
2182.000000	9.755723
2181.000000	9.753986
2180.000000	9.729825
2179.000000	9.710007
2178.000000	9.710639
2177.000000	9.738826
2176.000000	9.736931
2175.000000	9.725009
2174.000000	9.714902
2173.000000	9.720587
2172.000000	9.737958
2171.000000	9.742695
2170.000000	9.735905
2169.000000	9.724456
2168.000000	9.727930
2167.000000	9.762908
2166.000000	9.762434
2165.000000	9.768356
2164.000000	9.765592
2163.000000	9.784068
2162.000000	9.784226
2161.000000	9.776331
2160.000000	9.777673
2159.000000	9.801912
2158.000000	9.806650
2157.000000	9.807755
2156.000000	9.796386
2155.000000	9.805623
2154.000000	9.816756
2153.000000	9.824810
2152.000000	9.828916
2151.000000	9.837601
2150.000000	9.833337
2149.000000	9.840917
2148.000000	9.842575
2147.000000	9.834206
2146.000000	9.842338
2145.000000	9.844549
2144.000000	9.841707
2143.000000	9.841786
2142.000000	9.858051
2141.000000	9.857972
2140.000000	9.847155
2139.000000	9.838785
2138.000000	9.827573
2137.000000	9.826942
2136.000000	9.808308
2135.000000	9.768040
2134.000000	9.760381
2133.000000	9.755091
2132.000000	9.732746
2131.000000	9.686320
2130.000000	9.664765
2129.000000	9.665318
2128.000000	9.641394
2127.000000	9.605074
2126.000000	9.586598
2125.000000	9.558884
2124.000000	9.514274
2123.000000	9.493982
2122.000000	9.469505
2121.000000	9.432948
2120.000000	9.409419
2119.000000	9.379337
2118.000000	9.356123
2117.000000	9.330699
2116.000000	9.287273
2115.000000	9.276614
2114.000000	9.249769
2113.000000	9.222766
2112.000000	9.201447
2111.000000	9.163390
2110.000000	9.143019
2109.000000	9.114832
2108.000000	9.092092
2107.000000	9.076933
2106.000000	9.051509
2105.000000	9.022058
2104.000000	9.002871
2103.000000	8.986212
2102.000000	8.983053
2101.000000	8.980211
2100.000000	8.963709
2099.000000	8.939469
2098.000000	8.917677
2097.000000	8.926757
2096.000000	8.930547
2095.000000	8.910413
2094.000000	8.899201
2093.000000	8.901965
2092.000000	8.898175
2091.000000	8.893990
2090.000000	8.893438
2089.000000	8.872356
2088.000000	8.862408
2087.000000	8.874883
2086.000000	8.861065
2085.000000	8.849222
2084.000000	8.840142
2083.000000	8.834062
2082.000000	8.833509
2081.000000	8.841958
2080.000000	8.831378
2079.000000	8.818429
2078.000000	8.823877
2077.000000	8.801532
2076.000000	8.794031
2075.000000	8.797268
2074.000000	8.777608
2073.000000	8.780766
2072.000000	8.778871
2071.000000	8.765844
2070.000000	8.765370
2069.000000	8.763475
2068.000000	8.749736
2067.000000	8.752421
2066.000000	8.761264
2065.000000	8.764107
2064.000000	8.763080
2063.000000	8.758264
2062.000000	8.751868
2061.000000	8.747763
2060.000000	8.767897
2059.000000	8.769949
2058.000000	8.784162
2057.000000	8.799874
2056.000000	8.795373
2055.000000	8.816850
2054.000000	8.852933
2053.000000	8.878752
2052.000000	8.900781
2051.000000	8.938206
2050.000000	8.973184
2049.000000	9.014873
2048.000000	9.066668
2047.000000	9.120675
2046.000000	9.174523
2045.000000	9.246611
2044.000000	9.287984
2043.000000	9.343490
2042.000000	9.404919
2041.000000	9.447476
2040.000000	9.490271
2039.000000	9.550751
2038.000000	9.599389
2037.000000	9.649052
2036.000000	9.709691
2035.000000	9.756591
2034.000000	9.795359
2033.000000	9.838154
2032.000000	9.878421
2031.000000	9.921611
2030.000000	9.952167
2029.000000	9.974749
2028.000000	9.991566
2027.000000	10.018254
2026.000000	10.055837
2025.000000	10.075181
2024.000000	10.095789
2023.000000	10.121766
2022.000000	10.155954
2021.000000	10.183510
2020.000000	10.176088
2019.000000	10.187458
2018.000000	10.220935
2017.000000	10.231437
2016.000000	10.254097
2015.000000	10.263098
2014.000000	10.233016
2013.000000	10.243675
2012.000000	10.256545
2011.000000	10.253939
2010.000000	10.252676
2009.000000	10.221330
2008.000000	10.224567
2007.000000	10.214461
2006.000000	10.198038
2005.000000	10.187695
2004.000000	10.164560
2003.000000	10.153822
2002.000000	10.151217
2001.000000	10.103527
2000.000000	10.076997
1999.000000	10.066101
1998.000000	10.038861
1997.000000	10.007673
1996.000000	9.960931
1995.000000	9.924137
1994.000000	9.892555
1993.000000	9.862314
1992.000000	9.834443
1991.000000	9.796938
1990.000000	9.764092
1989.000000	9.740642
1988.000000	9.678266
1987.000000	9.627339
1986.000000	9.566622
1985.000000	9.534565
1984.000000	9.504878
1983.000000	9.467610
1982.000000	9.421894
1981.000000	9.379810
1980.000000	9.343332
1979.000000	9.277325
1978.000000	9.234925
1977.000000	9.211870
1976.000000	9.139545
1975.000000	9.110331
1974.000000	9.070379
1973.000000	9.043613
1972.000000	8.990791
1971.000000	8.948865
1970.000000	8.935600
1969.000000	8.866355
1968.000000	8.818350
1967.000000	8.782661
1966.000000	8.756922
1965.000000	8.724312
1964.000000	8.696599
1963.000000	8.665332
1962.000000	8.619379
1961.000000	8.579585
1960.000000	8.535764
1959.000000	8.479626
1958.000000	8.462019
1957.000000	8.425383
1956.000000	8.388036
1955.000000	8.354716
1954.000000	8.306000
1953.000000	8.256968
1952.000000	8.221675
1951.000000	8.213068
1950.000000	8.186934
1949.000000	8.155193
1948.000000	8.118399
1947.000000	8.100397
1946.000000	8.075842
1945.000000	8.059656
1944.000000	8.033442
1943.000000	8.023809
1942.000000	8.017888
1941.000000	8.036916
1940.000000	8.055708
1939.000000	8.048444
1938.000000	8.017019
1937.000000	8.012282
1936.000000	8.005807
1935.000000	8.004149
1934.000000	8.015361
1933.000000	8.036758
1932.000000	8.075289
1931.000000	8.126374
1930.000000	8.170195
1929.000000	8.199172
1928.000000	8.227044
1927.000000	8.255863
1926.000000	8.300552
1925.000000	8.324002
1924.000000	8.356217
1923.000000	8.488390
1922.000000	8.594192
1921.000000	8.641013
1920.000000	8.657594
1919.000000	8.697309
1918.000000	8.761422
1917.000000	8.835325
1916.000000	8.984553
1915.000000	9.154942
1914.000000	9.255138
1913.000000	9.323751
1912.000000	9.412262
1911.000000	9.484428
1910.000000	9.591572
1909.000000	9.770330
1908.000000	9.955009
1907.000000	10.123582
1906.000000	10.285443
1905.000000	10.424801
1904.000000	10.558949
1903.000000	10.680937
1902.000000	10.874301
1901.000000	11.101460
1900.000000	11.259452
1899.000000	11.370781
1898.000000	11.491032
1897.000000	11.634654
1896.000000	11.805437
1895.000000	12.042465
1894.000000	12.256042
1893.000000	12.450749
1892.000000	12.635903
1891.000000	12.812529
1890.000000	12.970995
1889.000000	13.124249
1888.000000	13.302376
1887.000000	13.498583
1886.000000	13.711687
1885.000000	13.908447
1884.000000	14.071255
1883.000000	14.243223
1882.000000	14.438404
1881.000000	14.609739
1880.000000	14.813842
1879.000000	15.038158
1878.000000	15.231049
1877.000000	15.417703
1876.000000	15.619358
1875.000000	15.813354
1874.000000	15.974505
1873.000000	16.128470
1872.000000	16.246510
1871.000000	16.309044
1870.000000	16.285673
1869.000000	16.255274
1868.000000	16.214296
1867.000000	16.165975
1866.000000	16.188398
1865.000000	16.185872
1864.000000	16.187135
1863.000000	16.251406
1862.000000	16.318282
1861.000000	16.375210
1860.000000	16.408213
1859.000000	16.415872
1858.000000	16.389027
1857.000000	16.360761
1856.000000	16.387053
1855.000000	16.384211
1854.000000	16.311334
1853.000000	16.253379
1852.000000	16.218718
1851.000000	16.223376
1850.000000	16.308175
1849.000000	16.396686
1848.000000	16.331626
1847.000000	16.172844
1846.000000	16.037986
1845.000000	15.983032
1844.000000	16.040355
1843.000000	16.128628
1842.000000	16.131155
1841.000000	16.057646
1840.000000	16.018957
1839.000000	16.027800
1838.000000	16.031353
1837.000000	15.973794
1836.000000	15.860807
1835.000000	15.731397
1834.000000	15.657099
1833.000000	15.656704
1832.000000	15.675496
1831.000000	15.661836
1830.000000	15.600724
1829.000000	15.546244
1828.000000	15.508819
1827.000000	15.472972
1826.000000	15.398832
1825.000000	15.338272
1824.000000	15.322718
1823.000000	15.387225
1822.000000	15.466419
1821.000000	15.434441
1820.000000	15.347984
1819.000000	15.274949
1818.000000	15.275028
1817.000000	15.317586
1816.000000	15.293741
1815.000000	15.253552
1814.000000	15.243603
1813.000000	15.258763
1812.000000	15.277712
1811.000000	15.244393
1810.000000	15.193387
1809.000000	15.169226
1808.000000	15.171990
1807.000000	15.175858
1806.000000	15.140170
1805.000000	15.106298
1804.000000	15.081663
1803.000000	15.090269
1802.000000	15.089006
1801.000000	15.054818
1800.000000	15.018498
1799.000000	14.995679
1798.000000	14.990468
1797.000000	14.962518
1796.000000	14.945463
1795.000000	14.914512
1794.000000	14.881508
1793.000000	14.875823
1792.000000	14.859953
1791.000000	14.838872
1790.000000	14.830344
1789.000000	14.803183
1788.000000	14.789287
1787.000000	14.774443
1786.000000	14.762363
1785.000000	14.716410
1784.000000	14.704487
1783.000000	14.660509
1782.000000	14.632795
1781.000000	14.623320
1780.000000	14.594738
1779.000000	14.561023
1778.000000	14.517439
1777.000000	14.479698
1776.000000	14.431929
1775.000000	14.388819
1774.000000	14.338444
1773.000000	14.286965
1772.000000	14.226089
1771.000000	14.169398
1770.000000	14.117524
1769.000000	14.069992
1768.000000	14.030119
1767.000000	13.980613
1766.000000	13.937740
1765.000000	13.916026
1764.000000	13.895893
1763.000000	13.885786
1762.000000	13.898024
1761.000000	13.897945
1760.000000	13.907736
1759.000000	13.923369
1758.000000	13.947609
1757.000000	13.962690
1756.000000	13.971454
1755.000000	13.981955
1754.000000	13.973586
1753.000000	13.973112
1752.000000	13.969954
1751.000000	13.961900
1750.000000	13.922343
1749.000000	13.899761
1748.000000	13.862020
1747.000000	13.821279
1746.000000	13.773352
1745.000000	13.712239
1744.000000	13.644968
1743.000000	13.585514
1742.000000	13.499135
1741.000000	13.389938
1740.000000	13.311535
1739.000000	13.234789
1738.000000	13.158596
1737.000000	13.062663
1736.000000	13.014500
1735.000000	12.976206
1734.000000	12.961757
1733.000000	12.953387
1732.000000	12.947781
1731.000000	12.951966
1730.000000	12.997603
1729.000000	13.036529
1728.000000	13.061953
1727.000000	13.083034
1726.000000	13.107905
1725.000000	13.124565
1724.000000	13.136804
1723.000000	13.157095
1722.000000	13.161675
1721.000000	13.185599
1720.000000	13.192547
1719.000000	13.220024
1718.000000	13.247580
1717.000000	13.306323
1716.000000	13.324957
1715.000000	13.379911
1714.000000	13.425153
1713.000000	13.441971
1712.000000	13.480818
1711.000000	13.507742
1710.000000	13.527165
1709.000000	13.535534
1708.000000	13.547378
1707.000000	13.556695
1706.000000	13.563959
1705.000000	13.537272
1704.000000	13.497477
1703.000000	13.489977
1702.000000	13.442918
1701.000000	13.394123
1700.000000	13.346433
1699.000000	13.291953
1698.000000	13.237078
1697.000000	13.205496
1696.000000	13.184414
1695.000000	13.182440
1694.000000	13.210470
1693.000000	13.248527
1692.000000	13.309640
1691.000000	13.355750
1690.000000	13.414652
1689.000000	13.438497
1688.000000	13.459341
1687.000000	13.472053
1686.000000	13.482555
1685.000000	13.506557
1684.000000	13.562064
1683.000000	13.671182
1682.000000	13.804224
1681.000000	14.001931
1680.000000	14.223957
1679.000000	14.451431
1678.000000	14.641164
1677.000000	14.841951
1676.000000	15.015655
1675.000000	15.188728
1674.000000	15.307716
1673.000000	15.443363
1672.000000	15.539454
1671.000000	15.647624
1670.000000	15.726028
1669.000000	15.806327
1668.000000	15.890495
1667.000000	15.956266
1666.000000	16.010035
1665.000000	16.068700
1664.000000	16.131155
1663.000000	16.175607
1662.000000	16.206084
1661.000000	16.238694
1660.000000	16.268144
1659.000000	16.299806
1658.000000	16.333757
1657.000000	16.348838
1656.000000	16.357839
1655.000000	16.380658
1654.000000	16.391080
1653.000000	16.389185
1652.000000	16.393843
1651.000000	16.391948
1650.000000	16.371735
1649.000000	16.364787
1648.000000	16.340311
1647.000000	16.304622
1646.000000	16.295148
1645.000000	16.279198
1644.000000	16.239167
1643.000000	16.228192
1642.000000	16.206006
1641.000000	16.179476
1640.000000	16.164869
1639.000000	16.132260
1638.000000	16.108731
1637.000000	16.095940
1636.000000	16.076990
1635.000000	16.042723
1634.000000	15.998271
1633.000000	15.948212
1632.000000	15.918209
1631.000000	15.875493
1630.000000	15.851174
1629.000000	15.811459
1628.000000	15.775771
1627.000000	15.740319
1626.000000	15.688998
1625.000000	15.654651
1624.000000	15.633649
1623.000000	15.592749
1622.000000	15.544665
1621.000000	15.500607
1620.000000	15.460339
1619.000000	15.404833
1618.000000	15.365196
1617.000000	15.323586
1616.000000	15.298083
1615.000000	15.251657
1614.000000	15.208231
1613.000000	15.159041
1612.000000	15.121299
1611.000000	15.092480
1610.000000	15.040764
1609.000000	14.990705
1608.000000	14.952727
1607.000000	14.923592
1606.000000	14.877008
1605.000000	14.819606
1604.000000	14.777048
1603.000000	14.731412
1602.000000	14.686012
1601.000000	14.626241
1600.000000	14.573025
1599.000000	14.532757
1598.000000	14.484040
1597.000000	14.450484
1596.000000	14.421191
1595.000000	14.385739
1594.000000	14.359210
1593.000000	14.323916
1592.000000	14.285622
1591.000000	14.252224
1590.000000	14.222773
1589.000000	14.195691
1588.000000	14.174688
1587.000000	14.157476
1586.000000	14.137658
1585.000000	14.110181
1584.000000	14.084046
1583.000000	14.069281
