PE UV       SUBTECH     SPECTRUM    ASCII       PEDS        4.00        
   -1
CICIMAUCR0235-1.Sample.ASC
24/06/19
13:47:31.00
24/06/19
13:47:31.00
Vinicio Soto Monge
C. resplendens. Sex M. Ventral 
250,000000
1
Lambda 1050
1050L1511233
PerkinElmer UV WinLab 6.3.2.0749 / 2.02.05 Lambda 900 UV/VIS/NIR, Aug  7 2015 09:38:08

0
0
3350/servo 860,8/2
0
0
UV/VIS
1
1
1
DoubleDePol,CommonBeamDepol,RBeamAtt,SBeamAtt,60mm sphere, WB InGaAs Detector
0
0
0
0
Program
Program
3350/servo 860,8/2
3350/0,2 860,8/0,2
3350/0,2 860,8/0,2
0
15.00
 
 
 
0
 
860,8
319,2
860,8
Front
100
on
S:100 R:100
0
0
0
0
 
0
 
 
 
0
 
 
0
0
0
0
0
 
 
 
 
0
0


0
0
#HDR
-1
-1
#GR
nm
%R
1.0
0.0
2500,000000
-1,000000
2251
8
61,878600
4,474600
#DATA
2482.000000	5.964538
2481.000000	6.056988
2480.000000	6.047543
2479.000000	6.014803
2478.000000	5.987099
2477.000000	5.994025
2476.000000	6.013753
2475.000000	5.970309
2474.000000	5.941242
2473.000000	6.029704
2472.000000	6.012494
2471.000000	5.956667
2470.000000	6.001266
2469.000000	5.976920
2468.000000	5.991087
2467.000000	6.004309
2466.000000	5.999167
2465.000000	6.003784
2464.000000	6.006408
2463.000000	6.016797
2462.000000	6.058457
2461.000000	6.045969
2460.000000	6.082592
2459.000000	6.076926
2458.000000	6.091092
2457.000000	6.135166
2456.000000	6.165808
2455.000000	6.204320
2454.000000	6.210616
2453.000000	6.244826
2452.000000	6.273264
2451.000000	6.304745
2450.000000	6.328566
2449.000000	6.349448
2448.000000	6.379775
2447.000000	6.429306
2446.000000	6.445151
2445.000000	6.484188
2444.000000	6.495101
2443.000000	6.550193
2442.000000	6.572965
2441.000000	6.597100
2440.000000	6.640440
2439.000000	6.683779
2438.000000	6.717883
2437.000000	6.728797
2436.000000	6.764581
2435.000000	6.800049
2434.000000	6.823241
2433.000000	6.837932
2432.000000	6.862697
2431.000000	6.901944
2430.000000	6.943919
2429.000000	6.958505
2428.000000	6.964906
2427.000000	6.992819
2426.000000	7.039831
2425.000000	7.043399
2424.000000	7.062288
2423.000000	7.074566
2422.000000	7.096603
2421.000000	7.129028
2420.000000	7.148337
2419.000000	7.160929
2418.000000	7.189577
2417.000000	7.207836
2416.000000	7.212873
2415.000000	7.218750
2414.000000	7.250021
2413.000000	7.263033
2412.000000	7.274367
2411.000000	7.304903
2410.000000	7.305218
2409.000000	7.308366
2408.000000	7.325366
2407.000000	7.343310
2406.000000	7.350971
2405.000000	7.370384
2404.000000	7.395779
2403.000000	7.418236
2402.000000	7.424007
2401.000000	7.438489
2400.000000	7.461260
2399.000000	7.461890
2398.000000	7.480464
2397.000000	7.483402
2396.000000	7.493581
2395.000000	7.515198
2394.000000	7.533982
2393.000000	7.546994
2392.000000	7.537864
2391.000000	7.545840
2390.000000	7.576901
2389.000000	7.595685
2388.000000	7.589074
2387.000000	7.586975
2386.000000	7.587080
2385.000000	7.607648
2384.000000	7.605339
2383.000000	7.593166
2382.000000	7.601666
2381.000000	7.598833
2380.000000	7.589389
2379.000000	7.584457
2378.000000	7.591802
2377.000000	7.591697
2376.000000	7.580049
2375.000000	7.564833
2374.000000	7.551926
2373.000000	7.534926
2372.000000	7.513939
2371.000000	7.512365
2370.000000	7.511630
2369.000000	7.502920
2368.000000	7.471229
2367.000000	7.454754
2366.000000	7.448458
2365.000000	7.412149
2364.000000	7.396094
2363.000000	7.372063
2362.000000	7.339323
2361.000000	7.317916
2360.000000	7.286015
2359.000000	7.266706
2358.000000	7.241836
2357.000000	7.209515
2356.000000	7.198917
2355.000000	7.185589
2354.000000	7.169114
2353.000000	7.158411
2352.000000	7.146553
2351.000000	7.134065
2350.000000	7.140152
2349.000000	7.157151
2348.000000	7.165442
2347.000000	7.179083
2346.000000	7.197447
2345.000000	7.202379
2344.000000	7.219274
2343.000000	7.248657
2342.000000	7.258416
2341.000000	7.264607
2340.000000	7.284650
2339.000000	7.304903
2338.000000	7.313193
2337.000000	7.320749
2336.000000	7.316446
2335.000000	7.313193
2334.000000	7.306687
2333.000000	7.291366
2332.000000	7.290422
2331.000000	7.298607
2330.000000	7.268700
2329.000000	7.236274
2328.000000	7.210879
2327.000000	7.192515
2326.000000	7.174781
2325.000000	7.138263
2324.000000	7.093035
2323.000000	7.058930
2322.000000	7.027029
2321.000000	6.999850
2320.000000	6.962178
2319.000000	6.917160
2318.000000	6.870148
2317.000000	6.823241
2316.000000	6.765945
2315.000000	6.732470
2314.000000	6.686612
2313.000000	6.658804
2312.000000	6.623335
2311.000000	6.578841
2310.000000	6.544842
2309.000000	6.515459
2308.000000	6.481564
2307.000000	6.459947
2306.000000	6.463935
2305.000000	6.448509
2304.000000	6.465929
2303.000000	6.467083
2302.000000	6.474114
2301.000000	6.500768
2300.000000	6.527632
2299.000000	6.548305
2298.000000	6.579891
2297.000000	6.609063
2296.000000	6.649359
2295.000000	6.681680
2294.000000	6.714630
2293.000000	6.750309
2292.000000	6.775389
2291.000000	6.801728
2290.000000	6.818309
2289.000000	6.837197
2288.000000	6.832895
2287.000000	6.841815
2286.000000	6.832580
2285.000000	6.828907
2284.000000	6.816944
2283.000000	6.800364
2282.000000	6.790185
2281.000000	6.780951
2280.000000	6.745692
2279.000000	6.722081
2278.000000	6.716939
2277.000000	6.701618
2276.000000	6.680001
2275.000000	6.649569
2274.000000	6.650409
2273.000000	6.638551
2272.000000	6.641489
2271.000000	6.637606
2270.000000	6.638551
2269.000000	6.640649
2268.000000	6.652717
2267.000000	6.681365
2266.000000	6.723025
2265.000000	6.757970
2264.000000	6.831426
2263.000000	6.890715
2262.000000	6.937413
2261.000000	7.057776
2260.000000	7.146553
2259.000000	7.220639
2258.000000	7.323162
2257.000000	7.453914
2256.000000	7.563259
2255.000000	7.682573
2254.000000	7.799054
2253.000000	7.914275
2252.000000	8.048175
2251.000000	8.164026
2250.000000	8.273895
2249.000000	8.386703
2248.000000	8.500770
2247.000000	8.606232
2246.000000	8.679374
2245.000000	8.789033
2244.000000	8.857977
2243.000000	8.920310
2242.000000	9.026192
2241.000000	9.076352
2240.000000	9.155160
2239.000000	9.216024
2238.000000	9.274893
2237.000000	9.325893
2236.000000	9.382035
2235.000000	9.408689
2234.000000	9.470602
2233.000000	9.505651
2232.000000	9.533459
2231.000000	9.543848
2230.000000	9.591490
2229.000000	9.599990
2228.000000	9.613212
2227.000000	9.643434
2226.000000	9.643539
2225.000000	9.653508
2224.000000	9.650674
2223.000000	9.625489
2222.000000	9.611847
2221.000000	9.600829
2220.000000	9.613946
2219.000000	9.594218
2218.000000	9.569348
2217.000000	9.573126
2216.000000	9.543533
2215.000000	9.517719
2214.000000	9.523700
2213.000000	9.496101
2212.000000	9.485293
2211.000000	9.471336
2210.000000	9.432195
2209.000000	9.427682
2208.000000	9.418133
2207.000000	9.393997
2206.000000	9.387072
2205.000000	9.376263
2204.000000	9.362936
2203.000000	9.378781
2202.000000	9.378467
2201.000000	9.353072
2200.000000	9.341948
2199.000000	9.335337
2198.000000	9.318128
2197.000000	9.300393
2196.000000	9.320961
2195.000000	9.315714
2194.000000	9.299344
2193.000000	9.291998
2192.000000	9.289165
2191.000000	9.287906
2190.000000	9.279091
2189.000000	9.270486
2188.000000	9.259048
2187.000000	9.247085
2186.000000	9.230925
2185.000000	9.228826
2184.000000	9.236906
2183.000000	9.231239
2182.000000	9.208258
2181.000000	9.185697
2180.000000	9.206999
2179.000000	9.196715
2178.000000	9.170376
2177.000000	9.175832
2176.000000	9.179400
2175.000000	9.182968
2174.000000	9.197240
2173.000000	9.186956
2172.000000	9.186011
2171.000000	9.180660
2170.000000	9.183913
2169.000000	9.208573
2168.000000	9.202382
2167.000000	9.202067
2166.000000	9.213085
2165.000000	9.215709
2164.000000	9.230505
2163.000000	9.246665
2162.000000	9.261776
2161.000000	9.290634
2160.000000	9.295566
2159.000000	9.299134
2158.000000	9.325054
2157.000000	9.326942
2156.000000	9.364615
2155.000000	9.404071
2154.000000	9.424534
2153.000000	9.438701
2152.000000	9.454966
2151.000000	9.480361
2150.000000	9.506910
2149.000000	9.534718
2148.000000	9.550144
2147.000000	9.585823
2146.000000	9.610273
2145.000000	9.631681
2144.000000	9.643539
2143.000000	9.659804
2142.000000	9.675125
2141.000000	9.692439
2140.000000	9.712482
2139.000000	9.726124
2138.000000	9.742285
2137.000000	9.769359
2136.000000	9.776179
2135.000000	9.797797
2134.000000	9.812488
2133.000000	9.809864
2132.000000	9.824661
2131.000000	9.830432
2130.000000	9.832216
2129.000000	9.828333
2128.000000	9.851105
2127.000000	9.848796
2126.000000	9.834839
2125.000000	9.827599
2124.000000	9.821512
2123.000000	9.835364
2122.000000	9.817630
2121.000000	9.804408
2120.000000	9.799476
2119.000000	9.776389
2118.000000	9.755717
2117.000000	9.732001
2116.000000	9.731686
2115.000000	9.725809
2114.000000	9.696847
2113.000000	9.666940
2112.000000	9.662112
2111.000000	9.647106
2110.000000	9.625175
2109.000000	9.605866
2108.000000	9.580051
2107.000000	9.566829
2106.000000	9.539965
2105.000000	9.508169
2104.000000	9.503867
2103.000000	9.480256
2102.000000	9.457170
2101.000000	9.446781
2100.000000	9.431355
2099.000000	9.411207
2098.000000	9.386967
2097.000000	9.358109
2096.000000	9.330300
2095.000000	9.323794
2094.000000	9.312356
2093.000000	9.281924
2092.000000	9.258418
2091.000000	9.248764
2090.000000	9.236172
2089.000000	9.213295
2088.000000	9.198709
2087.000000	9.177407
2086.000000	9.156734
2085.000000	9.137740
2084.000000	9.122839
2083.000000	9.109932
2082.000000	9.082963
2081.000000	9.069321
2080.000000	9.037525
2079.000000	9.014439
2078.000000	9.000692
2077.000000	8.967322
2076.000000	8.937100
2075.000000	8.917372
2074.000000	8.891137
2073.000000	8.865218
2072.000000	8.836150
2071.000000	8.813484
2070.000000	8.790292
2069.000000	8.748842
2068.000000	8.706028
2067.000000	8.673077
2066.000000	8.656182
2065.000000	8.628689
2064.000000	8.598782
2063.000000	8.572547
2062.000000	8.557436
2061.000000	8.540227
2060.000000	8.510739
2059.000000	8.498252
2058.000000	8.493005
2057.000000	8.479888
2056.000000	8.496782
2055.000000	8.490801
2054.000000	8.491431
2053.000000	8.503498
2052.000000	8.528054
2051.000000	8.540961
2050.000000	8.555233
2049.000000	8.583146
2048.000000	8.615257
2047.000000	8.654398
2046.000000	8.700256
2045.000000	8.738978
2044.000000	8.784626
2043.000000	8.834681
2042.000000	8.875921
2041.000000	8.912964
2040.000000	8.948958
2039.000000	8.991353
2038.000000	9.038889
2037.000000	9.062290
2036.000000	9.103321
2035.000000	9.148864
2034.000000	9.186746
2033.000000	9.202487
2032.000000	9.226307
2031.000000	9.244357
2030.000000	9.269017
2029.000000	9.301652
2028.000000	9.303331
2027.000000	9.325158
2026.000000	9.341004
2025.000000	9.346146
2024.000000	9.365349
2023.000000	9.374584
2022.000000	9.372590
2021.000000	9.380985
2020.000000	9.389170
2019.000000	9.378362
2018.000000	9.367553
2017.000000	9.386967
2016.000000	9.397985
2015.000000	9.380880
2014.000000	9.382979
2013.000000	9.349084
2012.000000	9.351393
2011.000000	9.326628
2010.000000	9.306585
2009.000000	9.304486
2008.000000	9.294412
2007.000000	9.277832
2006.000000	9.257894
2005.000000	9.214240
2004.000000	9.207943
2003.000000	9.172684
2002.000000	9.150648
2001.000000	9.132179
2000.000000	9.090833
1999.000000	9.072364
1998.000000	9.032383
1997.000000	8.991248
1996.000000	8.947489
1995.000000	8.918421
1994.000000	8.885995
1993.000000	8.836675
1992.000000	8.782317
1991.000000	8.747583
1990.000000	8.706343
1989.000000	8.658911
1988.000000	8.627744
1987.000000	8.576325
1986.000000	8.522282
1985.000000	8.491011
1984.000000	8.477264
1983.000000	8.406746
1982.000000	8.369074
1981.000000	8.316080
1980.000000	8.274840
1979.000000	8.234019
1978.000000	8.178297
1977.000000	8.135483
1976.000000	8.111977
1975.000000	8.067379
1974.000000	8.003577
1973.000000	7.987206
1972.000000	7.942188
1971.000000	7.888565
1970.000000	7.846380
1969.000000	7.805035
1968.000000	7.794436
1967.000000	7.765369
1966.000000	7.739239
1965.000000	7.677956
1964.000000	7.641018
1963.000000	7.613629
1962.000000	7.574173
1961.000000	7.555809
1960.000000	7.523383
1959.000000	7.502710
1958.000000	7.454544
1957.000000	7.410470
1956.000000	7.388224
1955.000000	7.356637
1954.000000	7.328409
1953.000000	7.308261
1952.000000	7.283601
1951.000000	7.235330
1950.000000	7.216021
1949.000000	7.199126
1948.000000	7.189052
1947.000000	7.153584
1946.000000	7.154528
1945.000000	7.121683
1944.000000	7.105522
1943.000000	7.105732
1942.000000	7.086843
1941.000000	7.077924
1940.000000	7.101535
1939.000000	7.051584
1938.000000	7.082436
1937.000000	7.077399
1936.000000	7.049171
1935.000000	7.072677
1934.000000	7.064387
1933.000000	7.082226
1932.000000	7.101744
1931.000000	7.140361
1930.000000	7.152954
1929.000000	7.176880
1928.000000	7.225046
1927.000000	7.238583
1926.000000	7.280768
1925.000000	7.332922
1924.000000	7.358316
1923.000000	7.417396
1922.000000	7.471439
1921.000000	7.537759
1920.000000	7.602611
1919.000000	7.635036
1918.000000	7.720875
1917.000000	7.786566
1916.000000	7.853096
1915.000000	7.934108
1914.000000	8.004311
1913.000000	8.104631
1912.000000	8.189001
1911.000000	8.280297
1910.000000	8.381666
1909.000000	8.474011
1908.000000	8.592066
1907.000000	8.715787
1906.000000	8.836360
1905.000000	8.987995
1904.000000	9.142882
1903.000000	9.280350
1902.000000	9.406905
1901.000000	9.542274
1900.000000	9.736093
1899.000000	9.915641
1898.000000	10.084381
1897.000000	10.258262
1896.000000	10.438335
1895.000000	10.635512
1894.000000	10.831325
1893.000000	11.050330
1892.000000	11.299766
1891.000000	11.565887
1890.000000	11.869366
1889.000000	12.116494
1888.000000	12.420183
1887.000000	12.723871
1886.000000	13.060930
1885.000000	13.448674
1884.000000	13.880492
1883.000000	14.317871
1882.000000	14.760917
1881.000000	15.231561
1880.000000	15.706298
1879.000000	16.175053
1878.000000	16.628173
1877.000000	17.095879
1876.000000	17.557499
1875.000000	18.002118
1874.000000	18.449467
1873.000000	18.887790
1872.000000	19.301349
1871.000000	19.678808
1870.000000	20.019225
1869.000000	20.337920
1868.000000	20.648535
1867.000000	20.892620
1866.000000	21.104698
1865.000000	21.292431
1864.000000	21.480794
1863.000000	21.668737
1862.000000	21.828242
1861.000000	22.006006
1860.000000	22.183350
1859.000000	22.327219
1858.000000	22.432156
1857.000000	22.509390
1856.000000	22.617056
1855.000000	22.670154
1854.000000	22.713179
1853.000000	22.752111
1852.000000	22.768796
1851.000000	22.790937
1850.000000	22.829554
1849.000000	22.862295
1848.000000	22.878245
1847.000000	22.852536
1846.000000	22.793036
1845.000000	22.743506
1844.000000	22.742456
1843.000000	22.745290
1842.000000	22.760610
1841.000000	22.754314
1840.000000	22.733432
1839.000000	22.718216
1838.000000	22.681907
1837.000000	22.648852
1836.000000	22.618525
1835.000000	22.550946
1834.000000	22.480847
1833.000000	22.426595
1832.000000	22.369824
1831.000000	22.335404
1830.000000	22.273176
1829.000000	22.207905
1828.000000	22.153757
1827.000000	22.084289
1826.000000	21.995827
1825.000000	21.916494
1824.000000	21.863815
1823.000000	21.821001
1822.000000	21.809143
1821.000000	21.795081
1820.000000	21.747964
1819.000000	21.704101
1818.000000	21.657089
1817.000000	21.629910
1816.000000	21.621830
1815.000000	21.620465
1814.000000	21.599688
1813.000000	21.581534
1812.000000	21.562960
1811.000000	21.538090
1810.000000	21.497164
1809.000000	21.455819
1808.000000	21.422973
1807.000000	21.382362
1806.000000	21.335980
1805.000000	21.283511
1804.000000	21.216142
1803.000000	21.173957
1802.000000	21.148982
1801.000000	21.098087
1800.000000	21.041211
1799.000000	20.978878
1798.000000	20.922946
1797.000000	20.878138
1796.000000	20.831756
1795.000000	20.785793
1794.000000	20.727028
1793.000000	20.680016
1792.000000	20.635733
1791.000000	20.578017
1790.000000	20.522295
1789.000000	20.465105
1788.000000	20.414000
1787.000000	20.368142
1786.000000	20.306229
1785.000000	20.241693
1784.000000	20.164669
1783.000000	20.089638
1782.000000	20.018176
1781.000000	19.951436
1780.000000	19.875776
1779.000000	19.801166
1778.000000	19.729074
1777.000000	19.656142
1776.000000	19.577124
1775.000000	19.477539
1774.000000	19.373336
1773.000000	19.271861
1772.000000	19.170806
1771.000000	19.060832
1770.000000	18.954635
1769.000000	18.844136
1768.000000	18.740458
1767.000000	18.632792
1766.000000	18.543176
1765.000000	18.465102
1764.000000	18.392591
1763.000000	18.352924
1762.000000	18.357856
1761.000000	18.369819
1760.000000	18.405603
1759.000000	18.459855
1758.000000	18.516522
1757.000000	18.580848
1756.000000	18.645700
1755.000000	18.718841
1754.000000	18.756304
1753.000000	18.781594
1752.000000	18.795235
1751.000000	18.809192
1750.000000	18.802161
1749.000000	18.768162
1748.000000	18.737205
1747.000000	18.677076
1746.000000	18.623978
1745.000000	18.558182
1744.000000	18.437084
1743.000000	18.313992
1742.000000	18.177049
1741.000000	18.003063
1740.000000	17.819003
1739.000000	17.632844
1738.000000	17.431993
1737.000000	17.254334
1736.000000	17.110675
1735.000000	16.984540
1734.000000	16.894084
1733.000000	16.859245
1732.000000	16.851060
1731.000000	16.899751
1730.000000	16.969849
1729.000000	17.053169
1728.000000	17.153804
1727.000000	17.247409
1726.000000	17.359377
1725.000000	17.447419
1724.000000	17.518987
1723.000000	17.580795
1722.000000	17.640504
1721.000000	17.683004
1720.000000	17.716374
1719.000000	17.745022
1718.000000	17.764750
1717.000000	17.806410
1716.000000	17.868323
1715.000000	17.918693
1714.000000	17.967594
1713.000000	18.034649
1712.000000	18.112198
1711.000000	18.163197
1710.000000	18.182821
1709.000000	18.214722
1708.000000	18.217450
1707.000000	18.196358
1706.000000	18.158895
1705.000000	18.130037
1704.000000	18.074525
1703.000000	18.000439
1702.000000	17.926354
1701.000000	17.815330
1700.000000	17.694757
1699.000000	17.551097
1698.000000	17.419401
1697.000000	17.277106
1696.000000	17.189903
1695.000000	17.123163
1694.000000	17.115607
1693.000000	17.188224
1692.000000	17.285606
1691.000000	17.421395
1690.000000	17.568832
1689.000000	17.725399
1688.000000	17.837157
1687.000000	17.926459
1686.000000	17.978717
1685.000000	18.044408
1684.000000	18.098556
1683.000000	18.204962
1682.000000	18.421973
1681.000000	18.740773
1680.000000	19.155695
1679.000000	19.589717
1678.000000	20.107793
1677.000000	20.604671
1676.000000	21.101130
1675.000000	21.534417
1674.000000	21.942623
1673.000000	22.272022
1672.000000	22.592291
1671.000000	22.860511
1670.000000	23.100503
1669.000000	23.293063
1668.000000	23.463481
1667.000000	23.641140
1666.000000	23.775460
1665.000000	23.889317
1664.000000	23.984286
1663.000000	24.063408
1662.000000	24.142636
1661.000000	24.188599
1660.000000	24.246944
1659.000000	24.299518
1658.000000	24.334672
1657.000000	24.359227
1656.000000	24.380005
1655.000000	24.388085
1654.000000	24.381894
1653.000000	24.376227
1652.000000	24.358807
1651.000000	24.347579
1650.000000	24.282203
1649.000000	24.278320
1648.000000	24.235506
1647.000000	24.203290
1646.000000	24.145155
1645.000000	24.090482
1644.000000	24.035180
1643.000000	23.969070
1642.000000	23.935280
1641.000000	23.840312
1640.000000	23.791201
1639.000000	23.712183
1638.000000	23.650690
1637.000000	23.595912
1636.000000	23.533370
1635.000000	23.441969
1634.000000	23.385933
1633.000000	23.295267
1632.000000	23.235767
1631.000000	23.131354
1630.000000	23.068812
1629.000000	22.986016
1628.000000	22.887900
1627.000000	22.807937
1626.000000	22.730493
1625.000000	22.639513
1624.000000	22.563748
1623.000000	22.485989
1622.000000	22.393015
1621.000000	22.319349
1620.000000	22.232775
1619.000000	22.157850
1618.000000	22.070857
1617.000000	22.006320
1616.000000	21.914080
1615.000000	21.867383
1614.000000	21.787946
1613.000000	21.697175
1612.000000	21.624138
1611.000000	21.566633
1610.000000	21.499578
1609.000000	21.423288
1608.000000	21.324962
1607.000000	21.269660
1606.000000	21.213833
1605.000000	21.118550
1604.000000	21.055377
1603.000000	20.978039
1602.000000	20.893774
1601.000000	20.829447
1600.000000	20.758195
1599.000000	20.687572
1598.000000	20.608974
1597.000000	20.533314
1596.000000	20.479376
1595.000000	20.400883
1594.000000	20.347155
1593.000000	20.270760
1592.000000	20.211366
1591.000000	20.154385
1590.000000	20.090163
1589.000000	20.034966
1588.000000	19.981238
1587.000000	19.918695
1586.000000	19.877350
1585.000000	19.843036
1584.000000	19.787629
1583.000000	19.724981
1582.000000	19.690876
1581.000000	19.653728
