PE UV       SUBTECH     SPECTRUM    ASCII       PEDS        4.00        
   -1
CICIMAUCR0012-2.Sample.ASC
24/04/11
16:25:16.00
24/04/11
16:25:16.00
Vinicio Soto Monge
C. cupreomarginata
250,000000
1
Lambda 1050
1050L1511233
PerkinElmer UV WinLab 6.3.2.0749 / 2.02.05 Lambda 900 UV/VIS/NIR, Aug  7 2015 09:38:08

0
0
3350/2 860,8/2
0
0
UV/VIS
1
1
1
DoubleDePol,CommonBeamDepol,RBeamAtt,SBeamAtt,60mm sphere, WB InGaAs Detector
0
0
0
0
Program
Program
3350/2 860,8/2
3350/0,2 860,8/0,2
3350/0,2 860,8/0,2
0
15.00
 
 
 
0
 
860,8
319,2
860,8
Front
100
on
S:100 R:100
0
0
0
0
 
0
 
 
 
0
 
 
0
0
0
0
0
 
 
 
 
0
0


0
0
#HDR
-1
-1
#GR
nm
%R
1.0
0.0
2400,000000
-1,000000
2151
8
58,508600
4,497300
#DATA
2382.000000	13.719666
2381.000000	14.046734
2380.000000	13.472107
2379.000000	13.447093
2378.000000	13.091240
2377.000000	12.581630
2376.000000	13.393988
2375.000000	14.000081
2374.000000	13.324703
2373.000000	13.249661
2372.000000	13.250257
2371.000000	12.995651
2370.000000	12.984533
2369.000000	13.193082
2368.000000	13.186233
2367.000000	13.047267
2366.000000	12.837030
2365.000000	13.234375
2364.000000	11.695123
2363.000000	12.580240
2362.000000	12.027947
2361.000000	12.471151
2360.000000	13.532657
2359.000000	13.229611
2358.000000	12.399286
2357.000000	11.470195
2356.000000	11.867640
2355.000000	12.615676
2354.000000	11.726886
2353.000000	11.991121
2352.000000	12.448023
2351.000000	12.517109
2350.000000	12.159767
2349.000000	12.428568
2348.000000	12.303399
2347.000000	11.646782
2346.000000	12.825020
2345.000000	12.440579
2344.000000	12.509367
2343.000000	12.501128
2342.000000	12.088795
2341.000000	12.090681
2340.000000	11.983577
2339.000000	12.295954
2338.000000	11.897914
2337.000000	12.522172
2336.000000	12.420131
2335.000000	12.916142
2334.000000	12.201358
2333.000000	11.242886
2332.000000	11.724405
2331.000000	11.966604
2330.000000	12.257044
2329.000000	12.809932
2328.000000	12.341416
2327.000000	11.948836
2326.000000	11.901389
2325.000000	11.897418
2324.000000	11.497095
2323.000000	11.943674
2322.000000	11.854041
2321.000000	11.563303
2320.000000	11.483596
2319.000000	11.595861
2318.000000	11.541366
2317.000000	11.050120
2316.000000	10.862614
2315.000000	11.149183
2314.000000	11.445876
2313.000000	10.945200
2312.000000	10.638282
2311.000000	10.636099
2310.000000	10.175226
2309.000000	10.122816
2308.000000	10.576442
2307.000000	10.482739
2306.000000	10.388540
2305.000000	10.483633
2304.000000	10.432116
2303.000000	10.543487
2302.000000	9.999533
2301.000000	10.063855
2300.000000	10.594905
2299.000000	10.564332
2298.000000	10.731489
2297.000000	11.093298
2296.000000	10.993937
2295.000000	10.594508
2294.000000	10.494353
2293.000000	10.988875
2292.000000	11.197821
2291.000000	10.905297
2290.000000	10.890904
2289.000000	10.929616
2288.000000	10.948972
2287.000000	10.950461
2286.000000	10.850802
2285.000000	10.746279
2284.000000	10.768514
2283.000000	10.708262
2282.000000	10.523635
2281.000000	10.680965
2280.000000	10.849114
2279.000000	10.465368
2278.000000	10.373651
2277.000000	10.760474
2276.000000	10.514404
2275.000000	10.114379
2274.000000	10.064649
2273.000000	9.955361
2272.000000	9.723684
2271.000000	9.913473
2270.000000	10.245107
2269.000000	10.338611
2268.000000	10.356478
2267.000000	10.421495
2266.000000	10.391518
2265.000000	10.377125
2264.000000	10.562248
2263.000000	10.663296
2262.000000	10.582001
2261.000000	10.785488
2260.000000	11.229982
2259.000000	11.481809
2258.000000	11.535907
2257.000000	11.992809
2256.000000	12.185972
2255.000000	12.126217
2254.000000	12.512246
2253.000000	12.652800
2252.000000	12.608927
2251.000000	12.592846
2250.000000	13.006272
2249.000000	13.248173
2248.000000	13.660506
2247.000000	14.050307
2246.000000	13.891984
2245.000000	13.906576
2244.000000	13.897345
2243.000000	13.844537
2242.000000	14.226993
2241.000000	14.406558
2240.000000	14.498573
2239.000000	14.530734
2238.000000	14.630294
2237.000000	14.541157
2236.000000	14.815119
2235.000000	15.085806
2234.000000	14.949023
2233.000000	15.113996
2232.000000	14.885793
2231.000000	15.005999
2230.000000	14.739283
2229.000000	14.844898
2228.000000	15.044215
2227.000000	14.860085
2226.000000	15.264775
2225.000000	15.315795
2224.000000	15.102184
2223.000000	15.228644
2222.000000	15.123029
2221.000000	14.867926
2220.000000	14.985452
2219.000000	14.933042
2218.000000	14.876066
2217.000000	14.560513
2216.000000	14.659477
2215.000000	14.817998
2214.000000	14.702060
2213.000000	15.044315
2212.000000	14.697692
2211.000000	14.868423
2210.000000	15.015529
2209.000000	14.756654
2208.000000	14.677641
2207.000000	14.792190
2206.000000	14.649054
2205.000000	14.749408
2204.000000	14.319505
2203.000000	14.000081
2202.000000	14.408344
2201.000000	14.459166
2200.000000	14.485272
2199.000000	14.327049
2198.000000	14.350673
2197.000000	14.567461
2196.000000	14.720820
2195.000000	14.359309
2194.000000	14.289826
2193.000000	14.486364
2192.000000	14.581159
2191.000000	14.398617
2190.000000	14.308983
2189.000000	14.419362
2188.000000	14.523587
2187.000000	14.570042
2186.000000	14.515150
2185.000000	14.344122
2184.000000	14.385713
2183.000000	14.400999
2182.000000	14.345313
2181.000000	14.099938
2180.000000	14.175476
2179.000000	14.355239
2178.000000	14.533216
2177.000000	14.362188
2176.000000	14.400800
2175.000000	14.235132
2174.000000	14.046535
2173.000000	14.350078
2172.000000	14.149470
2171.000000	14.189770
2170.000000	13.988467
2169.000000	14.046436
2168.000000	13.978640
2167.000000	13.789249
2166.000000	13.576233
2165.000000	14.159098
2164.000000	14.024995
2163.000000	14.373106
2162.000000	14.452019
2161.000000	14.246250
2160.000000	14.166245
2159.000000	14.183119
2158.000000	14.045443
2157.000000	14.369136
2156.000000	14.743154
2155.000000	14.294590
2154.000000	14.128625
2153.000000	14.491823
2152.000000	14.243173
2151.000000	14.529444
2150.000000	14.279800
2149.000000	14.295087
2148.000000	15.166605
2147.000000	14.580365
2146.000000	15.005106
2145.000000	14.973342
2144.000000	14.804101
2143.000000	14.539767
2142.000000	14.946939
2141.000000	15.214052
2140.000000	14.769856
2139.000000	14.887779
2138.000000	14.978702
2137.000000	15.013246
2136.000000	14.934829
2135.000000	15.153105
2134.000000	15.142385
2133.000000	15.210777
2132.000000	14.903065
2131.000000	14.878944
2130.000000	14.849662
2129.000000	15.107941
2128.000000	14.987636
2127.000000	14.847677
2126.000000	14.956964
2125.000000	14.973640
2124.000000	14.867430
2123.000000	15.070619
2122.000000	14.739779
2121.000000	14.963515
2120.000000	15.140400
2119.000000	14.667715
2118.000000	14.920237
2117.000000	14.875470
2116.000000	14.695112
2115.000000	15.049972
2114.000000	14.793679
2113.000000	14.275036
2112.000000	14.650047
2111.000000	14.467901
2110.000000	14.668807
2109.000000	14.508698
2108.000000	14.319703
2107.000000	14.320200
2106.000000	14.462541
2105.000000	14.373404
2104.000000	14.234140
2103.000000	14.591582
2102.000000	14.325262
2101.000000	14.112147
2100.000000	14.326850
2099.000000	14.312358
2098.000000	14.092295
2097.000000	14.292903
2096.000000	14.214685
2095.000000	13.965438
2094.000000	14.084056
2093.000000	13.780712
2092.000000	14.115423
2091.000000	13.864588
2090.000000	13.962262
2089.000000	13.990849
2088.000000	13.929902
2087.000000	13.983305
2086.000000	14.101625
2085.000000	13.817240
2084.000000	13.879875
2083.000000	13.874316
2082.000000	13.994026
2081.000000	14.006334
2080.000000	13.773466
2079.000000	13.481041
2078.000000	13.656933
2077.000000	13.691972
2076.000000	13.635194
2075.000000	13.662988
2074.000000	13.454538
2073.000000	13.515485
2072.000000	13.407686
2071.000000	13.410069
2070.000000	13.397264
2069.000000	13.430616
2068.000000	13.413344
2067.000000	13.297605
2066.000000	13.154569
2065.000000	13.300483
2064.000000	13.182759
2063.000000	13.184744
2062.000000	13.111688
2061.000000	13.095607
2060.000000	13.139878
2059.000000	13.213927
2058.000000	13.188814
2057.000000	13.180873
2056.000000	13.148911
2055.000000	13.001308
2054.000000	13.063049
2053.000000	12.918524
2052.000000	13.189807
2051.000000	13.262565
2050.000000	13.329964
2049.000000	13.601544
2048.000000	13.423667
2047.000000	13.529083
2046.000000	13.645815
2045.000000	13.530076
2044.000000	13.690979
2043.000000	13.871636
2042.000000	13.856846
2041.000000	13.950946
2040.000000	14.155723
2039.000000	14.203865
2038.000000	14.317520
2037.000000	14.472368
2036.000000	14.470383
2035.000000	14.603394
2034.000000	14.750698
2033.000000	14.786234
2032.000000	14.773131
2031.000000	14.729655
2030.000000	14.793083
2029.000000	14.862368
2028.000000	15.013543
2027.000000	15.123128
2026.000000	15.101787
2025.000000	15.146356
2024.000000	15.128489
2023.000000	15.175340
2022.000000	15.194001
2021.000000	15.209387
2020.000000	15.274602
2019.000000	15.431733
2018.000000	15.394907
2017.000000	15.247007
2016.000000	15.241746
2015.000000	15.308946
2014.000000	15.472629
2013.000000	15.505088
2012.000000	15.444141
2011.000000	15.405131
2010.000000	15.379125
2009.000000	15.449005
2008.000000	15.412973
2007.000000	15.325523
2006.000000	15.416745
2005.000000	15.432130
2004.000000	15.408605
2003.000000	15.474217
2002.000000	15.411186
2001.000000	15.212861
2000.000000	15.207997
1999.000000	15.242044
1998.000000	15.161543
1997.000000	15.134941
1996.000000	15.122831
1995.000000	15.060990
1994.000000	14.935524
1993.000000	14.885694
1992.000000	14.910510
1991.000000	14.875967
1990.000000	14.756058
1989.000000	14.712284
1988.000000	14.614412
1987.000000	14.589299
1986.000000	14.615801
1985.000000	14.475346
1984.000000	14.456784
1983.000000	14.383827
1982.000000	14.287543
1981.000000	14.216471
1980.000000	14.109467
1979.000000	13.970997
1978.000000	13.997698
1977.000000	14.037403
1976.000000	13.923649
1975.000000	13.828755
1974.000000	13.755797
1973.000000	13.653855
1972.000000	13.607302
1971.000000	13.648098
1970.000000	13.602438
1969.000000	13.449773
1968.000000	13.346839
1967.000000	13.281028
1966.000000	13.246882
1965.000000	13.275767
1964.000000	13.229908
1963.000000	13.128661
1962.000000	13.170451
1961.000000	13.089751
1960.000000	13.048160
1959.000000	13.004286
1958.000000	12.904330
1957.000000	12.813009
1956.000000	12.773503
1955.000000	12.765860
1954.000000	12.773006
1953.000000	12.712457
1952.000000	12.601978
1951.000000	12.567137
1950.000000	12.459041
1949.000000	12.437303
1948.000000	12.472243
1947.000000	12.340324
1946.000000	12.320670
1945.000000	12.327023
1944.000000	12.299925
1943.000000	12.290892
1942.000000	12.345585
1941.000000	12.314715
1940.000000	12.260220
1939.000000	12.267764
1938.000000	12.266374
1937.000000	12.253867
1936.000000	12.348464
1935.000000	12.400278
1934.000000	12.430454
1933.000000	12.313821
1932.000000	12.341714
1931.000000	12.510161
1930.000000	12.501922
1929.000000	12.583019
1928.000000	12.734890
1927.000000	12.785910
1926.000000	12.887852
1925.000000	12.914752
1924.000000	12.965376
1923.000000	13.166083
1922.000000	13.234177
1921.000000	13.392896
1920.000000	13.566207
1919.000000	13.481636
1918.000000	13.637080
1917.000000	13.762349
1916.000000	13.959383
1915.000000	14.087034
1914.000000	14.350475
1913.000000	14.415293
1912.000000	14.684193
1911.000000	14.851548
1910.000000	14.849960
1909.000000	15.110621
1908.000000	15.227353
1907.000000	15.624301
1906.000000	15.790267
1905.000000	15.990279
1904.000000	16.255209
1903.000000	16.393084
1902.000000	16.720052
1901.000000	16.851475
1900.000000	17.165043
1899.000000	17.595640
1898.000000	17.766668
1897.000000	17.926976
1896.000000	18.194486
1895.000000	18.442542
1894.000000	18.733180
1893.000000	19.076626
1892.000000	19.471489
1891.000000	19.778208
1890.000000	20.084034
1889.000000	20.361173
1888.000000	20.702534
1887.000000	21.140378
1886.000000	21.554696
1885.000000	21.966732
1884.000000	22.584637
1883.000000	23.067347
1882.000000	23.430943
1881.000000	24.080115
1880.000000	24.585556
1879.000000	25.074916
1878.000000	25.579563
1877.000000	26.151708
1876.000000	26.629654
1875.000000	27.001290
1874.000000	27.381065
1873.000000	27.927899
1872.000000	28.062597
1871.000000	28.492103
1870.000000	28.713357
1869.000000	28.837633
1868.000000	29.025535
1867.000000	29.296123
1866.000000	29.225746
1865.000000	29.339302
1864.000000	29.623091
1863.000000	29.636095
1862.000000	29.732180
1861.000000	29.958795
1860.000000	30.243279
1859.000000	30.146499
1858.000000	30.057163
1857.000000	30.202582
1856.000000	30.277028
1855.000000	30.221640
1854.000000	30.268888
1853.000000	30.231367
1852.000000	30.099151
1851.000000	30.054086
1850.000000	30.018550
1849.000000	30.137962
1848.000000	30.282884
1847.000000	30.224816
1846.000000	29.825883
1845.000000	29.699225
1844.000000	29.730790
1843.000000	29.855761
1842.000000	29.873429
1841.000000	29.846728
1840.000000	29.725926
1839.000000	29.610287
1838.000000	29.656642
1837.000000	29.730890
1836.000000	29.714511
1835.000000	29.453552
1834.000000	29.286594
1833.000000	29.234084
1832.000000	29.231801
1831.000000	29.137999
1830.000000	29.026627
1829.000000	28.958633
1828.000000	28.930641
1827.000000	28.879323
1826.000000	28.862448
1825.000000	28.671667
1824.000000	28.566747
1823.000000	28.606452
1822.000000	28.596625
1821.000000	28.631863
1820.000000	28.627595
1819.000000	28.443365
1818.000000	28.407730
1817.000000	28.453390
1816.000000	28.442968
1815.000000	28.459048
1814.000000	28.379738
1813.000000	28.368422
1812.000000	28.363459
1811.000000	28.327129
1810.000000	28.278690
1809.000000	28.235014
1808.000000	28.190049
1807.000000	28.153322
1806.000000	28.076493
1805.000000	28.027954
1804.000000	27.962045
1803.000000	27.942887
1802.000000	27.865959
1801.000000	27.815733
1800.000000	27.786947
1799.000000	27.723419
1798.000000	27.604007
1797.000000	27.584453
1796.000000	27.548321
1795.000000	27.520627
1794.000000	27.474669
1793.000000	27.390495
1792.000000	27.313270
1791.000000	27.274955
1790.000000	27.219169
1789.000000	27.131223
1788.000000	27.085364
1787.000000	27.011315
1786.000000	26.917215
1785.000000	26.879793
1784.000000	26.820137
1783.000000	26.733382
1782.000000	26.624294
1781.000000	26.546572
1780.000000	26.496047
1779.000000	26.438575
1778.000000	26.304075
1777.000000	26.181884
1776.000000	26.066542
1775.000000	25.931248
1774.000000	25.821266
1773.000000	25.684582
1772.000000	25.534697
1771.000000	25.430174
1770.000000	25.314336
1769.000000	25.159984
1768.000000	25.039083
1767.000000	24.928307
1766.000000	24.827457
1765.000000	24.712214
1764.000000	24.642234
1763.000000	24.627146
1762.000000	24.612158
1761.000000	24.667546
1760.000000	24.757279
1759.000000	24.820409
1758.000000	24.868650
1757.000000	24.962254
1756.000000	25.038388
1755.000000	25.055362
1754.000000	25.087721
1753.000000	25.089806
1752.000000	25.096853
1751.000000	25.089011
1750.000000	25.039976
1749.000000	24.976349
1748.000000	24.899223
1747.000000	24.817828
1746.000000	24.714795
1745.000000	24.572155
1744.000000	24.425943
1743.000000	24.253029
1742.000000	24.033462
1741.000000	23.802976
1740.000000	23.544002
1739.000000	23.285028
1738.000000	23.079457
1737.000000	22.897907
1736.000000	22.726680
1735.000000	22.589302
1734.000000	22.507411
1733.000000	22.518925
1732.000000	22.567067
1731.000000	22.606971
1730.000000	22.702560
1729.000000	22.851055
1728.000000	22.971460
1727.000000	23.084023
1726.000000	23.175939
1725.000000	23.255448
1724.000000	23.331582
1723.000000	23.420421
1722.000000	23.501319
1721.000000	23.516705
1720.000000	23.510253
1719.000000	23.540230
1718.000000	23.562564
1717.000000	23.632643
1716.000000	23.745404
1715.000000	23.808137
1714.000000	23.855188
1713.000000	23.920800
1712.000000	24.034554
1711.000000	24.095004
1710.000000	24.130937
1709.000000	24.130043
1708.000000	24.141061
1707.000000	24.128455
1706.000000	24.080611
1705.000000	24.010532
1704.000000	23.959115
1703.000000	23.893403
1702.000000	23.790171
1701.000000	23.647433
1700.000000	23.503602
1699.000000	23.314012
1698.000000	23.122139
1697.000000	22.994489
1696.000000	22.883911
1695.000000	22.861180
1694.000000	22.900587
1693.000000	22.976423
1692.000000	23.137525
1691.000000	23.321258
1690.000000	23.531594
1689.000000	23.676616
1688.000000	23.749970
1687.000000	23.758804
1686.000000	23.813498
1685.000000	23.847445
1684.000000	23.940056
1683.000000	24.087361
1682.000000	24.416414
1681.000000	24.843239
1680.000000	25.395730
1679.000000	25.991698
1678.000000	26.549053
1677.000000	27.101346
1676.000000	27.638550
1675.000000	28.074607
1674.000000	28.420435
1673.000000	28.771524
1672.000000	29.044395
1671.000000	29.301979
1670.000000	29.552218
1669.000000	29.777642
1668.000000	29.954030
1667.000000	30.068975
1666.000000	30.199107
1665.000000	30.294399
1664.000000	30.383337
1663.000000	30.490441
1662.000000	30.560420
1661.000000	30.590794
1660.000000	30.684994
1659.000000	30.735121
1658.000000	30.784256
1657.000000	30.793983
1656.000000	30.821578
1655.000000	30.788822
1654.000000	30.802123
1653.000000	30.778498
1652.000000	30.759242
1651.000000	30.751301
1650.000000	30.709412
1649.000000	30.680229
1648.000000	30.663752
1647.000000	30.616602
1646.000000	30.554068
1645.000000	30.509698
1644.000000	30.468107
1643.000000	30.401800
1642.000000	30.315541
1641.000000	30.297873
1640.000000	30.207842
1639.000000	30.115033
1638.000000	30.082872
1637.000000	30.000385
1636.000000	29.943310
1635.000000	29.864893
1634.000000	29.777840
1633.000000	29.709449
1632.000000	29.578622
1631.000000	29.516980
1630.000000	29.429829
1629.000000	29.336026
1628.000000	29.262374
1627.000000	29.166487
1626.000000	29.101768
1625.000000	28.998834
1624.000000	28.892525
1623.000000	28.794255
1622.000000	28.703530
1621.000000	28.614889
1620.000000	28.531311
1619.000000	28.436714
1618.000000	28.373485
1617.000000	28.308468
1616.000000	28.217743
1615.000000	28.130889
1614.000000	28.027756
1613.000000	27.961648
1612.000000	27.874893
1611.000000	27.810472
1610.000000	27.676369
1609.000000	27.580284
1608.000000	27.570258
1607.000000	27.484695
1606.000000	27.386624
1605.000000	27.298777
1604.000000	27.223835
1603.000000	27.139958
1602.000000	27.010422
1601.000000	26.943222
1600.000000	26.864110
1599.000000	26.811600
1598.000000	26.740628
1597.000000	26.645536
1596.000000	26.566523
1595.000000	26.500316
1594.000000	26.424082
1593.000000	26.364228
1592.000000	26.279359
1591.000000	26.256032
1590.000000	26.199155
1589.000000	26.103864
1588.000000	26.042421
1587.000000	26.042818
1586.000000	26.015918
1585.000000	25.970952
1584.000000	25.911892
1583.000000	25.869110
1582.000000	25.813523
1581.000000	25.790693
1580.000000	25.738184
1579.000000	25.719125
1578.000000	25.690538
1577.000000	25.673366
1576.000000	25.675748
1575.000000	25.652421
1574.000000	25.617878
1573.000000	25.644381
1572.000000	25.633264
1571.000000	25.642098
1570.000000	25.650138
1569.000000	25.643786
1568.000000	25.681604
1567.000000	25.662248
1566.000000	25.688553
1565.000000	25.706221
1564.000000	25.751286
1563.000000	25.761411
1562.000000	25.751882
1561.000000	25.764587
1560.000000	25.743941
1559.000000	25.748308
1558.000000	25.764686
1557.000000	25.777789
1556.000000	25.758631
1555.000000	25.760021
1554.000000	25.765481
1553.000000	25.749301
1552.000000	25.716247
1551.000000	25.646962
1550.000000	25.655002
1549.000000	25.641701
1548.000000	25.608151
1547.000000	25.593162
1546.000000	25.580854
1545.000000	25.549288
1544.000000	25.505216
1543.000000	25.473055
1542.000000	25.471666
1541.000000	25.469482
1540.000000	25.455089
1539.000000	25.442979
1538.000000	25.436527
1537.000000	25.438115
1536.000000	25.388484
1535.000000	25.362974
1534.000000	25.346596
1533.000000	25.305303
1532.000000	25.303715
1531.000000	25.272348
1530.000000	25.224603
1529.000000	25.205743
1528.000000	25.185692
1527.000000	25.142414
1526.000000	25.099533
1525.000000	25.023697
1524.000000	25.014863
1523.000000	24.996301
1522.000000	24.953122
1521.000000	24.919075
1520.000000	24.856143
1519.000000	24.808696
1518.000000	24.766212
1517.000000	24.719857
1516.000000	24.685711
1515.000000	24.659605
1514.000000	24.624764
1513.000000	24.570766
1512.000000	24.527587
1511.000000	24.453736
1510.000000	24.403708
1509.000000	24.355268
1508.000000	24.308020
1507.000000	24.264642
1506.000000	24.220074
