PE UV       SUBTECH     SPECTRUM    ASCII       PEDS        4.00        
   -1
CICIMAUCR0104-1.ASC
24/04/03
17:14:03.00
24/04/03
17:14:03.00
Vinicio Soto Monge
C. resplendens
250,000000
1
Lambda 1050
1050L1511233
PerkinElmer UV WinLab 6.3.2.0749 / 2.02.05 Lambda 900 UV/VIS/NIR, Aug  7 2015 09:38:08

0
0
3350/servo 860,8/2
0
0
UV/VIS
1
1
1
DoubleDePol,CommonBeamDepol,RBeamAtt,SBeamAtt,60mm sphere, WB InGaAs Detector
0
0
0
0
Program
Program
3350/servo 860,8/2
3350/0,2 860,8/0,2
3350/0,2 860,8/0,2
0
15.00
 
 
 
0
 
860,8
319,2
860,8
Front
100
on
S:100 R:100
0
0
0
0
 
0
 
 
 
0
 
 
0
0
0
0
0
 
 
 
 
0
0


0
0
#HDR
-1
-1
#GR
nm
%R
1.0
0.0
2500,000000
-1,000000
2251
8
71,310100
3,418100
#DATA
2482.000000	3.578775
2481.000000	3.598424
2480.000000	3.558722
2479.000000	3.588751
2478.000000	3.626438
2477.000000	3.555094
2476.000000	3.558722
2475.000000	3.532119
2474.000000	3.574442
2473.000000	3.616865
2472.000000	3.565171
2471.000000	3.589255
2470.000000	3.612028
2469.000000	3.629562
2468.000000	3.587441
2467.000000	3.582100
2466.000000	3.595200
2465.000000	3.593588
2464.000000	3.604269
2463.000000	3.592882
2462.000000	3.605680
2461.000000	3.601548
2460.000000	3.635709
2459.000000	3.640142
2458.000000	3.645685
2457.000000	3.672590
2456.000000	3.692844
2455.000000	3.673194
2454.000000	3.693952
2453.000000	3.719245
2452.000000	3.734159
2451.000000	3.731438
2450.000000	3.737182
2449.000000	3.787465
2448.000000	3.786558
2447.000000	3.774567
2446.000000	3.801472
2445.000000	3.817595
2444.000000	3.844298
2443.000000	3.877048
2442.000000	3.878862
2441.000000	3.892566
2440.000000	3.914937
2439.000000	3.906573
2438.000000	3.925215
2437.000000	3.953329
2436.000000	3.977413
2435.000000	3.970863
2434.000000	3.997969
2433.000000	4.004922
2432.000000	4.013387
2431.000000	4.042307
2430.000000	4.052384
2429.000000	4.067399
2428.000000	4.077475
2427.000000	4.093195
2426.000000	4.108512
2425.000000	4.130782
2424.000000	4.146905
2423.000000	4.144184
2422.000000	4.161717
2421.000000	4.162120
2420.000000	4.171996
2419.000000	4.191847
2418.000000	4.205955
2417.000000	4.220868
2416.000000	4.230743
2415.000000	4.233162
2414.000000	4.240014
2413.000000	4.252812
2412.000000	4.270950
2411.000000	4.285964
2410.000000	4.283445
2409.000000	4.294933
2408.000000	4.310350
2407.000000	4.312265
2406.000000	4.333124
2405.000000	4.342193
2404.000000	4.336751
2403.000000	4.352068
2402.000000	4.353076
2401.000000	4.367385
2400.000000	4.363253
2399.000000	4.364664
2398.000000	4.383004
2397.000000	4.403460
2396.000000	4.407390
2395.000000	4.410211
2394.000000	4.416157
2393.000000	4.429861
2392.000000	4.436109
2391.000000	4.439434
2390.000000	4.448805
2389.000000	4.461603
2388.000000	4.458479
2387.000000	4.460494
2386.000000	4.482764
2385.000000	4.477827
2384.000000	4.478834
2383.000000	4.480245
2382.000000	4.492841
2381.000000	4.495058
2380.000000	4.484780
2379.000000	4.483066
2378.000000	4.484578
2377.000000	4.483167
2376.000000	4.493546
2375.000000	4.498484
2374.000000	4.482361
2373.000000	4.469664
2372.000000	4.468354
2371.000000	4.467145
2370.000000	4.458278
2369.000000	4.457471
2368.000000	4.454650
2367.000000	4.434194
2366.000000	4.420691
2365.000000	4.431977
2364.000000	4.419683
2363.000000	4.392577
2362.000000	4.379880
2361.000000	4.381895
2360.000000	4.376756
2359.000000	4.368292
2358.000000	4.364261
2357.000000	4.352270
2356.000000	4.333728
2355.000000	4.322241
2354.000000	4.309645
2353.000000	4.301785
2352.000000	4.294026
2351.000000	4.299770
2350.000000	4.299467
2349.000000	4.305009
2348.000000	4.299971
2347.000000	4.295940
2346.000000	4.302893
2345.000000	4.306521
2344.000000	4.312970
2343.000000	4.305715
2342.000000	4.316598
2341.000000	4.329597
2340.000000	4.321233
2339.000000	4.332116
2338.000000	4.319822
2337.000000	4.304002
2336.000000	4.299064
2335.000000	4.297049
2334.000000	4.294933
2333.000000	4.284856
2332.000000	4.286871
2331.000000	4.274981
2330.000000	4.252106
2329.000000	4.235278
2328.000000	4.248378
2327.000000	4.215528
2326.000000	4.195878
2325.000000	4.176228
2324.000000	4.147509
2323.000000	4.135115
2322.000000	4.115364
2321.000000	4.103977
2320.000000	4.092893
2319.000000	4.065081
2318.000000	4.037672
2317.000000	4.049966
2316.000000	4.024068
2315.000000	3.987490
2314.000000	3.964817
2313.000000	3.961693
2312.000000	3.953329
2311.000000	3.931160
2310.000000	3.912014
2309.000000	3.878862
2308.000000	3.863041
2307.000000	3.865460
2306.000000	3.852057
2305.000000	3.838353
2304.000000	3.826059
2303.000000	3.831400
2302.000000	3.839865
2301.000000	3.838756
2300.000000	3.805603
2299.000000	3.798953
2298.000000	3.809231
2297.000000	3.807518
2296.000000	3.812556
2295.000000	3.826160
2294.000000	3.842988
2293.000000	3.819106
2292.000000	3.808828
2291.000000	3.802681
2290.000000	3.801673
2289.000000	3.780210
2288.000000	3.781822
2287.000000	3.765800
2286.000000	3.746050
2285.000000	3.732244
2284.000000	3.700905
2283.000000	3.692743
2282.000000	3.683775
2281.000000	3.655963
2280.000000	3.642964
2279.000000	3.638832
2278.000000	3.599734
2277.000000	3.579782
2276.000000	3.588851
2275.000000	3.548645
2274.000000	3.539677
2273.000000	3.529499
2272.000000	3.502594
2271.000000	3.496750
2270.000000	3.505416
2269.000000	3.470852
2268.000000	3.481634
2267.000000	3.470046
2266.000000	3.460977
2265.000000	3.448280
2264.000000	3.444350
2263.000000	3.464605
2262.000000	3.463295
2261.000000	3.468535
2260.000000	3.468031
2259.000000	3.501586
2258.000000	3.508942
2257.000000	3.522647
2256.000000	3.560435
2255.000000	3.573333
2254.000000	3.582705
2253.000000	3.590766
2252.000000	3.629562
2251.000000	3.641755
2250.000000	3.659792
2249.000000	3.691836
2248.000000	3.721059
2247.000000	3.726501
2246.000000	3.738290
2245.000000	3.761366
2244.000000	3.799557
2243.000000	3.789077
2242.000000	3.825052
2241.000000	3.860320
2240.000000	3.846414
2239.000000	3.865963
2238.000000	3.909394
2237.000000	3.907883
2236.000000	3.911611
2235.000000	3.937811
2234.000000	3.940129
2233.000000	3.974894
2232.000000	3.948392
2231.000000	3.972475
2230.000000	3.961794
2229.000000	3.959275
2228.000000	3.937609
2227.000000	3.922595
2226.000000	3.938516
2225.000000	3.910704
2224.000000	3.902844
2223.000000	3.882590
2222.000000	3.880575
2221.000000	3.855181
2220.000000	3.849135
2219.000000	3.854476
2218.000000	3.816688
2217.000000	3.772753
2216.000000	3.753708
2215.000000	3.754716
2214.000000	3.730430
2213.000000	3.746654
2212.000000	3.755018
2211.000000	3.729826
2210.000000	3.754514
2209.000000	3.764490
2208.000000	3.779202
2207.000000	3.804999
2206.000000	3.834423
2205.000000	3.885815
2204.000000	3.921890
2203.000000	3.985373
2202.000000	4.034750
2201.000000	4.081103
2200.000000	4.141765
2199.000000	4.209784
2198.000000	4.281631
2197.000000	4.357913
2196.000000	4.412126
2195.000000	4.488911
2194.000000	4.550480
2193.000000	4.608422
2192.000000	4.658302
2191.000000	4.721484
2190.000000	4.760380
2189.000000	4.815702
2188.000000	4.876062
2187.000000	4.892487
2186.000000	4.924027
2185.000000	4.957784
2184.000000	4.989123
2183.000000	5.026710
2182.000000	5.050289
2181.000000	5.052809
2180.000000	5.097348
2179.000000	5.097247
2178.000000	5.128888
2177.000000	5.146221
2176.000000	5.156700
2175.000000	5.169901
2174.000000	5.192473
2173.000000	5.201240
2172.000000	5.218471
2171.000000	5.242152
2170.000000	5.248500
2169.000000	5.267444
2168.000000	5.283366
2167.000000	5.291125
2166.000000	5.294853
2165.000000	5.319642
2164.000000	5.326293
2163.000000	5.348260
2162.000000	5.360352
2161.000000	5.368313
2160.000000	5.377685
2159.000000	5.382622
2158.000000	5.434316
2157.000000	5.447013
2156.000000	5.446610
2155.000000	5.460012
2154.000000	5.462430
2153.000000	5.475329
2152.000000	5.474825
2151.000000	5.497901
2150.000000	5.516946
2149.000000	5.529844
2148.000000	5.531557
2147.000000	5.540727
2146.000000	5.565113
2145.000000	5.568539
2144.000000	5.571764
2143.000000	5.591716
2142.000000	5.603506
2141.000000	5.614288
2140.000000	5.618923
2139.000000	5.619528
2138.000000	5.610358
2137.000000	5.631519
2136.000000	5.637364
2135.000000	5.628093
2134.000000	5.642805
2133.000000	5.641999
2132.000000	5.649053
2131.000000	5.641596
2130.000000	5.642906
2129.000000	5.634643
2128.000000	5.629907
2127.000000	5.630814
2126.000000	5.633232
2125.000000	5.636255
2124.000000	5.625272
2123.000000	5.609955
2122.000000	5.588693
2121.000000	5.591111
2120.000000	5.598266
2119.000000	5.589398
2118.000000	5.587786
2117.000000	5.579321
2116.000000	5.558563
2115.000000	5.555339
2114.000000	5.552517
2113.000000	5.540123
2112.000000	5.524201
2111.000000	5.510598
2110.000000	5.505458
2109.000000	5.503947
2108.000000	5.491452
2107.000000	5.474019
2106.000000	5.465756
2105.000000	5.454571
2104.000000	5.442982
2103.000000	5.439858
2102.000000	5.434417
2101.000000	5.418798
2100.000000	5.412450
2099.000000	5.400760
2098.000000	5.390482
2097.000000	5.394211
2096.000000	5.393807
2095.000000	5.381615
2094.000000	5.372142
2093.000000	5.368716
2092.000000	5.358539
2091.000000	5.336269
2090.000000	5.328107
2089.000000	5.331130
2088.000000	5.331533
2087.000000	5.328510
2086.000000	5.311178
2085.000000	5.305333
2084.000000	5.305938
2083.000000	5.292536
2082.000000	5.284373
2081.000000	5.288203
2080.000000	5.278831
2079.000000	5.246182
2078.000000	5.241648
2077.000000	5.246082
2076.000000	5.225424
2075.000000	5.228145
2074.000000	5.231168
2073.000000	5.214440
2072.000000	5.206581
2071.000000	5.213231
2070.000000	5.201945
2069.000000	5.180482
2068.000000	5.173629
2067.000000	5.174133
2066.000000	5.175141
2065.000000	5.156499
2064.000000	5.161033
2063.000000	5.168490
2062.000000	5.169095
2061.000000	5.173226
2060.000000	5.162343
2059.000000	5.167886
2058.000000	5.173226
2057.000000	5.168994
2056.000000	5.165770
2055.000000	5.180986
2054.000000	5.184311
2053.000000	5.204666
2052.000000	5.212627
2051.000000	5.229959
2050.000000	5.249004
2049.000000	5.273087
2048.000000	5.305232
2047.000000	5.316922
2046.000000	5.332541
2045.000000	5.362368
2044.000000	5.385847
2043.000000	5.404388
2042.000000	5.447013
2041.000000	5.489839
2040.000000	5.497800
2039.000000	5.509187
2038.000000	5.561082
2037.000000	5.590809
2036.000000	5.623861
2035.000000	5.657013
2034.000000	5.691476
2033.000000	5.718079
2032.000000	5.730373
2031.000000	5.754154
2030.000000	5.768060
2029.000000	5.773501
2028.000000	5.803530
2027.000000	5.849984
2026.000000	5.869533
2025.000000	5.866812
2024.000000	5.903190
2023.000000	5.932009
2022.000000	5.927575
2021.000000	5.971309
2020.000000	5.986726
2019.000000	5.992268
2018.000000	6.024212
2017.000000	6.035397
2016.000000	6.070263
2015.000000	6.065325
2014.000000	6.068550
2013.000000	6.064519
2012.000000	6.106136
2011.000000	6.123065
2010.000000	6.113291
2009.000000	6.116515
2008.000000	6.144126
2007.000000	6.134150
2006.000000	6.128608
2005.000000	6.152389
2004.000000	6.135460
2003.000000	6.149870
2002.000000	6.162163
2001.000000	6.151280
2000.000000	6.165791
1999.000000	6.130824
1998.000000	6.131127
1997.000000	6.116515
1996.000000	6.128104
1995.000000	6.098377
1994.000000	6.089207
1993.000000	6.115306
1992.000000	6.090719
1991.000000	6.084270
1990.000000	6.093742
1989.000000	6.057264
1988.000000	6.050412
1987.000000	6.026026
1986.000000	6.001237
1985.000000	6.005872
1984.000000	5.985416
1983.000000	5.959015
1982.000000	5.938660
1981.000000	5.956294
1980.000000	5.915987
1979.000000	5.910042
1978.000000	5.885454
1977.000000	5.857239
1976.000000	5.838396
1975.000000	5.833962
1974.000000	5.835776
1973.000000	5.799600
1972.000000	5.789019
1971.000000	5.785493
1970.000000	5.761409
1969.000000	5.754960
1968.000000	5.734907
1967.000000	5.721404
1966.000000	5.718986
1965.000000	5.692081
1964.000000	5.673942
1963.000000	5.652983
1962.000000	5.660440
1961.000000	5.646937
1960.000000	5.631922
1959.000000	5.643208
1958.000000	5.585468
1957.000000	5.590103
1956.000000	5.578817
1955.000000	5.562997
1954.000000	5.533976
1953.000000	5.533270
1952.000000	5.534177
1951.000000	5.513318
1950.000000	5.498707
1949.000000	5.519767
1948.000000	5.491552
1947.000000	5.479259
1946.000000	5.473011
1945.000000	5.435828
1944.000000	5.440463
1943.000000	5.434215
1942.000000	5.445501
1941.000000	5.446811
1940.000000	5.430285
1939.000000	5.416682
1938.000000	5.418193
1937.000000	5.409225
1936.000000	5.420007
1935.000000	5.405295
1934.000000	5.415170
1933.000000	5.423433
1932.000000	5.431293
1931.000000	5.451144
1930.000000	5.452253
1929.000000	5.470895
1928.000000	5.462430
1927.000000	5.486615
1926.000000	5.507675
1925.000000	5.522287
1924.000000	5.533976
1923.000000	5.576298
1922.000000	5.608846
1921.000000	5.640286
1920.000000	5.637364
1919.000000	5.682105
1918.000000	5.702762
1917.000000	5.755161
1916.000000	5.797182
1915.000000	5.843535
1914.000000	5.893314
1913.000000	5.923545
1912.000000	5.978463
1911.000000	6.020786
1910.000000	6.077417
1909.000000	6.123670
1908.000000	6.193401
1907.000000	6.257893
1906.000000	6.323594
1905.000000	6.412874
1904.000000	6.477769
1903.000000	6.539842
1902.000000	6.627409
1901.000000	6.718604
1900.000000	6.798312
1899.000000	6.879228
1898.000000	6.974353
1897.000000	7.067362
1896.000000	7.135179
1895.000000	7.237458
1894.000000	7.343265
1893.000000	7.462171
1892.000000	7.582488
1891.000000	7.720339
1890.000000	7.840857
1889.000000	7.967522
1888.000000	8.106784
1887.000000	8.284639
1886.000000	8.472773
1885.000000	8.673906
1884.000000	8.944569
1883.000000	9.239214
1882.000000	9.548874
1881.000000	9.863270
1880.000000	10.184216
1879.000000	10.526324
1878.000000	10.834271
1877.000000	11.147457
1876.000000	11.460846
1875.000000	11.751360
1874.000000	12.025146
1873.000000	12.289058
1872.000000	12.516793
1871.000000	12.720748
1870.000000	12.890038
1869.000000	13.055701
1868.000000	13.205543
1867.000000	13.313767
1866.000000	13.394281
1865.000000	13.488297
1864.000000	13.572842
1863.000000	13.636124
1862.000000	13.695779
1861.000000	13.739210
1860.000000	13.759867
1859.000000	13.776998
1858.000000	13.770145
1857.000000	13.769742
1856.000000	13.752612
1855.000000	13.730644
1854.000000	13.679454
1853.000000	13.619195
1852.000000	13.575865
1851.000000	13.546239
1850.000000	13.524876
1849.000000	13.493034
1848.000000	13.409396
1847.000000	13.307721
1846.000000	13.215418
1845.000000	13.163119
1844.000000	13.144981
1843.000000	13.153748
1842.000000	13.133896
1841.000000	13.072831
1840.000000	13.026982
1839.000000	12.990302
1838.000000	12.956847
1837.000000	12.914323
1836.000000	12.845599
1835.000000	12.773349
1834.000000	12.699284
1833.000000	12.645373
1832.000000	12.606981
1831.000000	12.540474
1830.000000	12.454116
1829.000000	12.382067
1828.000000	12.320800
1827.000000	12.252378
1826.000000	12.182848
1825.000000	12.121481
1824.000000	12.085506
1823.000000	12.087119
1822.000000	12.066461
1821.000000	12.026053
1820.000000	11.988064
1819.000000	11.939292
1818.000000	11.922968
1817.000000	11.935765
1816.000000	11.943323
1815.000000	11.933347
1814.000000	11.925386
1813.000000	11.919239
1812.000000	11.909969
1811.000000	11.902512
1810.000000	11.861701
1809.000000	11.835098
1808.000000	11.809100
1807.000000	11.778668
1806.000000	11.737152
1805.000000	11.696643
1804.000000	11.662684
1803.000000	11.638298
1802.000000	11.605750
1801.000000	11.558087
1800.000000	11.503370
1799.000000	11.455908
1798.000000	11.417012
1797.000000	11.389804
1796.000000	11.356349
1795.000000	11.323801
1794.000000	11.274929
1793.000000	11.238552
1792.000000	11.174564
1791.000000	11.111584
1790.000000	11.063518
1789.000000	11.024621
1788.000000	10.969199
1787.000000	10.916396
1786.000000	10.851603
1785.000000	10.761113
1784.000000	10.694908
1783.000000	10.636060
1782.000000	10.563104
1781.000000	10.500225
1780.000000	10.436035
1779.000000	10.354917
1778.000000	10.276419
1777.000000	10.192278
1776.000000	10.108943
1775.000000	10.011298
1774.000000	9.920809
1773.000000	9.833443
1772.000000	9.711312
1771.000000	9.619513
1770.000000	9.521465
1769.000000	9.415155
1768.000000	9.322045
1767.000000	9.230850
1766.000000	9.167971
1765.000000	9.093907
1764.000000	9.052290
1763.000000	9.056824
1762.000000	9.056119
1761.000000	9.083628
1760.000000	9.114363
1759.000000	9.156383
1758.000000	9.188729
1757.000000	9.207271
1756.000000	9.243346
1755.000000	9.273979
1754.000000	9.295140
1753.000000	9.305217
1752.000000	9.264507
1751.000000	9.241733
1750.000000	9.224704
1749.000000	9.158600
1748.000000	9.102271
1747.000000	9.027501
1746.000000	8.963009
1745.000000	8.884309
1744.000000	8.769837
1743.000000	8.642970
1742.000000	8.523560
1741.000000	8.379663
1740.000000	8.221760
1739.000000	8.099931
1738.000000	7.973165
1737.000000	7.866553
1736.000000	7.773141
1735.000000	7.719432
1734.000000	7.700185
1733.000000	7.684767
1732.000000	7.713083
1731.000000	7.750166
1730.000000	7.825137
1729.000000	7.891946
1728.000000	7.969941
1727.000000	8.031913
1726.000000	8.096707
1725.000000	8.198684
1724.000000	8.218938
1723.000000	8.205234
1722.000000	8.233449
1721.000000	8.233852
1720.000000	8.223775
1719.000000	8.210272
1718.000000	8.239697
1717.000000	8.256323
1716.000000	8.280306
1715.000000	8.278089
1714.000000	8.305297
1713.000000	8.331597
1712.000000	8.336837
1711.000000	8.368680
1710.000000	8.388934
1709.000000	8.363843
1708.000000	8.347619
1707.000000	8.326861
1706.000000	8.315071
1705.000000	8.295321
1704.000000	8.267710
1703.000000	8.218636
1702.000000	8.165834
1701.000000	8.084413
1700.000000	8.030704
1699.000000	7.925804
1698.000000	7.856275
1697.000000	7.793194
1696.000000	7.743414
1695.000000	7.743515
1694.000000	7.783722
1693.000000	7.843376
1692.000000	7.940517
1691.000000	8.058012
1690.000000	8.149207
1689.000000	8.230930
1688.000000	8.269625
1687.000000	8.280911
1686.000000	8.300661
1685.000000	8.310537
1684.000000	8.343992
1683.000000	8.433171
1682.000000	8.612639
1681.000000	8.926430
1680.000000	9.234982
1679.000000	9.618505
1678.000000	9.998199
1677.000000	10.412960
1676.000000	10.741262
1675.000000	11.077827
1674.000000	11.343653
1673.000000	11.589426
1672.000000	11.786024
1671.000000	11.970933
1670.000000	12.141231
1669.000000	12.267393
1668.000000	12.373300
1667.000000	12.464898
1666.000000	12.559217
1665.000000	12.617360
1664.000000	12.671271
1663.000000	12.712888
1662.000000	12.749971
1661.000000	12.791285
1660.000000	12.825043
1659.000000	12.835623
1658.000000	12.848723
1657.000000	12.857792
1656.000000	12.850033
1655.000000	12.836631
1654.000000	12.818090
1653.000000	12.815067
1652.000000	12.785239
1651.000000	12.752994
1650.000000	12.711578
1649.000000	12.669658
1648.000000	12.633684
1647.000000	12.591866
1646.000000	12.547225
1645.000000	12.487671
1644.000000	12.441520
1643.000000	12.386702
1642.000000	12.323722
1641.000000	12.261246
1640.000000	12.205118
1639.000000	12.143851
1638.000000	12.095180
1637.000000	12.044796
1636.000000	11.952291
1635.000000	11.875708
1634.000000	11.814239
1633.000000	11.756902
1632.000000	11.685961
1631.000000	11.636182
1630.000000	11.563025
1629.000000	11.508408
1628.000000	11.445529
1627.000000	11.363302
1626.000000	11.288734
1625.000000	11.214065
1624.000000	11.161162
1623.000000	11.093043
1622.000000	11.022001
1621.000000	10.962044
1620.000000	10.895941
1619.000000	10.843037
1618.000000	10.777639
1617.000000	10.713349
1616.000000	10.679289
1615.000000	10.702869
1614.000000	10.696621
1613.000000	10.667399
1612.000000	10.634951
1611.000000	10.587691
1610.000000	10.538617
1609.000000	10.499519
1608.000000	10.454577
1607.000000	10.409836
1606.000000	10.361467
1605.000000	10.314610
1604.000000	10.277729
1603.000000	10.240143
1602.000000	10.188549
1601.000000	10.140281
1600.000000	10.113981
1599.000000	10.071860
1598.000000	10.034576
1597.000000	10.010795
1596.000000	9.979859
1595.000000	9.952450
1594.000000	9.928467
1593.000000	9.903577
1592.000000	9.878083
1591.000000	9.852690
1590.000000	9.824978
1589.000000	9.809158
1588.000000	9.815204
1587.000000	9.806840
1586.000000	9.790113
1585.000000	9.773889
1584.000000	9.770665
1583.000000	9.772277
1582.000000	9.754441
1581.000000	9.751619
1580.000000	9.748496
1579.000000	9.748395
1578.000000	9.742449
1577.000000	9.754038
1576.000000	9.773889
1575.000000	9.785880
1574.000000	9.809259
1573.000000	9.816111
