PE UV       SUBTECH     SPECTRUM    ASCII       PEDS        4.00        
   -1
INBUCR0111-5.Sample.ASC
24/02/09
16:30:28.00
24/02/09
16:30:28.00
Vinicio Soto Monge
Strigidia belti. Color verde oscuro metálico con ambos élitros (Det: A.Solís) COSTA RICA Prov. Alajuela. San Ramón. Est. Biol. Villa Blanca. 1115m 23 25 MAY 2009 R. Rojas Tp. Luz Mercurio  L_N_242482 483371 #97135 INB0004224190 
250,000000
1
Lambda 1050
1050L1511233
PerkinElmer UV WinLab 6.3.2.0749 / 2.02.05 Lambda 900 UV/VIS/NIR, Aug  7 2015 09:38:08

0
0
3350/servo 860,8/2
0
0
UV/VIS
1
1
1
DoubleDePol,CommonBeamDepol,RBeamAtt,SBeamAtt,60mm sphere, WB InGaAs Detector
0
0
0
0
Program
Program
3350/servo 860,8/2
3350/0,2 860,8/0,2
3350/0,2 860,8/0,2
0
15.00
 
 
 
0
 
860,8
319,2
860,8
Front
100
on
S:100 R:100
0
0
0
0
 
0
 
 
 
0
 
 
0
0
0
0
0
 
 
 
 
0
0


0
0
#HDR
-1
-1
#GR
nm
%R
1.0
0.0
2500,000000
-1,000000
2251
8
19,579500
1,493300
#DATA

250.000000	4.069837
251.000000	4.067516
252.000000	4.080100
253.000000	4.538679
254.000000	4.544570
255.000000	4.537382
256.000000	4.558430
257.000000	4.549062
258.000000	4.552262
259.000000	4.083340
260.000000	4.545591
261.000000	4.551269
262.000000	4.072268
263.000000	4.551156
264.000000	4.064349
265.000000	4.090623
266.000000	4.066356
267.000000	4.088147
268.000000	4.094008
269.000000	4.078675
270.000000	4.061215
271.000000	4.086332
272.000000	4.078887
273.000000	4.074521
274.000000	4.091419
275.000000	4.063438
276.000000	4.075148
277.000000	4.092710
278.000000	4.078519
279.000000	4.091892
280.000000	4.085181
281.000000	4.082952
282.000000	4.090336
283.000000	4.098075
284.000000	4.090129
285.000000	4.090442
286.000000	4.083173
287.000000	4.084816
288.000000	4.079950
289.000000	4.078290
290.000000	4.588813
291.000000	4.571650
292.000000	4.078476
293.000000	4.084938
294.000000	4.090319
295.000000	4.090240
296.000000	4.095162
297.000000	4.088470
298.000000	4.080895
299.000000	4.096884
300.000000	4.578573
301.000000	4.068233
302.000000	4.095602
303.000000	4.575859
304.000000	4.570851
305.000000	4.589028
306.000000	4.581305
307.000000	4.568854
308.000000	4.571547
309.000000	4.573429
310.000000	4.584376
311.000000	4.574532
312.000000	4.608140
313.000000	4.587247
314.000000	4.585717
315.000000	4.592494
316.000000	4.597909
317.000000	4.490299
318.000000	4.507427
319.000000	4.476463
320.000000	4.410444
321.000000	4.495548
322.000000	4.493039
323.000000	4.486169
324.000000	4.478986
325.000000	4.528649
326.000000	4.499111
327.000000	4.592123
328.000000	4.518819
329.000000	4.490784
330.000000	4.553506
331.000000	4.546687
332.000000	4.499663
333.000000	4.538501
334.000000	4.574948
335.000000	4.599284
336.000000	4.593582
337.000000	4.547169
338.000000	4.559068
339.000000	4.547641
340.000000	4.591023
341.000000	4.576523
342.000000	4.589719
343.000000	4.565447
344.000000	4.551699
345.000000	4.557619
346.000000	4.584220
347.000000	4.600000
348.000000	4.622541
349.000000	4.599744
350.000000	4.575574
351.000000	4.602345
352.000000	4.607451
353.000000	4.629545
354.000000	4.603223
355.000000	4.593922
356.000000	4.582524
357.000000	4.576079
358.000000	4.588462
359.000000	4.611006
360.000000	4.605769
361.000000	4.621627
362.000000	4.619470
363.000000	4.625304
364.000000	4.631397
365.000000	4.614122
366.000000	4.597571
367.000000	4.632203
368.000000	4.632957
369.000000	4.656267
370.000000	4.624898
371.000000	4.647012
372.000000	4.657213
373.000000	4.654870
374.000000	4.684949
375.000000	4.704136
376.000000	4.698664
377.000000	4.684352
378.000000	4.688656
379.000000	4.685288
380.000000	4.689787
381.000000	4.690832
382.000000	4.685854
383.000000	4.686647
384.000000	4.684672
385.000000	4.684030
386.000000	4.689762
387.000000	4.688827
388.000000	4.689599
389.000000	4.692174
390.000000	4.687371
391.000000	4.688805
392.000000	4.689756
393.000000	4.690861
394.000000	4.689590
395.000000	4.690071
396.000000	4.691645
397.000000	4.691185
398.000000	4.693219
399.000000	4.694006
400.000000	4.692839
401.000000	4.694634
402.000000	4.693329
403.000000	4.692717
404.000000	4.693489
405.000000	4.696681
406.000000	4.698023
407.000000	4.695364
408.000000	4.696422
409.000000	4.699464
410.000000	4.697938
411.000000	4.697792
412.000000	4.700846
413.000000	4.701076
414.000000	4.700050
415.000000	4.699723
416.000000	4.701346
417.000000	4.701775
418.000000	4.699972
419.000000	4.700143
420.000000	4.703129
421.000000	4.704050
422.000000	4.704699
423.000000	4.705774
424.000000	4.703892
425.000000	4.702677
426.000000	4.705844
427.000000	4.708842
428.000000	4.707468
429.000000	4.707001
430.000000	4.706958
431.000000	4.709642
432.000000	4.708128
433.000000	4.706943
434.000000	4.709036
435.000000	4.710468
436.000000	4.710697
437.000000	4.710820
438.000000	4.709674
439.000000	4.712247
440.000000	4.715350
441.000000	4.714800
442.000000	4.714068
443.000000	4.715643
444.000000	4.717473
445.000000	4.716040
446.000000	4.714455
447.000000	4.715229
448.000000	4.715138
449.000000	4.714012
450.000000	4.716025
451.000000	4.718749
452.000000	4.719899
453.000000	4.719370
454.000000	4.720794
455.000000	4.720711
456.000000	4.722203
457.000000	4.723497
458.000000	4.720691
459.000000	4.720442
460.000000	4.720202
461.000000	4.720464
462.000000	4.720614
463.000000	4.721902
464.000000	4.723238
465.000000	4.724250
466.000000	4.724203
467.000000	4.723762
468.000000	4.724728
469.000000	4.725552
470.000000	4.725028
471.000000	4.725441
472.000000	4.728382
473.000000	4.729121
474.000000	4.731011
475.000000	4.732759
476.000000	4.733364
477.000000	4.734500
478.000000	4.736653
479.000000	4.738131
480.000000	4.739387
481.000000	4.744631
482.000000	4.750468
483.000000	4.751884
484.000000	4.752476
485.000000	4.753171
486.000000	4.754279
487.000000	4.752825
488.000000	4.753452
489.000000	4.753126
490.000000	4.752462
491.000000	4.754289
492.000000	4.756269
493.000000	4.756291
494.000000	4.756787
495.000000	5.235486
496.000000	5.234000
497.000000	5.233465
498.000000	5.234338
499.000000	5.237257
500.000000	5.235924
501.000000	5.234668
502.000000	5.236577
503.000000	5.240102
504.000000	5.240256
505.000000	5.240484
506.000000	5.244578
507.000000	5.249021
508.000000	5.251589
509.000000	5.256249
510.000000	5.259949
511.000000	5.266848
512.000000	5.276629
513.000000	5.285020
514.000000	5.294831
515.000000	5.308455
516.000000	5.322499
517.000000	5.340455
518.000000	5.358607
519.000000	5.381779
520.000000	5.408409
521.000000	5.437328
522.000000	5.467026
523.000000	5.503762
524.000000	5.544269
525.000000	5.587509
526.000000	5.634114
527.000000	5.682834
528.000000	5.738990
529.000000	5.800613
530.000000	5.864669
531.000000	5.930329
532.000000	6.000971
533.000000	6.067914
534.000000	6.490404
535.000000	6.554826
536.000000	6.614693
537.000000	6.675964
538.000000	6.741480
539.000000	6.801719
540.000000	6.846112
541.000000	7.221499
542.000000	7.259583
543.000000	7.286076
544.000000	7.297037
545.000000	7.318618
546.000000	7.320441
547.000000	7.633551
548.000000	7.609650
549.000000	7.582639
550.000000	7.540746
551.000000	7.503046
552.000000	7.770063
553.000000	7.706375
554.000000	7.641790
555.000000	7.573275
556.000000	7.493439
557.000000	7.411244
558.000000	7.328976
559.000000	7.248106
560.000000	7.174940
561.000000	7.484985
562.000000	7.423111
563.000000	7.362309
564.000000	7.307432
565.000000	7.259232
566.000000	6.815550
567.000000	6.779082
568.000000	6.751243
569.000000	6.738414
570.000000	6.727085
571.000000	6.738506
572.000000	6.751995
573.000000	6.775934
574.000000	6.380540
575.000000	6.422639
576.000000	6.472203
577.000000	6.522941
578.000000	6.578916
579.000000	6.645822
580.000000	6.305993
581.000000	6.374223
582.000000	6.442546
583.000000	6.507483
584.000000	6.572218
585.000000	6.623865
586.000000	6.668993
587.000000	6.713273
588.000000	6.740006
589.000000	6.750169
590.000000	6.755819
591.000000	6.740770
592.000000	6.712127
593.000000	6.676082
594.000000	6.638468
595.000000	6.584556
596.000000	6.529674
597.000000	6.473929
598.000000	6.405210
599.000000	6.736033
600.000000	6.682156
601.000000	6.629043
602.000000	6.592535
603.000000	6.556289
604.000000	6.530538
605.000000	6.515618
606.000000	6.513416
607.000000	6.516793
608.000000	6.532425
609.000000	6.555852
610.000000	6.589825
611.000000	6.627707
612.000000	6.668978
613.000000	6.713668
614.000000	6.768668
615.000000	6.817395
616.000000	6.462913
617.000000	6.507104
618.000000	6.555222
619.000000	6.583524
620.000000	6.608268
621.000000	6.631053
622.000000	6.639219
623.000000	6.637620
624.000000	6.620571
625.000000	6.595032
626.000000	6.566389
627.000000	6.535520
628.000000	6.502992
629.000000	6.858374
630.000000	6.824944
631.000000	6.792098
632.000000	6.766274
633.000000	6.757068
634.000000	6.741871
635.000000	6.740696
636.000000	6.751769
637.000000	6.770933
638.000000	6.792818
639.000000	6.825868
640.000000	6.859001
641.000000	6.901027
642.000000	6.944049
643.000000	6.987668
644.000000	7.032849
645.000000	7.077199
646.000000	7.104020
647.000000	7.142323
648.000000	7.168712
649.000000	7.190778
650.000000	7.202963
651.000000	7.205493
652.000000	7.203276
653.000000	7.200062
654.000000	7.191610
655.000000	7.180932
656.000000	7.168570
657.000000	7.160091
658.000000	7.518270
659.000000	7.515572
660.000000	7.523204
661.000000	7.529316
662.000000	7.544988
663.000000	7.575800
664.000000	7.598183
665.000000	7.635207
666.000000	7.681578
667.000000	7.717840
668.000000	7.761603
669.000000	7.812829
670.000000	7.868133
671.000000	7.912502
672.000000	7.946093
673.000000	7.975919
674.000000	8.005454
675.000000	8.033582
676.000000	8.049672
677.000000	8.058832
678.000000	8.071908
679.000000	8.409654
680.000000	8.415537
681.000000	8.418499
682.000000	8.426732
683.000000	8.445106
684.000000	8.452695
685.000000	8.461610
686.000000	8.481961
687.000000	8.506961
688.000000	8.531177
689.000000	8.570829
690.000000	8.610978
691.000000	8.974313
692.000000	9.018524
693.000000	9.070561
694.000000	9.114658
695.000000	9.151360
696.000000	9.191126
697.000000	9.236412
698.000000	9.265189
699.000000	9.290068
700.000000	9.324890
701.000000	9.338691
702.000000	9.347670
703.000000	9.358802
704.000000	9.377260
705.000000	9.400986
706.000000	9.715814
707.000000	9.729120
708.000000	9.757182
709.000000	9.778411
710.000000	9.792132
711.000000	9.818673
712.000000	9.861569
713.000000	9.909878
714.000000	9.954676
715.000000	10.001875
716.000000	10.033922
717.000000	10.348532
718.000000	10.390223
719.000000	10.431099
720.000000	10.469554
721.000000	10.505074
722.000000	10.553645
723.000000	10.577071
724.000000	10.579470
725.000000	10.611785
726.000000	10.634001
727.000000	10.647327
728.000000	10.674629
729.000000	10.981383
730.000000	11.005169
731.000000	11.039552
732.000000	11.078109
733.000000	11.100309
734.000000	11.150773
735.000000	11.187807
736.000000	11.213493
737.000000	11.258930
738.000000	11.317081
739.000000	11.622253
740.000000	11.654693
741.000000	11.701698
742.000000	11.748934
743.000000	11.785798
744.000000	11.837969
745.000000	11.886015
746.000000	11.905773
747.000000	11.932858
748.000000	11.983449
749.000000	12.028146
750.000000	12.322132
751.000000	12.340360
752.000000	12.391964
753.000000	12.449349
754.000000	12.472456
755.000000	12.505719
756.000000	12.550156
757.000000	12.639299
758.000000	12.660758
759.000000	12.674616
760.000000	12.727914
761.000000	13.036808
762.000000	13.100282
763.000000	13.152451
764.000000	13.172236
765.000000	13.222256
766.000000	13.268148
767.000000	13.339060
768.000000	13.388227
769.000000	13.437551
770.000000	13.456021
771.000000	13.524522
772.000000	13.837554
773.000000	13.874019
774.000000	13.900863
775.000000	13.949616
776.000000	14.041958
777.000000	14.084762
778.000000	14.117807
779.000000	14.162874
780.000000	14.180133
781.000000	14.250778
782.000000	14.546883
783.000000	14.608396
784.000000	14.667278
785.000000	14.699798
786.000000	14.722459
787.000000	14.783471
788.000000	14.839003
789.000000	14.885442
790.000000	15.030692
791.000000	15.040108
792.000000	15.070120
793.000000	15.340153
794.000000	15.394962
795.000000	15.526186
796.000000	15.569263
797.000000	15.612737
798.000000	15.668561
799.000000	15.725323
800.000000	15.738464
801.000000	15.776495
802.000000	15.855640
803.000000	16.131435
804.000000	16.116715
805.000000	16.266113
806.000000	16.301092
807.000000	16.354637
808.000000	16.432965
809.000000	16.433036
810.000000	16.468711
811.000000	16.600581
812.000000	16.646594
813.000000	16.763764
814.000000	16.744944
815.000000	17.019729
816.000000	17.050009
817.000000	17.135759
818.000000	17.227682
819.000000	17.222721
820.000000	17.319470
821.000000	17.348823
822.000000	17.390458
823.000000	17.510403
824.000000	17.533212
825.000000	17.614511
826.000000	17.972333
827.000000	17.879711
828.000000	17.866857
829.000000	17.947857
830.000000	18.056687
831.000000	18.132058
832.000000	18.122683
833.000000	18.109647
834.000000	18.289186
835.000000	18.453166
836.000000	18.286317
837.000000	18.450990
838.000000	18.801675
839.000000	18.741965
840.000000	18.714085
841.000000	18.879976
842.000000	18.833800
843.000000	18.997880
844.000000	19.123249
845.000000	18.899831
846.000000	19.210309
847.000000	19.163437
848.000000	18.965217
849.000000	19.396394
850.000000	19.132531
851.000000	19.459442
852.000000	19.321887
853.000000	19.456116
854.000000	19.595037
855.000000	19.997523
856.000000	19.791974
857.000000	19.775154
858.000000	25.889067
859.000000	20.108529
860.000000	20.167322
861.000000	20.053423
862.000000	20.006899
863.000000	20.148496
864.000000	20.111814
865.000000	19.650768
866.000000	19.537781
867.000000	19.954241
868.000000	19.398687
869.000000	19.463301
870.000000	19.244621
871.000000	18.869201
872.000000	19.273007
873.000000	19.078904
874.000000	19.263484
875.000000	18.970393
876.000000	18.668581
877.000000	19.059791
878.000000	18.999293
879.000000	18.623147
880.000000	18.710069
881.000000	18.666876
882.000000	18.837801
883.000000	18.724457
884.000000	18.894760
885.000000	18.522174
886.000000	18.373366
887.000000	18.490460
888.000000	18.509376
889.000000	18.680994
890.000000	18.327238
891.000000	18.064046
892.000000	18.437094
893.000000	18.332254
894.000000	18.095234
895.000000	18.036981
896.000000	17.969860
897.000000	18.163495
898.000000	17.910939
899.000000	18.158892
900.000000	18.138884
901.000000	18.153384
902.000000	17.941504
903.000000	17.911820
904.000000	17.724577
905.000000	17.941017
906.000000	17.932893
907.000000	17.778800
908.000000	17.741065
909.000000	17.883122
910.000000	17.784980
911.000000	17.857899
912.000000	17.721352
913.000000	17.626821
914.000000	17.681106
915.000000	17.623601
916.000000	17.770279
917.000000	17.778805
918.000000	17.733546
919.000000	17.670915
920.000000	17.669171
921.000000	17.706591
922.000000	17.679747
923.000000	17.621098
924.000000	17.643359
925.000000	17.599158
926.000000	17.707216
927.000000	17.724525
928.000000	17.666148
929.000000	17.675705
930.000000	17.632021
931.000000	17.502721
932.000000	17.508699
933.000000	17.621049
934.000000	17.646341
935.000000	17.552358
936.000000	17.545407
937.000000	17.547769
938.000000	17.586860
939.000000	17.573979
940.000000	17.564504
941.000000	17.512100
942.000000	17.585459
943.000000	17.628966
944.000000	17.647259
945.000000	17.649899
946.000000	17.578692
947.000000	17.647297
948.000000	17.627195
949.000000	17.600364
950.000000	17.600549
951.000000	17.640221
952.000000	17.805443
953.000000	17.642710
954.000000	17.701802
955.000000	17.671119
956.000000	17.834318
957.000000	17.777350
958.000000	17.732926
959.000000	17.788836
960.000000	17.791705
961.000000	17.789536
962.000000	17.765576
963.000000	17.822552
964.000000	17.841591
965.000000	17.799123
966.000000	17.754358
967.000000	17.784529
968.000000	17.834869
969.000000	17.826099
970.000000	17.813969
971.000000	17.799732
972.000000	17.838959
973.000000	17.855840
974.000000	17.846968
975.000000	17.830427
976.000000	17.843172
977.000000	17.864316
978.000000	17.873535
979.000000	17.853391
980.000000	17.852354
981.000000	17.848680
982.000000	17.841901
983.000000	17.846669
984.000000	17.865579
985.000000	17.895315
986.000000	17.898272
987.000000	17.923886
988.000000	17.944627
989.000000	17.916426
990.000000	17.879153
991.000000	17.910213
992.000000	17.929409
993.000000	17.936743
994.000000	17.954051
995.000000	17.935926
996.000000	17.937451
997.000000	17.963234
998.000000	17.937868
999.000000	17.920864
1000.000000	17.962499
1001.000000	17.968521
1002.000000	17.945313
1003.000000	17.961432
1004.000000	17.992539
1005.000000	18.006021
1006.000000	18.003477
1007.000000	18.009127
1008.000000	18.035219
1009.000000	18.035473
1010.000000	18.026683
1011.000000	18.038437
1012.000000	18.050446
1013.000000	18.077256
1014.000000	18.076356
1015.000000	18.204461
1016.000000	18.228469
1017.000000	18.099185
1018.000000	18.211944
1019.000000	18.227843
1020.000000	18.235322
1021.000000	18.243051
1022.000000	18.260444
1023.000000	18.271257
1024.000000	18.273220
1025.000000	18.246819
1026.000000	18.262221
1027.000000	18.293802
1028.000000	18.303082
1029.000000	18.311816
1030.000000	18.326452
1031.000000	18.340071
1032.000000	18.353670
1033.000000	18.343045
1034.000000	18.353698
1035.000000	18.358273
1036.000000	18.371249
1037.000000	18.370872
1038.000000	18.381546
1039.000000	18.407357
1040.000000	18.394359
1041.000000	18.420731
1042.000000	18.427062
1043.000000	18.429494
1044.000000	18.434046
1045.000000	18.424732
1046.000000	18.440437
1047.000000	18.465734
1048.000000	18.449168
1049.000000	18.438481
1050.000000	18.433172
1051.000000	18.446988
1052.000000	18.480770
1053.000000	18.486566
1054.000000	18.516322
1055.000000	18.536127
1056.000000	18.520058
1057.000000	18.524171
1058.000000	18.554472
1059.000000	18.566079
1060.000000	18.558549
1061.000000	18.570121
1062.000000	18.592535
1063.000000	18.595636
1064.000000	18.598804
1065.000000	18.597970
1066.000000	18.615989
1067.000000	18.780879
1068.000000	18.665017
1069.000000	18.786461
1070.000000	18.802152
1071.000000	18.809973
1072.000000	18.800740
1073.000000	18.786578
1074.000000	18.806723
1075.000000	18.831137
1076.000000	18.841240
1077.000000	18.814249
1078.000000	18.831853
1079.000000	18.830371
1080.000000	18.842137
1081.000000	18.850831
1082.000000	18.882887
1083.000000	18.894826
1084.000000	18.874845
1085.000000	18.869622
1086.000000	18.885222
1087.000000	18.925499
1088.000000	18.924860
1089.000000	18.941891
1090.000000	18.935471
1091.000000	18.945553
1092.000000	18.947323
1093.000000	18.934352
1094.000000	18.958318
1095.000000	18.971204
1096.000000	18.969660
1097.000000	18.997243
1098.000000	18.950941
1099.000000	19.001540
1100.000000	19.007802
1101.000000	19.008297
1102.000000	19.009394
1103.000000	19.023021
1104.000000	19.039238
1105.000000	19.040217
1106.000000	19.031560
1107.000000	19.053520
1108.000000	19.077506
1109.000000	19.049746
1110.000000	19.081580
1111.000000	19.093172
1112.000000	19.101126
1113.000000	19.113618
1114.000000	19.125391
1115.000000	19.134985
1116.000000	19.106235
1117.000000	19.111179
1118.000000	19.125332
1119.000000	19.114506
1120.000000	19.109830
1121.000000	19.109742
1122.000000	19.101267
1123.000000	19.135616
1124.000000	19.125801
1125.000000	19.120929
1126.000000	19.131103
1127.000000	19.129262
1128.000000	19.100289
1129.000000	19.109240
1130.000000	19.086295
1131.000000	19.092873
1132.000000	19.130574
1133.000000	19.084947
1134.000000	19.061166
1135.000000	19.030192
1136.000000	19.054719
1137.000000	19.055230
1138.000000	19.034331
1139.000000	19.011233
1140.000000	19.036616
1141.000000	19.034682
1142.000000	19.042515
1143.000000	19.012624
1144.000000	18.998749
1145.000000	18.994687
1146.000000	18.974272
1147.000000	18.962602
1148.000000	18.953784
1149.000000	18.980849
1150.000000	18.949028
1151.000000	18.945374
1152.000000	18.917113
1153.000000	18.901339
1154.000000	18.902664
1155.000000	18.881612
1156.000000	18.875185
1157.000000	18.854560
1158.000000	18.850037
1159.000000	18.836301
1160.000000	18.811112
1161.000000	18.821821
1162.000000	18.658377
1163.000000	18.639962
1164.000000	18.645352
1165.000000	18.609828
1166.000000	18.625582
1167.000000	18.588664
1168.000000	18.578790
1169.000000	18.569251
1170.000000	18.560280
1171.000000	18.545201
