PE UV       SUBTECH     SPECTRUM    ASCII       PEDS        4.00        
   -1
INBUCR0125-4.Sample.ASC
24/02/07
11:41:28.00
24/02/07
11:41:28.00
Vinicio Soto Monge
P. punctulata. Color café con ambos élitros (Det: A. Solís) COSTA RICA Prov. Guanacaste, Nicoya, San Antonio, Comunidad Rosario, 50 m. 4 JUL 2005, B. Gamboa, J. Azofeifa, J. Gutiérrez, M. Moraga, Y. Cárdenas, Tp de Luz, #83775 INB0003955877
250,000000
1
Lambda 1050
1050L1511233
PerkinElmer UV WinLab 6.3.2.0749 / 2.02.05 Lambda 900 UV/VIS/NIR, Aug  7 2015 09:38:08

0
0
3350/servo 860,8/2
0
0
UV/VIS
1
1
1
DoubleDePol,CommonBeamDepol,RBeamAtt,SBeamAtt,60mm sphere, WB InGaAs Detector
0
0
0
0
Program
Program
3350/servo 860,8/2
3350/0,2 860,8/0,2
3350/0,2 860,8/0,2
0
15.00
 
 
 
0
 
860,8
319,2
860,8
Front
100
on
S:100 R:100
0
0
0
0
 
0
 
 
 
0
 
 
0
0
0
0
0
 
 
 
 
0
0


0
0
#HDR
-1
-1
#GR
nm
%R
1.0
0.0
2500,000000
-1,000000
2251
8
15,045200
1,227800
#DATA

250.000000	3.149301
251.000000	3.112271
252.000000	3.124164
253.000000	3.106509
254.000000	3.111679
255.000000	3.080934
256.000000	3.057141
257.000000	3.072445
258.000000	3.064884
259.000000	3.032598
260.000000	3.026053
261.000000	2.998071
262.000000	2.984875
263.000000	2.960274
264.000000	2.937751
265.000000	2.905655
266.000000	2.912239
267.000000	2.885565
268.000000	2.861534
269.000000	2.864945
270.000000	2.829950
271.000000	2.840554
272.000000	2.831916
273.000000	2.819389
274.000000	2.821774
275.000000	2.819020
276.000000	2.800364
277.000000	2.811348
278.000000	2.767705
279.000000	2.773649
280.000000	2.773657
281.000000	2.792108
282.000000	2.752654
283.000000	2.759138
284.000000	2.791183
285.000000	2.777609
286.000000	2.771113
287.000000	2.781644
288.000000	2.776198
289.000000	2.764650
290.000000	2.772609
291.000000	2.764429
292.000000	2.783781
293.000000	2.786694
294.000000	2.784893
295.000000	2.776854
296.000000	2.781000
297.000000	2.756864
298.000000	2.743065
299.000000	2.764425
300.000000	2.737884
301.000000	2.762011
302.000000	2.782039
303.000000	2.740417
304.000000	2.743920
305.000000	2.749129
306.000000	2.779680
307.000000	2.733422
308.000000	2.745420
309.000000	2.722275
310.000000	2.732178
311.000000	2.737870
312.000000	2.726429
313.000000	2.751937
314.000000	2.714691
315.000000	2.744126
316.000000	2.746493
317.000000	2.732829
318.000000	2.804372
319.000000	2.806152
320.000000	2.810361
321.000000	2.753215
322.000000	2.760115
323.000000	2.764906
324.000000	2.722284
325.000000	2.818994
326.000000	2.770636
327.000000	2.763232
328.000000	2.790715
329.000000	2.709882
330.000000	2.697072
331.000000	2.742440
332.000000	2.742453
333.000000	2.725041
334.000000	2.703265
335.000000	2.698753
336.000000	2.712192
337.000000	2.749128
338.000000	2.772090
339.000000	2.737678
340.000000	2.757292
341.000000	2.776153
342.000000	2.765532
343.000000	2.769320
344.000000	2.773536
345.000000	2.711693
346.000000	2.698915
347.000000	2.768635
348.000000	2.751026
349.000000	2.738835
350.000000	2.739351
351.000000	2.746979
352.000000	2.774459
353.000000	2.742379
354.000000	2.704627
355.000000	2.589116
356.000000	2.727294
357.000000	2.732900
358.000000	2.726377
359.000000	2.753453
360.000000	2.739751
361.000000	2.732338
362.000000	2.717360
363.000000	2.707235
364.000000	2.724566
365.000000	2.753525
366.000000	2.735987
367.000000	2.712949
368.000000	2.726631
369.000000	2.749191
370.000000	2.745635
371.000000	2.717621
372.000000	2.705430
373.000000	2.709612
374.000000	2.704124
375.000000	2.720512
376.000000	2.769069
377.000000	2.784820
378.000000	2.783176
379.000000	2.789400
380.000000	2.786379
381.000000	2.783339
382.000000	2.781826
383.000000	2.782597
384.000000	2.779384
385.000000	2.781953
386.000000	2.785780
387.000000	2.782174
388.000000	2.775409
389.000000	2.773160
390.000000	2.776016
391.000000	2.779237
392.000000	2.779773
393.000000	2.779599
394.000000	2.779170
395.000000	2.781367
396.000000	2.778985
397.000000	2.770811
398.000000	2.767284
399.000000	2.770354
400.000000	2.774556
401.000000	2.768146
402.000000	2.766035
403.000000	2.772487
404.000000	2.775078
405.000000	2.772607
406.000000	2.775506
407.000000	2.779607
408.000000	2.780891
409.000000	2.783210
410.000000	2.786911
411.000000	2.789552
412.000000	2.791884
413.000000	2.793659
414.000000	2.800167
415.000000	2.801719
416.000000	2.808157
417.000000	2.816452
418.000000	2.818888
419.000000	2.828954
420.000000	2.837091
421.000000	2.847035
422.000000	2.856426
423.000000	2.862345
424.000000	2.873470
425.000000	2.887307
426.000000	2.897266
427.000000	2.906520
428.000000	2.913203
429.000000	2.926223
430.000000	2.940022
431.000000	2.951096
432.000000	2.962130
433.000000	2.974325
434.000000	2.988081
435.000000	3.001598
436.000000	3.012647
437.000000	3.028853
438.000000	3.045347
439.000000	3.058806
440.000000	3.078498
441.000000	3.094310
442.000000	3.112718
443.000000	3.130825
444.000000	3.144833
445.000000	3.157540
446.000000	3.176868
447.000000	3.188698
448.000000	3.205731
449.000000	3.225886
450.000000	3.244737
451.000000	3.262979
452.000000	3.282337
453.000000	3.299047
454.000000	3.320337
455.000000	3.337765
456.000000	3.354812
457.000000	3.372986
458.000000	3.396363
459.000000	3.419161
460.000000	3.438938
461.000000	3.456005
462.000000	3.472027
463.000000	3.497154
464.000000	3.522945
465.000000	3.541885
466.000000	3.560257
467.000000	3.584980
468.000000	3.607539
469.000000	3.631565
470.000000	3.655843
471.000000	3.678697
472.000000	3.704078
473.000000	3.733521
474.000000	3.761473
475.000000	3.790275
476.000000	3.821308
477.000000	3.847682
478.000000	3.878276
479.000000	3.909465
480.000000	3.946553
481.000000	3.985790
482.000000	4.018566
483.000000	4.044212
484.000000	4.068811
485.000000	4.096517
486.000000	4.120682
487.000000	4.145512
488.000000	4.171540
489.000000	4.196471
490.000000	4.220372
491.000000	4.242970
492.000000	4.270508
493.000000	4.298916
494.000000	4.331755
495.000000	4.354902
496.000000	4.383729
497.000000	4.415238
498.000000	4.440084
499.000000	4.475652
500.000000	4.508036
501.000000	4.536263
502.000000	4.572407
503.000000	4.603136
504.000000	4.635884
505.000000	4.669171
506.000000	4.708955
507.000000	4.745990
508.000000	4.776278
509.000000	4.816655
510.000000	4.858096
511.000000	4.899752
512.000000	4.941302
513.000000	4.983318
514.000000	5.026190
515.000000	5.072888
516.000000	5.116362
517.000000	5.159764
518.000000	5.205727
519.000000	5.251363
520.000000	5.298389
521.000000	5.344822
522.000000	5.393615
523.000000	5.437336
524.000000	5.482701
525.000000	5.526546
526.000000	5.566910
527.000000	5.615055
528.000000	5.660781
529.000000	5.706379
530.000000	5.743764
531.000000	5.790986
532.000000	5.835407
533.000000	5.881946
534.000000	5.914552
535.000000	5.961700
536.000000	6.006167
537.000000	6.045938
538.000000	6.086921
539.000000	6.124919
540.000000	6.171466
541.000000	6.211788
542.000000	6.248643
543.000000	6.285376
544.000000	6.328993
545.000000	6.375189
546.000000	6.413257
547.000000	6.451207
548.000000	6.496669
549.000000	6.536216
550.000000	6.575446
551.000000	6.616293
552.000000	6.659446
553.000000	6.691656
554.000000	6.737845
555.000000	6.772952
556.000000	6.812987
557.000000	6.852644
558.000000	6.891302
559.000000	6.929746
560.000000	7.029666
561.000000	7.080697
562.000000	7.124084
563.000000	7.165701
564.000000	7.202030
565.000000	7.243746
566.000000	7.283798
567.000000	7.328915
568.000000	7.368930
569.000000	7.409855
570.000000	7.452186
571.000000	7.498574
572.000000	7.544991
573.000000	7.587910
574.000000	7.634625
575.000000	7.682154
576.000000	7.731365
577.000000	7.771937
578.000000	7.822751
579.000000	7.867763
580.000000	7.924221
581.000000	7.966338
582.000000	8.018819
583.000000	8.075319
584.000000	8.125252
585.000000	8.178588
586.000000	8.226295
587.000000	8.286357
588.000000	8.338482
589.000000	8.389387
590.000000	8.449633
591.000000	8.499443
592.000000	8.559892
593.000000	8.616598
594.000000	8.666201
595.000000	8.724533
596.000000	8.787077
597.000000	8.843875
598.000000	8.901513
599.000000	8.961875
600.000000	9.017100
601.000000	9.086282
602.000000	9.146642
603.000000	9.201046
604.000000	9.267804
605.000000	9.332475
606.000000	9.386606
607.000000	9.449087
608.000000	9.514468
609.000000	9.572753
610.000000	9.640224
611.000000	9.709883
612.000000	9.769401
613.000000	9.837346
614.000000	9.901338
615.000000	9.969485
616.000000	10.025579
617.000000	10.091404
618.000000	10.155768
619.000000	10.219462
620.000000	10.285576
621.000000	10.349111
622.000000	10.414103
623.000000	10.472851
624.000000	10.543400
625.000000	10.616196
626.000000	10.687132
627.000000	10.744864
628.000000	10.812190
629.000000	10.872402
630.000000	10.938766
631.000000	11.011068
632.000000	11.082559
633.000000	11.144874
634.000000	11.204840
635.000000	11.277283
636.000000	11.340830
637.000000	11.397551
638.000000	11.459781
639.000000	11.528566
640.000000	11.595043
641.000000	11.653837
642.000000	11.715782
643.000000	11.792844
644.000000	11.854073
645.000000	11.925937
646.000000	11.983371
647.000000	12.046063
648.000000	12.109754
649.000000	12.176790
650.000000	12.234089
651.000000	12.307340
652.000000	12.377932
653.000000	12.439230
654.000000	12.499832
655.000000	12.563416
656.000000	12.625979
657.000000	12.694077
658.000000	12.756053
659.000000	12.812748
660.000000	12.865029
661.000000	12.925189
662.000000	12.998663
663.000000	13.057492
664.000000	13.115603
665.000000	13.183737
666.000000	13.236267
667.000000	13.294831
668.000000	13.358782
669.000000	13.422847
670.000000	13.481947
671.000000	13.539830
672.000000	13.600932
673.000000	13.663629
674.000000	13.723212
675.000000	13.780182
676.000000	13.842562
677.000000	13.900827
678.000000	13.957567
679.000000	14.014735
680.000000	14.072894
681.000000	14.131048
682.000000	14.194820
683.000000	14.247359
684.000000	14.310107
685.000000	14.373369
686.000000	14.427306
687.000000	14.479647
688.000000	14.525089
689.000000	14.584489
690.000000	14.654365
691.000000	14.711408
692.000000	14.773704
693.000000	14.828231
694.000000	14.871211
695.000000	14.941104
696.000000	15.000249
697.000000	15.063347
698.000000	15.115016
699.000000	15.155169
700.000000	15.206484
701.000000	15.277394
702.000000	15.340349
703.000000	15.397623
704.000000	15.463716
705.000000	15.511094
706.000000	15.550692
707.000000	15.610802
708.000000	15.682093
709.000000	15.752154
710.000000	15.797598
711.000000	15.849456
712.000000	15.923058
713.000000	15.986201
714.000000	16.028028
715.000000	16.077867
716.000000	16.144480
717.000000	16.206607
718.000000	16.260510
719.000000	16.319547
720.000000	16.360150
721.000000	16.403644
722.000000	16.465056
723.000000	16.535565
724.000000	16.609814
725.000000	16.665877
726.000000	16.699192
727.000000	16.762091
728.000000	16.834038
729.000000	16.903427
730.000000	16.957469
731.000000	16.998122
732.000000	17.054070
733.000000	17.119263
734.000000	17.176986
735.000000	17.243310
736.000000	17.303118
737.000000	17.369999
738.000000	17.424302
739.000000	17.484134
740.000000	17.549535
741.000000	17.602089
742.000000	17.674372
743.000000	17.741532
744.000000	17.793209
745.000000	17.865291
746.000000	17.931578
747.000000	17.997484
748.000000	18.063516
749.000000	18.108424
750.000000	18.182628
751.000000	18.256877
752.000000	18.306777
753.000000	18.366400
754.000000	18.426753
755.000000	18.515091
756.000000	18.589847
757.000000	18.653626
758.000000	18.707003
759.000000	18.754727
760.000000	18.834658
761.000000	18.902304
762.000000	18.976741
763.000000	19.057376
764.000000	19.108666
765.000000	19.163485
766.000000	19.220665
767.000000	19.317948
768.000000	19.377381
769.000000	19.442512
770.000000	19.496427
771.000000	19.562464
772.000000	19.633233
773.000000	19.707840
774.000000	19.794383
775.000000	19.852860
776.000000	19.928870
777.000000	19.990463
778.000000	20.040905
779.000000	20.137689
780.000000	20.221937
781.000000	20.290799
782.000000	20.352220
783.000000	20.433172
784.000000	20.521307
785.000000	20.576930
786.000000	20.643899
787.000000	20.728195
788.000000	20.805015
789.000000	20.901542
790.000000	20.951298
791.000000	20.967548
792.000000	21.061447
793.000000	21.144820
794.000000	21.190598
795.000000	21.256976
796.000000	21.338213
797.000000	21.433103
798.000000	21.513872
799.000000	21.560152
800.000000	21.647027
801.000000	21.768502
802.000000	21.799378
803.000000	21.891221
804.000000	21.954767
805.000000	22.032846
806.000000	22.099775
807.000000	22.190978
808.000000	22.239889
809.000000	22.299749
810.000000	22.368592
811.000000	22.447366
812.000000	22.522214
813.000000	22.593997
814.000000	22.685478
815.000000	22.732792
816.000000	22.839846
817.000000	22.873730
818.000000	22.960473
819.000000	22.989649
820.000000	23.097057
821.000000	23.181306
822.000000	23.205126
823.000000	23.299494
824.000000	23.414115
825.000000	23.489939
826.000000	23.514460
827.000000	23.618368
828.000000	23.694001
829.000000	23.703098
830.000000	23.798967
831.000000	23.913893
832.000000	23.939385
833.000000	24.041058
834.000000	24.094062
835.000000	24.159469
836.000000	24.239768
837.000000	24.356754
838.000000	24.350994
839.000000	24.420612
840.000000	24.433992
841.000000	24.505720
842.000000	24.511283
843.000000	24.591614
844.000000	24.663888
845.000000	24.850652
846.000000	24.840822
847.000000	24.870857
848.000000	24.992845
849.000000	25.025482
850.000000	25.035607
851.000000	25.095981
852.000000	25.108017
853.000000	25.369402
854.000000	25.497764
855.000000	25.376256
856.000000	25.305292
857.000000	25.540248
858.000000	27.365118
859.000000	26.247556
860.000000	25.968627
861.000000	26.174873
862.000000	26.131125
863.000000	26.072508
864.000000	25.848438
865.000000	26.332946
866.000000	26.170207
867.000000	26.054532
868.000000	26.012119
869.000000	25.981629
870.000000	26.068190
871.000000	26.068419
872.000000	26.288633
873.000000	26.207241
874.000000	26.108646
875.000000	26.130524
876.000000	26.172776
877.000000	26.303836
878.000000	26.223295
879.000000	26.311655
880.000000	26.274174
881.000000	26.142948
882.000000	26.348890
883.000000	26.221322
884.000000	26.320104
885.000000	26.340332
886.000000	26.551315
887.000000	26.379411
888.000000	26.429284
889.000000	26.406517
890.000000	26.454195
891.000000	26.589789
892.000000	26.476735
893.000000	26.463320
894.000000	26.509601
895.000000	26.585170
896.000000	26.587383
897.000000	26.541941
898.000000	26.661877
899.000000	26.663760
900.000000	26.603766
901.000000	26.580277
902.000000	26.698939
903.000000	26.736902
904.000000	26.771509
905.000000	26.754910
906.000000	26.755443
907.000000	26.836705
908.000000	26.802501
909.000000	26.831857
910.000000	26.831451
911.000000	26.889728
912.000000	26.924067
913.000000	26.940798
914.000000	26.918260
915.000000	26.933320
916.000000	27.033734
917.000000	27.126630
918.000000	27.120916
919.000000	27.066206
920.000000	27.092981
921.000000	27.159389
922.000000	27.185087
923.000000	27.240875
924.000000	27.217143
925.000000	27.281176
926.000000	27.255330
927.000000	27.318324
928.000000	27.309282
929.000000	27.328125
930.000000	27.384308
931.000000	27.405699
932.000000	27.409502
933.000000	27.472803
934.000000	27.513599
935.000000	27.498571
936.000000	27.502730
937.000000	27.576864
938.000000	27.584557
939.000000	27.639502
940.000000	27.683452
941.000000	27.677884
942.000000	27.711037
943.000000	27.712797
944.000000	27.742748
945.000000	27.795383
946.000000	27.783455
947.000000	27.805311
948.000000	27.867821
949.000000	27.880177
950.000000	27.907336
951.000000	27.916873
952.000000	27.919259
953.000000	27.960951
954.000000	27.983946
955.000000	28.007626
956.000000	28.037798
957.000000	28.055503
958.000000	28.075939
959.000000	28.135579
960.000000	28.148279
961.000000	28.175852
962.000000	28.215253
963.000000	28.253072
964.000000	28.280135
965.000000	28.275672
966.000000	28.301255
967.000000	28.330557
968.000000	28.341518
969.000000	28.368438
970.000000	28.392767
971.000000	28.416999
972.000000	28.451401
973.000000	28.473103
974.000000	28.506030
975.000000	28.528672
976.000000	28.555234
977.000000	28.580216
978.000000	28.614939
979.000000	28.634734
980.000000	28.655765
981.000000	28.682856
982.000000	28.704306
983.000000	28.732992
984.000000	28.737595
985.000000	28.770130
986.000000	28.799704
987.000000	28.813279
988.000000	28.833299
989.000000	28.864882
990.000000	28.896114
991.000000	28.920941
992.000000	28.967707
993.000000	29.004097
994.000000	29.002476
995.000000	29.005765
996.000000	29.030409
997.000000	29.069922
998.000000	29.092767
999.000000	29.115170
1000.000000	29.135992
1001.000000	29.154002
1002.000000	29.188779
1003.000000	29.216703
1004.000000	29.242258
1005.000000	29.279339
1006.000000	29.296812
1007.000000	29.316809
1008.000000	29.342847
1009.000000	29.365712
1010.000000	29.385626
1011.000000	29.401783
1012.000000	29.418026
1013.000000	29.448391
1014.000000	29.490212
1015.000000	29.514660
1016.000000	29.523379
1017.000000	29.560442
1018.000000	29.585405
1019.000000	29.611994
1020.000000	29.646979
1021.000000	29.670821
1022.000000	29.700401
1023.000000	29.734863
1024.000000	29.766965
1025.000000	29.779790
1026.000000	29.803863
1027.000000	29.840475
1028.000000	29.876202
1029.000000	29.924974
1030.000000	29.955044
1031.000000	29.956158
1032.000000	29.978444
1033.000000	30.014609
1034.000000	30.045393
1035.000000	30.066443
1036.000000	30.107723
1037.000000	30.139725
1038.000000	30.183874
1039.000000	30.202070
1040.000000	30.228024
1041.000000	30.254710
1042.000000	30.273632
1043.000000	30.293473
1044.000000	30.326761
1045.000000	30.361707
1046.000000	30.384965
1047.000000	30.406769
1048.000000	30.437517
1049.000000	30.474927
1050.000000	30.502931
1051.000000	30.531376
1052.000000	30.577478
1053.000000	30.593074
1054.000000	30.613582
1055.000000	30.652250
1056.000000	30.667157
1057.000000	30.695028
1058.000000	30.726230
1059.000000	30.752095
1060.000000	30.780623
1061.000000	30.812578
1062.000000	30.845870
1063.000000	30.882281
1064.000000	30.912238
1065.000000	30.932089
1066.000000	30.947393
1067.000000	30.974133
1068.000000	30.995618
1069.000000	31.032519
1070.000000	31.058538
1071.000000	31.090014
1072.000000	31.115348
1073.000000	31.143943
1074.000000	31.166534
1075.000000	31.168714
1076.000000	31.196924
1077.000000	31.237274
1078.000000	31.255725
1079.000000	31.286752
1080.000000	31.301945
1081.000000	31.311411
1082.000000	31.343790
1083.000000	31.367847
1084.000000	31.380400
1085.000000	31.402231
1086.000000	31.428447
1087.000000	31.452549
1088.000000	31.480085
1089.000000	31.512439
1090.000000	31.521557
1091.000000	31.533685
1092.000000	31.569823
1093.000000	31.572011
1094.000000	31.591420
1095.000000	31.611987
1096.000000	31.636482
1097.000000	31.643067
1098.000000	31.652530
1099.000000	31.667684
1100.000000	31.691795
1101.000000	31.717057
1102.000000	31.723734
1103.000000	31.735390
1104.000000	31.751034
1105.000000	31.764642
1106.000000	31.774426
1107.000000	31.795981
1108.000000	31.805739
1109.000000	31.835621
1110.000000	31.835669
1111.000000	31.855541
1112.000000	31.851437
1113.000000	31.871936
1114.000000	31.876172
1115.000000	31.879376
1116.000000	31.870536
1117.000000	31.888797
1118.000000	31.891209
1119.000000	31.894504
1120.000000	31.908352
1121.000000	31.883269
1122.000000	31.878438
1123.000000	31.857108
1124.000000	31.858956
1125.000000	31.854436
1126.000000	31.815164
1127.000000	31.805783
1128.000000	31.775034
1129.000000	31.720707
1130.000000	31.704580
1131.000000	31.701713
1132.000000	31.679535
1133.000000	31.635774
1134.000000	31.589202
1135.000000	31.548444
1136.000000	31.509911
1137.000000	31.472668
1138.000000	31.457661
1139.000000	31.418845
1140.000000	31.391198
1141.000000	31.363091
1142.000000	31.335457
1143.000000	31.302702
1144.000000	31.279447
1145.000000	31.242728
1146.000000	31.214508
1147.000000	31.160258
1148.000000	31.151588
1149.000000	31.111666
1150.000000	31.087203
1151.000000	31.044325
1152.000000	31.003807
1153.000000	30.949752
1154.000000	30.902238
1155.000000	30.865100
1156.000000	30.806817
1157.000000	30.759762
1158.000000	30.714527
1159.000000	30.649324
1160.000000	30.602932
1161.000000	30.542923
1162.000000	30.478518
1163.000000	30.437548
1164.000000	30.385318
1165.000000	30.322191
1166.000000	30.260297
