PE UV       SUBTECH     SPECTRUM    ASCII       PEDS        4.00        
   -1
INBUCR0121-5.Sample.ASC
24/02/12
14:23:16.00
24/02/12
14:23:16.00
Vinicio Soto Monge
P. strigosa. Color café sin élitro izquierdo (Det: A. Solís) COSTA RICA Prov. Puntarenas. Isla San Lucas. Puesto Isla San Lucas alrededores del puesto. 0-100m 14-15 SEP 2005  #84359 INB0003969555 
250,000000
1
Lambda 1050
1050L1511233
PerkinElmer UV WinLab 6.3.2.0749 / 2.02.05 Lambda 900 UV/VIS/NIR, Aug  7 2015 09:38:08

0
0
3350/servo 860,8/2
0
0
UV/VIS
1
1
1
DoubleDePol,CommonBeamDepol,RBeamAtt,SBeamAtt,60mm sphere, WB InGaAs Detector
0
0
0
0
Program
Program
3350/servo 860,8/2
3350/0,2 860,8/0,2
3350/0,2 860,8/0,2
0
15.00
 
 
 
0
 
860,8
150
860,8
Front
100
on
S:100 R:100
0
0
0
0
 
0
 
 
 
0
 
 
0
0
0
0
0
 
 
 
 
0
0


0
0
#HDR
-1
-1
#GR
nm
%R
1.0
0.0
2500,000000
-1,000000
2251
8
21,734000
1,545300
#DATA

250.000000	2.311109
251.000000	1.619564
252.000000	2.071145
253.000000	1.901205
254.000000	2.005833
255.000000	1.762643
256.000000	1.612301
257.000000	1.635624
258.000000	1.547741
259.000000	1.534448
260.000000	1.597583
261.000000	1.518612
262.000000	1.518966
263.000000	1.526443
264.000000	1.510633
265.000000	1.493507
266.000000	1.508417
267.000000	1.507549
268.000000	1.509899
269.000000	1.485215
270.000000	1.468475
271.000000	1.474216
272.000000	1.490597
273.000000	1.499544
274.000000	1.500198
275.000000	1.479723
276.000000	1.496429
277.000000	1.489041
278.000000	1.491693
279.000000	1.474274
280.000000	1.475676
281.000000	1.479638
282.000000	1.502691
283.000000	1.493333
284.000000	1.496762
285.000000	1.479933
286.000000	1.484158
287.000000	1.479297
288.000000	1.479634
289.000000	1.493430
290.000000	1.503311
291.000000	1.494684
292.000000	1.496458
293.000000	1.476217
294.000000	1.515192
295.000000	1.516041
296.000000	1.487408
297.000000	1.530346
298.000000	1.537721
299.000000	1.534046
300.000000	1.545791
301.000000	1.518728
302.000000	1.527542
303.000000	1.541965
304.000000	1.531771
305.000000	1.525294
306.000000	1.512604
307.000000	1.554103
308.000000	1.524181
309.000000	1.548210
310.000000	1.531212
311.000000	1.542643
312.000000	1.533200
313.000000	1.559381
314.000000	1.550350
315.000000	1.564708
316.000000	1.554197
317.000000	1.395158
318.000000	1.384535
319.000000	1.457538
320.000000	1.391609
321.000000	1.467248
322.000000	1.459912
323.000000	1.511834
324.000000	1.413252
325.000000	1.361988
326.000000	1.392592
327.000000	1.448468
328.000000	1.434300
329.000000	1.502237
330.000000	1.443996
331.000000	1.471035
332.000000	1.491771
333.000000	1.490285
334.000000	1.447455
335.000000	1.462184
336.000000	1.467903
337.000000	1.446156
338.000000	1.466142
339.000000	1.455622
340.000000	1.449701
341.000000	1.491034
342.000000	1.483529
343.000000	1.471827
344.000000	1.473958
345.000000	1.489359
346.000000	1.462640
347.000000	1.473178
348.000000	1.456901
349.000000	1.482219
350.000000	1.490593
351.000000	1.480095
352.000000	1.494269
353.000000	1.499210
354.000000	1.478492
355.000000	1.457745
356.000000	1.480484
357.000000	1.517827
358.000000	1.510546
359.000000	1.476907
360.000000	1.505832
361.000000	1.518914
362.000000	1.529121
363.000000	1.521878
364.000000	1.536352
365.000000	1.530902
366.000000	1.558838
367.000000	1.556866
368.000000	1.572199
369.000000	1.593639
370.000000	1.603974
371.000000	1.555041
372.000000	1.568971
373.000000	1.607421
374.000000	1.618598
375.000000	1.635758
376.000000	1.634276
377.000000	1.723156
378.000000	1.731705
379.000000	1.737038
380.000000	1.744727
381.000000	1.750391
382.000000	1.759984
383.000000	1.763051
384.000000	1.769203
385.000000	1.774108
386.000000	1.775167
387.000000	1.778503
388.000000	1.786199
389.000000	1.799233
390.000000	1.796763
391.000000	1.794040
392.000000	1.800683
393.000000	1.806549
394.000000	1.819102
395.000000	1.832308
396.000000	1.838403
397.000000	1.843015
398.000000	1.845732
399.000000	1.858829
400.000000	1.861814
401.000000	1.863114
402.000000	1.864979
403.000000	1.868744
404.000000	1.878540
405.000000	1.882637
406.000000	1.882945
407.000000	1.893531
408.000000	1.896915
409.000000	1.899902
410.000000	1.905556
411.000000	1.913772
412.000000	1.922052
413.000000	1.928307
414.000000	1.928295
415.000000	1.935137
416.000000	1.941649
417.000000	1.947921
418.000000	1.950270
419.000000	1.959136
420.000000	1.965204
421.000000	1.970409
422.000000	1.981769
423.000000	1.987966
424.000000	1.984813
425.000000	1.994223
426.000000	2.002421
427.000000	2.008409
428.000000	2.017315
429.000000	2.022617
430.000000	2.030755
431.000000	2.038607
432.000000	2.047348
433.000000	2.054539
434.000000	2.061500
435.000000	2.069655
436.000000	2.077320
437.000000	2.090140
438.000000	2.098229
439.000000	2.102563
440.000000	2.109681
441.000000	2.118888
442.000000	2.132213
443.000000	2.139991
444.000000	2.144627
445.000000	2.157084
446.000000	2.165965
447.000000	2.175522
448.000000	2.183040
449.000000	2.189093
450.000000	2.204226
451.000000	2.213766
452.000000	2.220122
453.000000	2.233359
454.000000	2.244692
455.000000	2.249926
456.000000	2.259890
457.000000	2.267885
458.000000	2.276551
459.000000	2.288160
460.000000	2.296946
461.000000	2.305625
462.000000	2.317412
463.000000	2.331591
464.000000	2.337698
465.000000	2.344966
466.000000	2.357176
467.000000	2.367383
468.000000	2.377323
469.000000	2.388421
470.000000	2.403019
471.000000	2.412912
472.000000	2.422548
473.000000	2.437301
474.000000	2.450516
475.000000	2.461993
476.000000	2.473837
477.000000	2.488762
478.000000	2.501418
479.000000	2.513939
480.000000	2.527585
481.000000	2.541850
482.000000	2.559364
483.000000	2.571642
484.000000	2.581295
485.000000	2.592279
486.000000	2.602067
487.000000	2.614569
488.000000	2.626627
489.000000	2.642867
490.000000	2.654357
491.000000	2.665936
492.000000	2.679335
493.000000	2.696065
494.000000	2.711821
495.000000	2.724143
496.000000	2.734614
497.000000	2.752950
498.000000	2.771013
499.000000	2.784824
500.000000	2.796285
501.000000	2.815279
502.000000	2.833154
503.000000	2.850619
504.000000	2.866966
505.000000	2.886315
506.000000	2.900500
507.000000	2.914669
508.000000	2.935070
509.000000	2.957840
510.000000	2.977976
511.000000	3.000063
512.000000	3.024345
513.000000	3.044182
514.000000	3.066831
515.000000	3.086913
516.000000	3.110289
517.000000	3.133692
518.000000	3.156106
519.000000	3.180259
520.000000	3.205644
521.000000	3.233083
522.000000	3.259003
523.000000	3.283543
524.000000	3.304054
525.000000	3.326283
526.000000	3.348171
527.000000	3.375025
528.000000	3.394276
529.000000	3.423228
530.000000	3.445740
531.000000	3.471031
532.000000	3.493087
533.000000	3.514062
534.000000	3.539426
535.000000	3.562990
536.000000	3.584204
537.000000	3.612451
538.000000	3.639729
539.000000	3.655294
540.000000	3.678593
541.000000	3.706911
542.000000	3.731547
543.000000	3.758425
544.000000	3.781523
545.000000	3.805516
546.000000	3.832179
547.000000	3.857148
548.000000	3.878952
549.000000	3.904820
550.000000	3.931273
551.000000	3.955822
552.000000	3.976165
553.000000	4.005876
554.000000	4.030680
555.000000	4.055341
556.000000	4.079315
557.000000	4.104592
558.000000	4.123564
559.000000	4.147785
560.000000	4.255262
561.000000	4.290019
562.000000	4.320678
563.000000	4.346600
564.000000	4.373360
565.000000	4.401054
566.000000	4.430712
567.000000	4.453281
568.000000	4.475040
569.000000	4.505604
570.000000	4.536052
571.000000	4.559791
572.000000	4.589808
573.000000	4.616391
574.000000	4.646932
575.000000	4.670040
576.000000	4.698809
577.000000	4.723860
578.000000	4.752132
579.000000	4.784671
580.000000	4.813842
581.000000	4.840467
582.000000	4.872792
583.000000	4.899265
584.000000	4.926652
585.000000	4.958378
586.000000	4.991593
587.000000	5.021531
588.000000	5.054067
589.000000	5.080217
590.000000	5.103057
591.000000	5.142564
592.000000	5.174880
593.000000	5.209495
594.000000	5.236149
595.000000	5.264150
596.000000	5.296242
597.000000	5.327590
598.000000	5.353446
599.000000	5.386518
600.000000	5.410275
601.000000	5.442058
602.000000	5.465109
603.000000	5.501508
604.000000	5.537842
605.000000	5.571885
606.000000	5.602943
607.000000	5.635735
608.000000	5.663905
609.000000	5.697121
610.000000	5.728891
611.000000	5.759783
612.000000	5.782855
613.000000	5.829679
614.000000	5.860180
615.000000	5.893100
616.000000	5.927750
617.000000	5.962350
618.000000	6.000420
619.000000	6.021825
620.000000	6.056656
621.000000	6.086458
622.000000	6.128393
623.000000	6.153350
624.000000	6.193034
625.000000	6.222434
626.000000	6.268593
627.000000	6.305358
628.000000	6.348915
629.000000	6.379920
630.000000	6.427490
631.000000	6.449333
632.000000	6.487052
633.000000	6.531307
634.000000	6.566382
635.000000	6.606851
636.000000	6.651327
637.000000	6.693090
638.000000	6.728896
639.000000	6.772447
640.000000	6.814765
641.000000	6.857444
642.000000	6.899567
643.000000	6.936642
644.000000	6.975356
645.000000	7.026982
646.000000	7.072110
647.000000	7.120207
648.000000	7.164334
649.000000	7.201278
650.000000	7.241118
651.000000	7.292161
652.000000	7.337775
653.000000	7.381274
654.000000	7.422226
655.000000	7.461466
656.000000	7.509394
657.000000	7.550373
658.000000	7.588999
659.000000	7.644015
660.000000	7.690041
661.000000	7.723076
662.000000	7.767370
663.000000	7.808907
664.000000	7.862191
665.000000	7.908165
666.000000	7.948927
667.000000	7.989919
668.000000	8.041669
669.000000	8.089212
670.000000	8.138214
671.000000	8.200344
672.000000	8.255256
673.000000	8.313971
674.000000	8.374791
675.000000	8.437734
676.000000	8.498266
677.000000	8.560783
678.000000	8.623316
679.000000	8.691243
680.000000	8.744100
681.000000	8.817253
682.000000	8.886731
683.000000	8.947044
684.000000	9.007957
685.000000	9.065350
686.000000	9.148317
687.000000	9.210645
688.000000	9.283382
689.000000	9.339918
690.000000	9.399633
691.000000	9.451482
692.000000	9.525142
693.000000	9.601041
694.000000	9.658584
695.000000	9.710276
696.000000	9.772126
697.000000	9.853190
698.000000	9.893367
699.000000	9.951664
700.000000	10.025058
701.000000	10.086587
702.000000	10.150074
703.000000	10.211645
704.000000	10.261871
705.000000	10.312742
706.000000	10.392490
707.000000	10.450082
708.000000	10.506829
709.000000	10.569037
710.000000	10.633889
711.000000	10.708501
712.000000	10.766290
713.000000	10.825886
714.000000	10.893430
715.000000	10.952405
716.000000	11.006190
717.000000	11.070753
718.000000	11.146368
719.000000	11.203615
720.000000	11.266641
721.000000	11.341812
722.000000	11.412164
723.000000	11.477636
724.000000	11.539542
725.000000	11.610148
726.000000	11.679372
727.000000	11.743757
728.000000	11.807379
729.000000	11.874655
730.000000	11.958428
731.000000	12.027412
732.000000	12.097147
733.000000	12.158874
734.000000	12.225984
735.000000	12.295602
736.000000	12.364039
737.000000	12.425181
738.000000	12.479426
739.000000	12.536338
740.000000	12.633273
741.000000	12.720577
742.000000	12.776479
743.000000	12.836537
744.000000	12.914240
745.000000	12.986455
746.000000	13.065518
747.000000	13.148688
748.000000	13.232825
749.000000	13.293245
750.000000	13.335998
751.000000	13.399399
752.000000	13.469371
753.000000	13.554912
754.000000	13.628474
755.000000	13.680207
756.000000	13.766233
757.000000	13.851368
758.000000	13.915199
759.000000	13.981043
760.000000	14.044594
761.000000	14.139414
762.000000	14.206283
763.000000	14.252453
764.000000	14.336326
765.000000	14.424313
766.000000	14.497764
767.000000	14.559919
768.000000	14.636177
769.000000	14.716928
770.000000	14.796640
771.000000	14.875631
772.000000	14.937852
773.000000	15.006461
774.000000	15.085580
775.000000	15.183962
776.000000	15.266378
777.000000	15.302528
778.000000	15.367122
779.000000	15.464816
780.000000	15.556093
781.000000	15.634434
782.000000	15.703750
783.000000	15.741887
784.000000	15.837104
785.000000	15.918432
786.000000	15.978443
787.000000	16.081883
788.000000	16.182713
789.000000	16.242027
790.000000	16.308606
791.000000	16.375103
792.000000	16.447579
793.000000	16.553866
794.000000	16.627488
795.000000	16.691906
796.000000	16.779127
797.000000	16.870562
798.000000	16.963298
799.000000	16.992376
800.000000	17.035777
801.000000	17.107062
802.000000	17.236871
803.000000	17.325227
804.000000	17.422816
805.000000	17.497353
806.000000	17.535350
807.000000	17.587494
808.000000	17.650321
809.000000	17.723169
810.000000	17.824262
811.000000	17.909992
812.000000	17.974834
813.000000	18.048549
814.000000	18.111827
815.000000	18.160727
816.000000	18.297342
817.000000	18.359998
818.000000	18.397652
819.000000	18.471673
820.000000	18.544180
821.000000	18.640350
822.000000	18.618960
823.000000	18.710757
824.000000	18.871338
825.000000	18.886066
826.000000	18.940567
827.000000	19.044278
828.000000	19.096151
829.000000	19.180673
830.000000	19.333429
831.000000	19.350067
832.000000	19.302785
833.000000	19.414560
834.000000	19.545606
835.000000	19.640482
836.000000	19.701498
837.000000	19.741437
838.000000	19.785844
839.000000	19.862564
840.000000	19.941249
841.000000	19.976856
842.000000	19.990453
843.000000	20.127804
844.000000	20.087885
845.000000	20.301728
846.000000	20.323681
847.000000	20.172428
848.000000	20.269086
849.000000	20.433232
850.000000	20.491630
851.000000	20.564784
852.000000	20.558494
853.000000	20.663705
854.000000	20.644658
855.000000	20.851457
856.000000	20.786957
857.000000	20.952118
858.000000	24.053273
859.000000	21.295559
860.000000	21.559627
861.000000	21.704148
862.000000	21.928908
863.000000	21.633184
864.000000	21.413609
865.000000	21.101946
866.000000	21.235730
867.000000	21.266096
868.000000	21.390537
869.000000	21.519494
870.000000	21.664606
871.000000	21.524553
872.000000	21.161686
873.000000	21.410037
874.000000	20.936548
875.000000	21.080275
876.000000	21.047968
877.000000	21.231008
878.000000	21.387866
879.000000	21.229208
880.000000	21.291696
881.000000	21.076955
882.000000	21.015606
883.000000	21.119341
884.000000	21.015676
885.000000	20.922070
886.000000	20.948630
887.000000	21.093205
888.000000	20.972250
889.000000	21.006736
890.000000	20.924990
891.000000	20.838480
892.000000	20.825610
893.000000	20.849103
894.000000	20.804216
895.000000	20.915854
896.000000	20.909224
897.000000	20.984198
898.000000	20.812877
899.000000	20.776579
900.000000	20.931513
901.000000	20.875486
902.000000	20.908802
903.000000	20.907882
904.000000	20.897134
905.000000	20.835039
906.000000	20.820483
907.000000	20.616074
908.000000	20.735186
909.000000	20.765158
910.000000	20.959839
911.000000	20.861744
912.000000	20.760297
913.000000	20.697214
914.000000	20.844157
915.000000	20.829215
916.000000	20.785629
917.000000	20.817586
918.000000	20.754049
919.000000	20.817435
920.000000	20.877320
921.000000	20.776986
922.000000	20.856397
923.000000	20.841066
924.000000	20.838432
925.000000	20.826688
926.000000	20.865475
927.000000	20.890396
928.000000	20.915199
929.000000	20.804259
930.000000	20.910313
931.000000	20.931752
932.000000	20.929360
933.000000	20.952048
934.000000	20.861679
935.000000	20.946211
936.000000	20.953299
937.000000	20.901283
938.000000	20.922175
939.000000	20.912674
940.000000	20.954652
941.000000	20.934360
942.000000	20.951139
943.000000	20.915233
944.000000	20.919672
945.000000	20.931087
946.000000	20.970929
947.000000	20.922128
948.000000	20.936704
949.000000	20.979902
950.000000	20.957633
951.000000	21.004396
952.000000	21.011023
953.000000	21.034498
954.000000	21.012524
955.000000	21.021806
956.000000	21.036545
957.000000	21.024431
958.000000	21.036620
959.000000	21.031281
960.000000	21.052134
961.000000	21.095973
962.000000	21.084720
963.000000	21.110315
964.000000	21.057804
965.000000	21.046459
966.000000	21.087868
967.000000	21.107747
968.000000	21.076576
969.000000	21.091712
970.000000	21.129547
971.000000	21.107500
972.000000	21.151713
973.000000	21.152221
974.000000	21.163927
975.000000	21.158306
976.000000	21.198072
977.000000	21.198569
978.000000	21.183508
979.000000	21.174433
980.000000	21.202775
981.000000	21.211026
982.000000	21.205881
983.000000	21.217133
984.000000	21.237303
985.000000	21.273552
986.000000	21.256491
987.000000	21.225563
988.000000	21.224995
989.000000	21.253245
990.000000	21.279091
991.000000	21.265439
992.000000	21.254395
993.000000	21.292035
994.000000	21.312646
995.000000	21.295374
996.000000	21.279359
997.000000	21.304008
998.000000	21.316128
999.000000	21.300937
1000.000000	21.321621
1001.000000	21.337637
1002.000000	21.341120
1003.000000	21.359030
1004.000000	21.359954
1005.000000	21.362764
1006.000000	21.359380
1007.000000	21.364282
1008.000000	21.377967
1009.000000	21.385812
1010.000000	21.377341
1011.000000	21.410712
1012.000000	21.432195
1013.000000	21.411498
1014.000000	21.436010
1015.000000	21.440794
1016.000000	21.445873
1017.000000	21.461398
1018.000000	21.457444
1019.000000	21.466815
1020.000000	21.475219
1021.000000	21.470343
1022.000000	21.488493
1023.000000	21.499913
1024.000000	21.501081
1025.000000	21.520060
1026.000000	21.526931
1027.000000	21.530669
1028.000000	21.536783
1029.000000	21.544486
1030.000000	21.557847
1031.000000	21.570933
1032.000000	21.574294
1033.000000	21.572062
1034.000000	21.581917
1035.000000	21.598554
1036.000000	21.614298
1037.000000	21.634101
1038.000000	21.660806
1039.000000	21.665214
1040.000000	21.652299
1041.000000	21.651678
1042.000000	21.658279
1043.000000	21.673644
1044.000000	21.681579
1045.000000	21.688627
1046.000000	21.702308
1047.000000	21.715062
1048.000000	21.735517
1049.000000	21.742160
1050.000000	21.738360
1051.000000	21.756401
1052.000000	21.761263
1053.000000	21.776271
1054.000000	21.784113
1055.000000	21.787621
1056.000000	21.800220
1057.000000	21.796214
1058.000000	21.792552
1059.000000	21.811320
1060.000000	21.840553
1061.000000	21.846835
1062.000000	21.853629
1063.000000	21.873613
1064.000000	21.880820
1065.000000	21.880620
1066.000000	21.890052
1067.000000	21.891380
1068.000000	21.892799
1069.000000	21.907941
1070.000000	21.913514
1071.000000	21.915209
1072.000000	21.924108
1073.000000	21.944624
1074.000000	21.952794
1075.000000	21.946231
1076.000000	21.943880
1077.000000	21.942064
1078.000000	21.949947
1079.000000	21.963821
1080.000000	21.972118
1081.000000	21.972337
1082.000000	21.986827
1083.000000	21.986838
1084.000000	21.977076
1085.000000	21.984563
1086.000000	21.989117
1087.000000	21.996497
1088.000000	22.000066
1089.000000	22.004499
1090.000000	22.006409
1091.000000	22.001107
1092.000000	22.006660
1093.000000	22.021155
1094.000000	22.024794
1095.000000	22.036980
1096.000000	22.027007
1097.000000	22.038202
1098.000000	22.040672
1099.000000	22.047911
1100.000000	22.040770
1101.000000	22.031932
1102.000000	22.053269
1103.000000	22.042605
1104.000000	22.042019
1105.000000	22.043100
1106.000000	22.048127
1107.000000	22.062012
1108.000000	22.063641
1109.000000	22.060164
1110.000000	22.049014
1111.000000	22.059636
1112.000000	22.054396
1113.000000	22.058666
1114.000000	22.053714
1115.000000	22.046936
1116.000000	22.034691
1117.000000	22.040565
1118.000000	22.045701
1119.000000	22.038182
1120.000000	22.035765
1121.000000	21.993137
1122.000000	21.991656
1123.000000	21.961531
1124.000000	21.959710
1125.000000	21.932391
1126.000000	21.920646
1127.000000	21.926577
1128.000000	21.879308
1129.000000	21.871464
1130.000000	21.857205
1131.000000	21.847288
1132.000000	21.832327
1133.000000	21.793438
1134.000000	21.778038
1135.000000	21.746823
1136.000000	21.731470
1137.000000	21.702546
1138.000000	21.705412
1139.000000	21.675855
1140.000000	21.650731
1141.000000	21.639558
1142.000000	21.604536
1143.000000	21.593664
1144.000000	21.569269
1145.000000	21.531501
1146.000000	21.524412
1147.000000	21.507046
1148.000000	21.458835
1149.000000	21.448451
1150.000000	21.415118
1151.000000	21.386150
1152.000000	21.351377
1153.000000	21.326967
1154.000000	21.301842
1155.000000	21.253135
1156.000000	21.225449
1157.000000	21.182075
1158.000000	21.164181
1159.000000	21.133613
1160.000000	21.108400
1161.000000	21.077234
1162.000000	21.031642
1163.000000	21.030275
1164.000000	20.994798
1165.000000	20.959025
1166.000000	20.927156
1167.000000	20.885739
1168.000000	20.868678
1169.000000	20.846862
1170.000000	20.830913
1171.000000	20.777949
1172.000000	20.751878
