PE UV       SUBTECH     SPECTRUM    ASCII       PEDS        4.00        
   -1
INBUCR0436-4.Sample.ASC
24/02/09
16:13:20.00
24/02/09
16:13:20.00
Vinicio Soto Monge
COSTA RICA. Prov. Alajuela. Guatuso. P.N. Volcán Tenorio. Punto 4: Cerro Montezuma. 1510 m. 27 AGO 2008. INB0004169209 INBIOCRI COSTA RICA .
250,000000
1
Lambda 1050
1050L1511233
PerkinElmer UV WinLab 6.3.2.0749 / 2.02.05 Lambda 900 UV/VIS/NIR, Aug  7 2015 09:38:08

0
0
3350/servo 860,8/2
0
0
UV/VIS
1
1
1
DoubleDePol,CommonBeamDepol,RBeamAtt,SBeamAtt,60mm sphere, WB InGaAs Detector
0
0
0
0
Program
Program
3350/servo 860,8/2
3350/0,2 860,8/0,2
3350/0,2 860,8/0,2
0
15.00
 
 
 
0
 
860,8
319,2
860,8
Front
100
on
S:100 R:100
0
0
0
0
 
0
 
 
 
0
 
 
0
0
0
0
0
 
 
 
 
0
0


0
0
#HDR
-1
-1
#GR
nm
%R
1.0
0.0
2500,000000
-1,000000
2251
8
16,644400
0,693400
#DATA

250.000000	5.036860
251.000000	5.035674
252.000000	5.042995
253.000000	5.040452
254.000000	5.037487
255.000000	5.031499
256.000000	5.036836
257.000000	5.033679
258.000000	5.043994
259.000000	5.045653
260.000000	5.041979
261.000000	5.042790
262.000000	5.041206
263.000000	5.038580
264.000000	5.051983
265.000000	5.047638
266.000000	5.048484
267.000000	5.055154
268.000000	5.047508
269.000000	5.049109
270.000000	5.052559
271.000000	5.051741
272.000000	5.055202
273.000000	5.051995
274.000000	5.051446
275.000000	5.060128
276.000000	5.057490
277.000000	5.061446
278.000000	5.061005
279.000000	5.056200
280.000000	5.056714
281.000000	5.056255
282.000000	5.056005
283.000000	5.051598
284.000000	5.046626
285.000000	5.053432
286.000000	5.042050
287.000000	5.050540
288.000000	5.051577
289.000000	5.039669
290.000000	5.039589
291.000000	5.043433
292.000000	5.038743
293.000000	5.031845
294.000000	5.024445
295.000000	5.037507
296.000000	5.027938
297.000000	5.031853
298.000000	5.018740
299.000000	5.017256
300.000000	5.026412
301.000000	5.020466
302.000000	5.010038
303.000000	5.013700
304.000000	5.011104
305.000000	5.004912
306.000000	5.006582
307.000000	5.007292
308.000000	5.002548
309.000000	5.015771
310.000000	5.002015
311.000000	5.008751
312.000000	4.986824
313.000000	4.988721
314.000000	4.983578
315.000000	4.988583
316.000000	4.975983
317.000000	4.865168
318.000000	4.942362
319.000000	4.868668
320.000000	4.914637
321.000000	4.900961
322.000000	4.900235
323.000000	4.889343
324.000000	4.878556
325.000000	4.870958
326.000000	4.930577
327.000000	4.931917
328.000000	4.947745
329.000000	4.918318
330.000000	4.867712
331.000000	4.898506
332.000000	4.901492
333.000000	4.951996
334.000000	4.934829
335.000000	4.908171
336.000000	4.917301
337.000000	4.925360
338.000000	4.929272
339.000000	4.909524
340.000000	4.936430
341.000000	4.917469
342.000000	4.919912
343.000000	4.945844
344.000000	4.926174
345.000000	4.924583
346.000000	4.904174
347.000000	4.910300
348.000000	4.928829
349.000000	4.921404
350.000000	4.923121
351.000000	4.928406
352.000000	4.928111
353.000000	4.933132
354.000000	4.927755
355.000000	4.897971
356.000000	4.913135
357.000000	4.910231
358.000000	4.894489
359.000000	4.914061
360.000000	4.910760
361.000000	4.916535
362.000000	4.920252
363.000000	4.917946
364.000000	4.901594
365.000000	4.906939
366.000000	4.907216
367.000000	4.915578
368.000000	4.897382
369.000000	4.906194
370.000000	4.924238
371.000000	4.926966
372.000000	4.905787
373.000000	4.923946
374.000000	4.932291
375.000000	4.934034
376.000000	4.922081
377.000000	5.563959
378.000000	5.560196
379.000000	5.557628
380.000000	5.558656
381.000000	5.558335
382.000000	5.554427
383.000000	5.550378
384.000000	5.546672
385.000000	5.545305
386.000000	5.543624
387.000000	5.541224
388.000000	5.539822
389.000000	5.537157
390.000000	5.534522
391.000000	5.533320
392.000000	5.531409
393.000000	5.529884
394.000000	5.527566
395.000000	5.525069
396.000000	5.521363
397.000000	5.519142
398.000000	5.518092
399.000000	5.514999
400.000000	5.511700
401.000000	5.511249
402.000000	5.507687
403.000000	5.506446
404.000000	5.503998
405.000000	5.499625
406.000000	5.498674
407.000000	5.495972
408.000000	5.493636
409.000000	5.491439
410.000000	5.490394
411.000000	5.489312
412.000000	5.485703
413.000000	5.484058
414.000000	5.481174
415.000000	5.478373
416.000000	5.475843
417.000000	5.472369
418.000000	5.470781
419.000000	5.469059
420.000000	5.464899
421.000000	5.462313
422.000000	5.460281
423.000000	5.459898
424.000000	5.457929
425.000000	5.454639
426.000000	5.450881
427.000000	5.447065
428.000000	5.444130
429.000000	5.442453
430.000000	5.439563
431.000000	5.435974
432.000000	5.432787
433.000000	5.430912
434.000000	5.428065
435.000000	5.424506
436.000000	5.422213
437.000000	5.420334
438.000000	5.417147
439.000000	5.412912
440.000000	5.409349
441.000000	5.407665
442.000000	5.404306
443.000000	5.400946
444.000000	6.015765
445.000000	6.013140
446.000000	6.008927
447.000000	6.003311
448.000000	5.999866
449.000000	5.998635
450.000000	5.994986
451.000000	5.991743
452.000000	5.989079
453.000000	5.985180
454.000000	5.982576
455.000000	5.979812
456.000000	5.974941
457.000000	5.970858
458.000000	5.967541
459.000000	5.964674
460.000000	5.960491
461.000000	5.956431
462.000000	5.952701
463.000000	5.949096
464.000000	5.946158
465.000000	5.941868
466.000000	5.937593
467.000000	5.934452
468.000000	5.930352
469.000000	5.926221
470.000000	5.923593
471.000000	5.921200
472.000000	5.917806
473.000000	5.913309
474.000000	5.910359
475.000000	5.907606
476.000000	5.904749
477.000000	5.901301
478.000000	5.897601
479.000000	5.894393
480.000000	5.892853
481.000000	5.892506
482.000000	5.891547
483.000000	5.887638
484.000000	5.881973
485.000000	5.877525
486.000000	6.487180
487.000000	6.479772
488.000000	6.473543
489.000000	6.467626
490.000000	6.461778
491.000000	6.455718
492.000000	6.449295
493.000000	6.442644
494.000000	6.436621
495.000000	6.429064
496.000000	6.421422
497.000000	6.416861
498.000000	6.409943
499.000000	6.403318
500.000000	6.396652
501.000000	6.389720
502.000000	6.999801
503.000000	6.992640
504.000000	6.986864
505.000000	6.979903
506.000000	6.975521
507.000000	6.969775
508.000000	6.962474
509.000000	6.957617
510.000000	6.952641
511.000000	6.947917
512.000000	6.941734
513.000000	7.554423
514.000000	7.550809
515.000000	7.546362
516.000000	7.541880
517.000000	7.537084
518.000000	7.533084
519.000000	7.528426
520.000000	8.140003
521.000000	8.135179
522.000000	8.130291
523.000000	8.126092
524.000000	8.120201
525.000000	8.114315
526.000000	8.725541
527.000000	8.719642
528.000000	8.713757
529.000000	8.707599
530.000000	8.700597
531.000000	9.310027
532.000000	9.304204
533.000000	9.296586
534.000000	9.288642
535.000000	9.898832
536.000000	9.892172
537.000000	9.884089
538.000000	9.878554
539.000000	9.871065
540.000000	10.480949
541.000000	10.471998
542.000000	10.465519
543.000000	10.457789
544.000000	10.449751
545.000000	10.443755
546.000000	10.437318
547.000000	10.429227
548.000000	11.038895
549.000000	11.033136
550.000000	11.025475
551.000000	11.018652
552.000000	11.012427
553.000000	11.004441
554.000000	10.997511
555.000000	10.992951
556.000000	10.984970
557.000000	10.976801
558.000000	10.972580
559.000000	10.964403
560.000000	10.992782
561.000000	10.991930
562.000000	10.986875
563.000000	10.980454
564.000000	10.973333
565.000000	10.969158
566.000000	10.963563
567.000000	10.957252
568.000000	10.950922
569.000000	10.945003
570.000000	10.938351
571.000000	10.931954
572.000000	10.925761
573.000000	10.303624
574.000000	10.297161
575.000000	10.291201
576.000000	10.284964
577.000000	10.278340
578.000000	10.271882
579.000000	10.265842
580.000000	10.260280
581.000000	10.253583
582.000000	10.247809
583.000000	9.624284
584.000000	9.617344
585.000000	9.608389
586.000000	9.604847
587.000000	9.597750
588.000000	9.590231
589.000000	9.586391
590.000000	8.964365
591.000000	8.957669
592.000000	8.953195
593.000000	8.944991
594.000000	8.937930
595.000000	8.933641
596.000000	8.925359
597.000000	8.922477
598.000000	8.915993
599.000000	8.907781
600.000000	8.905096
601.000000	8.898307
602.000000	8.890542
603.000000	8.886198
604.000000	8.877970
605.000000	8.872473
606.000000	8.866785
607.000000	8.244063
608.000000	8.240167
609.000000	8.235147
610.000000	8.227397
611.000000	8.221151
612.000000	8.215606
613.000000	8.207377
614.000000	8.203015
615.000000	8.195554
616.000000	8.192039
617.000000	8.185875
618.000000	8.179498
619.000000	8.174901
620.000000	8.168775
621.000000	8.160751
622.000000	8.156043
623.000000	8.150420
624.000000	8.141766
625.000000	8.136482
626.000000	8.130844
627.000000	8.125400
628.000000	8.117261
629.000000	8.112084
630.000000	8.104670
631.000000	8.716738
632.000000	8.708027
633.000000	8.702254
634.000000	8.698233
635.000000	8.690966
636.000000	8.682483
637.000000	8.677211
638.000000	8.671227
639.000000	8.664334
640.000000	8.656773
641.000000	8.651513
642.000000	8.642200
643.000000	8.637439
644.000000	8.630457
645.000000	8.623648
646.000000	8.614165
647.000000	8.612258
648.000000	8.605292
649.000000	8.597272
650.000000	8.590032
651.000000	9.202020
652.000000	9.195747
653.000000	9.188155
654.000000	9.182441
655.000000	9.177277
656.000000	9.171176
657.000000	9.165583
658.000000	9.157527
659.000000	9.151292
660.000000	9.144299
661.000000	9.138404
662.000000	9.133457
663.000000	9.744083
664.000000	9.733757
665.000000	9.732016
666.000000	9.724248
667.000000	9.716845
668.000000	9.710075
669.000000	9.703906
670.000000	9.696818
671.000000	9.690789
672.000000	10.302097
673.000000	10.296136
674.000000	10.290510
675.000000	10.281304
676.000000	10.275680
677.000000	10.272662
678.000000	10.268305
679.000000	10.260945
680.000000	10.868054
681.000000	10.861665
682.000000	10.856236
683.000000	10.852838
684.000000	10.844770
685.000000	10.838256
686.000000	10.833664
687.000000	11.441635
688.000000	11.433169
689.000000	11.430449
690.000000	11.424894
691.000000	11.420252
692.000000	11.409502
693.000000	12.021184
694.000000	12.018714
695.000000	12.008857
696.000000	11.998622
697.000000	11.995850
698.000000	11.991835
699.000000	11.985655
700.000000	12.598960
701.000000	12.592879
702.000000	12.584803
703.000000	12.577932
704.000000	12.570307
705.000000	12.561408
706.000000	12.554479
707.000000	12.548386
708.000000	13.160049
709.000000	13.156846
710.000000	13.152234
711.000000	13.145366
712.000000	13.132064
713.000000	13.126551
714.000000	13.121506
715.000000	13.113156
716.000000	13.107599
717.000000	13.101070
718.000000	13.713590
719.000000	13.706312
720.000000	13.700018
721.000000	13.694105
722.000000	13.686183
723.000000	13.676867
724.000000	13.669252
725.000000	13.661261
726.000000	13.653710
727.000000	13.647770
728.000000	13.643412
729.000000	13.638691
730.000000	13.630783
731.000000	13.621287
732.000000	13.613641
733.000000	13.606958
734.000000	13.599914
735.000000	13.593794
736.000000	13.588188
737.000000	14.196094
738.000000	14.186946
739.000000	14.182094
740.000000	14.175790
741.000000	14.168873
742.000000	14.161876
743.000000	14.152539
744.000000	14.144487
745.000000	14.140607
746.000000	14.132026
747.000000	14.121683
748.000000	14.117832
749.000000	14.110133
750.000000	14.103005
751.000000	14.098684
752.000000	14.089600
753.000000	14.084554
754.000000	14.075608
755.000000	14.066961
756.000000	14.056025
757.000000	14.047605
758.000000	14.041426
759.000000	14.033479
760.000000	14.028751
761.000000	14.017723
762.000000	14.011013
763.000000	14.006498
764.000000	13.999666
765.000000	13.988661
766.000000	13.979373
767.000000	13.972135
768.000000	13.972094
769.000000	13.968124
770.000000	13.957697
771.000000	13.950527
772.000000	13.940919
773.000000	13.932105
774.000000	13.923171
775.000000	13.918427
776.000000	13.906978
777.000000	13.898241
778.000000	13.889006
779.000000	13.875329
780.000000	13.870959
781.000000	13.869205
782.000000	13.859356
783.000000	13.845849
784.000000	13.838818
785.000000	13.833752
786.000000	13.824950
787.000000	13.819460
788.000000	13.808549
789.000000	13.801790
790.000000	13.783529
791.000000	13.778730
792.000000	13.767905
793.000000	13.761947
794.000000	13.756456
795.000000	13.748156
796.000000	13.737312
797.000000	14.349166
798.000000	14.335165
799.000000	14.324841
800.000000	14.316550
801.000000	14.310312
802.000000	14.300723
803.000000	14.289546
804.000000	14.279592
805.000000	14.265882
806.000000	14.267786
807.000000	14.265417
808.000000	14.252025
809.000000	14.235035
810.000000	14.223344
811.000000	14.206376
812.000000	14.209007
813.000000	14.194280
814.000000	14.185266
815.000000	14.183133
816.000000	14.172954
817.000000	14.166212
818.000000	14.148669
819.000000	14.142146
820.000000	14.144612
821.000000	14.138558
822.000000	14.127120
823.000000	14.111425
824.000000	14.105082
825.000000	14.102359
826.000000	14.098586
827.000000	14.077971
828.000000	14.083852
829.000000	14.061820
830.000000	14.051395
831.000000	14.059694
832.000000	14.044625
833.000000	14.047739
834.000000	14.045595
835.000000	14.036686
836.000000	14.038475
837.000000	14.032415
838.000000	14.031518
839.000000	14.009003
840.000000	14.016370
841.000000	13.990661
842.000000	13.997479
843.000000	13.368968
844.000000	13.356899
845.000000	13.968516
846.000000	13.358650
847.000000	13.964107
848.000000	13.345847
849.000000	14.007235
850.000000	14.003190
851.000000	13.344028
852.000000	13.375450
853.000000	13.343985
854.000000	13.389856
855.000000	13.335024
856.000000	13.310812
857.000000	13.276337
858.000000	17.413843
859.000000	13.542066
860.000000	13.537780
861.000000	13.026723
862.000000	13.008519
863.000000	13.000033
864.000000	12.990520
865.000000	12.982372
866.000000	12.970635
867.000000	12.962782
868.000000	12.953563
869.000000	11.951892
870.000000	12.444528
871.000000	12.433315
872.000000	12.422611
873.000000	12.411919
874.000000	11.905153
875.000000	11.898674
876.000000	12.384488
877.000000	11.876936
878.000000	11.371346
879.000000	11.358043
880.000000	11.855448
881.000000	11.349850
882.000000	11.833535
883.000000	11.334261
884.000000	11.821987
885.000000	11.315392
886.000000	11.295792
887.000000	11.289128
888.000000	11.282792
889.000000	10.775083
890.000000	10.769958
891.000000	10.760748
892.000000	10.745213
893.000000	10.738116
894.000000	10.725986
895.000000	10.714874
896.000000	10.707896
897.000000	10.691624
898.000000	10.688976
899.000000	10.676193
900.000000	10.662264
901.000000	10.653784
902.000000	10.142945
903.000000	10.134998
904.000000	10.122129
905.000000	10.106532
906.000000	10.095185
907.000000	10.081927
908.000000	10.064128
909.000000	10.061820
910.000000	10.046587
911.000000	10.040457
912.000000	10.032034
913.000000	10.011784
914.000000	9.990198
915.000000	9.979386
916.000000	9.968040
917.000000	9.954229
918.000000	9.941609
919.000000	9.932099
920.000000	9.924716
921.000000	9.910117
922.000000	9.903217
923.000000	9.882019
924.000000	9.871358
925.000000	9.860280
926.000000	9.357515
927.000000	9.348594
928.000000	9.834349
929.000000	9.829505
930.000000	9.822408
931.000000	9.808159
932.000000	9.794971
933.000000	9.787420
934.000000	9.775563
935.000000	9.268159
936.000000	9.753933
937.000000	9.738706
938.000000	9.727062
939.000000	9.226675
940.000000	9.218229
941.000000	9.214305
942.000000	9.199542
943.000000	9.195208
944.000000	9.185893
945.000000	9.171823
946.000000	9.163268
947.000000	9.648808
948.000000	9.151318
949.000000	9.144215
950.000000	9.129830
951.000000	9.120902
952.000000	9.119643
953.000000	9.099654
954.000000	9.590025
955.000000	9.580889
956.000000	9.571679
957.000000	9.562156
958.000000	9.060169
959.000000	9.054760
960.000000	9.049362
961.000000	9.035355
962.000000	9.031684
963.000000	9.015900
964.000000	9.010893
965.000000	9.496747
966.000000	9.491093
967.000000	8.988996
968.000000	8.985594
969.000000	9.467801
970.000000	8.962775
971.000000	8.954538
972.000000	9.440273
973.000000	9.433544
974.000000	9.422590
975.000000	9.417159
976.000000	9.413338
977.000000	9.407034
978.000000	9.399953
979.000000	9.386677
980.000000	9.380319
981.000000	9.376707
982.000000	9.366569
983.000000	9.357745
984.000000	9.353055
985.000000	9.346318
986.000000	9.336642
987.000000	9.334496
988.000000	9.328101
989.000000	9.320577
990.000000	9.313083
991.000000	9.308111
992.000000	9.296753
993.000000	9.288714
994.000000	9.281020
995.000000	9.274160
996.000000	9.268494
997.000000	9.260521
998.000000	9.251347
999.000000	9.243592
1000.000000	9.237371
1001.000000	9.227790
1002.000000	9.217771
1003.000000	9.215591
1004.000000	9.215682
1005.000000	9.210695
1006.000000	9.199910
1007.000000	9.187593
1008.000000	9.181650
1009.000000	9.174194
1010.000000	9.166429
1011.000000	9.163905
1012.000000	9.155950
1013.000000	9.148805
1014.000000	9.143461
1015.000000	9.133315
1016.000000	9.125995
1017.000000	9.121695
1018.000000	9.112060
1019.000000	9.105044
1020.000000	9.102368
1021.000000	9.585180
1022.000000	9.087367
1023.000000	9.575217
1024.000000	9.564103
1025.000000	9.558487
1026.000000	9.555835
1027.000000	9.543499
1028.000000	9.535982
1029.000000	9.534772
1030.000000	9.526829
1031.000000	9.515735
1032.000000	9.507569
1033.000000	9.502463
1034.000000	9.496495
1035.000000	9.487406
1036.000000	9.481968
1037.000000	9.477193
1038.000000	9.465672
1039.000000	9.458563
1040.000000	9.454713
1041.000000	9.448465
1042.000000	9.439747
1043.000000	9.429875
1044.000000	9.424620
1045.000000	9.417467
1046.000000	9.413236
1047.000000	9.412285
1048.000000	9.406235
1049.000000	9.391979
1050.000000	9.383603
1051.000000	9.377421
1052.000000	9.371587
1053.000000	9.360684
1054.000000	9.354314
1055.000000	9.347342
1056.000000	9.338073
1057.000000	9.336025
1058.000000	9.328373
1059.000000	9.321033
1060.000000	9.313751
1061.000000	9.306498
1062.000000	9.302693
1063.000000	9.294999
1064.000000	9.285721
1065.000000	9.277437
1066.000000	9.763798
1067.000000	9.755800
1068.000000	9.744755
1069.000000	9.737918
1070.000000	9.734464
1071.000000	9.724485
1072.000000	9.715741
1073.000000	9.710590
1074.000000	9.710351
1075.000000	9.698465
1076.000000	9.688612
1077.000000	9.685758
1078.000000	9.680917
1079.000000	9.677093
1080.000000	9.670298
1081.000000	9.661076
1082.000000	9.654400
1083.000000	9.645452
1084.000000	9.640066
1085.000000	9.633055
1086.000000	9.624389
1087.000000	9.618527
1088.000000	9.617339
1089.000000	9.612409
1090.000000	9.599517
1091.000000	9.587461
1092.000000	9.583199
1093.000000	9.585473
1094.000000	9.578154
1095.000000	9.570046
1096.000000	9.563785
1097.000000	9.560847
1098.000000	9.555199
1099.000000	9.545777
1100.000000	9.537579
1101.000000	9.529888
1102.000000	9.525552
1103.000000	9.525491
1104.000000	9.521365
1105.000000	9.514832
1106.000000	9.501906
1107.000000	9.498472
1108.000000	9.495474
1109.000000	9.488087
1110.000000	9.487014
1111.000000	9.483838
1112.000000	9.479444
1113.000000	9.470592
1114.000000	9.472508
1115.000000	9.958246
1116.000000	9.458128
1117.000000	9.940925
1118.000000	9.934744
1119.000000	9.933564
1120.000000	9.934449
1121.000000	9.918316
1122.000000	9.907975
1123.000000	9.911218
1124.000000	9.906977
1125.000000	9.907798
1126.000000	9.899025
1127.000000	9.893404
1128.000000	9.887167
1129.000000	9.883680
1130.000000	9.884842
1131.000000	9.890040
1132.000000	9.899590
1133.000000	9.884855
1134.000000	9.387280
1135.000000	9.874646
1136.000000	9.379035
1137.000000	9.382447
1138.000000	9.382014
1139.000000	9.387898
1140.000000	9.376876
1141.000000	9.383749
1142.000000	9.386568
1143.000000	9.379573
1144.000000	9.369511
1145.000000	9.372999
1146.000000	9.366093
1147.000000	9.365054
1148.000000	9.364554
1149.000000	9.359455
1150.000000	9.352461
1151.000000	9.355790
1152.000000	9.353164
1153.000000	9.348607
1154.000000	9.343415
1155.000000	9.349611
1156.000000	9.348329
1157.000000	9.346821
1158.000000	9.357694
1159.000000	9.351188
1160.000000	9.346943
1161.000000	9.357322
1162.000000	9.360821
1163.000000	9.360041
1164.000000	9.361952
1165.000000	9.369409
1166.000000	9.374229
1167.000000	9.374494
1168.000000	9.373909
1169.000000	9.374904
1170.000000	9.376332
1171.000000	9.375525
1172.000000	9.372748
1173.000000	9.371821
1174.000000	9.372956
1175.000000	9.384568
1176.000000	9.381246
1177.000000	9.372560
1178.000000	9.370580
1179.000000	9.372635
1180.000000	9.372936
1181.000000	9.367389
1182.000000	9.366262
1183.000000	9.367798
1184.000000	9.363170
