PE UV       SUBTECH     SPECTRUM    ASCII       PEDS        4.00        
   -1
INBUCR0413-4.Sample.ASC
24/02/09
11:45:23.00
24/02/09
11:45:23.00
Vinicio Soto Monge
Chrysina batesi. Det: A. Solís. COSTA RICA. Prov. Limón. P. I. La Amistad. Est Valle del Silencio. 2475 m. 26-30 MAR 2003. R. Delgado. M. Alfaro. R. González. D. Rubí. Tp de Luz. L_S_340258_577465 #73640. INB0003714895.  Falta élitro izquierdo.
250,000000
1
Lambda 1050
1050L1511233
PerkinElmer UV WinLab 6.3.2.0749 / 2.02.05 Lambda 900 UV/VIS/NIR, Aug  7 2015 09:38:08

0
0
3350/servo 860,8/2
0
0
UV/VIS
1
1
1
DoubleDePol,CommonBeamDepol,RBeamAtt,SBeamAtt,60mm sphere, WB InGaAs Detector
0
0
0
0
Program
Program
3350/servo 860,8/2
3350/0,2 860,8/0,2
3350/0,2 860,8/0,2
0
15.00
 
 
 
0
 
860,8
319,2
860,8
Front
100
on
S:100 R:100
0
0
0
0
 
0
 
 
 
0
 
 
0
0
0
0
0
 
 
 
 
0
0


0
0
#HDR
-1
-1
#GR
nm
%R
1.0
0.0
2500,000000
-1,000000
2251
8
20,287000
2,009600
#DATA

250.000000	6.288490
251.000000	6.285976
252.000000	6.295016
253.000000	6.296967
254.000000	6.293512
255.000000	6.303323
256.000000	6.308716
257.000000	6.308801
258.000000	6.311238
259.000000	6.312908
260.000000	6.318094
261.000000	6.313665
262.000000	6.324327
263.000000	6.329306
264.000000	6.325270
265.000000	6.325982
266.000000	6.314704
267.000000	6.327191
268.000000	6.334815
269.000000	6.338235
270.000000	6.342371
271.000000	6.334504
272.000000	6.331996
273.000000	6.342525
274.000000	6.338935
275.000000	6.348581
276.000000	6.351442
277.000000	6.353433
278.000000	6.349846
279.000000	6.346016
280.000000	6.359437
281.000000	6.355237
282.000000	6.349650
283.000000	6.354861
284.000000	6.352730
285.000000	6.349419
286.000000	6.360539
287.000000	6.363030
288.000000	6.353789
289.000000	6.358300
290.000000	6.357014
291.000000	6.362760
292.000000	6.360979
293.000000	6.371167
294.000000	6.360222
295.000000	6.351584
296.000000	6.368124
297.000000	6.367253
298.000000	6.365315
299.000000	6.357740
300.000000	6.360218
301.000000	6.371328
302.000000	6.360479
303.000000	6.369790
304.000000	6.372065
305.000000	6.376480
306.000000	6.359560
307.000000	6.370169
308.000000	6.356879
309.000000	6.362013
310.000000	6.355061
311.000000	6.355073
312.000000	6.368692
313.000000	6.369568
314.000000	6.365125
315.000000	6.367363
316.000000	6.349733
317.000000	6.234943
318.000000	6.317684
319.000000	6.175734
320.000000	6.228228
321.000000	6.214683
322.000000	6.241959
323.000000	6.222275
324.000000	6.233313
325.000000	6.208818
326.000000	6.225685
327.000000	6.294284
328.000000	6.261613
329.000000	6.297843
330.000000	6.277757
331.000000	6.266466
332.000000	6.247833
333.000000	6.293520
334.000000	6.229230
335.000000	6.268461
336.000000	6.321943
337.000000	6.291036
338.000000	6.332874
339.000000	6.325070
340.000000	6.285425
341.000000	6.301373
342.000000	6.275891
343.000000	6.278195
344.000000	6.998076
345.000000	6.985328
346.000000	7.015388
347.000000	6.991425
348.000000	7.006843
349.000000	6.990913
350.000000	6.998582
351.000000	7.005942
352.000000	7.002002
353.000000	6.990261
354.000000	6.984368
355.000000	6.963435
356.000000	6.975354
357.000000	6.954394
358.000000	7.665473
359.000000	7.659471
360.000000	7.658258
361.000000	7.636879
362.000000	7.633104
363.000000	7.607448
364.000000	7.595593
365.000000	7.588766
366.000000	7.570455
367.000000	8.270499
368.000000	8.236554
369.000000	8.219493
370.000000	8.218259
371.000000	8.183794
372.000000	8.148222
373.000000	8.877757
374.000000	8.860927
375.000000	8.813687
376.000000	8.738154
377.000000	9.488185
378.000000	9.437553
379.000000	9.391984
380.000000	9.343428
381.000000	9.290767
382.000000	9.948682
383.000000	9.886249
384.000000	9.828985
385.000000	9.763606
386.000000	10.417774
387.000000	10.352357
388.000000	10.283187
389.000000	10.210452
390.000000	10.139396
391.000000	10.789687
392.000000	10.717400
393.000000	10.645022
394.000000	10.570748
395.000000	10.497809
396.000000	10.427488
397.000000	11.078441
398.000000	11.011103
399.000000	10.943907
400.000000	10.879055
401.000000	10.815199
402.000000	10.751639
403.000000	10.688845
404.000000	10.632983
405.000000	10.581311
406.000000	10.531151
407.000000	10.480527
408.000000	10.430381
409.000000	10.382585
410.000000	10.342517
411.000000	10.300996
412.000000	10.260028
413.000000	10.223192
414.000000	10.191381
415.000000	10.163630
416.000000	10.136837
417.000000	10.109200
418.000000	10.084526
419.000000	10.064352
420.000000	10.045866
421.000000	10.028674
422.000000	10.016707
423.000000	10.007369
424.000000	9.999131
425.000000	9.992421
426.000000	9.988966
427.000000	9.991388
428.000000	9.280879
429.000000	9.289725
430.000000	9.299059
431.000000	9.310016
432.000000	9.324662
433.000000	9.344832
434.000000	9.368700
435.000000	9.395166
436.000000	9.423922
437.000000	9.453655
438.000000	9.483523
439.000000	9.519514
440.000000	9.558557
441.000000	9.597863
442.000000	9.640771
443.000000	9.687016
444.000000	9.733296
445.000000	9.771002
446.000000	9.804753
447.000000	9.841743
448.000000	9.879101
449.000000	9.915410
450.000000	9.950463
451.000000	9.983371
452.000000	10.013744
453.000000	10.040307
454.000000	9.342473
455.000000	9.355899
456.000000	9.364008
457.000000	9.370714
458.000000	9.377219
459.000000	9.379105
460.000000	9.374384
461.000000	9.368548
462.000000	9.360168
463.000000	9.349205
464.000000	9.338323
465.000000	8.609810
466.000000	8.599653
467.000000	8.592625
468.000000	8.588779
469.000000	8.586405
470.000000	8.584891
471.000000	8.587438
472.000000	8.594851
473.000000	8.606475
474.000000	8.621771
475.000000	8.639848
476.000000	8.660444
477.000000	8.683059
478.000000	8.707827
479.000000	8.739550
480.000000	8.778949
481.000000	8.822788
482.000000	8.864784
483.000000	8.900242
484.000000	8.929401
485.000000	8.954488
486.000000	8.979578
487.000000	9.002571
488.000000	9.024556
489.000000	9.046410
490.000000	9.069148
491.000000	9.807187
492.000000	9.822864
493.000000	9.837411
494.000000	9.849055
495.000000	9.856865
496.000000	9.856539
497.000000	10.564370
498.000000	10.551119
499.000000	10.529860
500.000000	10.499814
501.000000	11.175595
502.000000	11.129591
503.000000	11.071690
504.000000	11.711385
505.000000	11.622118
506.000000	11.515653
507.000000	12.099252
508.000000	11.948616
509.000000	11.776747
510.000000	12.298748
511.000000	12.096683
512.000000	11.892211
513.000000	12.408910
514.000000	12.228301
515.000000	12.779278
516.000000	12.638534
517.000000	12.517723
518.000000	13.127799
519.000000	13.041137
520.000000	12.961372
521.000000	12.892610
522.000000	13.552200
523.000000	13.500139
524.000000	13.458191
525.000000	13.426405
526.000000	14.115359
527.000000	14.095002
528.000000	14.078903
529.000000	14.067215
530.000000	14.058801
531.000000	14.048694
532.000000	14.759394
533.000000	14.753967
534.000000	14.749046
535.000000	14.746025
536.000000	14.740943
537.000000	14.732628
538.000000	14.726442
539.000000	14.714656
540.000000	14.699659
541.000000	14.687287
542.000000	14.673343
543.000000	14.660427
544.000000	14.648020
545.000000	14.635767
546.000000	14.623547
547.000000	14.608215
548.000000	14.591500
549.000000	14.579022
550.000000	14.566117
551.000000	14.555383
552.000000	14.543802
553.000000	14.536141
554.000000	14.527892
555.000000	14.519869
556.000000	14.513226
557.000000	14.500005
558.000000	14.486120
559.000000	14.477654
560.000000	14.585985
561.000000	14.601437
562.000000	14.601944
563.000000	14.606852
564.000000	14.612496
565.000000	14.618849
566.000000	14.627195
567.000000	14.632696
568.000000	14.648259
569.000000	14.664772
570.000000	14.691339
571.000000	14.718320
572.000000	14.745093
573.000000	14.778888
574.000000	14.809709
575.000000	14.845282
576.000000	14.869275
577.000000	14.897073
578.000000	14.198625
579.000000	14.212012
580.000000	14.224868
581.000000	14.239736
582.000000	14.258463
583.000000	14.291427
584.000000	14.332914
585.000000	14.382476
586.000000	14.446619
587.000000	13.797052
588.000000	13.870625
589.000000	13.939664
590.000000	14.001423
591.000000	14.045769
592.000000	14.064438
593.000000	14.066496
594.000000	14.051048
595.000000	14.021914
596.000000	13.991227
597.000000	13.249204
598.000000	13.243497
599.000000	13.252380
600.000000	13.284028
601.000000	13.349250
602.000000	13.431277
603.000000	13.513740
604.000000	13.604974
605.000000	13.679915
606.000000	13.741640
607.000000	13.772904
608.000000	13.071613
609.000000	13.055749
610.000000	13.020198
611.000000	12.969320
612.000000	12.915071
613.000000	12.867710
614.000000	12.834808
615.000000	12.823489
616.000000	12.834172
617.000000	12.873438
618.000000	12.924558
619.000000	12.992275
620.000000	13.063290
621.000000	13.137471
622.000000	13.194043
623.000000	13.240904
624.000000	13.258306
625.000000	13.254706
626.000000	13.228567
627.000000	13.182115
628.000000	13.122730
629.000000	13.066336
630.000000	12.296957
631.000000	12.259961
632.000000	12.237235
633.000000	12.241748
634.000000	12.265496
635.000000	12.306203
636.000000	12.361594
637.000000	12.421828
638.000000	12.471089
639.000000	12.518216
640.000000	12.544628
641.000000	12.551331
642.000000	12.531997
643.000000	12.492038
644.000000	12.436737
645.000000	12.369473
646.000000	12.300905
647.000000	12.235787
648.000000	12.177527
649.000000	12.146358
650.000000	12.136579
651.000000	12.138914
652.000000	12.167231
653.000000	12.207312
654.000000	12.255441
655.000000	12.304417
656.000000	13.066387
657.000000	13.101260
658.000000	13.125500
659.000000	13.130305
660.000000	13.120254
661.000000	13.089636
662.000000	13.049141
663.000000	13.002523
664.000000	12.955853
665.000000	12.921994
666.000000	12.900237
667.000000	12.891549
668.000000	12.907522
669.000000	12.938266
670.000000	12.982537
671.000000	13.038363
672.000000	13.097883
673.000000	13.157093
674.000000	13.203762
675.000000	13.959148
676.000000	13.981977
677.000000	13.991808
678.000000	13.980879
679.000000	13.958209
680.000000	13.915110
681.000000	13.864525
682.000000	13.808061
683.000000	13.763486
684.000000	13.720771
685.000000	13.693184
686.000000	13.675625
687.000000	13.672640
688.000000	13.675522
689.000000	14.414447
690.000000	14.433030
691.000000	14.460073
692.000000	14.482966
693.000000	14.495254
694.000000	14.495034
695.000000	14.487945
696.000000	14.463451
697.000000	14.430269
698.000000	14.382987
699.000000	14.328278
700.000000	14.264380
701.000000	14.200478
702.000000	14.139113
703.000000	14.081173
704.000000	14.033079
705.000000	14.716931
706.000000	14.689316
707.000000	14.670562
708.000000	14.664744
709.000000	14.662063
710.000000	14.661108
711.000000	14.658325
712.000000	14.658941
713.000000	14.656207
714.000000	14.640727
715.000000	14.623738
716.000000	14.603262
717.000000	14.575528
718.000000	14.542168
719.000000	14.507197
720.000000	14.473506
721.000000	14.441082
722.000000	14.418202
723.000000	14.390429
724.000000	14.369056
725.000000	14.354937
726.000000	14.349041
727.000000	14.350191
728.000000	14.348651
729.000000	14.357364
730.000000	14.366885
731.000000	14.374677
732.000000	13.663474
733.000000	13.666111
734.000000	13.669919
735.000000	13.663939
736.000000	13.653772
737.000000	13.649098
738.000000	13.644183
739.000000	13.634957
740.000000	13.625016
741.000000	13.611640
742.000000	13.600471
743.000000	13.597786
744.000000	13.601826
745.000000	13.612467
746.000000	13.617748
747.000000	12.912825
748.000000	12.932415
749.000000	12.951671
750.000000	12.970049
751.000000	12.988256
752.000000	13.003237
753.000000	13.019090
754.000000	13.033544
755.000000	13.044831
756.000000	13.062471
757.000000	13.069744
758.000000	13.074263
759.000000	12.367910
760.000000	12.371711
761.000000	12.372753
762.000000	12.381170
763.000000	12.398574
764.000000	12.416878
765.000000	12.435946
766.000000	12.460081
767.000000	11.774087
768.000000	11.805238
769.000000	11.838725
770.000000	11.868645
771.000000	11.896777
772.000000	11.929264
773.000000	11.960231
774.000000	11.998165
775.000000	12.026749
776.000000	12.047289
777.000000	11.354629
778.000000	11.382274
779.000000	11.406894
780.000000	11.419050
781.000000	11.437968
782.000000	11.465650
783.000000	11.484831
784.000000	11.511138
785.000000	10.827739
786.000000	10.863221
787.000000	10.892898
788.000000	10.930589
789.000000	10.970954
790.000000	11.012827
791.000000	11.056137
792.000000	11.095528
793.000000	11.137245
794.000000	11.185403
795.000000	10.499410
796.000000	10.531800
797.000000	10.563203
798.000000	10.594756
799.000000	10.621768
800.000000	10.647240
801.000000	10.677176
802.000000	10.699499
803.000000	10.724513
804.000000	10.759554
805.000000	10.778164
806.000000	10.801566
807.000000	10.832286
808.000000	10.137958
809.000000	10.171164
810.000000	10.203594
811.000000	10.233032
812.000000	10.284080
813.000000	10.317860
814.000000	10.345104
815.000000	10.384172
816.000000	10.413638
817.000000	10.444133
818.000000	10.474150
819.000000	10.502702
820.000000	10.518596
821.000000	10.545518
822.000000	10.570662
823.000000	10.596731
824.000000	10.594044
825.000000	10.628363
826.000000	10.659437
827.000000	10.680641
828.000000	10.694957
829.000000	10.719351
830.000000	10.736001
831.000000	10.740985
832.000000	10.754758
833.000000	10.785382
834.000000	10.807353
835.000000	10.829212
836.000000	10.851979
837.000000	10.868368
838.000000	10.884652
839.000000	10.899460
840.000000	10.931972
841.000000	10.955433
842.000000	10.955305
843.000000	10.968513
844.000000	10.974959
845.000000	11.010763
846.000000	10.967688
847.000000	10.986671
848.000000	11.035476
849.000000	11.049624
850.000000	11.056403
851.000000	11.035357
852.000000	11.064770
853.000000	11.075688
854.000000	11.052683
855.000000	11.100011
856.000000	11.099445
857.000000	11.056943
858.000000	17.370237
859.000000	11.281298
860.000000	11.274784
861.000000	10.770968
862.000000	11.257261
863.000000	11.245834
864.000000	10.742133
865.000000	10.734115
866.000000	10.722267
867.000000	10.707163
868.000000	10.200666
869.000000	10.190999
870.000000	10.677754
871.000000	10.670090
872.000000	10.157624
873.000000	10.644998
874.000000	10.131307
875.000000	9.620279
876.000000	9.605917
877.000000	9.590938
878.000000	9.585254
879.000000	9.568327
880.000000	9.553921
881.000000	9.536433
882.000000	9.529121
883.000000	9.510445
884.000000	9.492335
885.000000	9.481510
886.000000	8.970724
887.000000	9.451383
888.000000	9.434774
889.000000	8.927079
890.000000	9.406453
891.000000	9.388718
892.000000	9.375259
893.000000	9.355521
894.000000	9.337042
895.000000	8.822778
896.000000	8.813862
897.000000	8.790796
898.000000	8.771072
899.000000	8.755361
900.000000	8.735685
901.000000	8.715636
902.000000	8.701396
903.000000	8.687684
904.000000	8.666974
905.000000	8.646873
906.000000	8.634582
907.000000	8.126944
908.000000	8.102354
909.000000	8.571390
910.000000	8.561329
911.000000	8.539439
912.000000	8.516854
913.000000	8.500731
914.000000	8.478021
915.000000	8.460838
916.000000	8.435869
917.000000	8.419534
918.000000	8.406676
919.000000	8.395352
920.000000	8.375491
921.000000	8.352925
922.000000	8.331276
923.000000	8.311479
924.000000	8.295488
925.000000	8.284791
926.000000	8.266710
927.000000	8.250161
928.000000	8.233246
929.000000	8.220440
930.000000	8.207515
931.000000	8.191210
932.000000	8.179304
933.000000	8.152066
934.000000	8.137393
935.000000	8.117715
936.000000	8.100548
937.000000	8.091583
938.000000	8.066516
939.000000	8.050381
940.000000	8.037726
941.000000	8.032537
942.000000	8.010250
943.000000	7.991222
944.000000	7.975110
945.000000	7.960715
946.000000	7.938192
947.000000	7.931129
948.000000	7.919536
949.000000	7.901002
950.000000	8.372133
951.000000	8.355063
952.000000	8.337325
953.000000	8.324567
954.000000	8.303983
955.000000	8.285606
956.000000	8.278768
957.000000	8.260663
958.000000	8.240949
959.000000	8.223615
960.000000	8.212373
961.000000	8.198253
962.000000	8.180363
963.000000	8.164385
964.000000	8.151529
965.000000	8.142240
966.000000	8.126624
967.000000	8.108673
968.000000	8.092682
969.000000	8.085301
970.000000	8.070145
971.000000	8.059268
972.000000	8.041591
973.000000	8.508276
974.000000	8.006383
975.000000	8.480010
976.000000	8.464942
977.000000	8.450247
978.000000	8.437732
979.000000	8.418095
980.000000	8.408765
981.000000	8.395371
982.000000	8.378849
983.000000	8.364014
984.000000	8.350784
985.000000	8.336606
986.000000	8.321656
987.000000	8.307643
988.000000	8.291249
989.000000	8.278251
990.000000	8.269693
991.000000	8.741493
992.000000	8.727177
993.000000	8.713320
994.000000	8.697459
995.000000	8.681460
996.000000	8.672637
997.000000	8.659494
998.000000	8.639883
999.000000	8.622098
1000.000000	8.613897
1001.000000	8.602101
1002.000000	8.584547
1003.000000	8.569125
1004.000000	8.555712
1005.000000	8.546169
1006.000000	8.533418
1007.000000	8.520462
1008.000000	8.508761
1009.000000	8.979732
1010.000000	8.969830
1011.000000	8.952682
1012.000000	8.935957
1013.000000	8.924548
1014.000000	8.910748
1015.000000	8.896025
1016.000000	8.881725
1017.000000	8.866747
1018.000000	8.850642
1019.000000	8.839291
1020.000000	8.831520
1021.000000	8.817969
1022.000000	8.798984
1023.000000	8.783597
1024.000000	8.774359
1025.000000	8.763642
1026.000000	9.236030
1027.000000	9.221839
1028.000000	9.205880
1029.000000	9.196052
1030.000000	9.180079
1031.000000	9.161070
1032.000000	9.150827
1033.000000	9.137763
1034.000000	9.124558
1035.000000	9.112717
1036.000000	9.099794
1037.000000	9.089159
1038.000000	9.076258
1039.000000	9.064329
1040.000000	9.051516
1041.000000	9.038722
1042.000000	9.512219
1043.000000	9.499662
1044.000000	9.488890
1045.000000	9.474166
1046.000000	9.462099
1047.000000	9.450209
1048.000000	9.435298
1049.000000	9.421932
1050.000000	9.406261
1051.000000	9.390416
1052.000000	9.378290
1053.000000	9.366714
1054.000000	9.355140
1055.000000	9.345382
1056.000000	9.330065
1057.000000	9.314547
1058.000000	9.784307
1059.000000	9.774156
1060.000000	9.769444
1061.000000	9.754230
1062.000000	9.735641
1063.000000	9.725867
1064.000000	9.715951
1065.000000	9.703995
1066.000000	9.687875
1067.000000	9.674708
1068.000000	9.662907
1069.000000	9.650533
1070.000000	9.637091
1071.000000	9.623506
1072.000000	9.613364
1073.000000	9.598711
1074.000000	9.588528
1075.000000	10.068585
1076.000000	10.055721
1077.000000	10.041808
1078.000000	10.023975
1079.000000	10.007482
1080.000000	9.997890
1081.000000	9.984334
1082.000000	9.975792
1083.000000	9.959530
1084.000000	9.948272
1085.000000	9.937449
1086.000000	9.928593
1087.000000	9.914689
1088.000000	9.904626
1089.000000	9.892038
1090.000000	9.881255
1091.000000	10.355352
1092.000000	10.343996
1093.000000	10.332254
1094.000000	10.321668
1095.000000	10.316950
1096.000000	10.301959
1097.000000	10.293004
1098.000000	10.283223
1099.000000	10.276614
1100.000000	10.265400
1101.000000	10.249333
1102.000000	10.242230
1103.000000	10.227174
1104.000000	10.220309
1105.000000	10.210453
1106.000000	10.199776
1107.000000	10.180718
1108.000000	10.176453
1109.000000	10.164090
1110.000000	10.153209
1111.000000	10.625698
1112.000000	10.618434
1113.000000	10.612617
1114.000000	10.604686
1115.000000	10.590512
1116.000000	10.578521
1117.000000	10.571769
1118.000000	10.561831
1119.000000	10.554828
1120.000000	10.547518
1121.000000	10.539030
1122.000000	10.520954
1123.000000	10.516739
1124.000000	10.508015
1125.000000	10.495150
1126.000000	10.495420
1127.000000	10.486797
1128.000000	10.470064
1129.000000	10.463924
1130.000000	10.457756
1131.000000	10.462960
1132.000000	10.471074
1133.000000	10.463992
1134.000000	10.922036
1135.000000	10.904728
1136.000000	10.902115
1137.000000	10.905175
1138.000000	10.904703
1139.000000	10.894889
1140.000000	10.889345
1141.000000	10.892225
1142.000000	10.887058
1143.000000	10.875099
1144.000000	10.879669
1145.000000	10.862465
1146.000000	10.856271
1147.000000	10.851958
1148.000000	10.853860
1149.000000	10.845017
1150.000000	10.837114
1151.000000	10.839988
1152.000000	10.825907
1153.000000	10.818073
1154.000000	10.820008
1155.000000	10.811432
1156.000000	10.815904
1157.000000	10.815915
1158.000000	10.806551
1159.000000	10.807933
1160.000000	10.809289
1161.000000	10.810713
1162.000000	10.810551
1163.000000	10.812529
1164.000000	10.814839
1165.000000	10.824263
1166.000000	10.820007
1167.000000	10.821919
1168.000000	10.815121
