PE UV       SUBTECH     SPECTRUM    ASCII       PEDS        4.00        
   -1
INBUCR0426-4.Sample.ASC
24/02/09
14:39:33.00
24/02/09
14:39:33.00
Vinicio Soto Monge
Chrysina resplendens .COSTA RICA. Prov. Guanacaste. Cañas. P.N. Volcán Tenorio. Río Martirio. La Rejolla. 1000-1100m. 14-15 JUN 2007. J. A. Azofeifa. M. Campos. Tp. Luz  Mercurio. #91628.. INB0004090510. Un élitro está en un vial con desecante.
250,000000
1
Lambda 1050
1050L1511233
PerkinElmer UV WinLab 6.3.2.0749 / 2.02.05 Lambda 900 UV/VIS/NIR, Aug  7 2015 09:38:08

0
0
3350/servo 860,8/2
0
0
UV/VIS
1
1
1
DoubleDePol,CommonBeamDepol,RBeamAtt,SBeamAtt,60mm sphere, WB InGaAs Detector
0
0
0
0
Program
Program
3350/servo 860,8/2
3350/0,2 860,8/0,2
3350/0,2 860,8/0,2
0
15.00
 
 
 
0
 
860,8
319,2
860,8
Front
100
on
S:100 R:100
0
0
0
0
 
0
 
 
 
0
 
 
0
0
0
0
0
 
 
 
 
0
0


0
0
#HDR
-1
-1
#GR
nm
%R
1.0
0.0
2500,000000
-1,000000
2251
8
18,062000
1,326400
#DATA

250.000000	4.334509
251.000000	4.330320
252.000000	4.334117
253.000000	4.339480
254.000000	4.324044
255.000000	4.332026
256.000000	4.971862
257.000000	4.975730
258.000000	4.976146
259.000000	4.979811
260.000000	4.978341
261.000000	4.982129
262.000000	4.987204
263.000000	4.989584
264.000000	4.994023
265.000000	4.988461
266.000000	4.990631
267.000000	4.999542
268.000000	4.994528
269.000000	5.003729
270.000000	5.010649
271.000000	5.020293
272.000000	5.021044
273.000000	5.016538
274.000000	5.015977
275.000000	5.024563
276.000000	5.023587
277.000000	5.035482
278.000000	5.032960
279.000000	5.032777
280.000000	5.031953
281.000000	5.022376
282.000000	5.014654
283.000000	5.020141
284.000000	5.021987
285.000000	5.020076
286.000000	5.016028
287.000000	5.015902
288.000000	5.020652
289.000000	5.016208
290.000000	5.007952
291.000000	5.002389
292.000000	5.006554
293.000000	4.996357
294.000000	4.990682
295.000000	4.994823
296.000000	4.991647
297.000000	4.975273
298.000000	4.972131
299.000000	4.964878
300.000000	4.971292
301.000000	4.973381
302.000000	4.970869
303.000000	4.970115
304.000000	4.963277
305.000000	4.967189
306.000000	5.590701
307.000000	5.590066
308.000000	5.597525
309.000000	5.583694
310.000000	5.575616
311.000000	6.207589
312.000000	6.208476
313.000000	6.209119
314.000000	6.197476
315.000000	6.836572
316.000000	6.822607
317.000000	7.968074
318.000000	7.993058
319.000000	8.029825
320.000000	7.916938
321.000000	8.588809
322.000000	8.613095
323.000000	8.642183
324.000000	8.597034
325.000000	8.625896
326.000000	8.657300
327.000000	8.684925
328.000000	8.645205
329.000000	8.645036
330.000000	9.254885
331.000000	9.256652
332.000000	9.290103
333.000000	9.297987
334.000000	9.301811
335.000000	9.293993
336.000000	9.311048
337.000000	9.346874
338.000000	9.295717
339.000000	9.300404
340.000000	9.316117
341.000000	9.287985
342.000000	9.286336
343.000000	9.298129
344.000000	9.288063
345.000000	9.298584
346.000000	9.300695
347.000000	9.271944
348.000000	9.293943
349.000000	9.925124
350.000000	9.920366
351.000000	9.923696
352.000000	9.948141
353.000000	9.922302
354.000000	9.943230
355.000000	9.957137
356.000000	9.954583
357.000000	9.930731
358.000000	9.921356
359.000000	9.924119
360.000000	9.923125
361.000000	9.937568
362.000000	9.943938
363.000000	9.938433
364.000000	9.939952
365.000000	9.943508
366.000000	9.927928
367.000000	9.936589
368.000000	9.942921
369.000000	9.960164
370.000000	9.973317
371.000000	9.970916
372.000000	9.970777
373.000000	9.966556
374.000000	9.994356
375.000000	9.967498
376.000000	9.291735
377.000000	9.356234
378.000000	9.350948
379.000000	9.347678
380.000000	9.347557
381.000000	9.348702
382.000000	9.346108
383.000000	9.344972
384.000000	9.341031
385.000000	9.339477
386.000000	9.337671
387.000000	9.336577
388.000000	9.334973
389.000000	9.332279
390.000000	9.327371
391.000000	9.326876
392.000000	9.326265
393.000000	9.326225
394.000000	9.324851
395.000000	9.323830
396.000000	9.320161
397.000000	9.316913
398.000000	9.317589
399.000000	9.315438
400.000000	9.312885
401.000000	9.311419
402.000000	9.311022
403.000000	9.307287
404.000000	9.307347
405.000000	9.307411
406.000000	9.303912
407.000000	9.302628
408.000000	9.300652
409.000000	9.298894
410.000000	9.299834
411.000000	9.299163
412.000000	9.295660
413.000000	9.293415
414.000000	9.292341
415.000000	9.291300
416.000000	9.290323
417.000000	9.287770
418.000000	9.284989
419.000000	9.283185
420.000000	9.281450
421.000000	9.278793
422.000000	9.277172
423.000000	9.275831
424.000000	9.274211
425.000000	9.271036
426.000000	9.269313
427.000000	9.268536
428.000000	9.264860
429.000000	9.261337
430.000000	9.259707
431.000000	9.257895
432.000000	9.257621
433.000000	9.254855
434.000000	9.251811
435.000000	9.249708
436.000000	9.245641
437.000000	9.243203
438.000000	9.241070
439.000000	9.238640
440.000000	9.235661
441.000000	9.232280
442.000000	9.231591
443.000000	9.232142
444.000000	9.230120
445.000000	9.223913
446.000000	9.219258
447.000000	9.852976
448.000000	9.850546
449.000000	9.849720
450.000000	9.846683
451.000000	9.843104
452.000000	9.840704
453.000000	9.839166
454.000000	9.834673
455.000000	9.829401
456.000000	9.827043
457.000000	9.824429
458.000000	9.822404
459.000000	9.819480
460.000000	9.816860
461.000000	9.813133
462.000000	9.809953
463.000000	9.807011
464.000000	9.804415
465.000000	9.802343
466.000000	9.799949
467.000000	9.797029
468.000000	9.792847
469.000000	9.790241
470.000000	9.788684
471.000000	9.786700
472.000000	9.783549
473.000000	9.781437
474.000000	9.780886
475.000000	9.779014
476.000000	9.776920
477.000000	9.774794
478.000000	9.774371
479.000000	9.773712
480.000000	9.776522
481.000000	9.781361
482.000000	9.782849
483.000000	9.781877
484.000000	9.778751
485.000000	9.772103
486.000000	9.764882
487.000000	9.758959
488.000000	9.752798
489.000000	9.746041
490.000000	9.739765
491.000000	9.733210
492.000000	9.727042
493.000000	9.721374
494.000000	9.714739
495.000000	10.343745
496.000000	10.337536
497.000000	10.333985
498.000000	10.327015
499.000000	10.319890
500.000000	10.313654
501.000000	10.306904
502.000000	10.299567
503.000000	10.292691
504.000000	10.287606
505.000000	10.281987
506.000000	10.275113
507.000000	10.268485
508.000000	10.263687
509.000000	10.259767
510.000000	10.256804
511.000000	10.251338
512.000000	10.246571
513.000000	10.242706
514.000000	10.238905
515.000000	10.235191
516.000000	10.231398
517.000000	10.228602
518.000000	10.224832
519.000000	10.221897
520.000000	10.217145
521.000000	10.214096
522.000000	10.209846
523.000000	10.206837
524.000000	10.202255
525.000000	10.197227
526.000000	10.192314
527.000000	10.186602
528.000000	10.177176
529.000000	10.172881
530.000000	10.167410
531.000000	10.161441
532.000000	10.155053
533.000000	10.148781
534.000000	10.776613
535.000000	10.770935
536.000000	10.763061
537.000000	10.756641
538.000000	10.749994
539.000000	10.743497
540.000000	10.735911
541.000000	10.727798
542.000000	10.721236
543.000000	10.714977
544.000000	10.707457
545.000000	10.698535
546.000000	10.691080
547.000000	10.683679
548.000000	10.677581
549.000000	10.669907
550.000000	10.662515
551.000000	10.656687
552.000000	10.648389
553.000000	10.640710
554.000000	10.633090
555.000000	10.626628
556.000000	10.620122
557.000000	10.613905
558.000000	10.605452
559.000000	10.600581
560.000000	10.625953
561.000000	10.626056
562.000000	10.621242
563.000000	10.613669
564.000000	10.608846
565.000000	10.605268
566.000000	10.599522
567.000000	10.589713
568.000000	10.583620
569.000000	10.577961
570.000000	10.570648
571.000000	10.565594
572.000000	10.560290
573.000000	10.552821
574.000000	10.548126
575.000000	10.540351
576.000000	10.532692
577.000000	10.524354
578.000000	10.518511
579.000000	10.511968
580.000000	10.504370
581.000000	10.497962
582.000000	10.492221
583.000000	11.123045
584.000000	11.113066
585.000000	11.106783
586.000000	11.098894
587.000000	11.095227
588.000000	11.088034
589.000000	11.079558
590.000000	11.072137
591.000000	11.062364
592.000000	11.054929
593.000000	11.047365
594.000000	11.041081
595.000000	11.035742
596.000000	11.030846
597.000000	11.022312
598.000000	11.014648
599.000000	11.008006
600.000000	11.003283
601.000000	10.993661
602.000000	10.986123
603.000000	10.977897
604.000000	10.969252
605.000000	10.962568
606.000000	10.953412
607.000000	10.946288
608.000000	10.940775
609.000000	10.933227
610.000000	10.924413
611.000000	10.917435
612.000000	10.908926
613.000000	10.903623
614.000000	10.891576
615.000000	10.882695
616.000000	10.878046
617.000000	10.872179
618.000000	10.864216
619.000000	10.855148
620.000000	10.848018
621.000000	10.841358
622.000000	10.833326
623.000000	10.824076
624.000000	10.816508
625.000000	11.443744
626.000000	11.438176
627.000000	11.426915
628.000000	11.419719
629.000000	11.410470
630.000000	11.405301
631.000000	11.390333
632.000000	11.380155
633.000000	11.372485
634.000000	11.360865
635.000000	11.352634
636.000000	11.342256
637.000000	11.333782
638.000000	11.322741
639.000000	11.308626
640.000000	11.297232
641.000000	11.286702
642.000000	11.276508
643.000000	11.266240
644.000000	11.253183
645.000000	11.239746
646.000000	11.230656
647.000000	11.219242
648.000000	11.207057
649.000000	11.195271
650.000000	11.182964
651.000000	11.170098
652.000000	11.157185
653.000000	11.145373
654.000000	11.132775
655.000000	11.754566
656.000000	11.741237
657.000000	11.728692
658.000000	11.719477
659.000000	11.709132
660.000000	11.696807
661.000000	11.685303
662.000000	11.672332
663.000000	11.661135
664.000000	11.646311
665.000000	11.634978
666.000000	11.622517
667.000000	11.611436
668.000000	11.599534
669.000000	11.584538
670.000000	11.570702
671.000000	11.562572
672.000000	11.549693
673.000000	11.538786
674.000000	11.527409
675.000000	11.515422
676.000000	11.501263
677.000000	11.489784
678.000000	11.478397
679.000000	11.465741
680.000000	11.454298
681.000000	11.443731
682.000000	11.430109
683.000000	12.057491
684.000000	12.044477
685.000000	12.030913
686.000000	12.017690
687.000000	12.001668
688.000000	11.988731
689.000000	11.982457
690.000000	11.971864
691.000000	11.955745
692.000000	11.945331
693.000000	11.933385
694.000000	11.923095
695.000000	11.911595
696.000000	11.899698
697.000000	11.889791
698.000000	11.878539
699.000000	11.864216
700.000000	11.849782
701.000000	11.838011
702.000000	11.823027
703.000000	11.810976
704.000000	11.798873
705.000000	11.785086
706.000000	11.774156
707.000000	11.762789
708.000000	12.388041
709.000000	12.373335
710.000000	12.362729
711.000000	12.350267
712.000000	12.336129
713.000000	12.319585
714.000000	12.310237
715.000000	12.298105
716.000000	12.282999
717.000000	12.272244
718.000000	12.256151
719.000000	12.243953
720.000000	12.230239
721.000000	12.215156
722.000000	12.202186
723.000000	12.190410
724.000000	12.180150
725.000000	12.170386
726.000000	12.154918
727.000000	12.137077
728.000000	12.123872
729.000000	12.111089
730.000000	12.103181
731.000000	12.727160
732.000000	12.713241
733.000000	12.700403
734.000000	12.688325
735.000000	12.671421
736.000000	12.653839
737.000000	12.641247
738.000000	12.624504
739.000000	12.608042
740.000000	12.595332
741.000000	12.580066
742.000000	12.569782
743.000000	12.558713
744.000000	12.541919
745.000000	12.526798
746.000000	12.519863
747.000000	12.507837
748.000000	12.491173
749.000000	12.477040
750.000000	12.462916
751.000000	13.081465
752.000000	13.066614
753.000000	13.051152
754.000000	13.033108
755.000000	13.022118
756.000000	13.004575
757.000000	12.981121
758.000000	12.965632
759.000000	12.952466
760.000000	12.934747
761.000000	12.915211
762.000000	12.908387
763.000000	12.898295
764.000000	12.874622
765.000000	12.856531
766.000000	12.846424
767.000000	12.835003
768.000000	12.816913
769.000000	12.801953
770.000000	13.425478
771.000000	13.406608
772.000000	13.389392
773.000000	13.378345
774.000000	13.365618
775.000000	13.352212
776.000000	13.337059
777.000000	13.322239
778.000000	13.305968
779.000000	13.289060
780.000000	13.275420
781.000000	13.261000
782.000000	13.243063
783.000000	13.230175
784.000000	13.219493
785.000000	13.201763
786.000000	13.184659
787.000000	13.170767
788.000000	13.789465
789.000000	13.773578
790.000000	13.761582
791.000000	13.742604
792.000000	13.727348
793.000000	13.715708
794.000000	13.684919
795.000000	13.675719
796.000000	13.670316
797.000000	13.642417
798.000000	13.610532
799.000000	13.604774
800.000000	13.599723
801.000000	13.576560
802.000000	13.558771
803.000000	13.546975
804.000000	13.534961
805.000000	13.518105
806.000000	13.501527
807.000000	14.113202
808.000000	14.098674
809.000000	14.083815
810.000000	14.064769
811.000000	14.049131
812.000000	14.034114
813.000000	14.027890
814.000000	14.004020
815.000000	13.975660
816.000000	13.963560
817.000000	13.958081
818.000000	13.959849
819.000000	13.935001
820.000000	13.917431
821.000000	13.910267
822.000000	13.895223
823.000000	13.883201
824.000000	13.860342
825.000000	13.860309
826.000000	13.840889
827.000000	13.824326
828.000000	13.819132
829.000000	14.429856
830.000000	14.428995
831.000000	14.423687
832.000000	14.418343
833.000000	14.400752
834.000000	14.390862
835.000000	14.394799
836.000000	14.375275
837.000000	14.357995
838.000000	14.341184
839.000000	14.335305
840.000000	14.332240
841.000000	14.328215
842.000000	14.318084
843.000000	14.296516
844.000000	14.300128
845.000000	14.288457
846.000000	14.304143
847.000000	14.279857
848.000000	14.258053
849.000000	14.285390
850.000000	14.250631
851.000000	14.265788
852.000000	14.279657
853.000000	14.229038
854.000000	14.203868
855.000000	14.243314
856.000000	14.206673
857.000000	14.124774
858.000000	19.311388
859.000000	14.404153
860.000000	14.388076
861.000000	14.362560
862.000000	14.837688
863.000000	14.828800
864.000000	13.822118
865.000000	14.310767
866.000000	13.803269
867.000000	14.288899
868.000000	14.279532
869.000000	13.776230
870.000000	13.765264
871.000000	14.259064
872.000000	13.756316
873.000000	13.749037
874.000000	13.247856
875.000000	13.241771
876.000000	13.734937
877.000000	13.232080
878.000000	13.226177
879.000000	13.216631
880.000000	13.220402
881.000000	12.717903
882.000000	13.198557
883.000000	13.198908
884.000000	12.699569
885.000000	12.692837
886.000000	12.682198
887.000000	12.677158
888.000000	12.667272
889.000000	12.663752
890.000000	12.655388
891.000000	12.649278
892.000000	12.150936
893.000000	12.643994
894.000000	12.627048
895.000000	12.132897
896.000000	12.118685
897.000000	12.116457
898.000000	12.111611
899.000000	12.098750
900.000000	12.088460
901.000000	12.084996
902.000000	11.580602
903.000000	12.059933
904.000000	12.052347
905.000000	12.046458
906.000000	12.034783
907.000000	12.028079
908.000000	12.014299
909.000000	12.013938
910.000000	11.507134
911.000000	11.485206
912.000000	11.480827
913.000000	11.476437
914.000000	11.455452
915.000000	11.451771
916.000000	11.439855
917.000000	11.428821
918.000000	11.415237
919.000000	11.395684
920.000000	11.384119
921.000000	11.376273
922.000000	11.372094
923.000000	11.358599
924.000000	11.351403
925.000000	11.332712
926.000000	11.325065
927.000000	11.316024
928.000000	11.317772
929.000000	11.302042
930.000000	11.299056
931.000000	11.289529
932.000000	11.265460
933.000000	11.249551
934.000000	11.231573
935.000000	11.217384
936.000000	11.209324
937.000000	11.203907
938.000000	11.192870
939.000000	10.706676
940.000000	10.688861
941.000000	11.175636
942.000000	11.169497
943.000000	11.152292
944.000000	11.148941
945.000000	10.648243
946.000000	10.633444
947.000000	10.634515
948.000000	10.625350
949.000000	10.612430
950.000000	10.598434
951.000000	10.591864
952.000000	10.585138
953.000000	10.577025
954.000000	10.565991
955.000000	10.560319
956.000000	10.550152
957.000000	10.538823
958.000000	10.535663
959.000000	10.522460
960.000000	10.513802
961.000000	10.504210
962.000000	10.499013
963.000000	10.490752
964.000000	10.485051
965.000000	10.478560
966.000000	10.469455
967.000000	10.464468
968.000000	10.458757
969.000000	10.449997
970.000000	10.439137
971.000000	10.422879
972.000000	10.417412
973.000000	10.413648
974.000000	10.408009
975.000000	10.400287
976.000000	10.390889
977.000000	10.383631
978.000000	10.378771
979.000000	10.377257
980.000000	10.365390
981.000000	10.356268
982.000000	10.348117
983.000000	10.344684
984.000000	10.340567
985.000000	10.333190
986.000000	10.326447
987.000000	10.318484
988.000000	10.309443
989.000000	10.302897
990.000000	10.298016
991.000000	10.293673
992.000000	10.282616
993.000000	10.276331
994.000000	10.274359
995.000000	10.270128
996.000000	10.259733
997.000000	10.248076
998.000000	10.245902
999.000000	10.245811
1000.000000	10.241373
1001.000000	10.229182
1002.000000	10.222179
1003.000000	10.218975
1004.000000	10.213455
1005.000000	10.203484
1006.000000	10.200999
1007.000000	10.197424
1008.000000	10.191000
1009.000000	10.186117
1010.000000	10.178758
1011.000000	10.168712
1012.000000	10.165550
1013.000000	10.159976
1014.000000	10.150689
1015.000000	10.146121
1016.000000	10.141498
1017.000000	10.133935
1018.000000	10.128904
1019.000000	10.123538
1020.000000	10.111311
1021.000000	10.104753
1022.000000	10.101892
1023.000000	10.095813
1024.000000	10.092993
1025.000000	10.086463
1026.000000	10.077441
1027.000000	10.070851
1028.000000	10.066122
1029.000000	10.060557
1030.000000	10.054876
1031.000000	10.046839
1032.000000	10.040886
1033.000000	10.035785
1034.000000	10.029773
1035.000000	10.024792
1036.000000	10.019875
1037.000000	10.017911
1038.000000	10.013079
1039.000000	10.005833
1040.000000	10.000038
1041.000000	9.995773
1042.000000	9.991766
1043.000000	9.994078
1044.000000	9.985755
1045.000000	9.969882
1046.000000	9.965422
1047.000000	9.965374
1048.000000	9.959906
1049.000000	9.953655
1050.000000	9.943756
1051.000000	9.935816
1052.000000	9.934696
1053.000000	9.932445
1054.000000	9.922580
1055.000000	9.917272
1056.000000	9.913070
1057.000000	9.910928
1058.000000	9.904735
1059.000000	9.894339
1060.000000	9.893178
1061.000000	9.886692
1062.000000	9.880898
1063.000000	9.881264
1064.000000	9.876190
1065.000000	9.871167
1066.000000	9.865806
1067.000000	9.860720
1068.000000	9.852467
1069.000000	9.844251
1070.000000	9.838277
1071.000000	9.835322
1072.000000	9.825187
1073.000000	9.819108
1074.000000	9.817335
1075.000000	9.810468
1076.000000	9.805713
1077.000000	9.799906
1078.000000	9.795792
1079.000000	9.796879
1080.000000	9.792541
1081.000000	9.788024
1082.000000	9.782759
1083.000000	9.774736
1084.000000	9.774965
1085.000000	9.771114
1086.000000	9.764336
1087.000000	9.755542
1088.000000	9.753272
1089.000000	9.751858
1090.000000	9.751810
1091.000000	9.748008
1092.000000	9.739854
1093.000000	9.737814
1094.000000	9.736804
1095.000000	9.730893
1096.000000	9.731873
1097.000000	9.724711
1098.000000	9.720372
1099.000000	9.716641
1100.000000	9.713053
1101.000000	9.708048
1102.000000	9.709703
1103.000000	9.704220
1104.000000	9.706924
1105.000000	9.700840
1106.000000	9.698083
1107.000000	9.695751
1108.000000	9.690400
1109.000000	9.693922
1110.000000	9.691984
1111.000000	9.684541
1112.000000	9.686429
1113.000000	9.689452
1114.000000	9.684758
1115.000000	9.687885
1116.000000	9.687050
1117.000000	9.681944
1118.000000	9.677592
1119.000000	9.680848
1120.000000	9.681894
1121.000000	9.671426
1122.000000	9.659648
1123.000000	9.659495
1124.000000	9.656873
1125.000000	9.658265
1126.000000	9.657614
1127.000000	9.657471
1128.000000	9.664556
1129.000000	9.661811
1130.000000	9.659489
1131.000000	9.671698
1132.000000	9.682555
1133.000000	9.678405
1134.000000	9.667289
1135.000000	9.655778
1136.000000	9.663075
1137.000000	9.673898
1138.000000	9.682162
1139.000000	9.686411
1140.000000	9.689726
1141.000000	9.688841
1142.000000	9.692367
1143.000000	9.690551
1144.000000	9.689819
1145.000000	9.682379
1146.000000	9.685331
1147.000000	9.689863
1148.000000	9.694633
1149.000000	9.688109
1150.000000	9.691744
1151.000000	9.696962
1152.000000	9.689445
1153.000000	9.695111
1154.000000	9.697577
1155.000000	9.695025
1156.000000	9.701660
1157.000000	9.713821
1158.000000	9.712548
1159.000000	9.725951
1160.000000	9.728296
1161.000000	9.747898
1162.000000	9.751085
1163.000000	9.750368
1164.000000	9.757339
1165.000000	9.766039
1166.000000	9.781870
