PE UV       SUBTECH     SPECTRUM    ASCII       PEDS        4.00        
   -1
INBUCR0434-4.Sample.ASC
24/02/09
15:47:05.00
24/02/09
15:47:05.00
Vinicio Soto Monge
Chrysina luteomarginata. Det: A. Solíz. COSTA RICA. Prov. Limón, R. B. Hitoy Cerere, Valle La Estrella, Calavera Danta, 370 m. 13 de OCT 2004, B. Gamboa, D. Briceño, M. Moraga, Y. Cárdenas. Tp Luz #78493. INB0003888481 Sin élitros. 
250,000000
1
Lambda 1050
1050L1511233
PerkinElmer UV WinLab 6.3.2.0749 / 2.02.05 Lambda 900 UV/VIS/NIR, Aug  7 2015 09:38:08

0
0
3350/servo 860,8/2
0
0
UV/VIS
1
1
1
DoubleDePol,CommonBeamDepol,RBeamAtt,SBeamAtt,60mm sphere, WB InGaAs Detector
0
0
0
0
Program
Program
3350/servo 860,8/2
3350/0,2 860,8/0,2
3350/0,2 860,8/0,2
0
15.00
 
 
 
0
 
860,8
319,2
860,8
Front
100
on
S:100 R:100
0
0
0
0
 
0
 
 
 
0
 
 
0
0
0
0
0
 
 
 
 
0
0


0
0
#HDR
-1
-1
#GR
nm
%R
1.0
0.0
2500,000000
-1,000000
2251
8
15,418800
1,411100
#DATA

250.000000	5.639582
251.000000	5.658296
252.000000	5.647368
253.000000	5.642024
254.000000	5.649200
255.000000	5.656532
256.000000	5.656951
257.000000	5.649701
258.000000	5.650591
259.000000	5.649344
260.000000	5.653129
261.000000	5.654708
262.000000	5.658848
263.000000	5.655469
264.000000	5.657122
265.000000	5.669825
266.000000	5.667366
267.000000	5.673900
268.000000	5.673398
269.000000	5.675983
270.000000	5.661873
271.000000	5.670608
272.000000	5.678563
273.000000	5.680001
274.000000	5.687273
275.000000	5.683303
276.000000	5.698894
277.000000	5.684484
278.000000	5.692362
279.000000	5.692143
280.000000	5.689772
281.000000	5.698498
282.000000	5.693457
283.000000	5.696575
284.000000	5.693442
285.000000	5.694774
286.000000	5.704832
287.000000	5.700950
288.000000	5.697854
289.000000	5.706773
290.000000	5.716866
291.000000	5.704893
292.000000	5.709567
293.000000	5.709295
294.000000	5.708259
295.000000	5.703109
296.000000	5.710746
297.000000	5.714021
298.000000	5.712843
299.000000	5.719585
300.000000	5.736669
301.000000	5.725820
302.000000	5.710131
303.000000	5.712990
304.000000	5.713572
305.000000	5.723129
306.000000	5.719803
307.000000	5.722915
308.000000	5.721545
309.000000	5.722272
310.000000	5.723193
311.000000	5.720588
312.000000	5.718021
313.000000	5.713137
314.000000	5.718778
315.000000	5.720618
316.000000	5.698915
317.000000	5.513353
318.000000	5.415410
319.000000	5.393232
320.000000	5.553481
321.000000	5.530715
322.000000	5.604422
323.000000	5.617476
324.000000	5.654149
325.000000	5.663011
326.000000	5.578805
327.000000	5.616966
328.000000	5.651785
329.000000	5.640232
330.000000	5.632863
331.000000	5.636808
332.000000	5.666255
333.000000	5.640567
334.000000	5.598612
335.000000	5.675912
336.000000	5.670379
337.000000	5.630003
338.000000	5.652534
339.000000	5.692882
340.000000	5.651958
341.000000	5.722982
342.000000	5.695504
343.000000	5.666610
344.000000	5.682926
345.000000	5.672042
346.000000	5.664310
347.000000	5.686320
348.000000	5.688109
349.000000	5.689633
350.000000	5.660629
351.000000	5.671335
352.000000	5.691142
353.000000	5.703127
354.000000	5.720229
355.000000	5.671752
356.000000	5.697300
357.000000	5.708261
358.000000	5.709132
359.000000	5.705673
360.000000	5.705601
361.000000	5.685868
362.000000	5.701079
363.000000	5.727560
364.000000	5.719442
365.000000	5.734869
366.000000	5.733867
367.000000	5.720599
368.000000	5.738201
369.000000	5.763608
370.000000	5.788102
371.000000	5.793030
372.000000	5.788497
373.000000	5.813618
374.000000	5.835902
375.000000	5.790671
376.000000	5.719240
377.000000	5.806945
378.000000	5.807373
379.000000	5.808731
380.000000	5.806940
381.000000	5.805423
382.000000	5.803733
383.000000	5.806127
384.000000	5.807274
385.000000	5.806813
386.000000	5.807091
387.000000	5.807253
388.000000	5.808061
389.000000	5.808433
390.000000	5.808248
391.000000	5.808323
392.000000	5.806443
393.000000	5.806674
394.000000	5.806166
395.000000	5.810099
396.000000	5.810301
397.000000	5.808746
398.000000	5.810049
399.000000	5.810626
400.000000	5.809713
401.000000	5.809442
402.000000	5.811099
403.000000	5.812639
404.000000	6.461279
405.000000	6.460827
406.000000	6.460664
407.000000	6.459916
408.000000	6.460979
409.000000	6.461761
410.000000	6.461128
411.000000	6.459836
412.000000	6.462966
413.000000	6.463588
414.000000	6.461608
415.000000	6.461731
416.000000	6.462075
417.000000	6.463505
418.000000	6.462249
419.000000	6.459449
420.000000	6.457813
421.000000	6.459062
422.000000	6.458542
423.000000	6.458871
424.000000	6.459160
425.000000	6.457874
426.000000	6.457832
427.000000	6.457244
428.000000	6.456985
429.000000	6.455371
430.000000	6.454733
431.000000	6.453742
432.000000	6.453170
433.000000	6.453111
434.000000	6.451327
435.000000	6.451073
436.000000	6.450438
437.000000	6.449022
438.000000	6.446817
439.000000	6.445881
440.000000	6.446410
441.000000	6.444612
442.000000	6.444962
443.000000	6.444321
444.000000	6.442575
445.000000	6.441291
446.000000	6.439765
447.000000	6.438367
448.000000	6.436049
449.000000	6.435421
450.000000	6.434066
451.000000	6.431946
452.000000	6.431702
453.000000	6.429473
454.000000	6.427725
455.000000	6.427920
456.000000	6.426911
457.000000	6.424409
458.000000	6.422044
459.000000	6.419350
460.000000	6.418425
461.000000	6.418220
462.000000	6.416147
463.000000	6.413802
464.000000	6.412338
465.000000	6.412050
466.000000	6.410392
467.000000	6.408285
468.000000	6.407670
469.000000	6.406459
470.000000	6.405187
471.000000	6.404383
472.000000	6.404835
473.000000	6.404237
474.000000	6.403113
475.000000	6.402754
476.000000	6.401477
477.000000	6.400334
478.000000	6.400863
479.000000	6.401377
480.000000	6.401439
481.000000	6.403815
482.000000	6.405077
483.000000	6.403945
484.000000	6.402160
485.000000	6.399505
486.000000	6.395713
487.000000	6.392372
488.000000	6.389945
489.000000	6.387252
490.000000	6.382129
491.000000	6.377382
492.000000	6.373307
493.000000	6.370055
494.000000	6.367365
495.000000	6.363079
496.000000	6.359691
497.000000	6.356349
498.000000	6.352743
499.000000	6.999219
500.000000	6.994328
501.000000	6.991549
502.000000	6.988548
503.000000	6.985138
504.000000	6.983883
505.000000	6.980660
506.000000	6.976999
507.000000	6.974710
508.000000	6.972769
509.000000	6.969954
510.000000	6.967516
511.000000	6.965073
512.000000	6.964873
513.000000	6.962776
514.000000	6.961344
515.000000	6.960460
516.000000	6.959527
517.000000	6.959323
518.000000	6.959353
519.000000	6.958742
520.000000	6.957895
521.000000	6.955909
522.000000	6.954372
523.000000	6.952334
524.000000	6.952019
525.000000	6.950429
526.000000	6.947762
527.000000	6.944555
528.000000	6.942750
529.000000	6.940625
530.000000	6.938980
531.000000	6.935296
532.000000	6.931359
533.000000	6.928271
534.000000	6.924590
535.000000	6.920717
536.000000	7.566742
537.000000	7.563571
538.000000	7.560000
539.000000	7.556341
540.000000	7.551412
541.000000	7.547866
542.000000	7.543777
543.000000	7.541061
544.000000	7.537001
545.000000	7.533070
546.000000	7.528705
547.000000	7.525438
548.000000	7.521195
549.000000	7.518122
550.000000	7.515192
551.000000	7.510269
552.000000	7.506846
553.000000	7.502116
554.000000	7.499436
555.000000	7.495484
556.000000	7.490034
557.000000	7.486294
558.000000	7.484038
559.000000	7.480540
560.000000	7.497589
561.000000	7.496967
562.000000	7.492513
563.000000	7.490596
564.000000	7.485856
565.000000	8.132178
566.000000	8.126898
567.000000	8.123120
568.000000	8.119172
569.000000	8.116466
570.000000	8.111113
571.000000	8.108669
572.000000	8.105387
573.000000	8.100310
574.000000	8.095715
575.000000	8.091814
576.000000	8.088323
577.000000	8.084025
578.000000	8.079200
579.000000	8.074391
580.000000	8.070020
581.000000	8.066737
582.000000	8.061008
583.000000	8.056925
584.000000	8.053318
585.000000	8.048198
586.000000	8.044249
587.000000	8.039598
588.000000	8.035450
589.000000	8.030654
590.000000	8.025956
591.000000	8.020021
592.000000	8.018621
593.000000	8.013225
594.000000	8.006684
595.000000	8.001017
596.000000	7.999352
597.000000	7.993423
598.000000	7.988529
599.000000	7.982806
600.000000	7.977156
601.000000	7.972902
602.000000	7.967627
603.000000	7.964176
604.000000	7.957308
605.000000	7.954339
606.000000	7.950701
607.000000	7.939813
608.000000	7.937019
609.000000	7.933553
610.000000	7.926054
611.000000	7.922681
612.000000	7.917130
613.000000	7.912650
614.000000	7.906440
615.000000	7.904096
616.000000	7.896563
617.000000	7.892160
618.000000	7.885012
619.000000	7.882259
620.000000	7.875283
621.000000	7.870944
622.000000	7.863678
623.000000	7.856667
624.000000	7.853286
625.000000	7.848508
626.000000	7.842242
627.000000	7.834786
628.000000	7.827526
629.000000	7.823489
630.000000	7.815449
631.000000	7.808719
632.000000	7.803489
633.000000	7.793381
634.000000	7.788960
635.000000	7.784450
636.000000	7.774283
637.000000	7.768680
638.000000	7.762413
639.000000	8.403691
640.000000	8.395966
641.000000	8.386974
642.000000	8.377971
643.000000	8.370099
644.000000	8.360296
645.000000	8.354458
646.000000	8.347926
647.000000	8.338514
648.000000	8.332807
649.000000	8.324213
650.000000	8.314457
651.000000	8.306972
652.000000	8.301046
653.000000	8.289500
654.000000	8.282913
655.000000	8.272755
656.000000	8.261379
657.000000	8.255339
658.000000	8.245966
659.000000	8.236381
660.000000	8.229872
661.000000	8.218974
662.000000	8.209610
663.000000	8.850615
664.000000	8.842293
665.000000	8.833989
666.000000	8.821907
667.000000	8.814700
668.000000	8.805094
669.000000	8.793994
670.000000	8.784582
671.000000	8.776202
672.000000	8.766300
673.000000	8.753804
674.000000	8.744046
675.000000	8.733948
676.000000	8.724308
677.000000	8.711047
678.000000	8.703116
679.000000	8.693246
680.000000	8.683813
681.000000	9.322188
682.000000	9.312450
683.000000	9.301081
684.000000	9.290598
685.000000	9.279162
686.000000	9.271702
687.000000	9.260966
688.000000	9.249823
689.000000	9.238279
690.000000	9.230060
691.000000	9.220842
692.000000	9.210953
693.000000	9.199257
694.000000	9.189179
695.000000	9.177170
696.000000	9.813078
697.000000	9.810774
698.000000	9.798872
699.000000	9.787027
700.000000	9.775672
701.000000	9.763297
702.000000	9.755132
703.000000	9.747575
704.000000	9.739010
705.000000	9.728373
706.000000	9.718497
707.000000	9.702886
708.000000	9.694750
709.000000	9.688155
710.000000	9.676233
711.000000	9.662764
712.000000	10.298797
713.000000	10.290601
714.000000	10.279664
715.000000	10.268915
716.000000	10.256959
717.000000	10.244346
718.000000	10.236553
719.000000	10.228046
720.000000	10.218472
721.000000	10.208017
722.000000	10.194125
723.000000	10.184241
724.000000	10.170546
725.000000	10.158574
726.000000	10.149887
727.000000	10.140136
728.000000	10.776423
729.000000	10.766476
730.000000	10.757341
731.000000	10.748693
732.000000	10.731870
733.000000	10.719318
734.000000	10.709282
735.000000	10.698349
736.000000	10.689932
737.000000	10.679593
738.000000	10.669206
739.000000	10.655593
740.000000	10.639933
741.000000	10.628641
742.000000	10.624155
743.000000	10.613283
744.000000	11.242789
745.000000	11.236381
746.000000	11.222887
747.000000	11.208010
748.000000	11.201947
749.000000	11.187594
750.000000	11.175427
751.000000	11.167163
752.000000	11.157132
753.000000	11.145764
754.000000	11.129338
755.000000	11.118231
756.000000	11.110760
757.000000	11.098620
758.000000	11.086689
759.000000	11.074754
760.000000	11.705056
761.000000	11.694867
762.000000	11.683821
763.000000	11.669894
764.000000	11.657239
765.000000	11.642850
766.000000	11.633538
767.000000	11.620918
768.000000	11.606357
769.000000	11.600865
770.000000	11.588342
771.000000	11.575407
772.000000	11.560998
773.000000	11.546989
774.000000	11.542552
775.000000	11.527022
776.000000	12.155439
777.000000	12.145316
778.000000	12.133798
779.000000	12.121724
780.000000	12.109995
781.000000	12.099008
782.000000	12.088821
783.000000	12.073575
784.000000	12.061648
785.000000	12.051742
786.000000	12.041942
787.000000	12.025373
788.000000	12.012870
789.000000	11.996515
790.000000	11.982754
791.000000	11.974627
792.000000	12.602927
793.000000	12.599847
794.000000	12.589135
795.000000	12.569297
796.000000	12.554991
797.000000	12.545105
798.000000	12.530720
799.000000	12.520018
800.000000	12.509857
801.000000	12.498590
802.000000	12.480468
803.000000	12.475232
804.000000	12.466792
805.000000	12.456918
806.000000	12.434880
807.000000	12.416680
808.000000	12.396386
809.000000	13.024137
810.000000	12.999920
811.000000	12.997981
812.000000	12.987698
813.000000	12.972538
814.000000	12.968880
815.000000	12.948932
816.000000	12.953512
817.000000	12.944645
818.000000	12.931411
819.000000	12.915378
820.000000	12.900810
821.000000	12.895645
822.000000	12.881415
823.000000	12.869522
824.000000	12.857030
825.000000	12.847504
826.000000	12.841667
827.000000	12.830618
828.000000	13.480799
829.000000	13.463413
830.000000	13.443959
831.000000	13.445740
832.000000	13.430891
833.000000	13.429445
834.000000	13.432336
835.000000	13.404647
836.000000	13.405067
837.000000	13.406781
838.000000	13.387631
839.000000	13.374253
840.000000	13.358056
841.000000	13.349260
842.000000	13.368758
843.000000	13.345030
844.000000	13.328312
845.000000	13.336581
846.000000	13.407940
847.000000	13.383547
848.000000	13.366507
849.000000	14.026691
850.000000	13.971096
851.000000	13.364858
852.000000	14.001426
853.000000	13.990133
854.000000	14.029302
855.000000	14.032558
856.000000	14.027569
857.000000	13.852632
858.000000	19.308699
859.000000	13.737602
860.000000	14.214260
861.000000	14.205315
862.000000	14.186253
863.000000	13.674965
864.000000	14.162690
865.000000	14.143046
866.000000	14.131516
867.000000	13.635984
868.000000	13.631745
869.000000	13.618714
870.000000	13.120052
871.000000	13.607009
872.000000	13.604362
873.000000	13.101061
874.000000	13.094188
875.000000	13.091932
876.000000	13.082106
877.000000	13.080451
878.000000	13.567101
879.000000	13.066271
880.000000	13.060518
881.000000	13.053151
882.000000	13.538338
883.000000	13.037839
884.000000	13.038417
885.000000	12.534375
886.000000	12.528875
887.000000	12.519370
888.000000	12.519638
889.000000	12.513864
890.000000	12.503869
891.000000	12.498222
892.000000	12.481499
893.000000	12.478980
894.000000	12.482372
895.000000	12.469658
896.000000	12.459789
897.000000	12.451486
898.000000	12.442520
899.000000	12.438787
900.000000	12.432174
901.000000	12.426153
902.000000	11.923577
903.000000	12.411132
904.000000	11.901963
905.000000	11.889027
906.000000	11.883224
907.000000	11.880039
908.000000	11.861636
909.000000	11.859886
910.000000	11.856093
911.000000	11.845095
912.000000	11.825768
913.000000	11.820750
914.000000	11.810645
915.000000	11.802634
916.000000	11.791022
917.000000	11.774772
918.000000	11.768365
919.000000	11.763743
920.000000	11.750660
921.000000	11.732714
922.000000	11.730898
923.000000	11.716367
924.000000	11.711006
925.000000	11.697670
926.000000	11.692289
927.000000	11.684492
928.000000	11.677127
929.000000	11.667598
930.000000	11.663083
931.000000	11.656168
932.000000	11.639461
933.000000	11.632259
934.000000	11.620436
935.000000	11.606606
936.000000	11.602685
937.000000	11.594896
938.000000	11.589139
939.000000	11.583948
940.000000	11.569974
941.000000	11.565800
942.000000	11.564975
943.000000	11.563627
944.000000	11.548687
945.000000	11.535283
946.000000	11.527599
947.000000	11.523280
948.000000	11.520786
949.000000	11.510596
950.000000	11.504171
951.000000	11.501074
952.000000	11.491833
953.000000	11.481748
954.000000	11.484148
955.000000	11.467778
956.000000	11.460702
957.000000	11.451503
958.000000	11.442809
959.000000	11.444347
960.000000	11.439910
961.000000	11.432491
962.000000	11.915967
963.000000	11.911903
964.000000	11.901416
965.000000	11.899854
966.000000	11.897169
967.000000	11.890517
968.000000	11.886272
969.000000	11.880713
970.000000	11.874793
971.000000	11.871339
972.000000	11.865559
973.000000	11.866345
974.000000	11.861553
975.000000	11.852028
976.000000	11.842036
977.000000	11.837890
978.000000	11.839443
979.000000	11.835261
980.000000	11.829744
981.000000	11.822206
982.000000	11.816944
983.000000	11.813750
984.000000	11.807906
985.000000	11.803614
986.000000	11.799566
987.000000	11.796527
988.000000	11.793405
989.000000	11.791317
990.000000	11.784764
991.000000	11.777648
992.000000	11.772196
993.000000	11.767026
994.000000	11.761607
995.000000	11.759022
996.000000	11.754382
997.000000	11.749748
998.000000	11.747280
999.000000	11.745711
1000.000000	11.739059
1001.000000	11.730866
1002.000000	11.728503
1003.000000	11.727267
1004.000000	11.721955
1005.000000	11.718387
1006.000000	11.715037
1007.000000	11.711834
1008.000000	11.708986
1009.000000	11.705303
1010.000000	11.700952
1011.000000	11.698543
1012.000000	11.695147
1013.000000	11.690258
1014.000000	11.686239
1015.000000	11.685217
1016.000000	11.685551
1017.000000	11.679111
1018.000000	11.672273
1019.000000	11.667125
1020.000000	12.153076
1021.000000	12.151332
1022.000000	12.139222
1023.000000	12.132130
1024.000000	12.133374
1025.000000	12.133424
1026.000000	12.127098
1027.000000	12.118731
1028.000000	12.113044
1029.000000	12.110336
1030.000000	12.106507
1031.000000	12.099741
1032.000000	12.094516
1033.000000	12.088541
1034.000000	12.082810
1035.000000	12.076306
1036.000000	12.073652
1037.000000	12.071804
1038.000000	12.064230
1039.000000	12.058873
1040.000000	12.054355
1041.000000	12.049277
1042.000000	12.043526
1043.000000	12.039376
1044.000000	12.036572
1045.000000	12.031736
1046.000000	12.025954
1047.000000	12.022946
1048.000000	12.013887
1049.000000	12.005833
1050.000000	12.002161
1051.000000	11.997516
1052.000000	11.994750
1053.000000	11.992562
1054.000000	11.987197
1055.000000	11.977761
1056.000000	11.972690
1057.000000	11.967086
1058.000000	12.444943
1059.000000	12.444076
1060.000000	12.439730
1061.000000	12.430589
1062.000000	12.424435
1063.000000	12.420916
1064.000000	12.418856
1065.000000	12.416407
1066.000000	12.407782
1067.000000	12.403460
1068.000000	12.389327
1069.000000	12.381539
1070.000000	12.380576
1071.000000	12.374299
1072.000000	12.373337
1073.000000	12.367708
1074.000000	12.358894
1075.000000	12.356895
1076.000000	12.347819
1077.000000	12.341955
1078.000000	12.337493
1079.000000	12.335526
1080.000000	12.327128
1081.000000	12.319965
1082.000000	12.315008
1083.000000	12.308786
1084.000000	12.310540
1085.000000	12.303234
1086.000000	12.299322
1087.000000	12.291395
1088.000000	12.287899
1089.000000	12.284238
1090.000000	12.278479
1091.000000	12.276885
1092.000000	12.272630
1093.000000	12.267571
1094.000000	12.263939
1095.000000	12.257982
1096.000000	12.739633
1097.000000	12.740019
1098.000000	12.733267
1099.000000	12.728904
1100.000000	12.725507
1101.000000	12.719483
1102.000000	12.716804
1103.000000	12.713654
1104.000000	12.709839
1105.000000	12.700907
1106.000000	12.707551
1107.000000	12.706291
1108.000000	12.699068
1109.000000	12.698600
1110.000000	12.696916
1111.000000	12.692979
1112.000000	12.699667
1113.000000	12.691288
1114.000000	12.679740
1115.000000	12.684862
1116.000000	12.685597
1117.000000	12.684904
1118.000000	12.677120
1119.000000	12.671589
1120.000000	12.682028
1121.000000	12.672502
1122.000000	12.669651
1123.000000	12.669010
1124.000000	12.670957
1125.000000	12.672426
1126.000000	12.673487
1127.000000	12.675612
1128.000000	12.678823
1129.000000	12.681417
1130.000000	12.693421
1131.000000	12.706848
1132.000000	12.718621
1133.000000	12.719733
1134.000000	12.711587
1135.000000	12.224641
1136.000000	12.233726
1137.000000	12.249137
1138.000000	12.263582
1139.000000	12.273283
1140.000000	12.274827
1141.000000	12.281174
1142.000000	12.287260
1143.000000	12.292541
1144.000000	12.293112
1145.000000	12.294208
1146.000000	12.305274
1147.000000	12.301399
1148.000000	12.315223
1149.000000	12.321799
1150.000000	12.327656
1151.000000	12.323140
1152.000000	12.335415
1153.000000	12.337595
1154.000000	12.344830
1155.000000	12.353250
1156.000000	12.368041
1157.000000	11.896657
1158.000000	11.909453
1159.000000	11.916389
1160.000000	11.923001
1161.000000	11.944955
1162.000000	11.960738
1163.000000	11.974474
1164.000000	11.991346
1165.000000	12.002945
1166.000000	12.018772
1167.000000	12.039924
1168.000000	12.045124
1169.000000	12.059716
1170.000000	12.073138
1171.000000	12.082098
