PE UV       SUBTECH     SPECTRUM    ASCII       PEDS        4.00        
   -1
INBUCR0431-4.Sample.ASC
24/02/09
14:51:43.00
24/02/09
14:51:43.00
Vinicio Soto Monge
Chrysina aurigans. Det: A. Solís. COSTA RICA. Prov. Alajuela, Upala, Bijagua. P.N. Volcán Tenorio. Alberg. Heliconias. Send. Heliconias. 700 m. 13 NOV 2001. A. López. T. de Luz #65610. INB00033997038. Tiene únicamente la parte superior del élitro derecho.
250,000000
1
Lambda 1050
1050L1511233
PerkinElmer UV WinLab 6.3.2.0749 / 2.02.05 Lambda 900 UV/VIS/NIR, Aug  7 2015 09:38:08

0
0
3350/servo 860,8/2
0
0
UV/VIS
1
1
1
DoubleDePol,CommonBeamDepol,RBeamAtt,SBeamAtt,60mm sphere, WB InGaAs Detector
0
0
0
0
Program
Program
3350/servo 860,8/2
3350/0,2 860,8/0,2
3350/0,2 860,8/0,2
0
15.00
 
 
 
0
 
860,8
319,2
860,8
Front
100
on
S:100 R:100
0
0
0
0
 
0
 
 
 
0
 
 
0
0
0
0
0
 
 
 
 
0
0


0
0
#HDR
-1
-1
#GR
nm
%R
1.0
0.0
2500,000000
-1,000000
2251
8
17,518000
1,050100
#DATA

250.000000	4.788210
251.000000	4.784601
252.000000	4.786537
253.000000	4.790021
254.000000	4.793354
255.000000	4.795096
256.000000	4.786082
257.000000	4.788576
258.000000	4.790309
259.000000	4.794043
260.000000	4.799379
261.000000	4.799473
262.000000	4.798052
263.000000	4.798017
264.000000	4.798385
265.000000	4.792822
266.000000	4.810051
267.000000	4.809060
268.000000	4.809994
269.000000	4.805995
270.000000	4.810269
271.000000	4.807020
272.000000	4.816611
273.000000	4.808065
274.000000	4.809266
275.000000	4.805703
276.000000	4.807393
277.000000	4.814727
278.000000	4.821676
279.000000	4.824278
280.000000	4.818304
281.000000	4.817579
282.000000	4.822989
283.000000	4.819722
284.000000	4.822668
285.000000	4.831136
286.000000	4.826191
287.000000	4.822018
288.000000	4.828985
289.000000	4.817652
290.000000	4.829463
291.000000	4.814192
292.000000	4.826480
293.000000	4.819165
294.000000	4.828633
295.000000	4.817456
296.000000	4.819450
297.000000	4.829115
298.000000	4.835287
299.000000	4.829520
300.000000	4.830151
301.000000	4.828108
302.000000	4.832385
303.000000	4.833449
304.000000	4.822588
305.000000	4.839961
306.000000	4.820346
307.000000	4.838598
308.000000	4.839040
309.000000	4.833520
310.000000	4.831012
311.000000	4.828561
312.000000	4.831212
313.000000	4.839240
314.000000	4.845644
315.000000	4.836099
316.000000	4.824427
317.000000	4.683489
318.000000	4.676104
319.000000	4.725312
320.000000	4.741733
321.000000	4.792962
322.000000	4.767908
323.000000	4.785391
324.000000	4.758280
325.000000	4.749925
326.000000	4.808877
327.000000	4.739424
328.000000	4.785982
329.000000	4.815924
330.000000	4.808334
331.000000	4.793110
332.000000	4.820200
333.000000	4.802414
334.000000	4.791813
335.000000	4.758102
336.000000	4.765439
337.000000	4.812838
338.000000	4.806399
339.000000	4.794980
340.000000	4.812701
341.000000	4.820283
342.000000	4.808796
343.000000	4.815913
344.000000	4.848220
345.000000	4.808204
346.000000	4.819070
347.000000	4.808308
348.000000	4.827072
349.000000	4.837172
350.000000	4.818568
351.000000	4.820710
352.000000	4.822227
353.000000	4.816244
354.000000	4.840321
355.000000	4.833146
356.000000	4.838505
357.000000	4.820157
358.000000	4.798023
359.000000	4.816431
360.000000	4.818496
361.000000	4.835853
362.000000	4.835287
363.000000	4.835812
364.000000	4.848327
365.000000	4.850394
366.000000	4.835139
367.000000	4.844574
368.000000	4.852106
369.000000	4.848481
370.000000	4.840340
371.000000	4.846411
372.000000	4.861832
373.000000	4.884076
374.000000	4.883735
375.000000	4.867526
376.000000	4.862968
377.000000	4.908705
378.000000	5.519874
379.000000	5.520560
380.000000	5.522444
381.000000	5.521007
382.000000	5.518757
383.000000	5.516826
384.000000	5.517116
385.000000	5.519256
386.000000	5.517163
387.000000	5.517022
388.000000	5.516709
389.000000	5.515865
390.000000	5.516503
391.000000	5.515705
392.000000	5.513272
393.000000	5.513654
394.000000	5.512148
395.000000	5.512807
396.000000	5.511150
397.000000	5.510337
398.000000	5.511721
399.000000	5.509262
400.000000	5.507892
401.000000	5.507315
402.000000	5.508199
403.000000	5.508165
404.000000	5.506711
405.000000	5.504065
406.000000	5.503828
407.000000	5.504147
408.000000	5.503308
409.000000	5.502734
410.000000	5.501227
411.000000	5.500511
412.000000	5.499567
413.000000	5.498233
414.000000	5.497467
415.000000	5.497148
416.000000	5.495274
417.000000	5.494429
418.000000	5.493323
419.000000	5.491745
420.000000	5.489219
421.000000	6.101756
422.000000	6.100728
423.000000	6.098863
424.000000	6.097544
425.000000	6.095652
426.000000	6.092808
427.000000	6.091610
428.000000	6.091190
429.000000	6.089069
430.000000	6.086037
431.000000	6.084842
432.000000	6.085072
433.000000	6.083665
434.000000	6.080152
435.000000	6.077112
436.000000	6.075170
437.000000	6.073319
438.000000	6.072246
439.000000	6.069398
440.000000	6.066916
441.000000	6.065459
442.000000	6.062245
443.000000	6.059521
444.000000	6.058381
445.000000	6.057159
446.000000	6.053340
447.000000	6.050378
448.000000	6.048280
449.000000	6.044650
450.000000	6.042485
451.000000	6.040047
452.000000	6.649046
453.000000	6.646596
454.000000	6.644237
455.000000	6.640674
456.000000	6.636897
457.000000	6.633633
458.000000	6.631131
459.000000	6.627864
460.000000	6.623242
461.000000	6.618212
462.000000	6.614297
463.000000	6.610794
464.000000	6.607369
465.000000	6.602563
466.000000	6.598713
467.000000	6.594761
468.000000	6.590524
469.000000	6.586637
470.000000	6.583125
471.000000	6.579683
472.000000	6.574755
473.000000	6.570051
474.000000	6.565888
475.000000	6.561430
476.000000	6.556817
477.000000	7.165798
478.000000	7.161217
479.000000	7.156560
480.000000	7.153602
481.000000	7.150003
482.000000	7.145787
483.000000	7.139205
484.000000	7.130572
485.000000	7.120296
486.000000	7.722527
487.000000	7.712886
488.000000	7.701752
489.000000	7.689963
490.000000	7.676406
491.000000	7.662761
492.000000	8.261009
493.000000	8.243417
494.000000	8.224139
495.000000	8.202935
496.000000	8.179868
497.000000	8.154173
498.000000	8.734944
499.000000	8.695430
500.000000	8.650130
501.000000	8.596142
502.000000	8.529208
503.000000	9.062189
504.000000	8.970152
505.000000	8.863814
506.000000	8.745480
507.000000	8.614982
508.000000	9.083532
509.000000	8.938255
510.000000	8.792275
511.000000	8.653578
512.000000	8.528465
513.000000	8.418661
514.000000	8.923401
515.000000	8.841949
516.000000	8.774223
517.000000	8.715443
518.000000	8.662234
519.000000	8.615684
520.000000	8.572913
521.000000	9.132428
522.000000	9.092579
523.000000	9.054272
524.000000	9.016648
525.000000	8.983502
526.000000	8.956267
527.000000	8.931865
528.000000	8.908131
529.000000	8.885675
530.000000	9.465643
531.000000	9.446251
532.000000	9.425533
533.000000	9.404175
534.000000	9.381835
535.000000	9.364063
536.000000	9.348303
537.000000	9.328173
538.000000	9.312615
539.000000	9.296534
540.000000	9.282177
541.000000	9.268175
542.000000	9.250849
543.000000	9.237658
544.000000	9.223911
545.000000	9.208505
546.000000	9.194280
547.000000	9.182977
548.000000	9.769795
549.000000	9.755807
550.000000	9.738942
551.000000	9.724939
552.000000	9.715673
553.000000	9.704112
554.000000	9.695044
555.000000	9.688129
556.000000	9.681485
557.000000	9.673549
558.000000	9.668424
559.000000	9.667603
560.000000	9.743289
561.000000	9.755267
562.000000	9.759452
563.000000	9.758779
564.000000	9.761782
565.000000	9.758584
566.000000	9.758317
567.000000	9.747107
568.000000	9.738366
569.000000	9.727298
570.000000	9.721652
571.000000	9.720980
572.000000	9.719053
573.000000	9.727433
574.000000	9.734967
575.000000	9.745801
576.000000	9.754012
577.000000	9.763168
578.000000	9.764519
579.000000	9.766653
580.000000	9.761719
581.000000	9.749214
582.000000	9.739171
583.000000	9.733461
584.000000	9.730525
585.000000	9.729427
586.000000	9.740980
587.000000	9.751031
588.000000	9.761965
589.000000	9.774259
590.000000	9.782574
591.000000	9.784124
592.000000	9.784342
593.000000	9.780760
594.000000	9.763626
595.000000	9.751173
596.000000	9.739061
597.000000	9.731379
598.000000	9.728030
599.000000	9.734978
600.000000	9.752300
601.000000	9.768650
602.000000	9.790150
603.000000	9.810369
604.000000	9.826691
605.000000	9.834994
606.000000	9.834333
607.000000	9.824539
608.000000	9.811621
609.000000	9.796286
610.000000	9.783092
611.000000	9.776602
612.000000	9.777652
613.000000	10.395017
614.000000	10.405236
615.000000	10.427437
616.000000	10.445018
617.000000	10.458115
618.000000	10.471043
619.000000	10.468980
620.000000	10.463603
621.000000	10.459069
622.000000	10.441939
623.000000	10.426143
624.000000	10.409765
625.000000	10.403214
626.000000	10.406074
627.000000	10.410311
628.000000	10.421185
629.000000	10.437680
630.000000	10.446608
631.000000	10.459307
632.000000	10.462358
633.000000	10.459966
634.000000	10.450507
635.000000	10.436059
636.000000	10.423160
637.000000	10.408991
638.000000	10.398525
639.000000	10.392403
640.000000	10.395666
641.000000	10.399176
642.000000	10.408953
643.000000	10.414848
644.000000	10.419197
645.000000	10.420146
646.000000	10.420854
647.000000	10.415040
648.000000	10.402403
649.000000	10.387933
650.000000	10.377942
651.000000	10.368886
652.000000	10.359074
653.000000	10.349933
654.000000	10.343180
655.000000	10.335655
656.000000	10.335660
657.000000	10.940283
658.000000	10.934896
659.000000	10.932183
660.000000	10.932465
661.000000	10.919737
662.000000	10.908896
663.000000	10.891549
664.000000	10.880571
665.000000	10.869768
666.000000	10.859352
667.000000	10.849560
668.000000	10.843014
669.000000	10.830876
670.000000	10.825808
671.000000	10.814169
672.000000	10.802167
673.000000	10.793062
674.000000	10.782457
675.000000	10.767844
676.000000	10.751340
677.000000	10.737445
678.000000	10.726074
679.000000	10.712234
680.000000	10.706217
681.000000	10.698837
682.000000	10.686839
683.000000	10.669840
684.000000	10.652568
685.000000	10.640432
686.000000	11.231544
687.000000	11.213695
688.000000	11.203446
689.000000	11.186597
690.000000	11.172187
691.000000	11.158874
692.000000	11.147238
693.000000	11.137422
694.000000	11.133582
695.000000	11.124395
696.000000	11.106388
697.000000	11.090940
698.000000	11.080249
699.000000	11.063474
700.000000	11.049483
701.000000	11.035008
702.000000	11.023932
703.000000	11.012036
704.000000	10.995465
705.000000	10.990583
706.000000	10.980497
707.000000	10.973375
708.000000	10.964712
709.000000	10.954637
710.000000	10.941658
711.000000	10.931367
712.000000	10.924967
713.000000	10.913812
714.000000	10.903381
715.000000	11.496324
716.000000	11.487472
717.000000	11.480415
718.000000	11.474171
719.000000	11.466830
720.000000	11.458339
721.000000	11.447571
722.000000	11.439403
723.000000	11.428578
724.000000	11.418590
725.000000	11.411997
726.000000	11.408772
727.000000	11.397805
728.000000	11.385981
729.000000	11.378537
730.000000	11.373791
731.000000	11.366081
732.000000	11.353558
733.000000	11.343716
734.000000	11.336805
735.000000	11.335892
736.000000	11.329629
737.000000	11.311681
738.000000	11.301517
739.000000	11.297043
740.000000	11.289882
741.000000	11.894060
742.000000	11.885330
743.000000	11.873241
744.000000	11.861200
745.000000	11.850732
746.000000	11.843580
747.000000	11.832655
748.000000	11.823105
749.000000	11.815424
750.000000	11.804021
751.000000	11.791641
752.000000	11.775752
753.000000	11.762857
754.000000	11.755654
755.000000	11.755690
756.000000	11.742962
757.000000	11.728487
758.000000	11.728838
759.000000	11.718371
760.000000	11.691828
761.000000	11.679744
762.000000	12.283295
763.000000	12.268563
764.000000	12.255158
765.000000	12.244902
766.000000	12.230193
767.000000	12.210374
768.000000	12.206146
769.000000	12.203344
770.000000	12.184701
771.000000	12.173180
772.000000	12.159257
773.000000	12.144568
774.000000	12.131351
775.000000	12.122301
776.000000	12.107978
777.000000	12.090291
778.000000	12.075367
779.000000	12.063447
780.000000	12.055706
781.000000	12.653034
782.000000	12.639137
783.000000	12.625360
784.000000	12.601938
785.000000	12.591823
786.000000	12.585990
787.000000	12.566323
788.000000	12.550365
789.000000	12.528928
790.000000	12.515810
791.000000	12.504234
792.000000	12.484456
793.000000	12.482826
794.000000	12.477382
795.000000	12.460026
796.000000	12.437965
797.000000	12.423131
798.000000	12.407848
799.000000	12.392380
800.000000	12.369747
801.000000	12.975969
802.000000	12.958499
803.000000	12.931881
804.000000	12.919971
805.000000	12.907849
806.000000	12.891362
807.000000	12.886789
808.000000	12.863928
809.000000	12.855740
810.000000	12.829033
811.000000	12.808267
812.000000	12.782540
813.000000	12.767763
814.000000	12.759001
815.000000	12.756079
816.000000	12.745768
817.000000	12.728370
818.000000	12.719671
819.000000	12.698239
820.000000	12.698373
821.000000	12.690384
822.000000	12.674711
823.000000	12.676892
824.000000	12.667818
825.000000	12.652797
826.000000	12.647023
827.000000	13.247555
828.000000	13.234416
829.000000	13.224033
830.000000	13.225089
831.000000	13.224902
832.000000	13.230830
833.000000	13.203572
834.000000	13.206726
835.000000	13.213062
836.000000	13.182393
837.000000	13.187149
838.000000	13.164925
839.000000	13.187796
840.000000	13.204790
841.000000	13.163914
842.000000	13.158750
843.000000	13.187101
844.000000	13.157920
845.000000	13.182482
846.000000	13.151904
847.000000	13.166582
848.000000	13.179868
849.000000	13.139722
850.000000	13.178226
851.000000	13.119059
852.000000	13.196093
853.000000	13.160624
854.000000	13.182406
855.000000	13.216613
856.000000	13.212140
857.000000	13.063928
858.000000	17.950131
859.000000	12.938458
860.000000	13.421478
861.000000	12.902354
862.000000	12.378721
863.000000	12.348854
864.000000	12.826900
865.000000	13.307419
866.000000	12.790395
867.000000	13.279561
868.000000	13.258894
869.000000	12.751253
870.000000	12.239107
871.000000	12.222967
872.000000	11.707918
873.000000	12.196055
874.000000	12.189820
875.000000	12.178853
876.000000	12.170009
877.000000	11.661410
878.000000	12.147579
879.000000	12.142325
880.000000	11.622630
881.000000	12.114429
882.000000	11.612997
883.000000	11.608980
884.000000	11.597415
885.000000	11.584519
886.000000	11.578995
887.000000	11.066148
888.000000	11.568155
889.000000	11.557064
890.000000	11.054279
891.000000	11.546357
892.000000	11.040907
893.000000	11.041926
894.000000	11.035073
895.000000	11.032941
896.000000	11.016763
897.000000	11.010523
898.000000	11.008780
899.000000	11.004040
900.000000	10.996863
901.000000	10.990030
902.000000	10.977854
903.000000	10.977378
904.000000	10.971688
905.000000	10.464149
906.000000	10.957006
907.000000	10.449600
908.000000	10.942325
909.000000	10.445263
910.000000	10.448340
911.000000	10.438096
912.000000	10.425207
913.000000	10.412000
914.000000	10.400727
915.000000	10.399665
916.000000	10.394485
917.000000	10.383497
918.000000	10.375993
919.000000	10.371425
920.000000	10.368768
921.000000	10.357475
922.000000	10.359938
923.000000	10.370485
924.000000	10.354423
925.000000	10.362554
926.000000	10.360320
927.000000	10.353466
928.000000	10.356155
929.000000	10.352766
930.000000	10.347405
931.000000	10.341001
932.000000	10.336753
933.000000	10.328098
934.000000	10.324936
935.000000	10.313930
936.000000	10.308837
937.000000	10.305700
938.000000	10.308634
939.000000	10.306321
940.000000	10.311588
941.000000	10.314121
942.000000	10.312667
943.000000	10.315907
944.000000	10.310409
945.000000	10.307185
946.000000	10.304845
947.000000	10.301356
948.000000	10.295008
949.000000	10.285238
950.000000	10.279527
951.000000	10.280614
952.000000	10.272431
953.000000	10.275044
954.000000	10.265961
955.000000	10.260108
956.000000	10.263152
957.000000	10.259176
958.000000	10.262520
959.000000	10.257725
960.000000	10.257650
961.000000	10.260361
962.000000	10.255639
963.000000	10.244371
964.000000	10.238127
965.000000	10.233022
966.000000	10.233302
967.000000	10.229325
968.000000	10.222673
969.000000	10.222537
970.000000	10.217375
971.000000	10.216086
972.000000	10.208013
973.000000	10.204507
974.000000	10.202052
975.000000	10.200279
976.000000	10.199954
977.000000	10.193211
978.000000	10.186361
979.000000	10.187653
980.000000	10.186630
981.000000	10.179045
982.000000	10.177352
983.000000	10.176139
984.000000	10.168451
985.000000	10.162397
986.000000	10.160521
987.000000	10.160505
988.000000	10.153258
989.000000	10.144816
990.000000	10.142050
991.000000	10.137648
992.000000	10.128612
993.000000	10.127979
994.000000	10.124583
995.000000	10.116342
996.000000	10.112991
997.000000	10.110031
998.000000	10.103770
999.000000	10.101365
1000.000000	10.099983
1001.000000	10.093302
1002.000000	10.086844
1003.000000	10.082194
1004.000000	10.075801
1005.000000	10.572320
1006.000000	10.569493
1007.000000	10.561215
1008.000000	10.552598
1009.000000	10.551594
1010.000000	10.552301
1011.000000	10.548502
1012.000000	10.544070
1013.000000	10.538230
1014.000000	10.532566
1015.000000	10.527011
1016.000000	10.525224
1017.000000	10.517740
1018.000000	10.509972
1019.000000	10.505429
1020.000000	10.494944
1021.000000	10.490262
1022.000000	10.488475
1023.000000	10.482396
1024.000000	10.474992
1025.000000	10.466084
1026.000000	10.458651
1027.000000	10.451203
1028.000000	10.445322
1029.000000	10.437496
1030.000000	10.431683
1031.000000	10.429823
1032.000000	10.419701
1033.000000	10.407371
1034.000000	10.399961
1035.000000	10.395149
1036.000000	10.390518
1037.000000	10.382965
1038.000000	10.376519
1039.000000	10.371686
1040.000000	10.368214
1041.000000	10.365926
1042.000000	10.361487
1043.000000	10.350602
1044.000000	10.339798
1045.000000	10.335951
1046.000000	10.330862
1047.000000	10.325068
1048.000000	10.320399
1049.000000	10.314409
1050.000000	10.307830
1051.000000	10.301323
1052.000000	10.298048
1053.000000	10.290137
1054.000000	10.281150
1055.000000	10.776461
1056.000000	10.773556
1057.000000	10.764881
1058.000000	10.758890
1059.000000	10.755144
1060.000000	10.750913
1061.000000	10.742486
1062.000000	10.730471
1063.000000	10.727696
1064.000000	10.725197
1065.000000	10.718499
1066.000000	10.711091
1067.000000	10.704873
1068.000000	10.696755
1069.000000	10.690334
1070.000000	10.682686
1071.000000	10.673247
1072.000000	10.668676
1073.000000	10.658400
1074.000000	10.653705
1075.000000	10.647933
1076.000000	10.640416
1077.000000	10.637537
1078.000000	10.636128
1079.000000	10.626726
1080.000000	10.618705
1081.000000	10.613079
1082.000000	10.604195
1083.000000	10.592455
1084.000000	10.593385
1085.000000	10.584576
1086.000000	10.577077
1087.000000	10.577281
1088.000000	10.567348
1089.000000	10.558900
1090.000000	10.550958
1091.000000	10.551298
1092.000000	10.552846
1093.000000	10.546676
1094.000000	10.543612
1095.000000	10.543499
1096.000000	10.541190
1097.000000	10.528531
1098.000000	10.520883
1099.000000	10.522090
1100.000000	10.518284
1101.000000	10.514994
1102.000000	10.510415
1103.000000	10.504070
1104.000000	10.500943
1105.000000	10.495736
1106.000000	10.489789
1107.000000	10.492055
1108.000000	10.489801
1109.000000	10.482395
1110.000000	10.476259
1111.000000	10.973166
1112.000000	10.974052
1113.000000	10.969943
1114.000000	10.966558
1115.000000	10.968628
1116.000000	10.966750
1117.000000	10.958365
1118.000000	10.952202
1119.000000	10.956196
1120.000000	10.956616
1121.000000	10.954922
1122.000000	10.948621
1123.000000	10.946341
1124.000000	10.949148
1125.000000	10.955568
1126.000000	10.959751
1127.000000	10.960921
1128.000000	10.958819
1129.000000	10.461717
1130.000000	10.470209
1131.000000	10.487772
1132.000000	10.501516
1133.000000	10.508519
1134.000000	10.496070
1135.000000	10.491231
1136.000000	10.507946
1137.000000	10.517746
1138.000000	10.527247
1139.000000	10.536338
1140.000000	10.543612
1141.000000	10.547109
1142.000000	10.559619
1143.000000	10.560443
1144.000000	10.559746
1145.000000	10.559586
1146.000000	10.562511
1147.000000	10.565624
1148.000000	10.568967
1149.000000	10.577444
1150.000000	10.582807
1151.000000	10.582884
1152.000000	10.575702
1153.000000	10.591435
1154.000000	10.595086
1155.000000	10.609707
1156.000000	10.621127
1157.000000	10.626083
1158.000000	10.646243
1159.000000	10.163575
1160.000000	10.175023
1161.000000	10.195419
1162.000000	10.209975
1163.000000	10.225334
1164.000000	10.238253
1165.000000	10.262967
