PE UV       SUBTECH     SPECTRUM    ASCII       PEDS        4.00        
   -1
INBUCR0424-4.Sample.ASC
24/02/09
14:11:40.00
24/02/09
14:11:40.00
Vinicio Soto Monge
Chrysina optima. R. Grande de Orosí. desde Puente R. Dos Amigos hasta la Represa. Prov. Cartago. COSTA RICA. 1400m-1800m. NOV 1995. R. Delgado, de Luz. L_N_18660_562000 #6371. INBIOCRI002361338. Falta élitro izquierdo
250,000000
1
Lambda 1050
1050L1511233
PerkinElmer UV WinLab 6.3.2.0749 / 2.02.05 Lambda 900 UV/VIS/NIR, Aug  7 2015 09:38:08

0
0
3350/servo 860,8/2
0
0
UV/VIS
1
1
1
DoubleDePol,CommonBeamDepol,RBeamAtt,SBeamAtt,60mm sphere, WB InGaAs Detector
0
0
0
0
Program
Program
3350/servo 860,8/2
3350/0,2 860,8/0,2
3350/0,2 860,8/0,2
0
15.00
 
 
 
0
 
860,8
319,2
860,8
Front
100
on
S:100 R:100
0
0
0
0
 
0
 
 
 
0
 
 
0
0
0
0
0
 
 
 
 
0
0


0
0
#HDR
-1
-1
#GR
nm
%R
1.0
0.0
2500,000000
-1,000000
2251
8
19,465100
1,404700
#DATA

250.000000	5.283177
251.000000	5.290176
252.000000	5.283412
253.000000	5.282894
254.000000	5.281582
255.000000	5.286358
256.000000	5.296015
257.000000	5.290402
258.000000	5.291972
259.000000	5.294919
260.000000	5.294202
261.000000	5.298520
262.000000	5.293267
263.000000	5.296009
264.000000	5.296729
265.000000	5.297414
266.000000	5.301365
267.000000	5.298646
268.000000	5.310593
269.000000	5.308529
270.000000	5.306861
271.000000	5.302846
272.000000	5.309163
273.000000	5.312227
274.000000	5.306211
275.000000	5.311517
276.000000	5.309945
277.000000	5.315571
278.000000	5.312901
279.000000	5.308009
280.000000	5.310818
281.000000	5.307981
282.000000	5.308215
283.000000	5.312104
284.000000	6.081371
285.000000	5.312770
286.000000	6.073922
287.000000	5.314653
288.000000	6.074830
289.000000	5.309801
290.000000	6.071286
291.000000	6.069908
292.000000	6.079631
293.000000	6.069608
294.000000	6.077822
295.000000	6.071354
296.000000	6.067627
297.000000	6.072722
298.000000	6.069918
299.000000	6.080459
300.000000	6.081287
301.000000	6.082601
302.000000	6.083016
303.000000	6.080943
304.000000	6.081020
305.000000	6.075940
306.000000	6.080447
307.000000	6.077086
308.000000	6.074165
309.000000	6.076642
310.000000	6.084643
311.000000	6.089387
312.000000	6.069841
313.000000	6.072784
314.000000	6.072734
315.000000	6.079555
316.000000	6.077716
317.000000	5.990502
318.000000	6.051999
319.000000	6.020156
320.000000	5.996423
321.000000	6.006329
322.000000	6.009372
323.000000	6.014966
324.000000	6.027383
325.000000	6.036837
326.000000	6.042372
327.000000	6.040527
328.000000	6.047693
329.000000	6.041847
330.000000	6.064058
331.000000	6.030013
332.000000	6.027674
333.000000	6.039647
334.000000	6.032437
335.000000	6.045112
336.000000	6.037551
337.000000	6.788285
338.000000	6.023092
339.000000	6.046015
340.000000	6.029730
341.000000	6.793348
342.000000	6.795028
343.000000	6.804822
344.000000	6.786774
345.000000	6.797246
346.000000	6.791223
347.000000	6.799623
348.000000	6.797582
349.000000	6.800638
350.000000	6.792896
351.000000	6.806332
352.000000	6.811821
353.000000	6.800667
354.000000	6.806163
355.000000	6.801622
356.000000	6.801894
357.000000	6.803456
358.000000	6.806930
359.000000	6.810482
360.000000	6.813815
361.000000	6.803914
362.000000	6.810688
363.000000	6.810122
364.000000	6.806342
365.000000	6.807747
366.000000	6.807537
367.000000	6.807962
368.000000	6.811363
369.000000	6.819038
370.000000	6.811973
371.000000	6.815903
372.000000	6.826576
373.000000	6.831278
374.000000	6.837669
375.000000	6.839672
376.000000	6.856822
377.000000	7.651386
378.000000	7.651484
379.000000	7.652201
380.000000	7.649723
381.000000	7.646928
382.000000	7.649733
383.000000	7.650391
384.000000	7.649100
385.000000	7.647707
386.000000	7.648234
387.000000	7.650070
388.000000	7.649303
389.000000	7.648510
390.000000	7.648482
391.000000	7.648552
392.000000	7.648934
393.000000	7.646265
394.000000	7.644707
395.000000	7.646745
396.000000	7.645797
397.000000	7.644221
398.000000	7.642948
399.000000	7.644027
400.000000	7.645114
401.000000	7.644021
402.000000	7.641601
403.000000	7.642338
404.000000	7.643345
405.000000	7.643058
406.000000	7.642102
407.000000	7.639992
408.000000	7.639882
409.000000	7.639956
410.000000	7.639830
411.000000	7.639324
412.000000	7.640094
413.000000	7.641561
414.000000	7.639362
415.000000	7.637101
416.000000	7.639577
417.000000	7.639222
418.000000	7.638408
419.000000	7.638227
420.000000	7.637113
421.000000	7.638356
422.000000	8.397760
423.000000	8.397262
424.000000	8.396719
425.000000	8.396111
426.000000	8.396188
427.000000	8.394403
428.000000	8.393845
429.000000	8.396835
430.000000	8.397259
431.000000	8.397083
432.000000	8.397015
433.000000	8.397174
434.000000	8.397414
435.000000	8.396410
436.000000	8.395171
437.000000	8.394896
438.000000	8.397204
439.000000	8.397635
440.000000	8.395216
441.000000	8.395135
442.000000	8.396787
443.000000	8.397442
444.000000	8.397268
445.000000	8.396172
446.000000	8.396142
447.000000	8.395315
448.000000	8.392603
449.000000	8.390943
450.000000	8.391188
451.000000	8.391110
452.000000	8.390725
453.000000	8.389528
454.000000	8.389452
455.000000	8.390355
456.000000	8.390271
457.000000	8.388812
458.000000	8.386804
459.000000	8.387057
460.000000	8.386538
461.000000	8.384508
462.000000	8.384137
463.000000	8.384535
464.000000	8.384154
465.000000	8.383402
466.000000	8.381308
467.000000	8.380564
468.000000	8.381559
469.000000	8.380483
470.000000	8.379592
471.000000	8.380262
472.000000	8.380985
473.000000	8.381640
474.000000	8.381450
475.000000	8.382183
476.000000	8.382388
477.000000	8.382745
478.000000	8.383558
479.000000	8.383760
480.000000	8.387874
481.000000	8.392380
482.000000	8.396441
483.000000	8.397120
484.000000	8.394966
485.000000	8.392675
486.000000	8.390456
487.000000	8.387433
488.000000	8.384404
489.000000	8.381122
490.000000	8.377108
491.000000	9.133390
492.000000	9.130684
493.000000	9.128839
494.000000	9.125371
495.000000	9.121050
496.000000	9.116878
497.000000	9.114165
498.000000	9.111576
499.000000	9.106956
500.000000	9.102230
501.000000	9.098519
502.000000	9.094793
503.000000	9.091369
504.000000	9.088107
505.000000	9.085856
506.000000	9.083547
507.000000	9.081635
508.000000	9.077594
509.000000	9.074482
510.000000	9.073758
511.000000	9.073309
512.000000	9.071205
513.000000	9.069090
514.000000	9.067493
515.000000	9.067447
516.000000	9.065652
517.000000	9.064500
518.000000	9.062917
519.000000	9.061944
520.000000	9.061264
521.000000	9.059443
522.000000	9.057168
523.000000	9.055119
524.000000	9.053013
525.000000	9.049526
526.000000	9.044971
527.000000	9.042481
528.000000	9.040114
529.000000	9.035207
530.000000	9.030508
531.000000	9.026021
532.000000	9.021746
533.000000	9.016320
534.000000	9.010598
535.000000	9.004670
536.000000	8.999815
537.000000	8.994158
538.000000	8.987393
539.000000	8.979387
540.000000	8.973315
541.000000	8.967262
542.000000	8.960034
543.000000	8.952008
544.000000	8.945794
545.000000	8.938882
546.000000	8.931928
547.000000	8.923584
548.000000	8.914998
549.000000	8.908810
550.000000	8.900293
551.000000	8.893194
552.000000	8.883783
553.000000	8.876805
554.000000	8.868563
555.000000	8.860463
556.000000	8.850070
557.000000	8.841720
558.000000	8.834505
559.000000	8.825424
560.000000	8.837746
561.000000	8.834269
562.000000	8.825636
563.000000	9.577136
564.000000	9.567374
565.000000	9.558452
566.000000	9.548301
567.000000	9.542096
568.000000	9.531192
569.000000	9.521960
570.000000	9.512580
571.000000	9.503578
572.000000	9.493193
573.000000	9.482937
574.000000	9.471908
575.000000	9.462982
576.000000	9.452728
577.000000	9.442749
578.000000	9.431569
579.000000	9.420477
580.000000	9.408961
581.000000	9.399148
582.000000	9.386724
583.000000	9.375780
584.000000	9.366421
585.000000	9.355461
586.000000	9.341375
587.000000	9.329914
588.000000	9.319125
589.000000	9.307327
590.000000	9.294180
591.000000	9.281443
592.000000	9.269992
593.000000	9.256388
594.000000	9.246561
595.000000	9.230637
596.000000	9.219024
597.000000	9.206537
598.000000	9.194303
599.000000	9.178854
600.000000	9.167611
601.000000	9.153415
602.000000	9.140459
603.000000	9.126693
604.000000	9.111072
605.000000	9.096140
606.000000	9.084055
607.000000	9.067690
608.000000	9.052514
609.000000	9.035129
610.000000	9.019888
611.000000	9.003056
612.000000	8.984272
613.000000	8.967461
614.000000	8.950448
615.000000	8.930116
616.000000	8.911245
617.000000	8.891443
618.000000	8.870275
619.000000	8.852373
620.000000	8.828950
621.000000	8.804435
622.000000	8.784190
623.000000	9.516773
624.000000	9.490858
625.000000	9.465089
626.000000	9.439526
627.000000	9.415494
628.000000	9.387181
629.000000	9.355456
630.000000	9.325094
631.000000	9.296857
632.000000	9.263714
633.000000	9.230445
634.000000	9.197443
635.000000	9.164149
636.000000	9.126797
637.000000	9.090352
638.000000	9.052695
639.000000	9.011357
640.000000	8.969935
641.000000	8.926853
642.000000	8.881300
643.000000	8.838614
644.000000	8.790353
645.000000	8.744467
646.000000	8.696438
647.000000	8.646642
648.000000	8.596746
649.000000	8.543162
650.000000	8.484195
651.000000	8.429253
652.000000	8.370826
653.000000	8.309959
654.000000	8.249472
655.000000	8.185193
656.000000	8.126037
657.000000	8.060260
658.000000	7.997600
659.000000	7.930965
660.000000	7.864012
661.000000	7.794300
662.000000	7.725649
663.000000	7.655496
664.000000	7.580915
665.000000	7.510223
666.000000	7.438423
667.000000	7.366244
668.000000	7.295528
669.000000	7.225929
670.000000	7.156260
671.000000	7.083693
672.000000	7.009434
673.000000	6.938262
674.000000	6.868559
675.000000	6.799996
676.000000	6.733032
677.000000	6.663177
678.000000	6.596573
679.000000	6.532307
680.000000	6.466498
681.000000	7.132733
682.000000	7.073235
683.000000	7.021986
684.000000	6.964979
685.000000	6.907199
686.000000	6.856885
687.000000	6.809111
688.000000	6.760722
689.000000	6.712840
690.000000	6.663638
691.000000	6.619494
692.000000	6.576844
693.000000	6.542173
694.000000	6.507034
695.000000	6.466532
696.000000	6.429135
697.000000	6.397788
698.000000	6.367390
699.000000	6.338733
700.000000	6.311375
701.000000	6.288077
702.000000	6.256854
703.000000	6.233248
704.000000	6.215315
705.000000	6.196888
706.000000	6.174330
707.000000	6.154945
708.000000	6.138281
709.000000	6.119663
710.000000	6.098047
711.000000	6.075664
712.000000	6.059487
713.000000	6.050621
714.000000	6.043235
715.000000	6.027419
716.000000	6.007784
717.000000	5.998277
718.000000	5.987855
719.000000	5.976292
720.000000	5.965110
721.000000	5.951653
722.000000	5.944296
723.000000	5.930874
724.000000	5.915409
725.000000	5.901690
726.000000	5.893925
727.000000	5.878057
728.000000	6.603953
729.000000	6.595379
730.000000	6.585081
731.000000	6.576761
732.000000	6.564960
733.000000	6.556350
734.000000	6.554526
735.000000	6.548551
736.000000	6.534996
737.000000	6.522232
738.000000	6.513768
739.000000	6.508211
740.000000	6.497691
741.000000	6.490775
742.000000	6.481875
743.000000	6.470408
744.000000	6.462944
745.000000	6.458783
746.000000	6.451992
747.000000	6.446375
748.000000	6.436759
749.000000	6.424500
750.000000	6.417726
751.000000	6.403670
752.000000	6.389120
753.000000	6.387768
754.000000	6.381134
755.000000	6.372399
756.000000	6.366814
757.000000	6.358351
758.000000	6.350904
759.000000	6.351702
760.000000	6.340833
761.000000	7.064281
762.000000	7.063073
763.000000	7.057810
764.000000	7.054327
765.000000	7.057330
766.000000	7.045805
767.000000	7.032917
768.000000	7.024914
769.000000	7.021048
770.000000	7.022894
771.000000	7.012886
772.000000	6.997106
773.000000	6.994272
774.000000	6.983333
775.000000	6.969152
776.000000	6.964458
777.000000	6.959736
778.000000	6.958080
779.000000	6.947505
780.000000	6.931469
781.000000	6.935394
782.000000	6.919283
783.000000	6.906057
784.000000	6.896271
785.000000	6.887631
786.000000	6.875789
787.000000	6.863913
788.000000	6.851257
789.000000	6.837774
790.000000	6.819847
791.000000	6.801699
792.000000	6.781068
793.000000	6.767392
794.000000	6.750115
795.000000	6.727034
796.000000	6.713639
797.000000	7.437167
798.000000	7.411030
799.000000	7.392069
800.000000	7.377679
801.000000	7.357219
802.000000	7.347887
803.000000	7.339757
804.000000	7.314898
805.000000	7.297086
806.000000	7.283990
807.000000	7.275408
808.000000	7.241244
809.000000	7.220768
810.000000	7.217664
811.000000	7.193478
812.000000	7.190378
813.000000	7.180379
814.000000	7.168614
815.000000	7.174738
816.000000	7.172587
817.000000	7.161933
818.000000	7.144856
819.000000	7.139192
820.000000	7.150440
821.000000	7.155612
822.000000	7.146224
823.000000	7.129902
824.000000	7.135753
825.000000	7.118853
826.000000	7.123558
827.000000	7.121466
828.000000	7.119322
829.000000	7.139717
830.000000	7.127548
831.000000	7.131505
832.000000	7.130562
833.000000	7.129116
834.000000	7.129219
835.000000	7.127191
836.000000	7.130395
837.000000	7.105630
838.000000	7.114453
839.000000	7.122014
840.000000	7.093240
841.000000	7.127553
842.000000	7.115754
843.000000	7.113017
844.000000	7.111183
845.000000	7.111254
846.000000	7.119292
847.000000	7.113451
848.000000	7.072894
849.000000	7.090638
850.000000	7.094438
851.000000	7.096486
852.000000	7.092010
853.000000	7.098097
854.000000	7.062925
855.000000	7.134517
856.000000	7.184978
857.000000	7.851088
858.000000	15.624247
859.000000	8.011783
860.000000	7.981519
861.000000	7.931018
862.000000	7.890873
863.000000	7.370026
864.000000	7.340847
865.000000	7.306385
866.000000	7.286500
867.000000	6.780299
868.000000	6.770010
869.000000	6.747488
870.000000	6.728835
871.000000	6.721215
872.000000	6.706118
873.000000	6.206868
874.000000	6.680623
875.000000	6.183067
876.000000	6.166523
877.000000	6.162854
878.000000	6.152789
879.000000	6.155180
880.000000	5.653068
881.000000	5.650720
882.000000	5.639967
883.000000	5.637734
884.000000	5.151104
885.000000	5.625149
886.000000	5.142286
887.000000	5.609830
888.000000	5.603126
889.000000	5.117016
890.000000	5.122718
891.000000	5.119547
892.000000	5.103830
893.000000	5.099738
894.000000	5.091378
895.000000	5.093436
896.000000	5.087918
897.000000	5.078004
898.000000	4.596934
899.000000	4.596098
900.000000	4.580642
901.000000	4.572103
902.000000	4.567730
903.000000	4.559543
904.000000	4.550200
905.000000	4.541687
906.000000	4.531775
907.000000	4.517669
908.000000	4.506355
909.000000	4.495242
910.000000	4.031651
911.000000	4.484918
912.000000	4.474882
913.000000	3.996239
914.000000	3.985990
915.000000	3.977956
916.000000	3.973311
917.000000	3.957115
918.000000	3.935228
919.000000	3.942461
920.000000	3.935402
921.000000	3.925508
922.000000	3.913688
923.000000	3.899737
924.000000	3.889268
925.000000	3.893646
926.000000	3.434883
927.000000	3.427012
928.000000	3.424549
929.000000	3.886563
930.000000	3.419737
931.000000	3.407491
932.000000	3.407946
933.000000	3.391830
934.000000	3.373726
935.000000	3.356129
936.000000	3.363452
937.000000	3.357700
938.000000	3.358308
939.000000	3.346190
940.000000	3.346174
941.000000	3.341637
942.000000	3.345066
943.000000	3.338582
944.000000	3.338088
945.000000	3.335761
946.000000	3.331789
947.000000	3.332248
948.000000	3.323602
949.000000	3.324311
950.000000	3.325457
951.000000	3.315685
952.000000	3.313343
953.000000	3.311123
954.000000	3.310235
955.000000	3.316516
956.000000	3.309091
957.000000	3.306011
958.000000	3.311525
959.000000	2.868719
960.000000	2.865424
961.000000	2.870462
962.000000	2.873182
963.000000	2.865291
964.000000	2.857543
965.000000	2.852640
966.000000	2.863738
967.000000	2.863582
968.000000	2.863718
969.000000	2.861516
970.000000	2.860709
971.000000	2.865479
972.000000	2.872742
973.000000	2.868011
974.000000	2.861075
975.000000	2.869616
976.000000	2.877769
977.000000	2.868064
978.000000	2.867084
979.000000	2.880734
980.000000	2.880808
981.000000	2.877551
982.000000	2.878091
983.000000	2.874868
984.000000	2.885759
985.000000	2.893265
986.000000	2.894374
987.000000	2.894146
988.000000	2.903740
989.000000	2.905017
990.000000	2.908284
991.000000	2.908795
992.000000	2.911251
993.000000	2.912404
994.000000	2.917621
995.000000	2.918690
996.000000	2.917553
997.000000	2.920274
998.000000	2.930071
999.000000	2.930279
1000.000000	2.923183
1001.000000	2.929718
1002.000000	2.935392
1003.000000	2.934467
1004.000000	2.934576
1005.000000	2.935715
1006.000000	2.943775
1007.000000	2.947272
1008.000000	2.959140
1009.000000	2.966602
1010.000000	2.972383
1011.000000	2.973242
1012.000000	2.977872
1013.000000	2.983593
1014.000000	2.987936
1015.000000	2.998670
1016.000000	2.994359
1017.000000	2.990659
1018.000000	2.996048
1019.000000	3.001680
1020.000000	3.004675
1021.000000	3.005329
1022.000000	3.002674
1023.000000	3.007764
1024.000000	3.018657
1025.000000	3.023217
1026.000000	3.024525
1027.000000	3.025078
1028.000000	3.027608
1029.000000	3.028585
1030.000000	3.032261
1031.000000	3.037093
1032.000000	3.040128
1033.000000	3.050339
1034.000000	3.058142
1035.000000	3.062720
1036.000000	3.059295
1037.000000	3.060114
1038.000000	3.067468
1039.000000	3.064477
1040.000000	3.068855
1041.000000	3.075446
1042.000000	2.679352
1043.000000	3.079100
1044.000000	3.083131
1045.000000	3.087471
1046.000000	3.087453
1047.000000	3.081959
1048.000000	3.083188
1049.000000	3.093051
1050.000000	3.102574
1051.000000	3.105892
1052.000000	3.107664
1053.000000	2.713295
1054.000000	2.719663
1055.000000	3.119318
1056.000000	3.113751
1057.000000	3.118802
1058.000000	2.732767
1059.000000	2.745258
1060.000000	2.743454
1061.000000	2.747312
1062.000000	2.755617
1063.000000	2.758465
1064.000000	2.761422
1065.000000	2.759753
1066.000000	2.765373
1067.000000	2.772311
1068.000000	2.776820
1069.000000	2.781031
1070.000000	2.785533
1071.000000	2.787684
1072.000000	2.784467
1073.000000	2.795661
1074.000000	2.804372
1075.000000	2.809766
1076.000000	2.801206
1077.000000	2.801095
1078.000000	2.815073
1079.000000	2.813203
1080.000000	2.811899
1081.000000	2.818591
1082.000000	2.820216
1083.000000	2.826134
1084.000000	2.828977
1085.000000	2.833286
1086.000000	2.835643
1087.000000	2.842787
1088.000000	2.842637
1089.000000	2.848877
1090.000000	2.853242
1091.000000	2.859112
1092.000000	2.864136
1093.000000	2.870195
1094.000000	2.872330
1095.000000	2.869353
1096.000000	2.878254
1097.000000	2.888083
1098.000000	2.888266
1099.000000	2.894270
1100.000000	2.899237
1101.000000	2.904560
1102.000000	2.916643
1103.000000	2.930752
1104.000000	2.924815
1105.000000	2.930924
1106.000000	2.941809
1107.000000	2.932911
1108.000000	2.938101
1109.000000	2.936282
1110.000000	2.941884
1111.000000	2.944548
1112.000000	2.949591
1113.000000	2.954148
1114.000000	2.958881
1115.000000	2.977591
1116.000000	2.968200
1117.000000	2.974814
1118.000000	2.975693
1119.000000	2.989823
1120.000000	2.988415
1121.000000	2.986170
1122.000000	2.997571
1123.000000	3.002466
1124.000000	3.014265
1125.000000	3.019282
1126.000000	3.014809
1127.000000	3.035331
1128.000000	3.035469
1129.000000	3.046833
1130.000000	3.061284
1131.000000	3.080379
1132.000000	3.098301
1133.000000	3.105195
1134.000000	3.090706
1135.000000	3.083970
1136.000000	3.106397
1137.000000	3.124187
1138.000000	3.131291
1139.000000	3.142955
1140.000000	3.152649
1141.000000	3.151165
1142.000000	3.170922
1143.000000	3.176836
1144.000000	3.176441
1145.000000	3.178916
1146.000000	3.183297
1147.000000	3.200598
1148.000000	3.206808
1149.000000	3.213929
1150.000000	3.213538
1151.000000	3.216519
1152.000000	3.219916
1153.000000	3.229342
1154.000000	3.241518
1155.000000	3.262576
1156.000000	3.270952
1157.000000	3.276295
1158.000000	3.288779
1159.000000	3.311042
1160.000000	3.310340
1161.000000	3.331510
1162.000000	3.346804
1163.000000	3.361455
1164.000000	3.373797
1165.000000	3.396546
1166.000000	3.400020
1167.000000	3.414613
1168.000000	3.416519
1169.000000	3.434398
1170.000000	3.439497
1171.000000	3.451408
1172.000000	3.459065
1173.000000	3.467663
1174.000000	3.459317
1175.000000	3.481534
1176.000000	3.486104
1177.000000	3.499264
1178.000000	3.504036
1179.000000	3.517657
1180.000000	3.525829
1181.000000	3.525439
1182.000000	3.520578
1183.000000	3.530399
1184.000000	3.537926
1185.000000	3.530616
1186.000000	3.528666
1187.000000	3.540629
1188.000000	3.546163
1189.000000	3.546849
1190.000000	3.543265
1191.000000	3.542299
1192.000000	3.536791
1193.000000	3.522423
1194.000000	3.531298
