PE UV       SUBTECH     SPECTRUM    ASCII       PEDS        4.00        
   -1
INBUCR0433-4.Sample.ASC
24/02/09
15:21:29.00
24/02/09
15:21:29.00
Vinicio Soto Monge
Chrysina cupreomarginata. Det: A. Solís. COSTA RICA. Prov San José. Pérez Zeledón. Estación Santa Elena. 1600 m. 21-29 JUL 1999. J. Rodríguez. de Luz L_S_373000_507500 #57317. INB00031565546 . Falta élitro izquierdo. 
250,000000
1
Lambda 1050
1050L1511233
PerkinElmer UV WinLab 6.3.2.0749 / 2.02.05 Lambda 900 UV/VIS/NIR, Aug  7 2015 09:38:08

0
0
3350/servo 860,8/2
0
0
UV/VIS
1
1
1
DoubleDePol,CommonBeamDepol,RBeamAtt,SBeamAtt,60mm sphere, WB InGaAs Detector
0
0
0
0
Program
Program
3350/servo 860,8/2
3350/0,2 860,8/0,2
3350/0,2 860,8/0,2
0
15.00
 
 
 
0
 
860,8
319,2
860,8
Front
100
on
S:100 R:100
0
0
0
0
 
0
 
 
 
0
 
 
0
0
0
0
0
 
 
 
 
0
0


0
0
#HDR
-1
-1
#GR
nm
%R
1.0
0.0
2500,000000
-1,000000
2251
8
15,493100
1,521000
#DATA

250.000000	4.353964
251.000000	4.358675
252.000000	4.359011
253.000000	4.360365
254.000000	4.366240
255.000000	4.371427
256.000000	4.369153
257.000000	4.367880
258.000000	4.373047
259.000000	4.357261
260.000000	4.368950
261.000000	4.386113
262.000000	4.382422
263.000000	4.375335
264.000000	4.377011
265.000000	4.377775
266.000000	4.386747
267.000000	4.382476
268.000000	4.387426
269.000000	4.397161
270.000000	4.393826
271.000000	4.396745
272.000000	4.394065
273.000000	4.381758
274.000000	4.398788
275.000000	4.390070
276.000000	4.394535
277.000000	4.391417
278.000000	4.393911
279.000000	4.378733
280.000000	4.390241
281.000000	4.393895
282.000000	4.396942
283.000000	4.390547
284.000000	4.396764
285.000000	4.392975
286.000000	4.384536
287.000000	4.961527
288.000000	4.380654
289.000000	4.960327
290.000000	4.959939
291.000000	4.953114
292.000000	4.378325
293.000000	4.954704
294.000000	4.950488
295.000000	4.959376
296.000000	4.956785
297.000000	4.976451
298.000000	4.949689
299.000000	4.949052
300.000000	4.938965
301.000000	4.940339
302.000000	4.930886
303.000000	4.940272
304.000000	4.941311
305.000000	4.936587
306.000000	4.938845
307.000000	4.932218
308.000000	4.921113
309.000000	4.940032
310.000000	4.942374
311.000000	4.932774
312.000000	4.935154
313.000000	4.920493
314.000000	4.927526
315.000000	4.921508
316.000000	4.921981
317.000000	4.720635
318.000000	4.743671
319.000000	4.789652
320.000000	4.804534
321.000000	4.741112
322.000000	4.726789
323.000000	4.801423
324.000000	4.754337
325.000000	4.817790
326.000000	4.819983
327.000000	4.847028
328.000000	4.836334
329.000000	4.823484
330.000000	4.842236
331.000000	4.822398
332.000000	4.881037
333.000000	4.849980
334.000000	4.858341
335.000000	4.849227
336.000000	4.880462
337.000000	4.819951
338.000000	4.868646
339.000000	4.867266
340.000000	4.865290
341.000000	4.858481
342.000000	4.878831
343.000000	4.886703
344.000000	4.854397
345.000000	4.873751
346.000000	4.833507
347.000000	4.849056
348.000000	4.891019
349.000000	4.841014
350.000000	4.863962
351.000000	4.885401
352.000000	4.862174
353.000000	4.861503
354.000000	4.891644
355.000000	4.879513
356.000000	4.865149
357.000000	4.870234
358.000000	4.868576
359.000000	4.894242
360.000000	4.881111
361.000000	4.871377
362.000000	4.876236
363.000000	4.884942
364.000000	4.888948
365.000000	4.904470
366.000000	4.886968
367.000000	4.897208
368.000000	4.899762
369.000000	4.912591
370.000000	4.919408
371.000000	4.919473
372.000000	4.950959
373.000000	4.941740
374.000000	4.961669
375.000000	4.963489
376.000000	4.895290
377.000000	4.962148
378.000000	4.963354
379.000000	4.958720
380.000000	4.958515
381.000000	4.957896
382.000000	4.956631
383.000000	4.951746
384.000000	4.951593
385.000000	4.951135
386.000000	5.519098
387.000000	5.517788
388.000000	5.514719
389.000000	5.508587
390.000000	5.505541
391.000000	5.503112
392.000000	5.503774
393.000000	5.500561
394.000000	5.495961
395.000000	5.494011
396.000000	5.491173
397.000000	5.486218
398.000000	5.483827
399.000000	5.480151
400.000000	5.473516
401.000000	5.471024
402.000000	5.465738
403.000000	5.461598
404.000000	5.457694
405.000000	5.452202
406.000000	5.445593
407.000000	5.437199
408.000000	5.430906
409.000000	5.422315
410.000000	5.413769
411.000000	5.402938
412.000000	5.392532
413.000000	5.382121
414.000000	5.369784
415.000000	5.929592
416.000000	5.913894
417.000000	5.896811
418.000000	5.882191
419.000000	5.865329
420.000000	5.847128
421.000000	5.829506
422.000000	5.806867
423.000000	5.784853
424.000000	5.765307
425.000000	5.742728
426.000000	5.719740
427.000000	5.697529
428.000000	6.248439
429.000000	6.223843
430.000000	6.197616
431.000000	6.172583
432.000000	6.145580
433.000000	6.119922
434.000000	6.095492
435.000000	6.068732
436.000000	6.040527
437.000000	6.013884
438.000000	5.989193
439.000000	5.965462
440.000000	6.512772
441.000000	6.488545
442.000000	6.466949
443.000000	6.443140
444.000000	6.418092
445.000000	6.391960
446.000000	6.366224
447.000000	6.341006
448.000000	6.317030
449.000000	6.294498
450.000000	6.273710
451.000000	6.252801
452.000000	6.230966
453.000000	6.780809
454.000000	6.760538
455.000000	6.741887
456.000000	6.722997
457.000000	6.701690
458.000000	6.680652
459.000000	6.661795
460.000000	6.641762
461.000000	6.620745
462.000000	6.602812
463.000000	6.585952
464.000000	6.566334
465.000000	6.546901
466.000000	6.530569
467.000000	6.514322
468.000000	6.496631
469.000000	7.051681
470.000000	7.035249
471.000000	7.020304
472.000000	7.006920
473.000000	6.996281
474.000000	6.982067
475.000000	6.971167
476.000000	6.962692
477.000000	6.951853
478.000000	6.941022
479.000000	6.931991
480.000000	6.932099
481.000000	6.935994
482.000000	6.936834
483.000000	6.930036
484.000000	6.920233
485.000000	6.910484
486.000000	6.900255
487.000000	6.891375
488.000000	7.453878
489.000000	7.442057
490.000000	7.430031
491.000000	7.414871
492.000000	7.399352
493.000000	7.379079
494.000000	7.352375
495.000000	7.893426
496.000000	7.858793
497.000000	7.819297
498.000000	7.773074
499.000000	7.720506
500.000000	8.236370
501.000000	8.174360
502.000000	8.112580
503.000000	8.047332
504.000000	7.982299
505.000000	8.496297
506.000000	8.435773
507.000000	8.378752
508.000000	8.322400
509.000000	8.270889
510.000000	8.224632
511.000000	8.749332
512.000000	8.707517
513.000000	8.668103
514.000000	8.630928
515.000000	8.600883
516.000000	9.141973
517.000000	9.108511
518.000000	9.076227
519.000000	9.042449
520.000000	9.008897
521.000000	9.548640
522.000000	9.512622
523.000000	9.472160
524.000000	10.003901
525.000000	9.961416
526.000000	9.917455
527.000000	9.873570
528.000000	10.397180
529.000000	10.343561
530.000000	10.288461
531.000000	10.802733
532.000000	10.738526
533.000000	10.674604
534.000000	11.178700
535.000000	11.106916
536.000000	11.033929
537.000000	10.962526
538.000000	11.458570
539.000000	11.379726
540.000000	11.301470
541.000000	11.789520
542.000000	11.702628
543.000000	11.616971
544.000000	11.529334
545.000000	12.013980
546.000000	11.931244
547.000000	11.848546
548.000000	11.773297
549.000000	11.700855
550.000000	11.631929
551.000000	12.130991
552.000000	12.067539
553.000000	12.013368
554.000000	11.956729
555.000000	11.910479
556.000000	11.867559
557.000000	11.829229
558.000000	11.792936
559.000000	11.761288
560.000000	11.874135
561.000000	12.445744
562.000000	12.424146
563.000000	12.409952
564.000000	12.397044
565.000000	12.380706
566.000000	12.369884
567.000000	12.361871
568.000000	12.353049
569.000000	12.344737
570.000000	12.341145
571.000000	12.337832
572.000000	12.336713
573.000000	12.335655
574.000000	12.328676
575.000000	12.325343
576.000000	12.322023
577.000000	12.320129
578.000000	12.310735
579.000000	12.312085
580.000000	11.740486
581.000000	11.738084
582.000000	11.742303
583.000000	11.747022
584.000000	11.756979
585.000000	11.762719
586.000000	11.773215
587.000000	11.783421
588.000000	11.797381
589.000000	11.799751
590.000000	11.812027
591.000000	11.820130
592.000000	11.824004
593.000000	11.828585
594.000000	11.831538
595.000000	11.831436
596.000000	11.836399
597.000000	11.838928
598.000000	11.839753
599.000000	11.837969
600.000000	11.842289
601.000000	11.847749
602.000000	11.845891
603.000000	11.850907
604.000000	11.868470
605.000000	11.307918
606.000000	11.322497
607.000000	11.333240
608.000000	11.353456
609.000000	11.367980
610.000000	11.388006
611.000000	11.401354
612.000000	11.415679
613.000000	11.419887
614.000000	11.431972
615.000000	11.447220
616.000000	11.460290
617.000000	11.471479
618.000000	10.918661
619.000000	10.938041
620.000000	10.960871
621.000000	10.995315
622.000000	11.034303
623.000000	11.073342
624.000000	11.119594
625.000000	10.592289
626.000000	10.644666
627.000000	10.701392
628.000000	10.755956
629.000000	10.810912
630.000000	10.871454
631.000000	10.929764
632.000000	10.985671
633.000000	11.032917
634.000000	11.084526
635.000000	11.128588
636.000000	11.160292
637.000000	11.187507
638.000000	11.202942
639.000000	11.215666
640.000000	11.219969
641.000000	11.216075
642.000000	11.211993
643.000000	11.776025
644.000000	11.761730
645.000000	11.742220
646.000000	11.722551
647.000000	11.712824
648.000000	11.692735
649.000000	11.673885
650.000000	11.656919
651.000000	11.637958
652.000000	11.622260
653.000000	12.171732
654.000000	12.151425
655.000000	12.126510
656.000000	12.101234
657.000000	12.075523
658.000000	12.045312
659.000000	12.013586
660.000000	11.980480
661.000000	11.948361
662.000000	11.909592
663.000000	12.453758
664.000000	12.418930
665.000000	12.390792
666.000000	12.356290
667.000000	12.330637
668.000000	12.306609
669.000000	12.283606
670.000000	12.256308
671.000000	12.231709
672.000000	12.212504
673.000000	12.200701
674.000000	12.179644
675.000000	12.164673
676.000000	12.156170
677.000000	12.141480
678.000000	12.129425
679.000000	12.118800
680.000000	12.103507
681.000000	12.094776
682.000000	12.084534
683.000000	12.066847
684.000000	12.050887
685.000000	12.038896
686.000000	12.031849
687.000000	12.021629
688.000000	12.584267
689.000000	12.583210
690.000000	12.584128
691.000000	12.580171
692.000000	12.584429
693.000000	12.577193
694.000000	12.583871
695.000000	12.586113
696.000000	12.582158
697.000000	12.579743
698.000000	12.582441
699.000000	12.581212
700.000000	12.579017
701.000000	12.586230
702.000000	12.586866
703.000000	12.584057
704.000000	12.584374
705.000000	12.575636
706.000000	12.565504
707.000000	12.562318
708.000000	12.555598
709.000000	12.544322
710.000000	12.533332
711.000000	12.521026
712.000000	12.510050
713.000000	12.502472
714.000000	12.491180
715.000000	12.476969
716.000000	13.047470
717.000000	13.040546
718.000000	13.023924
719.000000	13.015991
720.000000	13.005266
721.000000	12.997159
722.000000	12.984741
723.000000	12.968013
724.000000	12.956163
725.000000	12.952433
726.000000	12.944293
727.000000	12.926863
728.000000	12.915673
729.000000	12.896136
730.000000	12.881770
731.000000	12.871115
732.000000	12.857274
733.000000	12.852652
734.000000	12.837876
735.000000	12.824596
736.000000	12.820048
737.000000	12.809987
738.000000	12.808544
739.000000	12.807874
740.000000	12.802431
741.000000	12.804321
742.000000	13.376835
743.000000	12.801464
744.000000	13.375301
745.000000	13.378272
746.000000	13.367306
747.000000	13.360620
748.000000	13.365328
749.000000	13.363132
750.000000	13.357291
751.000000	13.358164
752.000000	13.355566
753.000000	13.347680
754.000000	13.343861
755.000000	13.350362
756.000000	13.358259
757.000000	13.354848
758.000000	13.361377
759.000000	13.365634
760.000000	13.360177
761.000000	13.361306
762.000000	13.364376
763.000000	13.367773
764.000000	13.366163
765.000000	13.364588
766.000000	13.362134
767.000000	13.365572
768.000000	13.364867
769.000000	13.354348
770.000000	13.346849
771.000000	13.349722
772.000000	13.910211
773.000000	13.895582
774.000000	13.885994
775.000000	13.875149
776.000000	13.876890
777.000000	13.874678
778.000000	13.865552
779.000000	13.852729
780.000000	13.852715
781.000000	13.857179
782.000000	13.847344
783.000000	13.832064
784.000000	13.827601
785.000000	13.823776
786.000000	13.805302
787.000000	14.363935
788.000000	14.341458
789.000000	14.328894
790.000000	14.303282
791.000000	14.272716
792.000000	14.266525
793.000000	14.259498
794.000000	14.235938
795.000000	14.224860
796.000000	14.207944
797.000000	14.196960
798.000000	14.197010
799.000000	14.191819
800.000000	14.177719
801.000000	14.730611
802.000000	14.709456
803.000000	14.691715
804.000000	14.678233
805.000000	14.657732
806.000000	14.643556
807.000000	14.629470
808.000000	14.583195
809.000000	14.563087
810.000000	14.542924
811.000000	14.535840
812.000000	14.536538
813.000000	14.526340
814.000000	14.506103
815.000000	14.510085
816.000000	14.499110
817.000000	14.492720
818.000000	14.474637
819.000000	15.036416
820.000000	15.036093
821.000000	15.014857
822.000000	15.013412
823.000000	14.988856
824.000000	14.981086
825.000000	14.959672
826.000000	14.948056
827.000000	14.964360
828.000000	14.949952
829.000000	14.943227
830.000000	14.930628
831.000000	14.926994
832.000000	14.925664
833.000000	14.927026
834.000000	14.931866
835.000000	14.956391
836.000000	14.931228
837.000000	14.909989
838.000000	14.894014
839.000000	14.888615
840.000000	14.894246
841.000000	14.909710
842.000000	14.917396
843.000000	14.918230
844.000000	14.900383
845.000000	14.887961
846.000000	14.872490
847.000000	14.878052
848.000000	14.924810
849.000000	14.924036
850.000000	14.882142
851.000000	14.886637
852.000000	14.952328
853.000000	14.973736
854.000000	14.986623
855.000000	14.951633
856.000000	14.991860
857.000000	14.804335
858.000000	18.440076
859.000000	15.401067
860.000000	14.886938
861.000000	15.357992
862.000000	15.342822
863.000000	14.812389
864.000000	14.795178
865.000000	14.777009
866.000000	14.768328
867.000000	14.764295
868.000000	14.751356
869.000000	14.245336
870.000000	14.242167
871.000000	14.231979
872.000000	14.221743
873.000000	14.223306
874.000000	14.213598
875.000000	13.712169
876.000000	14.203477
877.000000	14.196303
878.000000	14.685928
879.000000	14.184686
880.000000	14.174244
881.000000	13.675937
882.000000	13.674517
883.000000	13.670544
884.000000	13.664268
885.000000	13.665331
886.000000	13.665900
887.000000	13.666263
888.000000	13.168961
889.000000	13.163503
890.000000	13.165811
891.000000	13.166249
892.000000	13.162109
893.000000	13.162217
894.000000	13.162644
895.000000	13.155602
896.000000	13.160707
897.000000	13.158760
898.000000	13.161274
899.000000	12.660784
900.000000	13.169857
901.000000	13.159572
902.000000	12.661210
903.000000	12.666808
904.000000	12.676273
905.000000	12.676576
906.000000	12.684543
907.000000	12.683110
908.000000	12.685859
909.000000	12.694279
910.000000	12.698339
911.000000	12.700542
912.000000	12.203255
913.000000	12.702144
914.000000	12.707922
915.000000	12.206642
916.000000	12.202354
917.000000	12.205300
918.000000	12.215104
919.000000	12.219676
920.000000	12.223212
921.000000	12.228524
922.000000	12.239550
923.000000	12.237930
924.000000	12.246376
925.000000	12.264794
926.000000	12.274143
927.000000	12.281678
928.000000	12.300036
929.000000	11.807905
930.000000	11.814456
931.000000	11.821462
932.000000	11.829869
933.000000	11.825726
934.000000	11.820971
935.000000	11.817127
936.000000	11.822721
937.000000	11.821952
938.000000	11.826766
939.000000	11.831945
940.000000	11.845807
941.000000	11.847023
942.000000	11.844945
943.000000	11.852004
944.000000	11.859074
945.000000	11.864342
946.000000	11.871454
947.000000	11.886150
948.000000	11.888242
949.000000	11.896455
950.000000	11.896329
951.000000	11.899731
952.000000	11.906230
953.000000	11.405209
954.000000	11.914577
955.000000	11.921839
956.000000	11.931777
957.000000	11.436873
958.000000	11.444072
959.000000	11.446215
960.000000	11.449541
961.000000	11.457224
962.000000	11.463072
963.000000	11.472635
964.000000	11.478305
965.000000	11.487629
966.000000	11.497871
967.000000	11.509433
968.000000	11.516251
969.000000	11.524467
970.000000	11.533032
971.000000	11.539624
972.000000	11.547161
973.000000	11.559870
974.000000	11.568256
975.000000	11.568993
976.000000	11.579478
977.000000	11.587870
978.000000	11.590883
979.000000	11.593586
980.000000	11.597118
981.000000	11.602072
982.000000	11.605897
983.000000	11.612223
984.000000	11.612018
985.000000	11.619439
986.000000	11.624853
987.000000	11.624602
988.000000	11.631630
989.000000	11.633744
990.000000	11.638078
991.000000	11.634435
992.000000	11.633994
993.000000	11.637980
994.000000	11.646865
995.000000	11.651331
996.000000	11.647384
997.000000	11.650513
998.000000	11.650400
999.000000	11.655448
1000.000000	11.660510
1001.000000	11.658229
1002.000000	11.656830
1003.000000	11.658453
1004.000000	11.663230
1005.000000	11.664500
1006.000000	11.665462
1007.000000	11.664104
1008.000000	11.663121
1009.000000	11.672638
1010.000000	11.677741
1011.000000	11.675656
1012.000000	11.678570
1013.000000	11.686026
1014.000000	11.690781
1015.000000	11.686607
1016.000000	11.685938
1017.000000	11.693768
1018.000000	11.696427
1019.000000	11.696611
1020.000000	11.704410
1021.000000	11.710384
1022.000000	11.711179
1023.000000	11.711367
1024.000000	11.715164
1025.000000	11.717897
1026.000000	11.721472
1027.000000	11.725133
1028.000000	11.727257
1029.000000	11.729457
1030.000000	11.734846
1031.000000	11.741059
1032.000000	11.743519
1033.000000	11.744939
1034.000000	11.750050
1035.000000	11.753035
1036.000000	11.755541
1037.000000	11.755706
1038.000000	11.758280
1039.000000	11.761908
1040.000000	11.765020
1041.000000	11.770135
1042.000000	11.769392
1043.000000	11.770208
1044.000000	11.771737
1045.000000	11.769923
1046.000000	11.770121
1047.000000	11.772978
1048.000000	11.772417
1049.000000	11.768910
1050.000000	11.763669
1051.000000	11.761178
1052.000000	11.763828
1053.000000	11.760365
1054.000000	11.760116
1055.000000	11.763767
1056.000000	11.758541
1057.000000	11.756938
1058.000000	11.754212
1059.000000	11.750247
1060.000000	11.746972
1061.000000	11.743794
1062.000000	11.742478
1063.000000	11.743370
1064.000000	11.744472
1065.000000	11.741575
1066.000000	11.737518
1067.000000	11.732609
1068.000000	11.727054
1069.000000	11.726463
1070.000000	11.720855
1071.000000	11.718407
1072.000000	11.716125
1073.000000	11.714216
1074.000000	11.707480
1075.000000	11.702901
1076.000000	11.703632
1077.000000	11.699277
1078.000000	11.699410
1079.000000	11.696259
1080.000000	11.691882
1081.000000	11.692455
1082.000000	11.692780
1083.000000	11.698095
1084.000000	11.698379
1085.000000	11.693801
1086.000000	11.688663
1087.000000	11.691880
1088.000000	11.688821
1089.000000	11.684538
1090.000000	11.683397
1091.000000	11.685114
1092.000000	11.690186
1093.000000	11.686395
1094.000000	11.685379
1095.000000	11.682358
1096.000000	11.682313
1097.000000	11.681217
1098.000000	11.684156
1099.000000	11.684272
1100.000000	11.684980
1101.000000	11.686087
1102.000000	11.682310
1103.000000	11.675059
1104.000000	11.680669
1105.000000	11.683593
1106.000000	11.687540
1107.000000	11.687360
1108.000000	11.687130
1109.000000	11.684418
1110.000000	11.690180
1111.000000	11.688507
1112.000000	11.686063
1113.000000	11.689408
1114.000000	11.685025
1115.000000	11.681661
1116.000000	11.678655
1117.000000	11.677846
1118.000000	11.681448
1119.000000	11.684899
1120.000000	11.680218
1121.000000	11.675940
1122.000000	11.671130
1123.000000	11.672531
1124.000000	11.668644
1125.000000	11.665243
1126.000000	11.668665
1127.000000	11.674158
1128.000000	11.672502
1129.000000	11.673716
1130.000000	11.677404
1131.000000	11.684883
1132.000000	11.699736
1133.000000	11.699667
1134.000000	11.681775
1135.000000	11.675129
1136.000000	11.682541
1137.000000	11.694806
1138.000000	11.692086
1139.000000	11.695087
1140.000000	11.700509
1141.000000	11.700881
1142.000000	11.707229
1143.000000	11.702680
1144.000000	11.692733
1145.000000	11.695500
1146.000000	11.698335
1147.000000	11.699142
1148.000000	11.703886
1149.000000	11.701854
1150.000000	11.705202
1151.000000	11.705253
1152.000000	11.700572
1153.000000	11.698519
1154.000000	11.709204
1155.000000	11.710527
1156.000000	11.713073
1157.000000	11.715469
1158.000000	11.727326
1159.000000	11.727534
1160.000000	11.735854
1161.000000	11.746681
1162.000000	11.748395
1163.000000	11.751824
