PE UV       SUBTECH     SPECTRUM    ASCII       PEDS        4.00        
   -1
CICIMAUCR0104-3.Sample.ASC
24/04/22
09:54:19.00
24/04/22
09:54:19.00
Vinicio Soto Monge
C. resplendens
250,000000
1
Lambda 1050
1050L1511233
PerkinElmer UV WinLab 6.3.2.0749 / 2.02.05 Lambda 900 UV/VIS/NIR, Aug  7 2015 09:38:08

0
0
3350/servo 860,8/2
0
0
UV/VIS
1
1
1
DoubleDePol,CommonBeamDepol,RBeamAtt,SBeamAtt,60mm sphere, WB InGaAs Detector
0
0
0
0
Program
Program
3350/servo 860,8/2
3350/0,2 860,8/0,2
3350/0,2 860,8/0,2
0
15.00
 
 
 
0
 
860,8
319,2
860,8
Front
100
on
S:100 R:100
0
0
0
0
 
0
 
 
 
0
 
 
0
0
0
0
0
 
 
 
 
0
0


0
0
#HDR
-1
-1
#GR
nm
%R
1.0
0.0
2500,000000
-1,000000
2251
8
90,434600
6,014800
#DATA
2482.000000	18.927372
2481.000000	18.964178
2480.000000	18.962484
2479.000000	19.013403
2478.000000	19.019387
2477.000000	19.026726
2476.000000	19.104515
2475.000000	19.116483
2474.000000	19.187160
2473.000000	19.261224
2472.000000	19.225998
2471.000000	19.315755
2470.000000	19.375029
2469.000000	19.399303
2468.000000	19.466480
2467.000000	19.554769
2466.000000	19.579721
2465.000000	19.666542
2464.000000	19.695445
2463.000000	19.796719
2462.000000	19.862766
2461.000000	19.908605
2460.000000	20.027152
2459.000000	20.087893
2458.000000	20.190521
2457.000000	20.284795
2456.000000	20.364616
2455.000000	20.451325
2454.000000	20.580373
2453.000000	20.692710
2452.000000	20.831128
2451.000000	20.956450
2450.000000	21.072513
2449.000000	21.186770
2448.000000	21.316156
2447.000000	21.448139
2446.000000	21.561041
2445.000000	21.706572
2444.000000	21.836861
2443.000000	21.950553
2442.000000	22.082310
2441.000000	22.219486
2440.000000	22.342550
2439.000000	22.453984
2438.000000	22.604031
2437.000000	22.703611
2436.000000	22.833335
2435.000000	22.954592
2434.000000	23.058914
2433.000000	23.169897
2432.000000	23.285847
2431.000000	23.385201
2430.000000	23.497200
2429.000000	23.597119
2428.000000	23.710247
2427.000000	23.804294
2426.000000	23.906471
2425.000000	23.999276
2424.000000	24.147178
2423.000000	24.329063
2422.000000	24.475610
2421.000000	24.611883
2420.000000	24.724785
2419.000000	24.807994
2418.000000	24.894477
2417.000000	24.971928
2416.000000	25.042944
2415.000000	25.121185
2414.000000	25.236345
2413.000000	25.310861
2412.000000	25.375554
2411.000000	25.462262
2410.000000	25.510923
2409.000000	25.590858
2408.000000	25.694954
2407.000000	25.744631
2406.000000	25.761227
2405.000000	25.805033
2404.000000	25.870178
2403.000000	25.941081
2402.000000	25.985451
2401.000000	26.013225
2400.000000	26.049354
2399.000000	26.101853
2398.000000	26.161353
2397.000000	26.195675
2396.000000	26.238916
2395.000000	26.277981
2394.000000	26.280803
2393.000000	26.320996
2392.000000	26.369431
2391.000000	26.376657
2390.000000	26.373496
2389.000000	26.396867
2388.000000	26.435140
2387.000000	26.467318
2386.000000	26.497237
2385.000000	26.489559
2384.000000	26.486963
2383.000000	26.479624
2382.000000	26.488769
2381.000000	26.497350
2380.000000	26.479285
2379.000000	26.488995
2378.000000	26.488995
2377.000000	26.466414
2376.000000	26.452979
2375.000000	26.448124
2374.000000	26.437286
2373.000000	26.416625
2372.000000	26.408044
2371.000000	26.409060
2370.000000	26.410076
2369.000000	26.388399
2368.000000	26.393028
2367.000000	26.393028
2366.000000	26.381851
2365.000000	26.376093
2364.000000	26.388738
2363.000000	26.393931
2362.000000	26.365480
2361.000000	26.351367
2360.000000	26.356448
2359.000000	26.351141
2358.000000	26.347415
2357.000000	26.341883
2356.000000	26.338270
2355.000000	26.345157
2354.000000	26.327319
2353.000000	26.318738
2352.000000	26.334319
2351.000000	26.328335
2350.000000	26.316142
2349.000000	26.329012
2348.000000	26.333303
2347.000000	26.323932
2346.000000	26.321900
2345.000000	26.331948
2344.000000	26.311513
2343.000000	26.337819
2342.000000	26.354528
2341.000000	26.345383
2340.000000	26.345496
2339.000000	26.350351
2338.000000	26.386593
2337.000000	26.399915
2336.000000	26.396415
2335.000000	26.399238
2334.000000	26.412334
2333.000000	26.455689
2332.000000	26.476688
2331.000000	26.473753
2330.000000	26.483011
2329.000000	26.532462
2328.000000	26.588687
2327.000000	26.607090
2326.000000	26.608671
2325.000000	26.616461
2324.000000	26.642768
2323.000000	26.646042
2322.000000	26.663654
2321.000000	26.672687
2320.000000	26.657219
2319.000000	26.640058
2318.000000	26.637800
2317.000000	26.635655
2316.000000	26.597268
2315.000000	26.543301
2314.000000	26.506043
2313.000000	26.454221
2312.000000	26.436157
2311.000000	26.393480
2310.000000	26.325512
2309.000000	26.308238
2308.000000	26.292319
2307.000000	26.254836
2306.000000	26.235868
2305.000000	26.230900
2304.000000	26.210352
2303.000000	26.178062
2302.000000	26.186981
2301.000000	26.190707
2300.000000	26.184723
2299.000000	26.206401
2298.000000	26.226384
2297.000000	26.229094
2296.000000	26.252126
2295.000000	26.275384
2294.000000	26.311400
2293.000000	26.322577
2292.000000	26.375302
2291.000000	26.417302
2290.000000	26.426221
2289.000000	26.473979
2288.000000	26.517785
2287.000000	26.546349
2286.000000	26.603478
2285.000000	26.638026
2284.000000	26.698767
2283.000000	26.747654
2282.000000	26.793492
2281.000000	26.834588
2280.000000	26.869024
2279.000000	26.927055
2278.000000	26.969732
2277.000000	26.996603
2276.000000	27.037361
2275.000000	27.092005
2274.000000	27.113683
2273.000000	27.170585
2272.000000	27.231891
2271.000000	27.258649
2270.000000	27.335987
2269.000000	27.397293
2268.000000	27.484002
2267.000000	27.572517
2266.000000	27.664419
2265.000000	27.785450
2264.000000	27.927256
2263.000000	28.039819
2262.000000	28.183882
2261.000000	28.369493
2260.000000	28.535460
2259.000000	28.768377
2258.000000	28.922150
2257.000000	29.121422
2256.000000	29.333565
2255.000000	29.547966
2254.000000	29.801883
2253.000000	29.985914
2252.000000	30.176267
2251.000000	30.407378
2250.000000	30.578989
2249.000000	30.810100
2248.000000	30.968840
2247.000000	31.154113
2246.000000	31.284627
2245.000000	31.468545
2244.000000	31.601205
2243.000000	31.689720
2242.000000	31.808268
2241.000000	31.901751
2240.000000	32.007540
2239.000000	32.087136
2238.000000	32.116378
2237.000000	32.173393
2236.000000	32.218780
2235.000000	32.238199
2234.000000	32.283134
2233.000000	32.279296
2232.000000	32.256151
2231.000000	32.246441
2230.000000	32.211554
2229.000000	32.171248
2228.000000	32.142345
2227.000000	32.102265
2226.000000	32.037798
2225.000000	31.951992
2224.000000	31.901525
2223.000000	31.811429
2222.000000	31.726075
2221.000000	31.616560
2220.000000	31.508964
2219.000000	31.426658
2218.000000	31.339046
2217.000000	31.225918
2216.000000	31.139661
2215.000000	31.064355
2214.000000	30.967259
2213.000000	30.882131
2212.000000	30.807164
2211.000000	30.708149
2210.000000	30.627876
2209.000000	30.574360
2208.000000	30.514748
2207.000000	30.447797
2206.000000	30.388975
2205.000000	30.358265
2204.000000	30.299217
2203.000000	30.242089
2202.000000	30.196363
2201.000000	30.177847
2200.000000	30.134041
2199.000000	30.096219
2198.000000	30.064945
2197.000000	30.030397
2196.000000	30.001268
2195.000000	29.971236
2194.000000	29.936688
2193.000000	29.919414
2192.000000	29.907221
2191.000000	29.873012
2190.000000	29.839367
2189.000000	29.836431
2188.000000	29.810577
2187.000000	29.766884
2186.000000	29.735835
2185.000000	29.741029
2184.000000	29.719352
2183.000000	29.691465
2182.000000	29.672836
2181.000000	29.637046
2180.000000	29.598434
2179.000000	29.587256
2178.000000	29.573708
2177.000000	29.568176
2176.000000	29.560047
2175.000000	29.554853
2174.000000	29.550450
2173.000000	29.556208
2172.000000	29.569418
2171.000000	29.585337
2170.000000	29.608482
2169.000000	29.604869
2168.000000	29.653078
2167.000000	29.700836
2166.000000	29.742497
2165.000000	29.773432
2164.000000	29.831464
2163.000000	29.888028
2162.000000	29.967172
2161.000000	30.022946
2160.000000	30.110896
2159.000000	30.191622
2158.000000	30.283863
2157.000000	30.398007
2156.000000	30.513167
2155.000000	30.622456
2154.000000	30.727004
2153.000000	30.840696
2152.000000	30.985211
2151.000000	31.106355
2150.000000	31.229870
2149.000000	31.353949
2148.000000	31.468432
2147.000000	31.611818
2146.000000	31.749672
2145.000000	31.858509
2144.000000	31.975250
2143.000000	32.100910
2142.000000	32.227812
2141.000000	32.347601
2140.000000	32.470213
2139.000000	32.596777
2138.000000	32.698388
2137.000000	32.808807
2136.000000	32.910757
2135.000000	33.023885
2134.000000	33.126626
2133.000000	33.213448
2132.000000	33.300722
2131.000000	33.395221
2130.000000	33.475833
2129.000000	33.542558
2128.000000	33.611767
2127.000000	33.684815
2126.000000	33.746234
2125.000000	33.810926
2124.000000	33.865345
2123.000000	33.927329
2122.000000	33.978473
2121.000000	34.011441
2120.000000	34.050731
2119.000000	34.100295
2118.000000	34.118020
2117.000000	34.131569
2116.000000	34.173117
2115.000000	34.190278
2114.000000	34.206874
2113.000000	34.215455
2112.000000	34.233971
2111.000000	34.259487
2110.000000	34.243681
2109.000000	34.271906
2108.000000	34.295051
2107.000000	34.292454
2106.000000	34.288503
2105.000000	34.281616
2104.000000	34.291325
2103.000000	34.293583
2102.000000	34.303744
2101.000000	34.303293
2100.000000	34.294938
2099.000000	34.299115
2098.000000	34.314357
2097.000000	34.323954
2096.000000	34.321357
2095.000000	34.342809
2094.000000	34.365163
2093.000000	34.380631
2092.000000	34.401179
2091.000000	34.412131
2090.000000	34.415405
2089.000000	34.434034
2088.000000	34.453340
2087.000000	34.457856
2086.000000	34.448711
2085.000000	34.429969
2084.000000	34.416534
2083.000000	34.407163
2082.000000	34.371373
2081.000000	34.331857
2080.000000	34.279358
2079.000000	34.215455
2078.000000	34.153133
2077.000000	34.070827
2076.000000	33.988973
2075.000000	33.884877
2074.000000	33.799862
2073.000000	33.711347
2072.000000	33.582074
2071.000000	33.466010
2070.000000	33.346108
2069.000000	33.220787
2068.000000	33.099078
2067.000000	32.968676
2066.000000	32.851145
2065.000000	32.738469
2064.000000	32.614728
2063.000000	32.493697
2062.000000	32.376279
2061.000000	32.297812
2060.000000	32.214151
2059.000000	32.139974
2058.000000	32.085894
2057.000000	32.064443
2056.000000	32.047169
2055.000000	32.057782
2054.000000	32.083410
2053.000000	32.135684
2052.000000	32.218667
2051.000000	32.312263
2050.000000	32.445036
2049.000000	32.596777
2048.000000	32.756307
2047.000000	32.923854
2046.000000	33.115788
2045.000000	33.302754
2044.000000	33.503042
2043.000000	33.682670
2042.000000	33.875055
2041.000000	34.081553
2040.000000	34.276535
2039.000000	34.447582
2038.000000	34.641209
2037.000000	34.813498
2036.000000	34.981157
2035.000000	35.133688
2034.000000	35.290961
2033.000000	35.439315
2032.000000	35.566217
2031.000000	35.684764
2030.000000	35.815279
2029.000000	35.945229
2028.000000	36.016922
2027.000000	36.102163
2026.000000	36.206146
2025.000000	36.314193
2024.000000	36.387467
2023.000000	36.434547
2022.000000	36.503756
2021.000000	36.570030
2020.000000	36.638561
2019.000000	36.688125
2018.000000	36.721206
2017.000000	36.765012
2016.000000	36.783415
2015.000000	36.820108
2014.000000	36.829253
2013.000000	36.826995
2012.000000	36.830721
2011.000000	36.815140
2010.000000	36.833431
2009.000000	36.829366
2008.000000	36.778447
2007.000000	36.761173
2006.000000	36.701900
2005.000000	36.682480
2004.000000	36.603223
2003.000000	36.554111
2002.000000	36.507369
2001.000000	36.405531
2000.000000	36.346258
1999.000000	36.263275
1998.000000	36.165840
1997.000000	36.071567
1996.000000	35.994342
1995.000000	35.874891
1994.000000	35.773279
1993.000000	35.674151
1992.000000	35.561813
1991.000000	35.441911
1990.000000	35.324719
1989.000000	35.191946
1988.000000	35.074753
1987.000000	34.946271
1986.000000	34.819143
1985.000000	34.701273
1984.000000	34.567597
1983.000000	34.448485
1982.000000	34.306567
1981.000000	34.189713
1980.000000	34.062021
1979.000000	33.928571
1978.000000	33.791282
1977.000000	33.679395
1976.000000	33.555090
1975.000000	33.438914
1974.000000	33.331770
1973.000000	33.210287
1972.000000	33.095127
1971.000000	32.988321
1970.000000	32.881967
1969.000000	32.734969
1968.000000	32.625115
1967.000000	32.526213
1966.000000	32.410262
1965.000000	32.302328
1964.000000	32.174297
1963.000000	32.074039
1962.000000	31.962831
1961.000000	31.805671
1960.000000	31.705188
1959.000000	31.580092
1958.000000	31.475319
1957.000000	31.339724
1956.000000	31.227612
1955.000000	31.097549
1954.000000	30.992211
1953.000000	30.864970
1952.000000	30.748681
1951.000000	30.630021
1950.000000	30.549070
1949.000000	30.454232
1948.000000	30.360523
1947.000000	30.277766
1946.000000	30.199863
1945.000000	30.119251
1944.000000	30.019672
1943.000000	29.990994
1942.000000	29.952721
1941.000000	29.924043
1940.000000	29.910044
1939.000000	29.897398
1938.000000	29.867931
1937.000000	29.876737
1936.000000	29.901237
1935.000000	29.921560
1934.000000	29.950237
1933.000000	29.997430
1932.000000	30.104122
1931.000000	30.195573
1930.000000	30.318636
1929.000000	30.446555
1928.000000	30.576957
1927.000000	30.724068
1926.000000	30.888567
1925.000000	31.071920
1924.000000	31.264305
1923.000000	31.475884
1922.000000	31.731156
1921.000000	32.034637
1920.000000	32.300860
1919.000000	32.539309
1918.000000	32.853064
1917.000000	33.151691
1916.000000	33.468946
1915.000000	33.836442
1914.000000	34.261180
1913.000000	34.695967
1912.000000	35.100947
1911.000000	35.547701
1910.000000	35.921068
1909.000000	36.349758
1908.000000	36.837382
1907.000000	37.384393
1906.000000	38.038435
1905.000000	38.652285
1904.000000	39.203247
1903.000000	39.786161
1902.000000	40.370656
1901.000000	41.040165
1900.000000	41.758449
1899.000000	42.431346
1898.000000	43.138114
1897.000000	43.750269
1896.000000	44.327312
1895.000000	44.943984
1894.000000	45.608187
1893.000000	46.306939
1892.000000	47.027142
1891.000000	47.726910
1890.000000	48.356226
1889.000000	48.940608
1888.000000	49.496538
1887.000000	50.078323
1886.000000	50.644076
1885.000000	51.204522
1884.000000	51.725001
1883.000000	52.180223
1882.000000	52.605187
1881.000000	53.032634
1880.000000	53.406115
1879.000000	53.800143
1878.000000	54.169785
1877.000000	54.500137
1876.000000	54.836811
1875.000000	55.158131
1874.000000	55.463192
1873.000000	55.739351
1872.000000	55.981639
1871.000000	56.187685
1870.000000	56.354668
1869.000000	56.521424
1868.000000	56.634214
1867.000000	56.719116
1866.000000	56.805486
1865.000000	56.907098
1864.000000	56.995726
1863.000000	57.114274
1862.000000	57.260595
1861.000000	57.380271
1860.000000	57.457722
1859.000000	57.508528
1858.000000	57.567689
1857.000000	57.634753
1856.000000	57.676526
1855.000000	57.732865
1854.000000	57.769445
1853.000000	57.755558
1852.000000	57.767977
1851.000000	57.830299
1850.000000	57.900524
1849.000000	57.943201
1848.000000	57.929201
1847.000000	57.812912
1846.000000	57.726994
1845.000000	57.736252
1844.000000	57.753074
1843.000000	57.844299
1842.000000	57.881105
1841.000000	57.814493
1840.000000	57.749235
1839.000000	57.690752
1838.000000	57.660268
1837.000000	57.595237
1836.000000	57.515980
1835.000000	57.445754
1834.000000	57.377223
1833.000000	57.322239
1832.000000	57.297062
1831.000000	57.271772
1830.000000	57.231805
1829.000000	57.182354
1828.000000	57.106258
1827.000000	57.047774
1826.000000	57.010065
1825.000000	56.973033
1824.000000	56.972920
1823.000000	57.066855
1822.000000	57.107725
1821.000000	57.049919
1820.000000	56.979920
1819.000000	56.910937
1818.000000	56.869276
1817.000000	56.875373
1816.000000	56.867921
1815.000000	56.828067
1814.000000	56.809664
1813.000000	56.789228
1812.000000	56.762922
1811.000000	56.689423
1810.000000	56.614907
1809.000000	56.593456
1808.000000	56.585779
1807.000000	56.562746
1806.000000	56.501553
1805.000000	56.444538
1804.000000	56.422409
1803.000000	56.411119
1802.000000	56.382555
1801.000000	56.313910
1800.000000	56.257120
1799.000000	56.224266
1798.000000	56.182718
1797.000000	56.160363
1796.000000	56.127621
1795.000000	56.089912
1794.000000	56.062025
1793.000000	56.042945
1792.000000	56.011784
1791.000000	55.986832
1790.000000	55.962446
1789.000000	55.954994
1788.000000	55.969671
1787.000000	55.970236
1786.000000	55.947994
1785.000000	55.932978
1784.000000	55.902382
1783.000000	55.879011
1782.000000	55.856656
1781.000000	55.835995
1780.000000	55.810818
1779.000000	55.753351
1778.000000	55.702771
1777.000000	55.664271
1776.000000	55.618546
1775.000000	55.545611
1774.000000	55.471773
1773.000000	55.426838
1772.000000	55.374451
1771.000000	55.312581
1770.000000	55.257259
1769.000000	55.212888
1768.000000	55.156098
1767.000000	55.102470
1766.000000	55.048277
1765.000000	55.004358
1764.000000	54.975681
1763.000000	54.956487
1762.000000	54.927133
1761.000000	54.919681
1760.000000	54.902068
1759.000000	54.894052
1758.000000	54.886714
1757.000000	54.846521
1756.000000	54.838617
1755.000000	54.838392
1754.000000	54.805424
1753.000000	54.779005
1752.000000	54.744683
1751.000000	54.706973
1750.000000	54.669829
1749.000000	54.626926
1748.000000	54.572055
1747.000000	54.510298
1746.000000	54.441202
1745.000000	54.371767
1744.000000	54.289235
1743.000000	54.202752
1742.000000	54.136027
1741.000000	54.053383
1740.000000	53.983271
1739.000000	53.938335
1738.000000	53.862578
1737.000000	53.832320
1736.000000	53.808724
1735.000000	53.758934
1734.000000	53.730708
1733.000000	53.728563
1732.000000	53.689160
1731.000000	53.683177
1730.000000	53.663644
1729.000000	53.652241
1728.000000	53.649306
1727.000000	53.648290
1726.000000	53.650322
1725.000000	53.674483
1724.000000	53.732176
1723.000000	53.820804
1722.000000	53.928061
1721.000000	54.071334
1720.000000	54.268236
1719.000000	54.477105
1718.000000	54.696699
1717.000000	54.921036
1716.000000	55.144921
1715.000000	55.348822
1714.000000	55.536692
1713.000000	55.706496
1712.000000	55.870543
1711.000000	55.987962
1710.000000	56.124234
1709.000000	56.217943
1708.000000	56.292346
1707.000000	56.362458
1706.000000	56.399829
1705.000000	56.467457
1704.000000	56.453570
1703.000000	56.454812
1702.000000	56.466102
1701.000000	56.447586
1700.000000	56.451764
1699.000000	56.448151
1698.000000	56.431103
1697.000000	56.398361
1696.000000	56.399377
1695.000000	56.374877
1694.000000	56.314813
1693.000000	56.292120
1692.000000	56.220766
1691.000000	56.203153
1690.000000	56.194911
1689.000000	56.202476
1688.000000	56.292910
1687.000000	56.400054
1686.000000	56.564440
1685.000000	56.788212
1684.000000	57.003968
1683.000000	57.276853
1682.000000	57.506044
1681.000000	57.755558
1680.000000	57.988927
1679.000000	58.231779
1678.000000	58.471019
1677.000000	58.656291
1676.000000	58.864370
1675.000000	59.055965
1674.000000	59.247560
1673.000000	59.465010
1672.000000	59.633573
1671.000000	59.815458
1670.000000	60.013940
1669.000000	60.190745
1668.000000	60.373533
1667.000000	60.560387
1666.000000	60.707837
1665.000000	60.838126
1664.000000	61.006689
1663.000000	61.088656
1662.000000	61.229219
1661.000000	61.335347
1660.000000	61.451862
1659.000000	61.529539
1658.000000	61.589603
1657.000000	61.656892
1656.000000	61.694150
1655.000000	61.736714
1654.000000	61.780069
1653.000000	61.774198
1652.000000	61.783907
1651.000000	61.807956
1650.000000	61.807956
1649.000000	61.787520
1648.000000	61.772956
1647.000000	61.764150
1646.000000	61.732650
1645.000000	61.704650
1644.000000	61.694828
1643.000000	61.684892
1642.000000	61.649893
1641.000000	61.642893
1640.000000	61.638377
1639.000000	61.610264
1638.000000	61.576619
1637.000000	61.560587
1636.000000	61.524571
1635.000000	61.504475
1634.000000	61.467443
1633.000000	61.419008
1632.000000	61.371589
1631.000000	61.336928
1630.000000	61.286348
1629.000000	61.242542
1628.000000	61.190042
1627.000000	61.163284
1626.000000	61.100623
1625.000000	61.052301
1624.000000	61.029834
1623.000000	60.979254
1622.000000	60.952044
1621.000000	60.923254
1620.000000	60.887464
1619.000000	60.867593
1618.000000	60.827513
1617.000000	60.803126
1616.000000	60.780433
1615.000000	60.758756
1614.000000	60.713256
1613.000000	60.665724
1612.000000	60.633208
1611.000000	60.592564
1610.000000	60.547290
1609.000000	60.498065
1608.000000	60.438114
1607.000000	60.385840
1606.000000	60.331195
