Time1=100ms:Average1=5:Objective=10X:Aperture=1: (11/28/2018 9:45:45 AM)
11/28/2018 9:45:45 AM
Reflectance
10X
Ap#: 1
Avg1: 5.000000
Avg2: 0.000000
Int.Time1:100.000000

420.190645	9.588084
420.624620	9.575627
421.058582	9.566835
421.492531	9.560263
421.926468	9.561323
422.360391	9.588105
422.794301	9.619936
423.228199	9.676446
423.662083	9.739347
424.095955	9.822105
424.529813	9.889592
424.963658	9.968440
425.397491	10.047155
425.831310	10.107458
426.265116	10.157755
426.698909	10.197146
427.132689	10.246942
427.566455	10.298082
428.000209	10.363453
428.433949	10.441046
428.867676	10.518945
429.301389	10.609217
429.735090	10.682080
430.168777	10.736707
430.602451	10.786053
431.036111	10.816436
431.469759	10.832610
431.903392	10.857760
432.337013	10.870628
432.770620	10.887451
433.204213	10.910149
433.637794	10.952160
434.071360	11.010364
434.504914	11.083690
434.938453	11.175084
435.371979	11.265783
435.805492	11.355160
436.238991	11.443163
436.672477	11.515877
437.105949	11.580470
437.539407	11.625146
437.972852	11.663493
438.406283	11.688777
438.839700	11.712897
439.273104	11.751124
439.706494	11.792812
440.139871	11.848386
440.573233	11.902291
441.006582	11.955091
441.439917	11.991906
441.873238	12.007043
442.306546	12.005983
442.739839	11.985412
443.173119	11.961551
443.606385	11.928969
444.039636	11.893445
444.472874	11.867477
444.906099	11.848746
445.339309	11.836183
445.772505	11.831578
446.205687	11.833760
446.638855	11.841884
447.072009	11.856872
447.505149	11.867674
447.938275	11.865696
448.371387	11.861002
448.804485	11.848178
449.237569	11.816823
449.670638	11.774099
450.103694	11.727286
450.536735	11.665430
450.969762	11.605822
451.402774	11.556085
451.835773	11.510529
452.268757	11.474218
452.701727	11.436475
453.134683	11.401306
453.567624	11.363459
454.000551	11.315556
454.433464	11.261484
454.866362	11.206249
455.299246	11.150916
455.732116	11.095274
456.164971	11.044300
456.597811	10.999295
457.030638	10.954988
457.463449	10.922141
457.896246	10.889398
458.329029	10.865701
458.761797	10.849718
459.194551	10.844101
459.627290	10.836736
460.060014	10.847337
460.492724	10.861904
460.925419	10.886688
461.358099	10.925899
461.790765	10.969732
462.223416	11.014671
462.656052	11.061058
463.088674	11.116265
463.521281	11.172799
463.953873	11.241817
464.386450	11.321051
464.819012	11.400289
465.251560	11.493928
465.684093	11.598582
466.116611	11.716653
466.549114	11.846862
466.981602	11.987246
467.414075	12.143752
467.846533	12.303374
468.278977	12.464449
468.711405	12.632080
469.143818	12.802608
469.576216	12.969101
470.008600	13.126196
470.440968	13.287713
470.873321	13.446610
471.305659	13.600162
471.737982	13.751577
472.170289	13.908501
472.602582	14.064578
473.034859	14.233134
473.467122	14.395691
473.899369	14.562250
474.331600	14.738336
474.763817	14.922255
475.196018	15.119586
475.628204	15.331049
476.060375	15.558654
476.492530	15.789414
476.924670	16.016782
477.356795	16.235393
477.788904	16.439554
478.220998	16.633740
478.653076	16.810659
479.085139	16.980471
479.517186	17.144246
479.949219	17.304409
480.381235	17.472714
480.813236	17.643531
481.245221	17.829940
481.677191	18.024420
482.109146	18.216208
482.541084	18.410259
482.973008	18.599170
483.404915	18.783091
483.836807	18.949683
484.268683	19.098364
484.700544	19.237747
485.132388	19.357438
485.564217	19.449937
485.996031	19.527975
486.427828	19.588518
486.859610	19.639640
487.291376	19.685764
487.723126	19.717398
488.154860	19.751900
488.586579	19.779899
489.018281	19.811072
489.449968	19.856250
489.881639	19.915188
490.313293	19.994820
490.744932	20.089227
491.176555	20.195680
491.608162	20.304188
492.039753	20.405518
492.471328	20.483847
492.902886	20.542092
493.334429	20.571027
493.765956	20.577289
494.197466	20.560591
494.628960	20.528704
495.060439	20.497797
495.491901	20.481111
495.923347	20.473021
496.354776	20.489877
496.786190	20.533319
497.217587	20.597773
497.648968	20.679373
498.080332	20.768803
498.511681	20.864298
498.943013	20.961445
499.374328	21.052989
499.805628	21.133067
500.236911	21.200315
500.668177	21.251015
501.099427	21.290416
501.530661	21.310760
501.961878	21.321005
502.393079	21.320036
502.824264	21.299840
503.255431	21.277621
503.686583	21.253744
504.117717	21.232365
504.548835	21.226433
504.979937	21.244261
505.411022	21.288326
505.842090	21.365536
506.273142	21.474097
506.704177	21.617885
507.135195	21.771524
507.566197	21.945711
507.997182	22.122801
508.428150	22.291165
508.859102	22.440823
509.290036	22.571806
509.720954	22.683286
510.151855	22.772732
510.582739	22.855133
511.013607	22.937192
511.444457	23.024512
511.875291	23.134769
512.306107	23.269670
512.736907	23.434782
513.167690	23.633976
513.598456	23.862816
514.029205	24.108321
514.459936	24.369249
514.890651	24.633902
515.321349	24.892750
515.752030	25.145581
516.182693	25.386160
516.613340	25.598323
517.043969	25.785959
517.474582	25.947578
517.905177	26.076685
518.335755	26.171241
518.766315	26.240994
519.196859	26.280057
519.627385	26.291875
520.057894	26.284075
520.488386	26.270916
520.918860	26.241283
521.349318	26.213046
521.779757	26.193090
522.210180	26.188356
522.640585	26.204519
523.070973	26.235778
523.501343	26.288747
523.931696	26.355330
524.362031	26.429142
524.792349	26.504785
525.222650	26.557477
525.652933	26.596620
526.083198	26.606766
526.513446	26.587108
526.943677	26.538332
527.373890	26.471739
527.804085	26.389629
528.234262	26.295948
528.664422	26.205117
529.094565	26.125958
529.524689	26.066612
529.954796	26.031178
530.384885	26.023038
530.814957	26.039979
531.245011	26.085681
531.675047	26.155241
532.105065	26.236933
532.535065	26.324466
532.965048	26.411097
533.395013	26.488258
533.824959	26.549081
534.254888	26.597561
534.684799	26.610180
535.114693	26.602186
535.544568	26.569421
535.974425	26.498352
536.404264	26.399151
536.834086	26.271344
537.263889	26.115863
537.693674	25.936462
538.123441	25.743648
538.553190	25.548327
538.982921	25.346768
539.412634	25.149340
539.842329	24.966130
540.272006	24.795438
540.701664	24.638849
541.131304	24.504675
541.560926	24.396138
541.990530	24.302588
542.420116	24.219504
542.849683	24.141901
543.279232	24.077301
543.708763	24.012036
544.138275	23.950496
544.567769	23.875374
544.997245	23.801189
545.426702	23.720206
545.856141	23.639975
546.285562	23.564322
546.714964	23.495407
547.144347	23.442293
547.573713	23.403223
548.003059	23.399046
548.432387	23.415306
548.861697	23.454604
549.290988	23.537918
549.720260	23.652548
550.149514	23.798269
550.578750	23.975259
551.007966	24.175695
551.437164	24.393293
551.866344	24.626393
552.295504	24.863127
552.724646	25.099723
553.153769	25.318873
553.582874	25.520142
554.011960	25.691543
554.441027	25.825081
554.870075	25.914318
555.299104	25.963060
555.728115	25.970243
556.157106	25.936264
556.586079	25.855077
557.015033	25.743816
557.443968	25.598568
557.872884	25.435500
558.301781	25.249677
558.730659	25.056195
559.159518	24.855987
559.588358	24.651874
560.017180	24.448740
560.445982	24.240929
560.874765	24.040870
561.303528	23.843454
561.732273	23.645636
562.160999	23.450282
562.589705	23.246139
563.018393	23.045225
563.447061	22.843697
563.875710	22.637517
564.304340	22.436785
564.732950	22.231933
565.161542	22.031280
565.590114	21.837450
566.018666	21.646598
566.447200	21.464303
566.875714	21.294426
567.304208	21.140808
567.732684	21.003798
568.161140	20.890299
568.589576	20.797685
569.017993	20.730589
569.446391	20.694877
569.874769	20.691947
570.303128	20.712277
570.731467	20.767884
571.159787	20.853993
571.588087	20.972086
572.016368	21.113934
572.444629	21.279668
572.872870	21.469819
573.301092	21.668604
573.729294	21.877496
574.157476	22.081847
574.585639	22.273327
575.013782	22.451917
575.441906	22.610433
575.870009	22.743824
576.298093	22.843982
576.726157	22.912792
577.154202	22.954827
577.582226	22.964341
578.010231	22.951895
578.438216	22.914401
578.866181	22.857497
579.294126	22.787907
579.722051	22.706986
580.149957	22.617275
580.577842	22.520830
581.005707	22.417018
581.433553	22.301014
581.861378	22.187605
582.289184	22.061763
582.716969	21.923581
583.144734	21.775872
583.572479	21.623021
584.000205	21.458665
584.427910	21.283425
584.855594	21.094186
585.283259	20.897177
585.710904	20.691966
586.138528	20.477849
586.566132	20.259959
586.993716	20.040468
587.421280	19.819054
587.848823	19.602564
588.276346	19.388919
588.703849	19.180297
589.131332	18.980064
589.558794	18.790813
589.986236	18.609242
590.413657	18.438794
590.841058	18.282310
591.268438	18.140619
591.695799	18.016022
592.123138	17.911671
592.550458	17.828496
592.977756	17.773510
593.405034	17.740903
593.832292	17.736555
594.259529	17.761566
594.686746	17.820765
595.113942	17.903203
595.541117	18.016407
595.968272	18.158391
596.395406	18.320212
596.822519	18.499168
597.249612	18.689179
597.676684	18.887903
598.103735	19.090131
598.530766	19.292547
598.957775	19.496397
599.384764	19.693483
599.811733	19.885319
600.238680	20.069475
600.665606	20.250562
601.092512	20.421808
601.519397	20.586350
601.946261	20.748560
602.373104	20.906070
602.799926	21.058004
603.226727	21.206857
603.653507	21.349494
604.080266	21.485426
604.507004	21.611459
604.933721	21.730298
605.360417	21.831141
605.787092	21.912367
606.213746	21.968830
606.640379	22.007570
607.066991	22.020666
607.493581	22.012458
607.920150	21.978671
608.346699	21.921424
608.773226	21.846237
609.199731	21.750379
609.626216	21.639131
610.052679	21.512418
610.479121	21.380429
610.905542	21.240507
611.331941	21.096641
611.758319	20.954070
612.184676	20.804383
612.611011	20.653505
613.037325	20.501456
613.463617	20.352949
613.889888	20.198627
614.316138	20.049104
614.742366	19.902720
615.168573	19.760360
615.594758	19.621992
616.020921	19.497664
616.447063	19.385246
616.873184	19.287608
617.299283	19.206445
617.725360	19.144036
618.151416	19.101184
618.577450	19.082009
619.003462	19.090022
619.429453	19.123577
619.855422	19.181533
620.281369	19.263319
620.707295	19.367285
621.133199	19.488476
621.559081	19.624971
621.984941	19.769965
622.410779	19.921418
622.836596	20.071158
623.262391	20.224142
623.688163	20.368289
624.113914	20.504654
624.539644	20.633468
624.965351	20.746304
625.391036	20.849125
625.816699	20.943363
626.242340	21.026203
626.667960	21.100425
627.093557	21.167911
627.519132	21.229000
627.944685	21.283741
628.370216	21.336092
628.795725	21.381319
629.221212	21.417810
629.646677	21.447978
630.072119	21.465892
630.497540	21.473872
630.922938	21.475206
631.348314	21.458855
631.773668	21.431594
632.198999	21.389449
632.624308	21.336154
633.049595	21.273102
633.474860	21.199972
633.900102	21.116969
634.325322	21.029401
634.750520	20.942141
635.175695	20.855675
635.600848	20.775777
636.025978	20.706808
636.451086	20.649634
636.876171	20.606925
637.301234	20.581180
637.726275	20.572851
638.151293	20.585269
638.576288	20.616062
639.001261	20.661123
639.426211	20.721749
639.851139	20.795100
640.276044	20.880957
640.700927	20.972577
641.125787	21.073764
641.550624	21.174354
641.975438	21.278153
642.400230	21.379291
642.824999	21.476265
643.249745	21.571885
643.674469	21.663810
644.099169	21.753325
644.523847	21.843838
644.948502	21.934137
645.373135	22.024679
645.797744	22.111709
646.222330	22.195350
646.646894	22.281478
647.071435	22.363360
647.495953	22.441362
647.920447	22.514240
648.344919	22.576990
648.769368	22.627178
649.193794	22.666579
649.618197	22.684638
650.042576	22.688097
650.466933	22.673794
650.891267	22.634253
651.315577	22.575967
651.739864	22.497568
652.164129	22.399845
652.588370	22.283552
653.012587	22.145703
653.436782	21.993637
653.860953	21.829325
654.285102	21.652998
654.709226	21.469208
655.133328	21.281079
655.557406	21.087092
655.981461	20.897519
656.405493	20.705179
656.829501	20.513971
657.253486	20.321490
657.677448	20.125575
658.101386	19.927905
658.525301	19.726848
658.949192	19.528932
659.373060	19.327135
659.796904	19.121360
660.220725	18.917505
660.644522	18.717562
661.068296	18.514506
661.492046	18.316291
661.915772	18.129238
662.339475	17.949778
662.763154	17.783532
663.186810	17.630136
663.610442	17.494843
664.034050	17.384982
664.457635	17.296148
664.881196	17.233457
665.304733	17.196503
665.728247	17.189569
666.151736	17.211693
666.575202	17.263255
666.998644	17.341237
667.422062	17.446234
667.845457	17.571781
668.268827	17.717419
668.692174	17.882293
669.115496	18.057384
669.538795	18.248406
669.962070	18.446612
670.385321	18.647145
670.808547	18.851762
671.231750	19.053663
671.654929	19.253571
672.078084	19.445063
672.501214	19.631296
672.924321	19.811294
673.347404	19.983050
673.770462	20.138709
674.193496	20.291259
674.616506	20.436772
675.039492	20.569542
675.462454	20.695261
675.885391	20.815886
676.308305	20.932298
676.731194	21.042788
677.154058	21.145367
677.576899	21.241139
677.999715	21.327111
678.422507	21.405544
678.845274	21.473205
679.268017	21.532808
679.690736	21.579497
680.113430	21.617501
680.536100	21.641409
680.958746	21.656232
681.381367	21.657627
681.803963	21.647613
682.226535	21.630630
682.649083	21.601022
683.071605	21.566118
683.494104	21.527291
683.916578	21.484657
684.339027	21.439279
684.761451	21.391221
685.183851	21.340502
685.606227	21.289603
686.028577	21.237785
686.450903	21.183881
686.873204	21.131468
687.295481	21.074167
687.717733	21.013877
688.139959	20.950063
688.562162	20.883387
688.984339	20.810820
689.406492	20.730999
689.828619	20.643630
690.250722	20.549473
690.672800	20.446723
691.094853	20.338542
691.516881	20.223504
691.938884	20.103489
692.360863	19.976341
692.782816	19.848593
693.204744	19.720768
693.626647	19.596092
694.048526	19.475018
694.470379	19.366797
694.892207	19.265800
695.314010	19.174487
695.735788	19.098929
696.157540	19.035848
696.579268	18.991379
697.000970	18.959720
697.422648	18.945873
697.844300	18.950439
698.265926	18.974838
698.687528	19.012143
699.109104	19.062386
699.530655	19.125503
699.952181	19.202181
