PE UV       SUBTECH     SPECTRUM    ASCII       PEDS        4.00        
   -1
INBUCR0127-3.Sample.ASC
24/04/29
11:41:18.00
24/04/29
11:41:18.00
Vinicio Soto Monge
C. resplendens
250,000000
1
Lambda 1050
1050L1511233
PerkinElmer UV WinLab 6.3.2.0749 / 2.02.05 Lambda 900 UV/VIS/NIR, Aug  7 2015 09:38:08

0
0
3350/servo 860,8/2
0
0
UV/VIS
1
1
1
DoubleDePol,CommonBeamDepol,RBeamAtt,SBeamAtt,60mm sphere, WB InGaAs Detector
0
0
0
0
Program
Program
3350/servo 860,8/2
3350/0,2 860,8/0,2
3350/0,2 860,8/0,2
0
15.00
 
 
 
0
 
860,8
319,2
860,8
Front
100
on
S:100 R:100
0
0
0
0
 
0
 
 
 
0
 
 
0
0
0
0
0
 
 
 
 
0
0


0
0
#HDR
-1
-1
#GR
nm
%R
1.0
0.0
2500,000000
-1,000000
2251
8
88,075900
5,824900
#DATA
250.000000	6.734900
251.000000	6.715433
252.000000	6.711400
253.000000	6.668867
254.000000	6.677700
255.000000	6.668033
256.000000	6.645933
257.000000	6.621033
258.000000	6.607500
259.000000	6.572067
260.000000	6.567100
261.000000	6.531967
262.000000	6.494967
263.000000	6.419367
264.000000	6.429800
265.000000	6.373100
266.000000	6.369867
267.000000	6.367133
268.000000	6.316833
269.000000	6.309333
270.000000	6.308600
271.000000	6.267233
272.000000	6.275500
273.000000	6.236667
274.000000	6.249633
275.000000	6.242833
276.000000	6.231000
277.000000	6.224333
278.000000	6.222967
279.000000	6.195300
280.000000	6.193367
281.000000	6.185300
282.000000	6.176000
283.000000	6.183733
284.000000	6.146600
285.000000	6.154033
286.000000	6.153633
287.000000	6.134167
288.000000	6.127500
289.000000	6.126500
290.000000	6.141533
291.000000	6.146667
292.000000	6.122267
293.000000	6.138567
294.000000	6.121167
295.000000	6.123500
296.000000	6.087067
297.000000	6.132933
298.000000	6.146133
299.000000	6.093733
300.000000	6.099967
301.000000	6.107700
302.000000	6.135133
303.000000	6.128600
304.000000	6.104567
305.000000	6.116567
306.000000	6.122433
307.000000	6.091367
308.000000	6.122300
309.000000	6.093533
310.000000	6.100600
311.000000	6.094033
312.000000	6.087733
313.000000	6.119600
314.000000	6.118233
315.000000	6.087900
316.000000	6.151067
317.000000	6.859433
318.000000	6.929633
319.000000	7.103467
320.000000	6.662933
321.000000	6.601433
322.000000	6.577367
323.000000	6.736167
324.000000	6.516100
325.000000	6.355167
326.000000	6.482167
327.000000	6.438500
328.000000	6.373767
329.000000	6.266133
330.000000	6.413933
331.000000	6.298433
332.000000	6.289500
333.000000	6.298367
334.000000	6.251000
335.000000	6.322233
336.000000	6.366467
337.000000	6.260733
338.000000	6.286633
339.000000	6.250100
340.000000	6.377400
341.000000	6.375967
342.000000	6.250067
343.000000	6.178567
344.000000	6.235300
345.000000	6.161233
346.000000	6.322400
347.000000	6.303800
348.000000	6.258400
349.000000	6.212033
350.000000	6.253967
351.000000	6.280167
352.000000	6.266733
353.000000	6.245967
354.000000	6.213900
355.000000	6.216567
356.000000	6.281100
357.000000	6.221700
358.000000	6.265600
359.000000	6.258667
360.000000	6.266933
361.000000	6.209667
362.000000	6.237300
363.000000	6.261100
364.000000	6.298533
365.000000	6.285967
366.000000	6.371400
367.000000	6.290467
368.000000	6.314567
369.000000	6.261300
370.000000	6.197400
371.000000	6.188867
372.000000	6.191667
373.000000	6.149633
374.000000	6.153733
375.000000	6.206867
376.000000	6.389233
377.000000	6.404133
378.000000	6.422600
379.000000	6.453200
380.000000	6.459333
381.000000	6.467400
382.000000	6.495500
383.000000	6.527000
384.000000	6.547500
385.000000	6.568733
386.000000	6.593467
387.000000	6.623333
388.000000	6.658333
389.000000	6.694933
390.000000	6.735900
391.000000	6.772100
392.000000	6.817167
393.000000	6.865033
394.000000	6.922667
395.000000	6.974100
396.000000	7.026233
397.000000	7.100467
398.000000	7.174400
399.000000	7.257933
400.000000	7.353200
401.000000	7.454867
402.000000	7.570633
403.000000	7.697567
404.000000	7.822000
405.000000	7.967867
406.000000	8.137067
407.000000	8.313367
408.000000	8.506100
409.000000	8.715700
410.000000	8.941567
411.000000	9.191167
412.000000	9.451700
413.000000	9.734400
414.000000	10.039233
415.000000	10.355333
416.000000	10.681400
417.000000	11.028633
418.000000	11.379633
419.000000	11.742467
420.000000	12.128700
421.000000	12.528033
422.000000	12.939200
423.000000	13.356333
424.000000	13.782700
425.000000	14.204200
426.000000	14.611467
427.000000	15.026667
428.000000	15.440633
429.000000	15.862533
430.000000	16.279500
431.000000	16.686733
432.000000	17.095400
433.000000	17.487233
434.000000	17.875767
435.000000	18.262133
436.000000	18.637767
437.000000	18.994633
438.000000	19.359000
439.000000	19.705900
440.000000	20.038133
441.000000	20.376900
442.000000	20.698967
443.000000	21.025300
444.000000	21.338200
445.000000	21.636133
446.000000	21.911967
447.000000	22.185100
448.000000	22.450867
449.000000	22.715967
450.000000	22.988833
451.000000	23.240033
452.000000	23.489500
453.000000	23.741567
454.000000	23.979367
455.000000	24.211667
456.000000	24.433367
457.000000	24.635467
458.000000	24.845900
459.000000	25.046033
460.000000	25.251567
461.000000	25.445967
462.000000	25.614167
463.000000	25.793367
464.000000	25.959600
465.000000	26.105933
466.000000	26.240467
467.000000	26.367733
468.000000	26.477400
469.000000	26.564700
470.000000	26.640400
471.000000	26.695000
472.000000	26.733933
473.000000	26.755500
474.000000	26.745967
475.000000	26.728100
476.000000	26.696867
477.000000	26.647400
478.000000	26.594733
479.000000	26.552100
480.000000	26.497100
481.000000	26.469967
482.000000	26.450733
483.000000	26.444967
484.000000	26.455567
485.000000	26.480667
486.000000	26.532500
487.000000	26.616533
488.000000	26.742867
489.000000	26.922067
490.000000	27.150767
491.000000	27.429333
492.000000	27.761233
493.000000	28.151733
494.000000	28.610600
495.000000	29.146300
496.000000	29.734800
497.000000	30.384067
498.000000	31.083933
499.000000	31.847000
500.000000	32.645867
501.000000	33.506633
502.000000	34.411867
503.000000	35.350800
504.000000	36.343833
505.000000	37.369633
506.000000	38.420700
507.000000	39.493333
508.000000	40.590967
509.000000	41.706167
510.000000	42.865867
511.000000	44.051733
512.000000	45.260567
513.000000	46.480833
514.000000	47.724700
515.000000	48.961133
516.000000	50.217233
517.000000	51.454100
518.000000	52.696867
519.000000	53.961867
520.000000	55.226667
521.000000	56.491833
522.000000	57.766467
523.000000	59.014967
524.000000	60.256500
525.000000	61.478000
526.000000	62.698100
527.000000	63.887000
528.000000	65.054200
529.000000	66.187600
530.000000	67.297900
531.000000	68.414667
532.000000	69.481833
533.000000	70.512367
534.000000	71.493833
535.000000	72.463867
536.000000	73.374800
537.000000	74.222167
538.000000	75.053833
539.000000	75.841267
540.000000	76.583700
541.000000	77.273267
542.000000	77.934567
543.000000	78.515767
544.000000	79.069133
545.000000	79.583400
546.000000	80.055333
547.000000	80.483000
548.000000	80.878967
549.000000	81.246200
550.000000	81.626800
551.000000	81.950733
552.000000	82.291967
553.000000	82.597167
554.000000	82.900967
555.000000	83.171600
556.000000	83.431300
557.000000	83.683733
558.000000	83.913100
559.000000	84.133300
560.000000	84.292600
561.000000	84.513900
562.000000	84.720667
563.000000	84.896467
564.000000	85.054700
565.000000	85.238600
566.000000	85.385200
567.000000	85.518767
568.000000	85.614267
569.000000	85.709267
570.000000	85.821900
571.000000	85.895167
572.000000	85.935567
573.000000	85.955533
574.000000	85.988667
575.000000	86.018833
576.000000	86.010100
577.000000	85.974467
578.000000	85.938833
579.000000	85.862833
580.000000	85.805933
581.000000	85.721667
582.000000	85.581333
583.000000	85.441933
584.000000	85.342667
585.000000	85.153233
586.000000	84.943100
587.000000	84.739667
588.000000	84.544133
589.000000	84.265033
590.000000	84.026533
591.000000	83.729967
592.000000	83.371100
593.000000	83.027567
594.000000	82.649967
595.000000	82.248033
596.000000	81.781233
597.000000	81.310100
598.000000	80.794000
599.000000	80.191067
600.000000	79.614133
601.000000	78.949500
602.000000	78.259500
603.000000	77.506233
604.000000	76.736833
605.000000	75.937367
606.000000	75.120600
607.000000	74.248200
608.000000	73.362000
609.000000	72.429867
610.000000	71.472467
611.000000	70.499600
612.000000	69.471133
613.000000	68.408800
614.000000	67.330233
615.000000	66.233500
616.000000	65.053933
617.000000	63.875833
618.000000	62.679800
619.000000	61.521833
620.000000	60.327200
621.000000	59.124700
622.000000	57.969567
623.000000	56.892700
624.000000	55.888267
625.000000	54.980767
626.000000	54.225033
627.000000	53.606000
628.000000	53.087033
629.000000	52.717000
630.000000	52.510267
631.000000	52.423033
632.000000	52.486733
633.000000	52.694967
634.000000	53.018867
635.000000	53.438100
636.000000	53.983567
637.000000	54.631033
638.000000	55.371767
639.000000	56.125100
640.000000	56.933533
641.000000	57.854833
642.000000	58.769667
643.000000	59.688100
644.000000	60.627667
645.000000	61.541067
646.000000	62.455033
647.000000	63.313767
648.000000	64.186867
649.000000	64.996867
650.000000	65.775000
651.000000	66.517800
652.000000	67.185600
653.000000	67.859900
654.000000	68.403167
655.000000	68.924700
656.000000	69.436067
657.000000	69.895700
658.000000	70.297567
659.000000	70.659900
660.000000	71.050500
661.000000	71.390067
662.000000	71.675200
663.000000	71.955467
664.000000	72.252233
665.000000	72.522000
666.000000	72.733600
667.000000	72.914933
668.000000	73.072100
669.000000	73.239767
670.000000	73.370200
671.000000	73.467933
672.000000	73.557267
673.000000	73.648533
674.000000	73.653200
675.000000	73.639733
676.000000	73.702367
677.000000	73.733533
678.000000	73.739100
679.000000	73.726067
680.000000	73.743933
681.000000	73.738933
682.000000	73.762767
683.000000	73.775333
684.000000	73.777467
685.000000	73.820767
686.000000	73.822100
687.000000	73.817267
688.000000	73.847667
689.000000	73.873600
690.000000	73.896900
691.000000	73.962133
692.000000	74.052300
693.000000	74.065167
694.000000	74.122833
695.000000	74.244400
696.000000	74.374533
697.000000	74.509333
698.000000	74.678267
699.000000	74.906700
700.000000	75.134700
701.000000	75.372200
702.000000	75.664200
703.000000	76.004833
704.000000	76.379200
705.000000	76.751633
706.000000	77.107567
707.000000	77.455667
708.000000	77.801467
709.000000	78.184767
710.000000	78.618267
711.000000	78.989033
712.000000	79.343700
713.000000	79.709500
714.000000	80.061467
715.000000	80.410233
716.000000	80.745767
717.000000	81.016067
718.000000	81.322033
719.000000	81.589567
720.000000	81.901600
721.000000	82.152967
722.000000	82.367900
723.000000	82.621933
724.000000	82.820000
725.000000	83.002467
726.000000	83.089800
727.000000	83.200333
728.000000	83.320300
729.000000	83.397567
730.000000	83.498333
731.000000	83.602000
732.000000	83.650433
733.000000	83.703000
734.000000	83.727900
735.000000	83.770767
736.000000	83.829033
737.000000	83.876833
738.000000	83.922800
739.000000	84.023467
740.000000	84.107633
741.000000	84.165100
742.000000	84.205333
743.000000	84.285833
744.000000	84.334000
745.000000	84.349700
746.000000	84.392667
747.000000	84.448300
748.000000	84.509733
749.000000	84.510233
750.000000	84.481767
751.000000	84.486600
752.000000	84.492600
753.000000	84.475500
754.000000	84.438367
755.000000	84.450867
756.000000	84.424633
757.000000	84.405200
758.000000	84.408833
759.000000	84.367767
760.000000	84.321200
761.000000	84.253700
762.000000	84.137333
763.000000	84.036767
764.000000	83.925800
765.000000	83.802333
766.000000	83.728633
767.000000	83.647767
768.000000	83.572767
769.000000	83.496300
770.000000	83.351967
771.000000	83.289000
772.000000	83.347233
773.000000	83.346767
774.000000	83.344900
775.000000	83.367433
776.000000	83.406400
777.000000	83.501733
778.000000	83.628567
779.000000	83.702967
780.000000	83.782800
781.000000	83.867733
782.000000	83.981567
783.000000	84.095467
784.000000	84.185333
785.000000	84.247633
786.000000	84.297833
787.000000	84.429167
788.000000	84.533500
789.000000	84.644567
790.000000	84.683233
791.000000	84.714800
792.000000	84.675000
793.000000	84.673600
794.000000	84.731600
795.000000	84.728700
796.000000	84.626767
797.000000	84.492700
798.000000	84.428200
799.000000	84.276300
800.000000	84.214433
801.000000	84.052067
802.000000	83.961700
803.000000	83.748467
804.000000	83.587767
805.000000	83.407167
806.000000	83.271533
807.000000	83.187633
808.000000	83.080667
809.000000	82.955133
810.000000	82.862633
811.000000	82.693133
812.000000	82.623900
813.000000	82.600267
814.000000	82.596867
815.000000	82.519767
816.000000	82.377800
817.000000	82.189367
818.000000	82.301500
819.000000	82.270567
820.000000	82.209133
821.000000	82.234867
822.000000	82.135600
823.000000	82.150133
824.000000	82.106667
825.000000	82.304133
826.000000	82.251367
827.000000	82.364067
828.000000	82.437067
829.000000	82.391433
830.000000	82.494333
831.000000	82.718033
832.000000	82.795233
833.000000	82.756267
834.000000	82.787467
835.000000	82.778500
836.000000	82.885733
837.000000	83.052167
838.000000	83.000533
839.000000	83.079600
840.000000	83.124867
841.000000	83.089267
842.000000	83.163867
843.000000	83.332300
844.000000	83.383533
845.000000	83.461633
846.000000	83.561800
847.000000	83.413033
848.000000	83.639033
849.000000	83.652800
850.000000	83.547400
851.000000	83.430967
852.000000	83.602800
853.000000	83.751033
854.000000	83.485667
855.000000	83.600200
856.000000	83.461200
857.000000	83.833133
858.000000	83.631511
859.000000	83.470161
860.000000	83.455532
861.000000	83.421428
862.000000	83.390934
863.000000	83.356663
864.000000	83.354137
865.000000	83.352003
866.000000	83.365903
867.000000	83.355908
868.000000	83.354725
869.000000	83.322884
870.000000	83.270146
871.000000	83.223201
872.000000	83.159490
873.000000	83.116535
874.000000	83.070077
875.000000	83.007325
876.000000	82.941643
877.000000	82.865667
878.000000	82.798025
879.000000	82.717549
880.000000	82.637329
881.000000	82.571109
882.000000	82.515840
883.000000	82.458676
884.000000	82.405932
885.000000	82.353607
886.000000	82.285065
887.000000	82.252819
888.000000	82.202798
889.000000	82.159809
890.000000	82.137954
891.000000	82.101988
892.000000	82.076928
893.000000	82.043456
894.000000	82.024338
895.000000	81.991603
896.000000	81.977068
897.000000	81.948771
898.000000	81.931623
899.000000	81.918544
900.000000	81.878420
901.000000	81.848905
902.000000	81.830209
903.000000	81.792363
904.000000	81.759886
905.000000	81.719776
906.000000	81.692048
907.000000	81.660267
908.000000	81.624416
909.000000	81.576155
910.000000	81.556566
911.000000	81.503515
912.000000	81.484376
913.000000	81.448448
914.000000	81.372829
915.000000	81.328468
916.000000	81.297909
917.000000	81.233911
918.000000	81.186344
919.000000	81.135110
920.000000	81.090953
921.000000	81.031027
922.000000	80.984939
923.000000	80.929492
924.000000	80.874072
925.000000	80.843142
926.000000	80.754385
927.000000	80.714623
928.000000	80.656843
929.000000	80.634335
930.000000	80.560835
931.000000	80.516969
932.000000	80.481268
933.000000	80.422668
934.000000	80.379164
935.000000	80.320618
936.000000	80.263339
937.000000	80.218138
938.000000	80.196675
939.000000	80.124306
940.000000	80.088034
941.000000	80.038194
942.000000	80.003009
943.000000	79.956045
944.000000	79.925918
945.000000	79.894689
946.000000	79.846905
947.000000	79.798960
948.000000	79.755991
949.000000	79.715802
950.000000	79.679322
951.000000	79.633135
952.000000	79.584069
953.000000	79.533260
954.000000	79.485150
955.000000	79.434566
956.000000	79.382354
957.000000	79.327233
958.000000	79.269001
959.000000	79.209241
960.000000	79.144796
961.000000	79.087037
962.000000	79.011305
963.000000	78.946790
964.000000	78.881511
965.000000	78.820082
966.000000	78.746990
967.000000	78.681874
968.000000	78.612293
969.000000	78.537881
970.000000	78.474520
971.000000	78.410531
972.000000	78.336938
973.000000	78.258948
974.000000	78.189322
975.000000	78.109428
976.000000	78.039720
977.000000	77.968576
978.000000	77.898951
979.000000	77.829396
980.000000	77.750787
981.000000	77.679355
982.000000	77.615540
983.000000	77.550480
984.000000	77.492141
985.000000	77.427292
986.000000	77.368149
987.000000	77.327715
988.000000	77.282190
989.000000	77.229666
990.000000	77.187054
991.000000	77.143595
992.000000	77.110990
993.000000	77.072400
994.000000	77.037037
995.000000	77.012555
996.000000	76.984793
997.000000	76.952061
998.000000	76.918668
999.000000	76.902168
1000.000000	76.881748
1001.000000	76.861787
1002.000000	76.842831
1003.000000	76.816627
1004.000000	76.806384
1005.000000	76.795072
1006.000000	76.780562
1007.000000	76.760902
1008.000000	76.749491
1009.000000	76.738401
1010.000000	76.729916
1011.000000	76.722103
1012.000000	76.703492
1013.000000	76.691011
1014.000000	76.689705
1015.000000	76.682070
1016.000000	76.664550
1017.000000	76.647106
1018.000000	76.643401
1019.000000	76.641481
1020.000000	76.635615
1021.000000	76.633740
1022.000000	76.632509
1023.000000	76.637857
1024.000000	76.645893
1025.000000	76.636251
1026.000000	76.630121
1027.000000	76.645738
1028.000000	76.649000
1029.000000	76.642176
1030.000000	76.640441
1031.000000	76.643634
1032.000000	76.637638
1033.000000	76.635520
1034.000000	76.641658
1035.000000	76.634213
1036.000000	76.625887
1037.000000	76.626478
1038.000000	76.624426
1039.000000	76.618281
1040.000000	76.612643
1041.000000	76.613667
1042.000000	76.604245
1043.000000	76.600011
1044.000000	76.607755
1045.000000	76.611229
1046.000000	76.608159
1047.000000	76.612756
1048.000000	76.620877
1049.000000	76.623687
1050.000000	76.631847
1051.000000	76.641110
1052.000000	76.648764
1053.000000	76.667027
1054.000000	76.678602
1055.000000	76.685526
1056.000000	76.706151
1057.000000	76.728064
1058.000000	76.742815
1059.000000	76.756447
1060.000000	76.777735
1061.000000	76.798441
1062.000000	76.816907
1063.000000	76.837577
1064.000000	76.862246
1065.000000	76.880822
1066.000000	76.902734
1067.000000	76.935252
1068.000000	76.968468
1069.000000	77.002100
1070.000000	77.022457
1071.000000	77.049634
1072.000000	77.070228
1073.000000	77.105155
1074.000000	77.128474
1075.000000	77.151571
1076.000000	77.186706
1077.000000	77.197029
1078.000000	77.221008
1079.000000	77.258297
1080.000000	77.276379
1081.000000	77.297763
1082.000000	77.323201
1083.000000	77.340797
1084.000000	77.366339
1085.000000	77.388644
1086.000000	77.408081
1087.000000	77.427718
1088.000000	77.443796
1089.000000	77.467689
1090.000000	77.476585
1091.000000	77.488929
1092.000000	77.497549
1093.000000	77.512150
1094.000000	77.532785
1095.000000	77.541593
1096.000000	77.550387
1097.000000	77.559637
1098.000000	77.567366
1099.000000	77.580291
1100.000000	77.584802
1101.000000	77.594201
1102.000000	77.601341
1103.000000	77.602280
1104.000000	77.604108
1105.000000	77.603683
1106.000000	77.602784
1107.000000	77.614643
1108.000000	77.611572
1109.000000	77.615102
1110.000000	77.616023
1111.000000	77.609131
1112.000000	77.603450
1113.000000	77.604105
1114.000000	77.608364
1115.000000	77.603019
1116.000000	77.591152
1117.000000	77.594652
1118.000000	77.593617
1119.000000	77.577347
1120.000000	77.565983
1121.000000	77.554190
1122.000000	77.555857
1123.000000	77.527897
1124.000000	77.490592
1125.000000	77.447963
1126.000000	77.393167
1127.000000	77.326080
1128.000000	77.263012
1129.000000	77.182091
1130.000000	77.097196
1131.000000	76.992460
1132.000000	76.893668
1133.000000	76.809219
1134.000000	76.754619
1135.000000	76.657118
1136.000000	76.511655
1137.000000	76.372527
1138.000000	76.235988
1139.000000	76.126350
1140.000000	76.033950
1141.000000	75.934525
1142.000000	75.854434
1143.000000	75.769224
1144.000000	75.704731
1145.000000	75.668475
1146.000000	75.605882
1147.000000	75.539136
1148.000000	75.475359
1149.000000	75.394894
1150.000000	75.332567
1151.000000	75.261548
1152.000000	75.205091
1153.000000	75.110217
1154.000000	75.014576
1155.000000	74.898444
1156.000000	74.782061
1157.000000	74.649931
1158.000000	74.516441
1159.000000	74.381754
1160.000000	74.225065
1161.000000	74.076074
1162.000000	73.919851
1163.000000	73.758670
1164.000000	73.597511
1165.000000	73.443172
1166.000000	73.297551
1167.000000	73.146891
