PE UV       SUBTECH     SPECTRUM    ASCII       PEDS        4.00        
   -1
INBUCR0146-3.Sample.ASC
24/04/29
15:55:43.00
24/04/29
15:55:43.00
Vinicio Soto Monge
Chrysina sp.
250,000000
1
Lambda 1050
1050L1511233
PerkinElmer UV WinLab 6.3.2.0749 / 2.02.05 Lambda 900 UV/VIS/NIR, Aug  7 2015 09:38:08

0
0
3350/servo 860,8/2
0
0
UV/VIS
1
1
1
DoubleDePol,CommonBeamDepol,RBeamAtt,SBeamAtt,60mm sphere, WB InGaAs Detector
0
0
0
0
Program
Program
3350/servo 860,8/2
3350/0,2 860,8/0,2
3350/0,2 860,8/0,2
0
15.00
 
 
 
0
 
860,8
319,2
860,8
Front
100
on
S:100 R:100
0
0
0
0
 
0
 
 
 
0
 
 
0
0
0
0
0
 
 
 
 
0
0


0
0
#HDR
-1
-1
#GR
nm
%R
1.0
0.0
2500,000000
-1,000000
2251
8
99,256500
5,999300
#DATA
250.000000	6.934600
251.000000	6.893233
252.000000	6.890700
253.000000	6.898933
254.000000	6.859900
255.000000	6.850567
256.000000	6.782667
257.000000	6.762333
258.000000	6.760967
259.000000	6.737433
260.000000	6.685767
261.000000	6.660133
262.000000	6.640033
263.000000	6.620000
264.000000	6.594067
265.000000	6.546133
266.000000	6.503900
267.000000	6.487333
268.000000	6.450700
269.000000	6.428633
270.000000	6.418100
271.000000	6.378067
272.000000	6.389433
273.000000	6.329100
274.000000	6.366833
275.000000	6.348800
276.000000	6.296133
277.000000	6.336933
278.000000	6.282533
279.000000	6.286833
280.000000	6.247233
281.000000	6.264500
282.000000	6.259933
283.000000	6.230400
284.000000	6.259600
285.000000	6.248433
286.000000	6.238900
287.000000	6.203300
288.000000	6.243067
289.000000	6.217767
290.000000	6.235800
291.000000	6.243167
292.000000	6.202433
293.000000	6.261467
294.000000	6.251033
295.000000	6.202233
296.000000	6.171000
297.000000	6.197400
298.000000	6.180600
299.000000	6.152233
300.000000	6.196000
301.000000	6.173200
302.000000	6.183167
303.000000	6.160367
304.000000	6.210467
305.000000	6.179600
306.000000	6.139867
307.000000	6.165200
308.000000	6.164300
309.000000	6.158100
310.000000	6.161300
311.000000	6.155333
312.000000	6.109167
313.000000	6.122600
314.000000	6.118533
315.000000	6.160267
316.000000	6.268100
317.000000	7.212233
318.000000	6.776700
319.000000	7.213533
320.000000	7.082167
321.000000	6.651033
322.000000	6.521900
323.000000	6.636933
324.000000	6.856933
325.000000	6.759800
326.000000	6.496733
327.000000	6.453800
328.000000	6.608433
329.000000	6.380167
330.000000	6.501667
331.000000	6.470700
332.000000	6.378500
333.000000	6.412600
334.000000	6.368400
335.000000	6.483833
336.000000	6.433533
337.000000	6.500667
338.000000	6.341567
339.000000	6.462267
340.000000	6.314267
341.000000	6.299167
342.000000	6.202533
343.000000	6.313533
344.000000	6.239533
345.000000	6.326867
346.000000	6.224133
347.000000	6.354233
348.000000	6.191367
349.000000	6.190967
350.000000	6.272767
351.000000	6.255067
352.000000	6.331467
353.000000	6.351000
354.000000	6.396967
355.000000	6.353967
356.000000	6.458933
357.000000	6.439300
358.000000	6.504267
359.000000	6.490867
360.000000	6.562567
361.000000	6.490467
362.000000	6.449567
363.000000	6.537467
364.000000	6.604467
365.000000	6.601533
366.000000	6.637033
367.000000	6.700433
368.000000	6.613233
369.000000	6.672533
370.000000	6.627700
371.000000	6.604300
372.000000	6.598167
373.000000	6.669867
374.000000	6.636100
375.000000	6.725500
376.000000	7.120733
377.000000	7.392933
378.000000	7.510933
379.000000	7.635567
380.000000	7.757133
381.000000	7.886833
382.000000	8.045000
383.000000	8.193100
384.000000	8.349900
385.000000	8.513533
386.000000	8.696167
387.000000	8.898233
388.000000	9.102700
389.000000	9.312767
390.000000	9.526100
391.000000	9.757333
392.000000	9.999500
393.000000	10.228500
394.000000	10.479167
395.000000	10.722933
396.000000	10.981967
397.000000	11.245000
398.000000	11.512500
399.000000	11.761800
400.000000	12.010633
401.000000	12.268600
402.000000	12.530100
403.000000	12.796667
404.000000	13.056767
405.000000	13.308500
406.000000	13.578367
407.000000	13.835733
408.000000	14.078067
409.000000	14.324633
410.000000	14.562000
411.000000	14.803933
412.000000	15.047400
413.000000	15.278867
414.000000	15.500133
415.000000	15.726400
416.000000	15.942800
417.000000	16.156433
418.000000	16.356333
419.000000	16.551300
420.000000	16.733433
421.000000	16.906933
422.000000	17.061967
423.000000	17.213733
424.000000	17.353933
425.000000	17.491333
426.000000	17.629700
427.000000	17.726400
428.000000	17.805733
429.000000	17.894000
430.000000	17.963967
431.000000	18.023700
432.000000	18.075667
433.000000	18.102300
434.000000	18.118567
435.000000	18.140933
436.000000	18.154500
437.000000	18.163367
438.000000	18.175333
439.000000	18.185400
440.000000	18.198133
441.000000	18.217800
442.000000	18.239967
443.000000	18.271700
444.000000	18.328833
445.000000	18.403867
446.000000	18.481600
447.000000	18.590933
448.000000	18.733700
449.000000	18.902133
450.000000	19.110567
451.000000	19.346167
452.000000	19.593933
453.000000	19.883533
454.000000	20.181467
455.000000	20.491400
456.000000	20.833600
457.000000	21.187067
458.000000	21.562967
459.000000	21.949600
460.000000	22.323067
461.000000	22.718267
462.000000	23.111900
463.000000	23.488400
464.000000	23.853533
465.000000	24.201333
466.000000	24.540433
467.000000	24.855900
468.000000	25.155800
469.000000	25.444467
470.000000	25.723800
471.000000	25.996833
472.000000	26.258867
473.000000	26.527400
474.000000	26.793500
475.000000	27.049300
476.000000	27.311167
477.000000	27.586033
478.000000	27.877767
479.000000	28.200633
480.000000	28.550733
481.000000	28.925100
482.000000	29.316567
483.000000	29.721167
484.000000	30.155133
485.000000	30.599400
486.000000	31.083367
487.000000	31.582533
488.000000	32.108367
489.000000	32.654200
490.000000	33.193033
491.000000	33.766967
492.000000	34.368967
493.000000	34.961100
494.000000	35.574400
495.000000	36.195500
496.000000	36.795333
497.000000	37.369633
498.000000	37.966900
499.000000	38.552233
500.000000	39.136333
501.000000	39.741067
502.000000	40.325000
503.000000	40.901533
504.000000	41.495100
505.000000	42.086867
506.000000	42.673333
507.000000	43.266900
508.000000	43.830067
509.000000	44.426600
510.000000	45.023933
511.000000	45.614667
512.000000	46.225133
513.000000	46.821500
514.000000	47.409300
515.000000	48.005200
516.000000	48.604900
517.000000	49.194300
518.000000	49.786333
519.000000	50.365667
520.000000	50.937067
521.000000	51.500900
522.000000	52.062233
523.000000	52.597733
524.000000	53.169000
525.000000	53.717767
526.000000	54.261767
527.000000	54.806967
528.000000	55.316233
529.000000	55.807333
530.000000	56.309367
531.000000	56.794400
532.000000	57.244400
533.000000	57.701500
534.000000	58.147367
535.000000	58.575100
536.000000	59.006300
537.000000	59.388967
538.000000	59.771433
539.000000	60.136133
540.000000	60.473167
541.000000	60.828933
542.000000	61.167667
543.000000	61.480067
544.000000	61.798700
545.000000	62.111000
546.000000	62.410733
547.000000	62.690733
548.000000	62.957067
549.000000	63.187167
550.000000	63.395100
551.000000	63.587833
552.000000	63.787333
553.000000	63.957067
554.000000	64.138833
555.000000	64.259933
556.000000	64.449500
557.000000	64.555367
558.000000	64.609000
559.000000	64.656633
560.000000	64.720567
561.000000	64.776467
562.000000	64.803567
563.000000	64.848700
564.000000	64.863900
565.000000	64.886300
566.000000	64.928967
567.000000	64.883167
568.000000	64.836633
569.000000	64.821267
570.000000	64.739033
571.000000	64.636967
572.000000	64.551367
573.000000	64.420867
574.000000	64.303700
575.000000	64.146967
576.000000	63.999667
577.000000	63.826100
578.000000	63.623300
579.000000	63.400233
580.000000	63.165000
581.000000	62.896833
582.000000	62.685100
583.000000	62.424967
584.000000	62.180267
585.000000	61.924933
586.000000	61.690900
587.000000	61.434600
588.000000	61.213867
589.000000	60.963367
590.000000	60.660033
591.000000	60.411800
592.000000	60.113300
593.000000	59.829433
594.000000	59.537467
595.000000	59.240033
596.000000	58.964700
597.000000	58.658700
598.000000	58.355067
599.000000	58.036667
600.000000	57.713067
601.000000	57.388267
602.000000	57.049267
603.000000	56.764233
604.000000	56.442733
605.000000	56.179333
606.000000	55.921300
607.000000	55.720767
608.000000	55.534067
609.000000	55.385367
610.000000	55.293067
611.000000	55.255100
612.000000	55.254500
613.000000	55.262433
614.000000	55.339767
615.000000	55.444033
616.000000	55.579400
617.000000	55.719600
618.000000	55.892700
619.000000	56.091467
620.000000	56.283733
621.000000	56.501667
622.000000	56.721967
623.000000	56.926567
624.000000	57.149800
625.000000	57.379933
626.000000	57.610433
627.000000	57.853667
628.000000	58.053100
629.000000	58.291700
630.000000	58.529000
631.000000	58.783900
632.000000	59.060067
633.000000	59.346200
634.000000	59.643333
635.000000	59.944700
636.000000	60.279367
637.000000	60.640967
638.000000	61.000233
639.000000	61.416800
640.000000	61.808267
641.000000	62.203100
642.000000	62.652000
643.000000	63.091033
644.000000	63.541900
645.000000	63.955133
646.000000	64.374933
647.000000	64.781700
648.000000	65.181667
649.000000	65.540967
650.000000	65.880067
651.000000	66.192467
652.000000	66.495367
653.000000	66.742233
654.000000	66.958933
655.000000	67.183600
656.000000	67.322000
657.000000	67.478033
658.000000	67.618900
659.000000	67.732633
660.000000	67.814900
661.000000	67.924400
662.000000	68.052967
663.000000	68.201967
664.000000	68.292567
665.000000	68.461633
666.000000	68.638333
667.000000	68.812600
668.000000	69.012467
669.000000	69.257833
670.000000	69.552633
671.000000	69.835300
672.000000	70.192067
673.000000	70.575167
674.000000	70.928533
675.000000	71.350233
676.000000	71.759233
677.000000	72.186333
678.000000	72.645233
679.000000	73.085067
680.000000	73.557633
681.000000	74.006767
682.000000	74.449200
683.000000	74.870167
684.000000	75.300200
685.000000	75.675367
686.000000	76.035867
687.000000	76.404333
688.000000	76.782467
689.000000	77.083900
690.000000	77.376633
691.000000	77.667900
692.000000	77.957833
693.000000	78.248733
694.000000	78.526233
695.000000	78.842333
696.000000	79.147367
697.000000	79.472700
698.000000	79.828000
699.000000	80.212500
700.000000	80.602333
701.000000	81.051867
702.000000	81.524200
703.000000	82.061833
704.000000	82.592633
705.000000	83.150867
706.000000	83.730000
707.000000	84.306700
708.000000	84.965967
709.000000	85.631000
710.000000	86.327100
711.000000	87.008367
712.000000	87.666700
713.000000	88.346700
714.000000	88.991967
715.000000	89.664333
716.000000	90.343733
717.000000	90.934533
718.000000	91.524667
719.000000	92.088133
720.000000	92.648500
721.000000	93.146867
722.000000	93.616367
723.000000	94.156833
724.000000	94.676000
725.000000	95.057300
726.000000	95.384933
727.000000	95.724900
728.000000	96.096333
729.000000	96.409700
730.000000	96.665967
731.000000	96.952667
732.000000	97.239533
733.000000	97.448633
734.000000	97.657800
735.000000	97.826200
736.000000	97.993400
737.000000	98.186100
738.000000	98.374033
739.000000	98.512300
740.000000	98.606433
741.000000	98.706467
742.000000	98.845067
743.000000	98.956533
744.000000	99.073200
745.000000	99.190400
746.000000	99.265200
747.000000	99.355167
748.000000	99.394600
749.000000	99.421133
750.000000	99.530500
751.000000	99.615433
752.000000	99.628767
753.000000	99.661000
754.000000	99.705700
755.000000	99.757433
756.000000	99.740567
757.000000	99.712733
758.000000	99.824600
759.000000	99.881200
760.000000	99.874967
761.000000	99.878467
762.000000	99.905167
763.000000	99.920333
764.000000	99.940800
765.000000	100.002033
766.000000	99.957200
767.000000	99.959433
768.000000	100.009067
769.000000	100.045767
770.000000	100.104800
771.000000	100.117133
772.000000	100.110200
773.000000	100.025567
774.000000	99.967733
775.000000	100.006433
776.000000	100.030967
777.000000	100.036367
778.000000	100.015867
779.000000	100.015567
780.000000	100.029567
781.000000	100.023067
782.000000	100.028567
783.000000	99.918467
784.000000	99.911700
785.000000	99.892000
786.000000	99.806033
787.000000	99.790000
788.000000	99.812233
789.000000	99.689367
790.000000	99.503633
791.000000	99.395833
792.000000	99.385167
793.000000	99.293433
794.000000	99.105200
795.000000	99.002600
796.000000	98.831200
797.000000	98.646633
798.000000	98.406067
799.000000	98.214400
800.000000	98.050267
801.000000	97.818067
802.000000	97.613233
803.000000	97.284433
804.000000	97.133333
805.000000	96.780133
806.000000	96.405700
807.000000	96.053600
808.000000	95.757033
809.000000	95.474600
810.000000	95.323433
811.000000	94.891867
812.000000	94.425467
813.000000	93.885533
814.000000	93.649567
815.000000	93.255400
816.000000	92.856467
817.000000	92.436400
818.000000	91.939867
819.000000	91.447233
820.000000	90.949467
821.000000	90.596100
822.000000	90.204633
823.000000	89.775867
824.000000	89.285667
825.000000	88.770200
826.000000	88.348067
827.000000	87.764500
828.000000	87.391167
829.000000	86.866700
830.000000	86.421567
831.000000	85.949467
832.000000	85.542267
833.000000	85.199200
834.000000	84.838967
835.000000	84.430367
836.000000	83.964667
837.000000	83.599367
838.000000	83.212100
839.000000	82.924467
840.000000	82.655167
841.000000	82.441667
842.000000	81.871767
843.000000	81.760267
844.000000	81.415533
845.000000	81.219533
846.000000	80.822433
847.000000	80.518400
848.000000	80.445767
849.000000	80.185633
850.000000	80.207733
851.000000	79.809800
852.000000	79.622967
853.000000	79.361167
854.000000	79.352633
855.000000	79.074067
856.000000	79.144467
857.000000	78.947500
858.000000	79.055345
859.000000	77.872705
860.000000	77.738155
861.000000	77.615979
862.000000	77.505665
863.000000	77.378129
864.000000	77.273170
865.000000	77.146041
866.000000	77.052075
867.000000	76.939128
868.000000	76.838725
869.000000	76.711973
870.000000	76.598095
871.000000	76.542118
872.000000	76.647162
873.000000	76.850135
874.000000	77.121570
875.000000	77.339646
876.000000	77.580937
877.000000	77.789406
878.000000	77.998638
879.000000	78.182936
880.000000	78.354633
881.000000	78.496977
882.000000	78.551318
883.000000	78.642952
884.000000	78.703677
885.000000	78.762591
886.000000	78.802136
887.000000	78.867274
888.000000	78.916091
889.000000	79.000384
890.000000	79.024430
891.000000	79.047930
892.000000	79.098149
893.000000	79.129215
894.000000	79.143991
895.000000	79.156120
896.000000	79.195752
897.000000	79.196673
898.000000	79.217382
899.000000	79.205134
900.000000	79.197602
901.000000	79.177936
902.000000	79.191220
903.000000	79.169345
904.000000	79.181917
905.000000	79.132626
906.000000	79.111920
907.000000	79.077319
908.000000	79.045321
909.000000	79.020104
910.000000	78.992281
911.000000	78.964858
912.000000	78.928692
913.000000	78.877165
914.000000	78.815889
915.000000	78.777796
916.000000	78.744168
917.000000	78.691114
918.000000	78.664075
919.000000	78.598889
920.000000	78.552583
921.000000	78.513051
922.000000	78.444350
923.000000	78.406869
924.000000	78.329424
925.000000	78.271483
926.000000	78.237387
927.000000	78.178511
928.000000	78.122846
929.000000	78.042067
930.000000	78.004480
931.000000	77.938629
932.000000	77.882313
933.000000	77.814504
934.000000	77.763682
935.000000	77.689375
936.000000	77.635888
937.000000	77.580516
938.000000	77.503533
939.000000	77.456409
940.000000	77.390432
941.000000	77.328499
942.000000	77.250457
943.000000	77.201443
944.000000	77.154075
945.000000	77.099177
946.000000	77.034956
947.000000	76.967437
948.000000	76.895768
949.000000	76.835757
950.000000	76.778198
951.000000	76.723509
952.000000	76.672818
953.000000	76.602089
954.000000	76.543035
955.000000	76.488523
956.000000	76.431788
957.000000	76.358385
958.000000	76.309368
959.000000	76.244396
960.000000	76.195393
961.000000	76.134048
962.000000	76.079192
963.000000	76.025828
964.000000	75.980277
965.000000	75.920434
966.000000	75.863798
967.000000	75.813769
968.000000	75.764589
969.000000	75.724483
970.000000	75.683917
971.000000	75.628667
972.000000	75.597231
973.000000	75.568879
974.000000	75.525894
975.000000	75.492080
976.000000	75.452083
977.000000	75.429495
978.000000	75.409026
979.000000	75.383799
980.000000	75.353052
981.000000	75.323598
982.000000	75.307739
983.000000	75.284965
984.000000	75.254948
985.000000	75.240387
986.000000	75.220874
987.000000	75.206710
988.000000	75.190248
989.000000	75.183879
990.000000	75.168196
991.000000	75.150907
992.000000	75.150977
993.000000	75.151590
994.000000	75.141793
995.000000	75.124858
996.000000	75.126594
997.000000	75.128103
998.000000	75.128862
999.000000	75.120214
1000.000000	75.112127
1001.000000	75.110259
1002.000000	75.116757
1003.000000	75.097661
1004.000000	75.084249
1005.000000	75.075734
1006.000000	75.070755
1007.000000	75.068967
1008.000000	75.061021
1009.000000	75.061328
1010.000000	75.054950
1011.000000	75.050328
1012.000000	75.063046
1013.000000	75.062773
1014.000000	75.059289
1015.000000	75.069573
1016.000000	75.084063
1017.000000	75.090978
1018.000000	75.087171
1019.000000	75.109959
1020.000000	75.136046
1021.000000	75.148053
1022.000000	75.167236
1023.000000	75.191769
1024.000000	75.213177
1025.000000	75.239310
1026.000000	75.267619
1027.000000	75.292982
1028.000000	75.322625
1029.000000	75.350578
1030.000000	75.380558
1031.000000	75.408738
1032.000000	75.441972
1033.000000	75.481304
1034.000000	75.520181
1035.000000	75.550277
1036.000000	75.582488
1037.000000	75.607444
1038.000000	75.633431
1039.000000	75.665845
1040.000000	75.697645
1041.000000	75.735732
1042.000000	75.764458
1043.000000	75.791083
1044.000000	75.825654
1045.000000	75.855540
1046.000000	75.888469
1047.000000	75.912066
1048.000000	75.938813
1049.000000	75.975464
1050.000000	76.005978
1051.000000	76.037679
1052.000000	76.071295
1053.000000	76.105011
1054.000000	76.135179
1055.000000	76.166127
1056.000000	76.206890
1057.000000	76.245554
1058.000000	76.278319
1059.000000	76.310748
1060.000000	76.348516
1061.000000	76.386287
1062.000000	76.428435
1063.000000	76.455165
1064.000000	76.493794
1065.000000	76.525481
1066.000000	76.565857
1067.000000	76.605788
1068.000000	76.642121
1069.000000	76.681384
1070.000000	76.722384
1071.000000	76.757692
1072.000000	76.795142
1073.000000	76.839548
1074.000000	76.888560
1075.000000	76.931098
1076.000000	76.965712
1077.000000	77.001188
1078.000000	77.039016
1079.000000	77.084750
1080.000000	77.130600
1081.000000	77.161936
1082.000000	77.197444
1083.000000	77.234162
1084.000000	77.270642
1085.000000	77.310703
1086.000000	77.351939
1087.000000	77.382351
1088.000000	77.423359
1089.000000	77.461238
1090.000000	77.488917
1091.000000	77.524698
1092.000000	77.556366
1093.000000	77.583675
1094.000000	77.618809
1095.000000	77.653854
1096.000000	77.679502
1097.000000	77.710400
1098.000000	77.746136
1099.000000	77.765887
1100.000000	77.787548
1101.000000	77.826388
1102.000000	77.842170
1103.000000	77.874377
1104.000000	77.884811
1105.000000	77.906883
1106.000000	77.935517
1107.000000	77.956724
1108.000000	77.985168
1109.000000	78.010688
1110.000000	78.024271
1111.000000	78.040490
1112.000000	78.063590
1113.000000	78.079664
1114.000000	78.102073
1115.000000	78.117852
1116.000000	78.137363
1117.000000	78.155435
1118.000000	78.168256
1119.000000	78.188260
1120.000000	78.203979
1121.000000	78.206735
1122.000000	78.216127
1123.000000	78.229718
1124.000000	78.211671
1125.000000	78.186459
1126.000000	78.155608
1127.000000	78.106097
1128.000000	78.075813
1129.000000	78.027439
1130.000000	77.980281
1131.000000	77.888026
1132.000000	77.820765
1133.000000	77.743101
1134.000000	77.716781
1135.000000	77.646651
1136.000000	77.523693
1137.000000	77.421779
1138.000000	77.318548
1139.000000	77.222538
1140.000000	77.137310
1141.000000	77.071220
1142.000000	76.997983
1143.000000	76.934665
1144.000000	76.879450
1145.000000	76.842612
1146.000000	76.801185
1147.000000	76.761103
1148.000000	76.705182
1149.000000	76.653015
1150.000000	76.596539
1151.000000	76.540687
1152.000000	76.477371
1153.000000	76.415956
1154.000000	76.350282
1155.000000	76.252315
1156.000000	76.147105
1157.000000	76.040791
1158.000000	75.921985
1159.000000	75.795888
1160.000000	75.657388
1161.000000	75.540061
1162.000000	75.407754
1163.000000	75.260220
1164.000000	75.128385
1165.000000	74.979205
1166.000000	74.851528
