PE UV       SUBTECH     SPECTRUM    ASCII       PEDS        4.00        
   -1
INBUCR0137-3.Sample.ASC
24/04/29
11:56:09.00
24/04/29
11:56:09.00
Vinicio Soto Monge
C. cupreomarginata
250,000000
1
Lambda 1050
1050L1511233
PerkinElmer UV WinLab 6.3.2.0749 / 2.02.05 Lambda 900 UV/VIS/NIR, Aug  7 2015 09:38:08

0
0
3350/servo 860,8/2
0
0
UV/VIS
1
1
1
DoubleDePol,CommonBeamDepol,RBeamAtt,SBeamAtt,60mm sphere, WB InGaAs Detector
0
0
0
0
Program
Program
3350/servo 860,8/2
3350/0,2 860,8/0,2
3350/0,2 860,8/0,2
0
15.00
 
 
 
0
 
860,8
319,2
860,8
Front
100
on
S:100 R:100
0
0
0
0
 
0
 
 
 
0
 
 
0
0
0
0
0
 
 
 
 
0
0


0
0
#HDR
-1
-1
#GR
nm
%R
1.0
0.0
2500,000000
-1,000000
2251
8
79,629100
5,602400
#DATA
250.000000	7.627233
251.000000	7.598133
252.000000	7.569400
253.000000	7.531667
254.000000	7.497933
255.000000	7.458467
256.000000	7.442767
257.000000	7.436700
258.000000	7.377133
259.000000	7.367067
260.000000	7.332733
261.000000	7.291867
262.000000	7.268733
263.000000	7.195333
264.000000	7.178533
265.000000	7.146533
266.000000	7.087633
267.000000	7.064200
268.000000	7.021367
269.000000	7.001400
270.000000	6.981633
271.000000	6.958333
272.000000	6.929900
273.000000	6.898667
274.000000	6.883367
275.000000	6.886767
276.000000	6.811300
277.000000	6.825467
278.000000	6.829333
279.000000	6.811900
280.000000	6.835600
281.000000	6.802000
282.000000	6.772700
283.000000	6.768133
284.000000	6.774600
285.000000	6.781267
286.000000	6.764833
287.000000	6.736900
288.000000	6.763233
289.000000	6.719867
290.000000	6.794567
291.000000	6.738600
292.000000	6.703733
293.000000	6.738833
294.000000	6.717433
295.000000	6.711167
296.000000	6.705267
297.000000	6.699033
298.000000	6.696867
299.000000	6.683700
300.000000	6.706733
301.000000	6.663833
302.000000	6.668100
303.000000	6.683100
304.000000	6.688167
305.000000	6.723267
306.000000	6.687400
307.000000	6.645800
308.000000	6.644300
309.000000	6.632400
310.000000	6.654500
311.000000	6.623633
312.000000	6.644367
313.000000	6.648100
314.000000	6.602733
315.000000	6.602300
316.000000	6.610533
317.000000	7.211900
318.000000	7.620500
319.000000	7.352967
320.000000	7.237900
321.000000	6.945433
322.000000	7.379233
323.000000	7.442067
324.000000	7.171267
325.000000	7.042167
326.000000	7.187833
327.000000	6.820100
328.000000	6.706800
329.000000	6.952967
330.000000	7.095133
331.000000	6.844033
332.000000	6.892933
333.000000	6.725433
334.000000	6.647933
335.000000	6.640400
336.000000	6.527367
337.000000	6.519033
338.000000	6.620867
339.000000	6.759500
340.000000	6.669333
341.000000	6.529333
342.000000	6.622600
343.000000	6.666100
344.000000	6.611933
345.000000	6.639767
346.000000	6.535600
347.000000	6.483433
348.000000	6.605400
349.000000	6.626567
350.000000	6.523533
351.000000	6.561833
352.000000	6.508367
353.000000	6.596867
354.000000	6.526833
355.000000	6.594800
356.000000	6.558000
357.000000	6.538967
358.000000	6.558800
359.000000	6.580767
360.000000	6.528900
361.000000	6.497633
362.000000	6.635133
363.000000	6.514467
364.000000	6.506467
365.000000	6.506600
366.000000	6.426067
367.000000	6.440967
368.000000	6.458600
369.000000	6.382833
370.000000	6.351800
371.000000	6.305400
372.000000	6.258167
373.000000	6.132333
374.000000	6.062267
375.000000	6.290000
376.000000	6.617633
377.000000	6.525167
378.000000	6.518133
379.000000	6.532200
380.000000	6.543667
381.000000	6.549467
382.000000	6.553033
383.000000	6.558867
384.000000	6.567900
385.000000	6.582167
386.000000	6.590467
387.000000	6.597867
388.000000	6.621200
389.000000	6.629933
390.000000	6.638967
391.000000	6.661367
392.000000	6.685667
393.000000	6.706500
394.000000	6.732067
395.000000	6.751400
396.000000	6.773800
397.000000	6.811733
398.000000	6.837033
399.000000	6.875367
400.000000	6.921333
401.000000	6.970367
402.000000	7.016667
403.000000	7.073233
404.000000	7.136633
405.000000	7.194700
406.000000	7.275633
407.000000	7.352767
408.000000	7.440700
409.000000	7.542767
410.000000	7.641167
411.000000	7.751400
412.000000	7.861067
413.000000	7.981533
414.000000	8.100267
415.000000	8.225433
416.000000	8.367900
417.000000	8.510433
418.000000	8.652967
419.000000	8.813633
420.000000	8.975500
421.000000	9.141367
422.000000	9.317933
423.000000	9.492267
424.000000	9.665867
425.000000	9.850500
426.000000	10.037900
427.000000	10.222600
428.000000	10.408367
429.000000	10.592600
430.000000	10.778667
431.000000	10.964433
432.000000	11.160733
433.000000	11.360767
434.000000	11.563133
435.000000	11.765400
436.000000	11.968733
437.000000	12.165633
438.000000	12.365133
439.000000	12.570333
440.000000	12.774300
441.000000	12.990900
442.000000	13.200067
443.000000	13.397200
444.000000	13.596667
445.000000	13.789200
446.000000	13.984800
447.000000	14.167400
448.000000	14.339300
449.000000	14.516300
450.000000	14.685400
451.000000	14.865033
452.000000	15.038767
453.000000	15.193100
454.000000	15.352300
455.000000	15.500367
456.000000	15.636100
457.000000	15.767033
458.000000	15.901967
459.000000	16.045333
460.000000	16.164100
461.000000	16.274467
462.000000	16.381433
463.000000	16.493600
464.000000	16.599000
465.000000	16.699533
466.000000	16.805300
467.000000	16.897133
468.000000	16.990600
469.000000	17.084067
470.000000	17.178200
471.000000	17.265300
472.000000	17.342100
473.000000	17.413400
474.000000	17.478933
475.000000	17.537467
476.000000	17.599900
477.000000	17.652833
478.000000	17.707533
479.000000	17.758233
480.000000	17.805833
481.000000	17.865133
482.000000	17.935500
483.000000	18.017200
484.000000	18.121567
485.000000	18.245000
486.000000	18.395067
487.000000	18.573600
488.000000	18.792400
489.000000	19.027300
490.000000	19.313767
491.000000	19.638300
492.000000	19.985733
493.000000	20.371500
494.000000	20.792867
495.000000	21.234567
496.000000	21.709367
497.000000	22.210667
498.000000	22.712967
499.000000	23.256267
500.000000	23.825500
501.000000	24.417500
502.000000	25.023067
503.000000	25.625300
504.000000	26.270367
505.000000	26.943500
506.000000	27.617000
507.000000	28.339933
508.000000	29.092167
509.000000	29.857367
510.000000	30.664700
511.000000	31.514200
512.000000	32.397333
513.000000	33.315167
514.000000	34.266900
515.000000	35.246533
516.000000	36.247967
517.000000	37.271567
518.000000	38.293767
519.000000	39.341133
520.000000	40.395800
521.000000	41.448067
522.000000	42.517633
523.000000	43.556233
524.000000	44.589600
525.000000	45.600933
526.000000	46.581567
527.000000	47.550433
528.000000	48.472833
529.000000	49.390033
530.000000	50.289367
531.000000	51.141900
532.000000	51.973933
533.000000	52.767067
534.000000	53.546700
535.000000	54.286433
536.000000	54.975233
537.000000	55.657700
538.000000	56.287833
539.000000	56.906133
540.000000	57.504800
541.000000	58.071667
542.000000	58.602400
543.000000	59.108333
544.000000	59.593333
545.000000	60.017167
546.000000	60.404400
547.000000	60.745133
548.000000	61.062400
549.000000	61.336900
550.000000	61.585000
551.000000	61.803467
552.000000	62.010567
553.000000	62.177300
554.000000	62.368067
555.000000	62.506867
556.000000	62.637767
557.000000	62.751367
558.000000	62.861267
559.000000	62.931033
560.000000	63.072467
561.000000	63.129000
562.000000	63.150433
563.000000	63.159200
564.000000	63.129067
565.000000	63.087833
566.000000	63.024300
567.000000	62.940567
568.000000	62.846100
569.000000	62.769400
570.000000	62.654267
571.000000	62.526233
572.000000	62.436033
573.000000	62.307900
574.000000	62.198733
575.000000	62.087133
576.000000	61.974133
577.000000	61.859767
578.000000	61.728833
579.000000	61.615400
580.000000	61.472733
581.000000	61.344633
582.000000	61.179133
583.000000	60.999300
584.000000	60.795467
585.000000	60.586933
586.000000	60.286767
587.000000	59.981500
588.000000	59.634667
589.000000	59.238667
590.000000	58.769300
591.000000	58.280567
592.000000	57.718867
593.000000	57.160533
594.000000	56.486300
595.000000	55.867433
596.000000	55.192800
597.000000	54.518967
598.000000	53.839700
599.000000	53.143633
600.000000	52.395733
601.000000	51.664267
602.000000	50.912167
603.000000	50.151233
604.000000	49.421433
605.000000	48.714200
606.000000	47.972667
607.000000	47.316933
608.000000	46.673333
609.000000	46.071600
610.000000	45.502567
611.000000	44.991467
612.000000	44.529733
613.000000	44.108833
614.000000	43.772033
615.000000	43.472200
616.000000	43.229533
617.000000	43.060167
618.000000	42.923300
619.000000	42.833333
620.000000	42.777767
621.000000	42.765833
622.000000	42.776967
623.000000	42.810333
624.000000	42.875367
625.000000	42.937400
626.000000	43.011400
627.000000	43.094367
628.000000	43.198100
629.000000	43.323833
630.000000	43.445267
631.000000	43.564200
632.000000	43.707867
633.000000	43.844800
634.000000	43.969000
635.000000	44.110600
636.000000	44.254733
637.000000	44.349133
638.000000	44.453867
639.000000	44.565900
640.000000	44.648600
641.000000	44.746967
642.000000	44.857167
643.000000	44.924733
644.000000	45.001967
645.000000	45.092333
646.000000	45.176467
647.000000	45.271400
648.000000	45.348200
649.000000	45.440733
650.000000	45.517233
651.000000	45.616267
652.000000	45.708567
653.000000	45.815600
654.000000	45.915933
655.000000	46.023500
656.000000	46.110933
657.000000	46.248467
658.000000	46.365967
659.000000	46.482467
660.000000	46.637700
661.000000	46.760467
662.000000	46.885433
663.000000	47.029300
664.000000	47.163767
665.000000	47.288733
666.000000	47.421667
667.000000	47.537833
668.000000	47.640533
669.000000	47.747033
670.000000	47.875600
671.000000	48.015800
672.000000	48.126367
673.000000	48.287300
674.000000	48.451633
675.000000	48.609967
676.000000	48.811867
677.000000	48.991467
678.000000	49.210200
679.000000	49.472433
680.000000	49.701667
681.000000	49.961700
682.000000	50.227533
683.000000	50.501500
684.000000	50.772267
685.000000	51.091367
686.000000	51.384433
687.000000	51.683367
688.000000	51.980700
689.000000	52.297333
690.000000	52.609533
691.000000	52.915433
692.000000	53.217567
693.000000	53.519433
694.000000	53.796400
695.000000	54.079567
696.000000	54.328033
697.000000	54.560267
698.000000	54.822800
699.000000	55.093067
700.000000	55.333933
701.000000	55.547433
702.000000	55.773000
703.000000	56.036467
704.000000	56.260167
705.000000	56.509467
706.000000	56.745300
707.000000	56.998367
708.000000	57.237200
709.000000	57.442567
710.000000	57.661767
711.000000	57.901100
712.000000	58.132200
713.000000	58.403967
714.000000	58.646867
715.000000	58.843400
716.000000	59.069600
717.000000	59.288233
718.000000	59.513500
719.000000	59.732933
720.000000	59.925500
721.000000	60.130767
722.000000	60.385467
723.000000	60.611233
724.000000	60.807633
725.000000	61.022200
726.000000	61.233700
727.000000	61.409967
728.000000	61.620100
729.000000	61.785700
730.000000	61.980967
731.000000	62.215667
732.000000	62.417200
733.000000	62.601533
734.000000	62.802667
735.000000	62.997567
736.000000	63.172767
737.000000	63.355933
738.000000	63.523667
739.000000	63.703467
740.000000	63.936633
741.000000	64.118133
742.000000	64.247533
743.000000	64.427900
744.000000	64.613700
745.000000	64.814000
746.000000	64.982300
747.000000	65.136800
748.000000	65.289067
749.000000	65.420067
750.000000	65.535500
751.000000	65.703200
752.000000	65.839300
753.000000	65.937900
754.000000	66.100467
755.000000	66.225867
756.000000	66.354633
757.000000	66.517300
758.000000	66.626400
759.000000	66.744700
760.000000	66.889767
761.000000	67.068567
762.000000	67.209800
763.000000	67.355100
764.000000	67.499800
765.000000	67.627100
766.000000	67.768733
767.000000	67.866167
768.000000	68.014733
769.000000	68.188200
770.000000	68.358833
771.000000	68.494600
772.000000	68.634700
773.000000	68.797033
774.000000	68.965300
775.000000	69.114900
776.000000	69.266433
777.000000	69.426300
778.000000	69.609400
779.000000	69.722800
780.000000	69.870067
781.000000	70.014967
782.000000	70.191067
783.000000	70.327333
784.000000	70.423767
785.000000	70.525300
786.000000	70.723467
787.000000	70.856933
788.000000	70.973733
789.000000	71.087900
790.000000	71.146800
791.000000	71.278300
792.000000	71.454467
793.000000	71.547867
794.000000	71.704333
795.000000	71.774100
796.000000	71.924833
797.000000	72.113800
798.000000	72.162200
799.000000	72.216267
800.000000	72.388633
801.000000	72.538500
802.000000	72.653567
803.000000	72.778367
804.000000	72.946267
805.000000	73.039733
806.000000	73.248133
807.000000	73.305600
808.000000	73.418400
809.000000	73.589367
810.000000	73.741200
811.000000	73.835000
812.000000	73.936067
813.000000	74.030833
814.000000	74.171300
815.000000	74.204567
816.000000	74.365400
817.000000	74.452900
818.000000	74.558467
819.000000	74.687100
820.000000	74.819500
821.000000	74.912200
822.000000	75.072467
823.000000	75.312400
824.000000	75.318033
825.000000	75.557833
826.000000	75.741533
827.000000	75.764100
828.000000	75.857167
829.000000	75.917167
830.000000	76.133167
831.000000	76.338267
832.000000	76.446267
833.000000	76.504167
834.000000	76.653800
835.000000	76.723167
836.000000	76.801533
837.000000	76.965000
838.000000	77.138633
839.000000	77.203833
840.000000	77.177767
841.000000	77.314133
842.000000	77.410167
843.000000	77.458900
844.000000	77.674833
845.000000	77.668367
846.000000	77.792800
847.000000	77.910033
848.000000	77.869400
849.000000	77.882867
850.000000	77.944800
851.000000	78.061733
852.000000	78.081167
853.000000	78.358833
854.000000	78.221833
855.000000	78.116300
856.000000	78.453200
857.000000	78.702733
858.000000	78.424078
859.000000	77.490643
860.000000	77.499775
861.000000	77.522485
862.000000	77.512886
863.000000	77.515304
864.000000	77.515221
865.000000	77.545494
866.000000	77.680504
867.000000	77.857487
868.000000	78.060439
869.000000	78.209172
870.000000	78.351923
871.000000	78.482875
872.000000	78.658092
873.000000	78.846280
874.000000	79.083834
875.000000	79.295047
876.000000	79.451805
877.000000	79.611273
878.000000	79.768787
879.000000	79.872278
880.000000	79.982383
881.000000	80.070727
882.000000	80.140231
883.000000	80.185635
884.000000	80.259491
885.000000	80.317994
886.000000	80.382056
887.000000	80.414406
888.000000	80.446079
889.000000	80.457823
890.000000	80.501579
891.000000	80.499790
892.000000	80.507337
893.000000	80.505525
894.000000	80.483502
895.000000	80.497700
896.000000	80.495698
897.000000	80.475734
898.000000	80.441173
899.000000	80.416570
900.000000	80.378193
901.000000	80.359628
902.000000	80.325405
903.000000	80.291931
904.000000	80.264284
905.000000	80.235334
906.000000	80.201786
907.000000	80.118222
908.000000	80.068603
909.000000	80.018368
910.000000	79.982849
911.000000	79.934009
912.000000	79.879256
913.000000	79.786327
914.000000	79.717447
915.000000	79.639032
916.000000	79.590516
917.000000	79.516506
918.000000	79.408323
919.000000	79.329204
920.000000	79.239568
921.000000	79.160660
922.000000	79.067429
923.000000	78.975002
924.000000	78.878060
925.000000	78.792246
926.000000	78.679783
927.000000	78.595989
928.000000	78.495734
929.000000	78.404725
930.000000	78.294199
931.000000	78.188489
932.000000	78.093880
933.000000	77.968001
934.000000	77.866319
935.000000	77.751144
936.000000	77.625437
937.000000	77.515928
938.000000	77.395209
939.000000	77.258441
940.000000	77.139469
941.000000	77.025186
942.000000	76.919151
943.000000	76.791767
944.000000	76.676092
945.000000	76.562838
946.000000	76.451757
947.000000	76.322550
948.000000	76.225228
949.000000	76.114904
950.000000	75.994298
951.000000	75.897126
952.000000	75.786107
953.000000	75.674646
954.000000	75.575853
955.000000	75.479054
956.000000	75.371745
957.000000	75.280676
958.000000	75.190220
959.000000	75.097936
960.000000	74.992885
961.000000	74.894348
962.000000	74.806905
963.000000	74.704960
964.000000	74.614227
965.000000	74.522712
966.000000	74.431543
967.000000	74.341063
968.000000	74.234615
969.000000	74.145513
970.000000	74.071044
971.000000	73.977654
972.000000	73.888123
973.000000	73.809175
974.000000	73.725247
975.000000	73.648545
976.000000	73.575541
977.000000	73.496584
978.000000	73.424815
979.000000	73.343122
980.000000	73.264912
981.000000	73.171183
982.000000	73.102217
983.000000	73.032479
984.000000	72.963562
985.000000	72.882686
986.000000	72.809870
987.000000	72.742594
988.000000	72.673800
989.000000	72.608364
990.000000	72.554450
991.000000	72.489627
992.000000	72.433108
993.000000	72.375762
994.000000	72.315597
995.000000	72.271326
996.000000	72.226631
997.000000	72.186084
998.000000	72.140893
999.000000	72.094881
1000.000000	72.063726
1001.000000	72.031100
1002.000000	71.989005
1003.000000	71.954320
1004.000000	71.925183
1005.000000	71.896296
1006.000000	71.866497
1007.000000	71.837124
1008.000000	71.808955
1009.000000	71.786015
1010.000000	71.773465
1011.000000	71.758672
1012.000000	71.742177
1013.000000	71.736821
1014.000000	71.731895
1015.000000	71.723311
1016.000000	71.714315
1017.000000	71.712318
1018.000000	71.717643
1019.000000	71.716560
1020.000000	71.705911
1021.000000	71.708718
1022.000000	71.730011
1023.000000	71.750068
1024.000000	71.760116
1025.000000	71.759250
1026.000000	71.766183
1027.000000	71.779442
1028.000000	71.796104
1029.000000	71.825397
1030.000000	71.845263
1031.000000	71.853293
1032.000000	71.874792
1033.000000	71.892914
1034.000000	71.905534
1035.000000	71.927841
1036.000000	71.946839
1037.000000	71.965035
1038.000000	71.978702
1039.000000	72.003619
1040.000000	72.029226
1041.000000	72.043994
1042.000000	72.061741
1043.000000	72.082400
1044.000000	72.107218
1045.000000	72.124393
1046.000000	72.140536
1047.000000	72.163177
1048.000000	72.183929
1049.000000	72.199693
1050.000000	72.227925
1051.000000	72.256979
1052.000000	72.271156
1053.000000	72.291200
1054.000000	72.319560
1055.000000	72.348362
1056.000000	72.372262
1057.000000	72.394294
1058.000000	72.428289
1059.000000	72.463354
1060.000000	72.485592
1061.000000	72.511355
1062.000000	72.540241
1063.000000	72.574012
1064.000000	72.607633
1065.000000	72.638933
1066.000000	72.666193
1067.000000	72.699414
1068.000000	72.732497
1069.000000	72.759190
1070.000000	72.792457
1071.000000	72.833685
1072.000000	72.869268
1073.000000	72.897535
1074.000000	72.929087
1075.000000	72.960836
1076.000000	72.996141
1077.000000	73.027418
1078.000000	73.069097
1079.000000	73.104286
1080.000000	73.142959
1081.000000	73.183657
1082.000000	73.217875
1083.000000	73.254793
1084.000000	73.288604
1085.000000	73.327858
1086.000000	73.362622
1087.000000	73.398983
1088.000000	73.434019
1089.000000	73.467897
1090.000000	73.493711
1091.000000	73.529796
1092.000000	73.572407
1093.000000	73.607356
1094.000000	73.647251
1095.000000	73.665593
1096.000000	73.701405
1097.000000	73.746101
1098.000000	73.789430
1099.000000	73.809078
1100.000000	73.834234
1101.000000	73.867916
1102.000000	73.902688
1103.000000	73.933515
1104.000000	73.952787
1105.000000	73.991240
1106.000000	74.023186
1107.000000	74.055687
1108.000000	74.078909
1109.000000	74.109732
1110.000000	74.138564
1111.000000	74.165847
1112.000000	74.197180
1113.000000	74.222066
1114.000000	74.255932
1115.000000	74.277555
1116.000000	74.307357
1117.000000	74.341831
1118.000000	74.366294
1119.000000	74.401112
1120.000000	74.427166
1121.000000	74.441365
1122.000000	74.473840
1123.000000	74.498706
1124.000000	74.501785
1125.000000	74.495117
1126.000000	74.495646
1127.000000	74.483098
1128.000000	74.474139
1129.000000	74.473146
1130.000000	74.446684
1131.000000	74.410126
1132.000000	74.367020
1133.000000	74.330911
1134.000000	74.344556
1135.000000	74.324636
1136.000000	74.278612
1137.000000	74.228439
1138.000000	74.153212
1139.000000	74.100797
1140.000000	74.062455
1141.000000	74.033158
1142.000000	73.998649
1143.000000	73.980355
1144.000000	73.956062
1145.000000	73.950016
1146.000000	73.946286
1147.000000	73.934439
1148.000000	73.907050
1149.000000	73.879785
1150.000000	73.845532
1151.000000	73.844492
1152.000000	73.808931
1153.000000	73.791724
1154.000000	73.743679
1155.000000	73.694531
1156.000000	73.647027
1157.000000	73.590376
1158.000000	73.543022
1159.000000	73.474824
1160.000000	73.425019
1161.000000	73.335930
1162.000000	73.256959
1163.000000	73.203792
1164.000000	73.119221
1165.000000	73.039542
1166.000000	72.958295
1167.000000	72.891826
1168.000000	72.820320
