PE UV       SUBTECH     SPECTRUM    ASCII       PEDS        4.00        
   -1
INBUCR0143-4.Sample.ASC
24/04/29
16:11:28.00
24/04/29
16:11:28.00
Vinicio Soto Monge
C. kalinini
250,000000
1
Lambda 1050
1050L1511233
PerkinElmer UV WinLab 6.3.2.0749 / 2.02.05 Lambda 900 UV/VIS/NIR, Aug  7 2015 09:38:08

0
0
3350/servo 860,8/2
0
0
UV/VIS
1
1
1
DoubleDePol,CommonBeamDepol,RBeamAtt,SBeamAtt,60mm sphere, WB InGaAs Detector
0
0
0
0
Program
Program
3350/servo 860,8/2
3350/0,2 860,8/0,2
3350/0,2 860,8/0,2
0
15.00
 
 
 
0
 
860,8
319,2
860,8
Front
100
on
S:100 R:100
0
0
0
0
 
0
 
 
 
0
 
 
0
0
0
0
0
 
 
 
 
0
0


0
0
#HDR
-1
-1
#GR
nm
%R
1.0
0.0
2500,000000
-1,000000
2251
8
91,524600
5,274700
#DATA
250.000000	6.361125
251.000000	6.354800
252.000000	6.332675
253.000000	6.315250
254.000000	6.308150
255.000000	6.259975
256.000000	6.266050
257.000000	6.242500
258.000000	6.222475
259.000000	6.187300
260.000000	6.142700
261.000000	6.146575
262.000000	6.111200
263.000000	6.108125
264.000000	6.048875
265.000000	6.025100
266.000000	6.010375
267.000000	5.980525
268.000000	5.932850
269.000000	5.955425
270.000000	5.926450
271.000000	5.936025
272.000000	5.873100
273.000000	5.857800
274.000000	5.885925
275.000000	5.834800
276.000000	5.837725
277.000000	5.828425
278.000000	5.838075
279.000000	5.814800
280.000000	5.804025
281.000000	5.803000
282.000000	5.780950
283.000000	5.824800
284.000000	5.803675
285.000000	5.796725
286.000000	5.808300
287.000000	5.804000
288.000000	5.761775
289.000000	5.767200
290.000000	5.773450
291.000000	5.809625
292.000000	5.784525
293.000000	5.794550
294.000000	5.759125
295.000000	5.777700
296.000000	5.788450
297.000000	5.756725
298.000000	5.766575
299.000000	5.795900
300.000000	5.754975
301.000000	5.745200
302.000000	5.749925
303.000000	5.757350
304.000000	5.768150
305.000000	5.775075
306.000000	5.725500
307.000000	5.688800
308.000000	5.770450
309.000000	5.718950
310.000000	5.788250
311.000000	5.733700
312.000000	5.722575
313.000000	5.777575
314.000000	5.770900
315.000000	5.741525
316.000000	6.209575
317.000000	10.442250
318.000000	9.943725
319.000000	9.476450
320.000000	8.805550
321.000000	7.459825
322.000000	7.096025
323.000000	7.050825
324.000000	6.485900
325.000000	6.462750
326.000000	6.438375
327.000000	6.388775
328.000000	6.265525
329.000000	6.374425
330.000000	6.241950
331.000000	6.276775
332.000000	6.273875
333.000000	6.163900
334.000000	6.274500
335.000000	6.294775
336.000000	6.250725
337.000000	5.958025
338.000000	6.221400
339.000000	5.992800
340.000000	6.093400
341.000000	6.088075
342.000000	5.954325
343.000000	5.978450
344.000000	6.123925
345.000000	5.861100
346.000000	6.038900
347.000000	5.861800
348.000000	5.853350
349.000000	5.814650
350.000000	5.940975
351.000000	5.872125
352.000000	5.743475
353.000000	5.903825
354.000000	5.922125
355.000000	5.930600
356.000000	5.727350
357.000000	5.880000
358.000000	5.871500
359.000000	5.925350
360.000000	5.914750
361.000000	5.914500
362.000000	5.908800
363.000000	5.833400
364.000000	5.783575
365.000000	5.770125
366.000000	5.787000
367.000000	5.819750
368.000000	5.827325
369.000000	5.777750
370.000000	5.738050
371.000000	5.663750
372.000000	5.595625
373.000000	5.437575
374.000000	5.365775
375.000000	5.506925
376.000000	5.874050
377.000000	6.104875
378.000000	6.144625
379.000000	6.166825
380.000000	6.210775
381.000000	6.258525
382.000000	6.305725
383.000000	6.351775
384.000000	6.392675
385.000000	6.452250
386.000000	6.523800
387.000000	6.592050
388.000000	6.673900
389.000000	6.745800
390.000000	6.824675
391.000000	6.921025
392.000000	7.025850
393.000000	7.134400
394.000000	7.253350
395.000000	7.371925
396.000000	7.495650
397.000000	7.647175
398.000000	7.785025
399.000000	7.941300
400.000000	8.110950
401.000000	8.277900
402.000000	8.465950
403.000000	8.660425
404.000000	8.858000
405.000000	9.069550
406.000000	9.294000
407.000000	9.524800
408.000000	9.760550
409.000000	10.006950
410.000000	10.269725
411.000000	10.534650
412.000000	10.800650
413.000000	11.083625
414.000000	11.353775
415.000000	11.637825
416.000000	11.925400
417.000000	12.212500
418.000000	12.503975
419.000000	12.792325
420.000000	13.086950
421.000000	13.370775
422.000000	13.655050
423.000000	13.941700
424.000000	14.221250
425.000000	14.499775
426.000000	14.779025
427.000000	15.053200
428.000000	15.319425
429.000000	15.567950
430.000000	15.822975
431.000000	16.081575
432.000000	16.331200
433.000000	16.582025
434.000000	16.827325
435.000000	17.051400
436.000000	17.266825
437.000000	17.482350
438.000000	17.701125
439.000000	17.918775
440.000000	18.122950
441.000000	18.305900
442.000000	18.483300
443.000000	18.660125
444.000000	18.830075
445.000000	18.988825
446.000000	19.122825
447.000000	19.244075
448.000000	19.361675
449.000000	19.479525
450.000000	19.603950
451.000000	19.701175
452.000000	19.768150
453.000000	19.835800
454.000000	19.905150
455.000000	19.954250
456.000000	19.995475
457.000000	20.032225
458.000000	20.051525
459.000000	20.062700
460.000000	20.072200
461.000000	20.089300
462.000000	20.090825
463.000000	20.067225
464.000000	20.050950
465.000000	20.038200
466.000000	20.030525
467.000000	20.024950
468.000000	20.016400
469.000000	20.027600
470.000000	20.053775
471.000000	20.083300
472.000000	20.125875
473.000000	20.188700
474.000000	20.285725
475.000000	20.400650
476.000000	20.529325
477.000000	20.686500
478.000000	20.877550
479.000000	21.091800
480.000000	21.344775
481.000000	21.637850
482.000000	21.959400
483.000000	22.304075
484.000000	22.660700
485.000000	23.050200
486.000000	23.453475
487.000000	23.882075
488.000000	24.331725
489.000000	24.797100
490.000000	25.263525
491.000000	25.749325
492.000000	26.260375
493.000000	26.755000
494.000000	27.262600
495.000000	27.781125
496.000000	28.292725
497.000000	28.812450
498.000000	29.331150
499.000000	29.857525
500.000000	30.404375
501.000000	30.966850
502.000000	31.535475
503.000000	32.123750
504.000000	32.705300
505.000000	33.317325
506.000000	33.927725
507.000000	34.563175
508.000000	35.212700
509.000000	35.903400
510.000000	36.614150
511.000000	37.340775
512.000000	38.082025
513.000000	38.833650
514.000000	39.595675
515.000000	40.362600
516.000000	41.140825
517.000000	41.930050
518.000000	42.752875
519.000000	43.564100
520.000000	44.382200
521.000000	45.206750
522.000000	46.039475
523.000000	46.876875
524.000000	47.711375
525.000000	48.529200
526.000000	49.352525
527.000000	50.157850
528.000000	50.963400
529.000000	51.747475
530.000000	52.517800
531.000000	53.253300
532.000000	53.990150
533.000000	54.690800
534.000000	55.358900
535.000000	56.010875
536.000000	56.642000
537.000000	57.285575
538.000000	57.876175
539.000000	58.480250
540.000000	59.035600
541.000000	59.559325
542.000000	60.082325
543.000000	60.592325
544.000000	61.092725
545.000000	61.599150
546.000000	62.066875
547.000000	62.507400
548.000000	62.939250
549.000000	63.336650
550.000000	63.703275
551.000000	64.063475
552.000000	64.427500
553.000000	64.733550
554.000000	65.094425
555.000000	65.385300
556.000000	65.692475
557.000000	65.953250
558.000000	66.196325
559.000000	66.416450
560.000000	66.539325
561.000000	66.728150
562.000000	66.918350
563.000000	67.103625
564.000000	67.292725
565.000000	67.417150
566.000000	67.563225
567.000000	67.689675
568.000000	67.783600
569.000000	67.876575
570.000000	67.924175
571.000000	67.961900
572.000000	67.954350
573.000000	67.950575
574.000000	67.926475
575.000000	67.837425
576.000000	67.784675
577.000000	67.719900
578.000000	67.592875
579.000000	67.482150
580.000000	67.299225
581.000000	67.126250
582.000000	66.921675
583.000000	66.672150
584.000000	66.407900
585.000000	66.132000
586.000000	65.839325
587.000000	65.540650
588.000000	65.200175
589.000000	64.852300
590.000000	64.513650
591.000000	64.093725
592.000000	63.657550
593.000000	63.194425
594.000000	62.705300
595.000000	62.185325
596.000000	61.663425
597.000000	61.093500
598.000000	60.529125
599.000000	59.945400
600.000000	59.323050
601.000000	58.692300
602.000000	58.059500
603.000000	57.412575
604.000000	56.782200
605.000000	56.153850
606.000000	55.543400
607.000000	54.930150
608.000000	54.342375
609.000000	53.758550
610.000000	53.247275
611.000000	52.723350
612.000000	52.247975
613.000000	51.797500
614.000000	51.395750
615.000000	51.017825
616.000000	50.737150
617.000000	50.518675
618.000000	50.318825
619.000000	50.187625
620.000000	50.116000
621.000000	50.137900
622.000000	50.219650
623.000000	50.341975
624.000000	50.513350
625.000000	50.779125
626.000000	51.090600
627.000000	51.435100
628.000000	51.804125
629.000000	52.208150
630.000000	52.626425
631.000000	53.083625
632.000000	53.507000
633.000000	53.953900
634.000000	54.379125
635.000000	54.790250
636.000000	55.171150
637.000000	55.517325
638.000000	55.888250
639.000000	56.210100
640.000000	56.487975
641.000000	56.731575
642.000000	56.981025
643.000000	57.225400
644.000000	57.398650
645.000000	57.554475
646.000000	57.721075
647.000000	57.853500
648.000000	57.960600
649.000000	58.091875
650.000000	58.172925
651.000000	58.249225
652.000000	58.361300
653.000000	58.429400
654.000000	58.517600
655.000000	58.664950
656.000000	58.738725
657.000000	58.838250
658.000000	58.912350
659.000000	59.048800
660.000000	59.228250
661.000000	59.376650
662.000000	59.570525
663.000000	59.764825
664.000000	60.012100
665.000000	60.270900
666.000000	60.545500
667.000000	60.805475
668.000000	61.102075
669.000000	61.411875
670.000000	61.700800
671.000000	62.013275
672.000000	62.332975
673.000000	62.646775
674.000000	62.945425
675.000000	63.270050
676.000000	63.560750
677.000000	63.807525
678.000000	64.125275
679.000000	64.375175
680.000000	64.650275
681.000000	64.874650
682.000000	65.141125
683.000000	65.379875
684.000000	65.621475
685.000000	65.885525
686.000000	66.120850
687.000000	66.373925
688.000000	66.623875
689.000000	66.887550
690.000000	67.212125
691.000000	67.568000
692.000000	67.906975
693.000000	68.270925
694.000000	68.623525
695.000000	69.029550
696.000000	69.408900
697.000000	69.816200
698.000000	70.273325
699.000000	70.745725
700.000000	71.275300
701.000000	71.817450
702.000000	72.349725
703.000000	72.890700
704.000000	73.444875
705.000000	74.032150
706.000000	74.626950
707.000000	75.188000
708.000000	75.744525
709.000000	76.336375
710.000000	76.905825
711.000000	77.466100
712.000000	78.038375
713.000000	78.539225
714.000000	79.027375
715.000000	79.582500
716.000000	80.074100
717.000000	80.515975
718.000000	80.896800
719.000000	81.307400
720.000000	81.675125
721.000000	82.006850
722.000000	82.373550
723.000000	82.690425
724.000000	82.924775
725.000000	83.170125
726.000000	83.403575
727.000000	83.590850
728.000000	83.783100
729.000000	83.945775
730.000000	84.068300
731.000000	84.191550
732.000000	84.323875
733.000000	84.450950
734.000000	84.530450
735.000000	84.602875
736.000000	84.721650
737.000000	84.807175
738.000000	84.884825
739.000000	84.961425
740.000000	85.049200
741.000000	85.158425
742.000000	85.261850
743.000000	85.329300
744.000000	85.363550
745.000000	85.478600
746.000000	85.628450
747.000000	85.688550
748.000000	85.822475
749.000000	85.929950
750.000000	85.974025
751.000000	86.072875
752.000000	86.179875
753.000000	86.267400
754.000000	86.410375
755.000000	86.524125
756.000000	86.613225
757.000000	86.735450
758.000000	86.823350
759.000000	86.931400
760.000000	87.054025
761.000000	87.140875
762.000000	87.266550
763.000000	87.324050
764.000000	87.368850
765.000000	87.485350
766.000000	87.523350
767.000000	87.574175
768.000000	87.653950
769.000000	87.817525
770.000000	87.882900
771.000000	87.905575
772.000000	87.983050
773.000000	88.069150
774.000000	88.206700
775.000000	88.321225
776.000000	88.407950
777.000000	88.447100
778.000000	88.518650
779.000000	88.599075
780.000000	88.704450
781.000000	88.840650
782.000000	88.909250
783.000000	88.957575
784.000000	89.052600
785.000000	89.095750
786.000000	89.062100
787.000000	89.186100
788.000000	89.194850
789.000000	89.103225
790.000000	89.155225
791.000000	89.227025
792.000000	89.172825
793.000000	89.150925
794.000000	89.176050
795.000000	89.167775
796.000000	89.087825
797.000000	88.956300
798.000000	88.911700
799.000000	88.902075
800.000000	88.847750
801.000000	88.681200
802.000000	88.468825
803.000000	88.432075
804.000000	88.250200
805.000000	88.039575
806.000000	87.978875
807.000000	87.727700
808.000000	87.361950
809.000000	87.191550
810.000000	87.013200
811.000000	86.777975
812.000000	86.509850
813.000000	86.236925
814.000000	85.885150
815.000000	85.600675
816.000000	85.256050
817.000000	84.951075
818.000000	84.711025
819.000000	84.291225
820.000000	84.023650
821.000000	83.745225
822.000000	83.363175
823.000000	83.032975
824.000000	82.620150
825.000000	82.266700
826.000000	81.927175
827.000000	81.642650
828.000000	81.375525
829.000000	80.911150
830.000000	80.690375
831.000000	80.195900
832.000000	79.810500
833.000000	79.612500
834.000000	79.386900
835.000000	78.986300
836.000000	78.639100
837.000000	78.339275
838.000000	78.011750
839.000000	77.703575
840.000000	77.487775
841.000000	77.122550
842.000000	76.918250
843.000000	76.837750
844.000000	76.410050
845.000000	76.078725
846.000000	76.098025
847.000000	75.873850
848.000000	75.772625
849.000000	75.645400
850.000000	75.439175
851.000000	75.346075
852.000000	75.052225
853.000000	74.916450
854.000000	74.665350
855.000000	74.643100
856.000000	74.726375
857.000000	74.570875
858.000000	74.646783
859.000000	73.892668
860.000000	73.812801
861.000000	73.730311
862.000000	73.675785
863.000000	73.608554
864.000000	73.553076
865.000000	73.489295
866.000000	73.443926
867.000000	73.388859
868.000000	73.335286
869.000000	73.259689
870.000000	73.204617
871.000000	73.164799
872.000000	73.224732
873.000000	73.389820
874.000000	73.616303
875.000000	73.808801
876.000000	73.930037
877.000000	74.063581
878.000000	74.202357
879.000000	74.326845
880.000000	74.397420
881.000000	74.498720
882.000000	74.562868
883.000000	74.653164
884.000000	74.726204
885.000000	74.774351
886.000000	74.865066
887.000000	74.929774
888.000000	75.024574
889.000000	75.079811
890.000000	75.138138
891.000000	75.244383
892.000000	75.275313
893.000000	75.351455
894.000000	75.437630
895.000000	75.492225
896.000000	75.516964
897.000000	75.558403
898.000000	75.604315
899.000000	75.639663
900.000000	75.685777
901.000000	75.707114
902.000000	75.728906
903.000000	75.738254
904.000000	75.799405
905.000000	75.813658
906.000000	75.830291
907.000000	75.873755
908.000000	75.895982
909.000000	75.914378
910.000000	75.911914
911.000000	75.914621
912.000000	75.954606
913.000000	75.970961
914.000000	75.995724
915.000000	75.977711
916.000000	76.011508
917.000000	76.000019
918.000000	76.005203
919.000000	76.016306
920.000000	76.031742
921.000000	76.017284
922.000000	76.031419
923.000000	76.044469
924.000000	76.024297
925.000000	76.049802
926.000000	76.049556
927.000000	76.055632
928.000000	76.068424
929.000000	76.051854
930.000000	76.055600
931.000000	76.060225
932.000000	76.066010
933.000000	76.056695
934.000000	76.052596
935.000000	76.043398
936.000000	76.042910
937.000000	76.022698
938.000000	76.001557
939.000000	75.988574
940.000000	76.008129
941.000000	75.990702
942.000000	75.979285
943.000000	75.983889
944.000000	75.963966
945.000000	75.954671
946.000000	75.932582
947.000000	75.912132
948.000000	75.884507
949.000000	75.855593
950.000000	75.854319
951.000000	75.831349
952.000000	75.812502
953.000000	75.781443
954.000000	75.743072
955.000000	75.706063
956.000000	75.685740
957.000000	75.651438
958.000000	75.619351
959.000000	75.582745
960.000000	75.538785
961.000000	75.519188
962.000000	75.486379
963.000000	75.447828
964.000000	75.426740
965.000000	75.382854
966.000000	75.340625
967.000000	75.312742
968.000000	75.289786
969.000000	75.254603
970.000000	75.231765
971.000000	75.191514
972.000000	75.149522
973.000000	75.119169
974.000000	75.096203
975.000000	75.059624
976.000000	75.033626
977.000000	74.991122
978.000000	74.955752
979.000000	74.921014
980.000000	74.887870
981.000000	74.858760
982.000000	74.836200
983.000000	74.808596
984.000000	74.776552
985.000000	74.746523
986.000000	74.712296
987.000000	74.688712
988.000000	74.658486
989.000000	74.624063
990.000000	74.599912
991.000000	74.577419
992.000000	74.551185
993.000000	74.518530
994.000000	74.497546
995.000000	74.459605
996.000000	74.432889
997.000000	74.415117
998.000000	74.387897
999.000000	74.354204
1000.000000	74.323965
1001.000000	74.290377
1002.000000	74.273492
1003.000000	74.249135
1004.000000	74.205458
1005.000000	74.180457
1006.000000	74.151493
1007.000000	74.111343
1008.000000	74.088416
1009.000000	74.057280
1010.000000	74.024904
1011.000000	73.999593
1012.000000	73.978072
1013.000000	73.948769
1014.000000	73.919001
1015.000000	73.895740
1016.000000	73.872976
1017.000000	73.847783
1018.000000	73.825199
1019.000000	73.811670
1020.000000	73.801606
1021.000000	73.781800
1022.000000	73.767043
1023.000000	73.757532
1024.000000	73.745633
1025.000000	73.736057
1026.000000	73.724295
1027.000000	73.710702
1028.000000	73.701714
1029.000000	73.697938
1030.000000	73.692746
1031.000000	73.686384
1032.000000	73.682713
1033.000000	73.674553
1034.000000	73.663003
1035.000000	73.658759
1036.000000	73.651841
1037.000000	73.643146
1038.000000	73.645826
1039.000000	73.647887
1040.000000	73.640602
1041.000000	73.638184
1042.000000	73.637852
1043.000000	73.633301
1044.000000	73.628980
1045.000000	73.627922
1046.000000	73.631899
1047.000000	73.628972
1048.000000	73.626755
1049.000000	73.623343
1050.000000	73.622788
1051.000000	73.625933
1052.000000	73.626304
1053.000000	73.634137
1054.000000	73.642194
1055.000000	73.644740
1056.000000	73.648423
1057.000000	73.648036
1058.000000	73.655651
1059.000000	73.665087
1060.000000	73.662500
1061.000000	73.673348
1062.000000	73.683396
1063.000000	73.690903
1064.000000	73.695571
1065.000000	73.707893
1066.000000	73.719098
1067.000000	73.723004
1068.000000	73.734357
1069.000000	73.746756
1070.000000	73.750289
1071.000000	73.758709
1072.000000	73.769502
1073.000000	73.773824
1074.000000	73.780470
1075.000000	73.796678
1076.000000	73.809200
1077.000000	73.826218
1078.000000	73.837565
1079.000000	73.850678
1080.000000	73.858420
1081.000000	73.869157
1082.000000	73.874901
1083.000000	73.886460
1084.000000	73.905729
1085.000000	73.914891
1086.000000	73.930025
1087.000000	73.947767
1088.000000	73.954639
1089.000000	73.974120
1090.000000	73.991687
1091.000000	74.001719
1092.000000	74.011044
1093.000000	74.024123
1094.000000	74.025370
1095.000000	74.034658
1096.000000	74.036051
1097.000000	74.045391
1098.000000	74.065343
1099.000000	74.078655
1100.000000	74.081577
1101.000000	74.088875
1102.000000	74.094975
1103.000000	74.099271
1104.000000	74.105954
1105.000000	74.106912
1106.000000	74.102779
1107.000000	74.094586
1108.000000	74.094329
1109.000000	74.104197
1110.000000	74.105030
1111.000000	74.106335
1112.000000	74.104868
1113.000000	74.093798
1114.000000	74.080661
1115.000000	74.076513
1116.000000	74.075112
1117.000000	74.080727
1118.000000	74.066369
1119.000000	74.052524
1120.000000	74.055724
1121.000000	74.035417
1122.000000	74.027371
1123.000000	74.005745
1124.000000	73.966963
1125.000000	73.921490
1126.000000	73.873020
1127.000000	73.824059
1128.000000	73.757920
1129.000000	73.686911
1130.000000	73.604686
1131.000000	73.510593
1132.000000	73.428162
1133.000000	73.361199
1134.000000	73.300618
1135.000000	73.198304
1136.000000	73.056264
1137.000000	72.923577
1138.000000	72.793643
1139.000000	72.691084
1140.000000	72.594555
1141.000000	72.512030
1142.000000	72.418894
1143.000000	72.339040
1144.000000	72.271275
1145.000000	72.217533
1146.000000	72.153534
1147.000000	72.088767
1148.000000	72.016468
1149.000000	71.941776
1150.000000	71.874530
1151.000000	71.804924
1152.000000	71.733520
1153.000000	71.661321
1154.000000	71.561603
1155.000000	71.457928
1156.000000	71.353123
1157.000000	71.219952
1158.000000	71.090066
1159.000000	70.960654
1160.000000	70.822526
1161.000000	70.667112
1162.000000	70.511896
1163.000000	70.354332
1164.000000	70.203523
1165.000000	70.046599
1166.000000	69.891199
1167.000000	69.739115
