PE UV       SUBTECH     SPECTRUM    ASCII       PEDS        4.00        
   -1
INBUCR0144-3.Sample.ASC
24/04/29
14:11:41.00
24/04/29
14:11:41.00
Vinicio Soto Monge
C. cupreomarginata
250,000000
1
Lambda 1050
1050L1511233
PerkinElmer UV WinLab 6.3.2.0749 / 2.02.05 Lambda 900 UV/VIS/NIR, Aug  7 2015 09:38:08

0
0
3350/servo 860,8/2
0
0
UV/VIS
1
1
1
DoubleDePol,CommonBeamDepol,RBeamAtt,SBeamAtt,60mm sphere, WB InGaAs Detector
0
0
0
0
Program
Program
3350/servo 860,8/2
3350/0,2 860,8/0,2
3350/0,2 860,8/0,2
0
15.00
 
 
 
0
 
860,8
319,2
860,8
Front
100
on
S:100 R:100
0
0
0
0
 
0
 
 
 
0
 
 
0
0
0
0
0
 
 
 
 
0
0


0
0
#HDR
-1
-1
#GR
nm
%R
1.0
0.0
2500,000000
-1,000000
2251
8
83,950500
5,540900
#DATA
250.000000	7.108367
251.000000	7.081800
252.000000	7.038133
253.000000	7.028300
254.000000	7.004233
255.000000	6.967867
256.000000	6.945033
257.000000	6.957733
258.000000	6.936533
259.000000	6.891500
260.000000	6.829800
261.000000	6.782267
262.000000	6.750200
263.000000	6.745033
264.000000	6.702300
265.000000	6.665567
266.000000	6.643000
267.000000	6.660000
268.000000	6.621100
269.000000	6.549167
270.000000	6.553200
271.000000	6.519833
272.000000	6.513833
273.000000	6.482567
274.000000	6.504400
275.000000	6.469133
276.000000	6.461033
277.000000	6.448767
278.000000	6.433533
279.000000	6.425633
280.000000	6.412667
281.000000	6.428533
282.000000	6.372667
283.000000	6.386033
284.000000	6.380833
285.000000	6.391833
286.000000	6.403533
287.000000	6.374333
288.000000	6.369567
289.000000	6.358133
290.000000	6.359267
291.000000	6.339567
292.000000	6.326567
293.000000	6.348067
294.000000	6.338300
295.000000	6.322333
296.000000	6.339067
297.000000	6.316633
298.000000	6.310533
299.000000	6.293167
300.000000	6.287300
301.000000	6.289067
302.000000	6.276933
303.000000	6.300500
304.000000	6.292600
305.000000	6.319433
306.000000	6.324033
307.000000	6.311967
308.000000	6.303233
309.000000	6.270300
310.000000	6.275900
311.000000	6.282867
312.000000	6.252467
313.000000	6.263467
314.000000	6.264000
315.000000	6.288533
316.000000	6.380767
317.000000	7.373667
318.000000	7.724700
319.000000	7.302433
320.000000	7.316667
321.000000	7.302500
322.000000	7.152333
323.000000	7.104200
324.000000	6.777800
325.000000	6.549433
326.000000	6.589667
327.000000	6.869133
328.000000	6.571067
329.000000	6.551833
330.000000	6.550667
331.000000	6.457633
332.000000	6.558500
333.000000	6.304833
334.000000	6.333900
335.000000	6.373867
336.000000	6.420567
337.000000	6.400467
338.000000	6.339267
339.000000	6.312867
340.000000	6.138967
341.000000	6.044733
342.000000	6.118700
343.000000	6.184533
344.000000	6.172667
345.000000	6.319367
346.000000	6.198200
347.000000	6.264667
348.000000	6.251867
349.000000	6.233233
350.000000	6.208033
351.000000	6.138200
352.000000	6.226900
353.000000	6.096167
354.000000	6.123567
355.000000	6.148133
356.000000	6.113700
357.000000	6.171100
358.000000	6.065000
359.000000	6.013900
360.000000	6.044967
361.000000	6.031333
362.000000	6.117633
363.000000	6.039967
364.000000	6.001200
365.000000	5.994900
366.000000	6.032433
367.000000	6.004433
368.000000	6.020800
369.000000	5.961233
370.000000	5.890667
371.000000	5.950067
372.000000	5.926467
373.000000	5.706267
374.000000	5.644467
375.000000	5.753667
376.000000	5.967533
377.000000	6.068833
378.000000	6.053700
379.000000	6.047133
380.000000	6.060067
381.000000	6.073367
382.000000	6.076500
383.000000	6.075400
384.000000	6.078567
385.000000	6.087867
386.000000	6.097800
387.000000	6.107600
388.000000	6.109833
389.000000	6.109867
390.000000	6.121900
391.000000	6.143200
392.000000	6.159667
393.000000	6.180600
394.000000	6.200033
395.000000	6.222233
396.000000	6.243500
397.000000	6.274167
398.000000	6.300633
399.000000	6.331000
400.000000	6.367367
401.000000	6.402967
402.000000	6.441033
403.000000	6.497000
404.000000	6.557033
405.000000	6.608533
406.000000	6.672400
407.000000	6.740467
408.000000	6.810433
409.000000	6.884467
410.000000	6.973633
411.000000	7.067233
412.000000	7.156833
413.000000	7.257100
414.000000	7.361767
415.000000	7.474400
416.000000	7.587500
417.000000	7.708100
418.000000	7.835767
419.000000	7.959667
420.000000	8.103067
421.000000	8.251433
422.000000	8.401567
423.000000	8.563233
424.000000	8.724000
425.000000	8.890100
426.000000	9.060233
427.000000	9.243233
428.000000	9.431300
429.000000	9.600867
430.000000	9.783533
431.000000	9.988367
432.000000	10.190067
433.000000	10.405000
434.000000	10.634700
435.000000	10.857967
436.000000	11.079367
437.000000	11.310267
438.000000	11.554767
439.000000	11.792667
440.000000	12.028933
441.000000	12.278767
442.000000	12.527467
443.000000	12.779533
444.000000	13.042967
445.000000	13.303367
446.000000	13.558633
447.000000	13.806267
448.000000	14.040133
449.000000	14.274767
450.000000	14.515733
451.000000	14.753833
452.000000	14.995167
453.000000	15.232267
454.000000	15.455267
455.000000	15.674367
456.000000	15.890800
457.000000	16.110533
458.000000	16.330800
459.000000	16.540133
460.000000	16.731800
461.000000	16.940433
462.000000	17.152067
463.000000	17.349767
464.000000	17.560133
465.000000	17.752700
466.000000	17.941467
467.000000	18.131133
468.000000	18.314533
469.000000	18.497033
470.000000	18.681233
471.000000	18.861900
472.000000	19.052100
473.000000	19.225133
474.000000	19.403700
475.000000	19.579233
476.000000	19.761300
477.000000	19.943600
478.000000	20.130700
479.000000	20.310900
480.000000	20.490967
481.000000	20.689067
482.000000	20.883233
483.000000	21.087000
484.000000	21.311933
485.000000	21.538800
486.000000	21.769900
487.000000	22.020533
488.000000	22.294200
489.000000	22.579533
490.000000	22.880133
491.000000	23.224633
492.000000	23.586133
493.000000	23.969600
494.000000	24.397600
495.000000	24.834800
496.000000	25.309667
497.000000	25.818933
498.000000	26.351800
499.000000	26.932500
500.000000	27.534000
501.000000	28.173833
502.000000	28.836500
503.000000	29.525267
504.000000	30.242467
505.000000	30.986633
506.000000	31.738400
507.000000	32.487200
508.000000	33.250800
509.000000	34.057033
510.000000	34.883767
511.000000	35.687633
512.000000	36.502400
513.000000	37.312167
514.000000	38.128300
515.000000	38.951667
516.000000	39.779067
517.000000	40.571967
518.000000	41.373667
519.000000	42.169067
520.000000	42.955933
521.000000	43.757900
522.000000	44.536033
523.000000	45.311067
524.000000	46.081533
525.000000	46.811733
526.000000	47.546367
527.000000	48.254267
528.000000	48.954300
529.000000	49.647100
530.000000	50.325000
531.000000	50.974733
532.000000	51.639367
533.000000	52.273900
534.000000	52.883900
535.000000	53.458300
536.000000	54.022267
537.000000	54.586233
538.000000	55.127500
539.000000	55.654333
540.000000	56.161433
541.000000	56.669800
542.000000	57.123467
543.000000	57.587000
544.000000	58.024000
545.000000	58.440933
546.000000	58.808933
547.000000	59.168967
548.000000	59.498533
549.000000	59.818900
550.000000	60.103367
551.000000	60.354567
552.000000	60.613300
553.000000	60.831100
554.000000	61.002567
555.000000	61.173767
556.000000	61.312300
557.000000	61.412267
558.000000	61.497367
559.000000	61.542533
560.000000	61.611067
561.000000	61.629667
562.000000	61.607467
563.000000	61.580600
564.000000	61.517700
565.000000	61.445267
566.000000	61.356333
567.000000	61.272733
568.000000	61.131867
569.000000	61.009333
570.000000	60.878300
571.000000	60.723567
572.000000	60.571133
573.000000	60.398033
574.000000	60.203833
575.000000	60.061267
576.000000	59.875967
577.000000	59.705933
578.000000	59.501967
579.000000	59.305000
580.000000	59.121467
581.000000	58.889633
582.000000	58.659933
583.000000	58.422233
584.000000	58.177767
585.000000	57.886267
586.000000	57.589367
587.000000	57.290233
588.000000	56.940667
589.000000	56.607267
590.000000	56.218767
591.000000	55.782900
592.000000	55.329133
593.000000	54.852600
594.000000	54.395267
595.000000	53.933667
596.000000	53.421900
597.000000	52.902433
598.000000	52.409067
599.000000	51.907067
600.000000	51.408300
601.000000	50.905600
602.000000	50.381833
603.000000	49.892833
604.000000	49.437967
605.000000	48.941733
606.000000	48.502733
607.000000	48.046033
608.000000	47.598700
609.000000	47.159067
610.000000	46.724033
611.000000	46.299167
612.000000	45.912500
613.000000	45.500200
614.000000	45.114033
615.000000	44.759433
616.000000	44.396467
617.000000	44.067667
618.000000	43.792700
619.000000	43.495233
620.000000	43.243833
621.000000	42.984967
622.000000	42.780633
623.000000	42.567500
624.000000	42.416467
625.000000	42.306267
626.000000	42.201600
627.000000	42.104867
628.000000	42.058033
629.000000	42.041600
630.000000	42.062833
631.000000	42.076000
632.000000	42.126367
633.000000	42.187767
634.000000	42.261367
635.000000	42.406667
636.000000	42.538100
637.000000	42.677967
638.000000	42.887633
639.000000	43.072733
640.000000	43.294567
641.000000	43.541033
642.000000	43.766400
643.000000	43.978200
644.000000	44.220367
645.000000	44.470900
646.000000	44.655833
647.000000	44.855767
648.000000	45.034333
649.000000	45.205200
650.000000	45.378600
651.000000	45.527167
652.000000	45.657367
653.000000	45.787900
654.000000	45.916067
655.000000	46.035333
656.000000	46.149533
657.000000	46.253267
658.000000	46.367267
659.000000	46.460300
660.000000	46.578700
661.000000	46.675367
662.000000	46.796033
663.000000	46.917200
664.000000	47.011700
665.000000	47.144800
666.000000	47.275000
667.000000	47.417400
668.000000	47.583733
669.000000	47.746633
670.000000	47.910633
671.000000	48.089467
672.000000	48.254533
673.000000	48.408667
674.000000	48.576767
675.000000	48.750500
676.000000	48.887867
677.000000	49.066633
678.000000	49.239267
679.000000	49.428033
680.000000	49.598067
681.000000	49.758700
682.000000	49.968933
683.000000	50.175767
684.000000	50.370033
685.000000	50.550467
686.000000	50.760967
687.000000	50.982933
688.000000	51.203300
689.000000	51.418433
690.000000	51.671567
691.000000	51.933667
692.000000	52.241700
693.000000	52.517733
694.000000	52.847133
695.000000	53.147567
696.000000	53.448667
697.000000	53.776267
698.000000	54.102500
699.000000	54.444567
700.000000	54.795000
701.000000	55.120867
702.000000	55.436100
703.000000	55.804300
704.000000	56.170600
705.000000	56.484233
706.000000	56.774867
707.000000	57.099333
708.000000	57.439900
709.000000	57.728367
710.000000	58.028200
711.000000	58.320133
712.000000	58.633533
713.000000	58.920100
714.000000	59.200133
715.000000	59.502600
716.000000	59.766533
717.000000	60.025067
718.000000	60.350900
719.000000	60.653933
720.000000	60.912567
721.000000	61.175600
722.000000	61.470533
723.000000	61.765200
724.000000	62.076533
725.000000	62.370700
726.000000	62.621433
727.000000	62.874300
728.000000	63.160100
729.000000	63.429767
730.000000	63.703267
731.000000	63.968400
732.000000	64.225500
733.000000	64.489700
734.000000	64.760533
735.000000	64.998767
736.000000	65.216167
737.000000	65.422067
738.000000	65.637033
739.000000	65.883467
740.000000	66.031400
741.000000	66.248733
742.000000	66.450733
743.000000	66.633900
744.000000	66.880933
745.000000	67.063867
746.000000	67.234267
747.000000	67.375033
748.000000	67.546133
749.000000	67.771733
750.000000	67.961067
751.000000	68.154400
752.000000	68.361633
753.000000	68.516333
754.000000	68.672900
755.000000	68.901833
756.000000	69.076533
757.000000	69.253767
758.000000	69.478767
759.000000	69.642967
760.000000	69.825633
761.000000	70.048733
762.000000	70.252033
763.000000	70.388400
764.000000	70.576133
765.000000	70.813500
766.000000	70.950433
767.000000	71.164233
768.000000	71.363300
769.000000	71.461100
770.000000	71.640733
771.000000	71.825867
772.000000	72.009933
773.000000	72.177400
774.000000	72.320633
775.000000	72.492400
776.000000	72.654900
777.000000	72.809133
778.000000	72.972367
779.000000	73.160700
780.000000	73.337433
781.000000	73.510467
782.000000	73.637000
783.000000	73.774367
784.000000	73.932833
785.000000	74.155967
786.000000	74.343100
787.000000	74.491467
788.000000	74.683900
789.000000	74.876733
790.000000	75.031400
791.000000	75.184867
792.000000	75.337867
793.000000	75.607767
794.000000	75.711167
795.000000	75.773633
796.000000	75.903967
797.000000	76.105000
798.000000	76.301433
799.000000	76.407067
800.000000	76.586900
801.000000	76.744733
802.000000	76.852167
803.000000	77.082667
804.000000	77.211667
805.000000	77.363467
806.000000	77.482900
807.000000	77.548300
808.000000	77.738233
809.000000	77.854400
810.000000	77.980267
811.000000	78.258500
812.000000	78.375900
813.000000	78.443067
814.000000	78.562133
815.000000	78.614533
816.000000	78.905100
817.000000	78.923267
818.000000	79.071433
819.000000	79.227933
820.000000	79.400933
821.000000	79.414467
822.000000	79.518433
823.000000	79.676600
824.000000	79.889833
825.000000	79.926567
826.000000	79.893033
827.000000	79.979233
828.000000	80.028533
829.000000	80.104100
830.000000	80.277033
831.000000	80.347967
832.000000	80.384200
833.000000	80.424733
834.000000	80.578067
835.000000	80.776133
836.000000	80.749033
837.000000	80.732300
838.000000	81.026800
839.000000	80.856233
840.000000	80.968133
841.000000	80.901567
842.000000	81.092667
843.000000	81.254033
844.000000	81.148133
845.000000	81.194233
846.000000	81.404767
847.000000	81.324533
848.000000	81.367567
849.000000	81.273367
850.000000	81.083867
851.000000	81.376600
852.000000	81.701667
853.000000	81.521633
854.000000	81.846000
855.000000	81.372367
856.000000	81.304467
857.000000	81.181633
858.000000	81.286155
859.000000	79.640475
860.000000	79.642279
861.000000	79.643066
862.000000	79.652966
863.000000	79.643093
864.000000	79.646991
865.000000	79.633353
866.000000	79.625358
867.000000	79.611511
868.000000	79.604131
869.000000	79.567237
870.000000	79.538392
871.000000	79.555856
872.000000	79.762381
873.000000	80.226421
874.000000	80.803745
875.000000	81.248580
876.000000	81.750084
877.000000	82.236281
878.000000	82.604000
879.000000	82.928950
880.000000	83.235411
881.000000	83.517675
882.000000	83.765718
883.000000	84.004610
884.000000	84.156446
885.000000	84.379433
886.000000	84.549052
887.000000	84.725016
888.000000	84.850673
889.000000	85.018799
890.000000	85.117473
891.000000	85.253823
892.000000	85.380661
893.000000	85.450675
894.000000	85.512106
895.000000	85.601482
896.000000	85.679945
897.000000	85.731896
898.000000	85.748147
899.000000	85.759209
900.000000	85.821133
901.000000	85.844991
902.000000	85.891039
903.000000	85.893741
904.000000	85.891221
905.000000	85.893219
906.000000	85.896518
907.000000	85.893945
908.000000	85.891708
909.000000	85.880135
910.000000	85.856993
911.000000	85.839002
912.000000	85.826023
913.000000	85.813581
914.000000	85.775760
915.000000	85.754244
916.000000	85.722055
917.000000	85.727488
918.000000	85.690081
919.000000	85.625783
920.000000	85.595900
921.000000	85.555392
922.000000	85.522652
923.000000	85.503575
924.000000	85.457540
925.000000	85.411808
926.000000	85.384140
927.000000	85.335179
928.000000	85.310411
929.000000	85.248952
930.000000	85.208337
931.000000	85.152801
932.000000	85.111355
933.000000	85.044846
934.000000	84.990878
935.000000	84.898235
936.000000	84.841253
937.000000	84.782831
938.000000	84.709537
939.000000	84.658423
940.000000	84.586566
941.000000	84.529606
942.000000	84.469261
943.000000	84.410084
944.000000	84.346716
945.000000	84.298419
946.000000	84.226136
947.000000	84.174392
948.000000	84.104863
949.000000	84.046725
950.000000	83.989635
951.000000	83.921941
952.000000	83.871475
953.000000	83.813989
954.000000	83.752171
955.000000	83.698733
956.000000	83.634497
957.000000	83.559789
958.000000	83.507703
959.000000	83.469210
960.000000	83.409275
961.000000	83.357089
962.000000	83.288211
963.000000	83.244668
964.000000	83.203035
965.000000	83.160989
966.000000	83.114006
967.000000	83.079911
968.000000	83.049117
969.000000	83.014037
970.000000	82.998280
971.000000	82.967730
972.000000	82.936888
973.000000	82.903964
974.000000	82.896237
975.000000	82.871274
976.000000	82.839983
977.000000	82.822233
978.000000	82.802786
979.000000	82.780598
980.000000	82.764569
981.000000	82.743899
982.000000	82.732620
983.000000	82.706183
984.000000	82.702560
985.000000	82.690968
986.000000	82.676927
987.000000	82.672512
988.000000	82.664778
989.000000	82.642214
990.000000	82.640467
991.000000	82.640823
992.000000	82.649040
993.000000	82.642477
994.000000	82.628417
995.000000	82.631995
996.000000	82.636014
997.000000	82.634074
998.000000	82.619455
999.000000	82.613552
1000.000000	82.608119
1001.000000	82.605385
1002.000000	82.601557
1003.000000	82.591324
1004.000000	82.590307
1005.000000	82.581202
1006.000000	82.567472
1007.000000	82.560292
1008.000000	82.558358
1009.000000	82.541288
1010.000000	82.523461
1011.000000	82.519953
1012.000000	82.523287
1013.000000	82.527452
1014.000000	82.518049
1015.000000	82.501311
1016.000000	82.503447
1017.000000	82.506522
1018.000000	82.515051
1019.000000	82.517356
1020.000000	82.510479
1021.000000	82.528602
1022.000000	82.539475
1023.000000	82.538910
1024.000000	82.551459
1025.000000	82.565422
1026.000000	82.577703
1027.000000	82.587930
1028.000000	82.595910
1029.000000	82.602875
1030.000000	82.610775
1031.000000	82.624789
1032.000000	82.642098
1033.000000	82.657989
1034.000000	82.680498
1035.000000	82.699102
1036.000000	82.712691
1037.000000	82.726673
1038.000000	82.738970
1039.000000	82.759265
1040.000000	82.783635
1041.000000	82.806302
1042.000000	82.834153
1043.000000	82.865439
1044.000000	82.887095
1045.000000	82.903151
1046.000000	82.919195
1047.000000	82.944832
1048.000000	82.970785
1049.000000	82.993756
1050.000000	83.020483
1051.000000	83.043540
1052.000000	83.061456
1053.000000	83.091998
1054.000000	83.126092
1055.000000	83.150085
1056.000000	83.175441
1057.000000	83.211009
1058.000000	83.238893
1059.000000	83.273365
1060.000000	83.304699
1061.000000	83.343973
1062.000000	83.367560
1063.000000	83.393470
1064.000000	83.429444
1065.000000	83.453315
1066.000000	83.478497
1067.000000	83.514626
1068.000000	83.545269
1069.000000	83.578487
1070.000000	83.617247
1071.000000	83.649241
1072.000000	83.680106
1073.000000	83.705681
1074.000000	83.737780
1075.000000	83.770468
1076.000000	83.799970
1077.000000	83.831973
1078.000000	83.857332
1079.000000	83.891474
1080.000000	83.917988
1081.000000	83.945677
1082.000000	83.978378
1083.000000	84.006209
1084.000000	84.036794
1085.000000	84.065968
1086.000000	84.088236
1087.000000	84.115379
1088.000000	84.150010
1089.000000	84.170673
1090.000000	84.189627
1091.000000	84.223366
1092.000000	84.251801
1093.000000	84.273364
1094.000000	84.301662
1095.000000	84.323568
1096.000000	84.344180
1097.000000	84.361712
1098.000000	84.386719
1099.000000	84.412755
1100.000000	84.437054
1101.000000	84.459150
1102.000000	84.488978
1103.000000	84.511667
1104.000000	84.528456
1105.000000	84.559448
1106.000000	84.576691
1107.000000	84.593821
1108.000000	84.634568
1109.000000	84.645369
1110.000000	84.660513
1111.000000	84.684880
1112.000000	84.709802
1113.000000	84.746537
1114.000000	84.763048
1115.000000	84.788635
1116.000000	84.804543
1117.000000	84.838553
1118.000000	84.859920
1119.000000	84.873889
1120.000000	84.900933
1121.000000	84.924563
1122.000000	84.943110
1123.000000	84.966894
1124.000000	84.978096
1125.000000	84.952164
1126.000000	84.949051
1127.000000	84.927299
1128.000000	84.906440
1129.000000	84.882580
1130.000000	84.861722
1131.000000	84.794411
1132.000000	84.752948
1133.000000	84.714529
1134.000000	84.710857
1135.000000	84.666907
1136.000000	84.582091
1137.000000	84.500912
1138.000000	84.419048
1139.000000	84.350713
1140.000000	84.291231
1141.000000	84.248295
1142.000000	84.194330
1143.000000	84.157237
1144.000000	84.116670
1145.000000	84.092737
1146.000000	84.058067
1147.000000	84.048291
1148.000000	84.009444
1149.000000	83.972241
1150.000000	83.937161
1151.000000	83.885014
1152.000000	83.847884
1153.000000	83.814276
1154.000000	83.753309
1155.000000	83.691226
1156.000000	83.604019
1157.000000	83.523232
1158.000000	83.441753
1159.000000	83.329581
1160.000000	83.257424
1161.000000	83.144246
1162.000000	83.025632
1163.000000	82.921640
1164.000000	82.804918
1165.000000	82.698330
1166.000000	82.584259
1167.000000	82.466948
1168.000000	82.362654
