PE UV       SUBTECH     SPECTRUM    ASCII       PEDS        4.00        
   -1
INBUCR0145-3.Sample.ASC
24/04/29
15:39:56.00
24/04/29
15:39:56.00
Vinicio Soto Monge
C. kalinini
250,000000
1
Lambda 1050
1050L1511233
PerkinElmer UV WinLab 6.3.2.0749 / 2.02.05 Lambda 900 UV/VIS/NIR, Aug  7 2015 09:38:08

0
0
3350/servo 860,8/2
0
0
UV/VIS
1
1
1
DoubleDePol,CommonBeamDepol,RBeamAtt,SBeamAtt,60mm sphere, WB InGaAs Detector
0
0
0
0
Program
Program
3350/servo 860,8/2
3350/0,2 860,8/0,2
3350/0,2 860,8/0,2
0
15.00
 
 
 
0
 
860,8
319,2
860,8
Front
100
on
S:100 R:100
0
0
0
0
 
0
 
 
 
0
 
 
0
0
0
0
0
 
 
 
 
0
0


0
0
#HDR
-1
-1
#GR
nm
%R
1.0
0.0
2500,000000
-1,000000
2251
8
88,998600
5,964700
#DATA
250.000000	7.025633
251.000000	7.005900
252.000000	6.950000
253.000000	6.904867
254.000000	6.879700
255.000000	6.922233
256.000000	6.853533
257.000000	6.857700
258.000000	6.789433
259.000000	6.809767
260.000000	6.739367
261.000000	6.722600
262.000000	6.705133
263.000000	6.629933
264.000000	6.612167
265.000000	6.579867
266.000000	6.539833
267.000000	6.499567
268.000000	6.496200
269.000000	6.444900
270.000000	6.426133
271.000000	6.407700
272.000000	6.382967
273.000000	6.385833
274.000000	6.342033
275.000000	6.332067
276.000000	6.325633
277.000000	6.329467
278.000000	6.312333
279.000000	6.314867
280.000000	6.291967
281.000000	6.301600
282.000000	6.317500
283.000000	6.331000
284.000000	6.293967
285.000000	6.293100
286.000000	6.273067
287.000000	6.309100
288.000000	6.285267
289.000000	6.265567
290.000000	6.300733
291.000000	6.267900
292.000000	6.219000
293.000000	6.281133
294.000000	6.275000
295.000000	6.269733
296.000000	6.230867
297.000000	6.227067
298.000000	6.212833
299.000000	6.206867
300.000000	6.221167
301.000000	6.241200
302.000000	6.199967
303.000000	6.204767
304.000000	6.202900
305.000000	6.225900
306.000000	6.188833
307.000000	6.163667
308.000000	6.144133
309.000000	6.201600
310.000000	6.175267
311.000000	6.142933
312.000000	6.164700
313.000000	6.170000
314.000000	6.116900
315.000000	6.125100
316.000000	6.343267
317.000000	8.228100
318.000000	7.573000
319.000000	7.055667
320.000000	8.018900
321.000000	7.359633
322.000000	7.125267
323.000000	7.666300
324.000000	7.284500
325.000000	7.263467
326.000000	6.809633
327.000000	6.932900
328.000000	6.650767
329.000000	6.486867
330.000000	6.525333
331.000000	6.905767
332.000000	6.354867
333.000000	6.548900
334.000000	6.401867
335.000000	6.575700
336.000000	6.618233
337.000000	6.489967
338.000000	6.487800
339.000000	6.592133
340.000000	6.399500
341.000000	6.488067
342.000000	6.638400
343.000000	6.567200
344.000000	6.434567
345.000000	6.295467
346.000000	6.334133
347.000000	6.366500
348.000000	6.330300
349.000000	6.326500
350.000000	6.408733
351.000000	6.371333
352.000000	6.369800
353.000000	6.379933
354.000000	6.321333
355.000000	6.347400
356.000000	6.533000
357.000000	6.485533
358.000000	6.417167
359.000000	6.312267
360.000000	6.416000
361.000000	6.408467
362.000000	6.404900
363.000000	6.244700
364.000000	6.261467
365.000000	6.351067
366.000000	6.349567
367.000000	6.411300
368.000000	6.303767
369.000000	6.324000
370.000000	6.272933
371.000000	6.193667
372.000000	6.084567
373.000000	5.991000
374.000000	6.069667
375.000000	6.315233
376.000000	6.775767
377.000000	6.926633
378.000000	7.002900
379.000000	7.088833
380.000000	7.169233
381.000000	7.232567
382.000000	7.325433
383.000000	7.424033
384.000000	7.536600
385.000000	7.650533
386.000000	7.775300
387.000000	7.897400
388.000000	8.038133
389.000000	8.199867
390.000000	8.359033
391.000000	8.535333
392.000000	8.719800
393.000000	8.909900
394.000000	9.105567
395.000000	9.309400
396.000000	9.524467
397.000000	9.741833
398.000000	9.971733
399.000000	10.207667
400.000000	10.446567
401.000000	10.696533
402.000000	10.954667
403.000000	11.234433
404.000000	11.516900
405.000000	11.794000
406.000000	12.044100
407.000000	12.311033
408.000000	12.604500
409.000000	12.882200
410.000000	13.160533
411.000000	13.453900
412.000000	13.759300
413.000000	14.044467
414.000000	14.326400
415.000000	14.610233
416.000000	14.900467
417.000000	15.171867
418.000000	15.427267
419.000000	15.692933
420.000000	15.962600
421.000000	16.244367
422.000000	16.484433
423.000000	16.711067
424.000000	16.940733
425.000000	17.169033
426.000000	17.405500
427.000000	17.614833
428.000000	17.811367
429.000000	18.011933
430.000000	18.200233
431.000000	18.377500
432.000000	18.550200
433.000000	18.706733
434.000000	18.853400
435.000000	18.997533
436.000000	19.113033
437.000000	19.208833
438.000000	19.323867
439.000000	19.433000
440.000000	19.533867
441.000000	19.628333
442.000000	19.700333
443.000000	19.771533
444.000000	19.851100
445.000000	19.927533
446.000000	20.017133
447.000000	20.099367
448.000000	20.166300
449.000000	20.249367
450.000000	20.354933
451.000000	20.469833
452.000000	20.580133
453.000000	20.703900
454.000000	20.879000
455.000000	21.047000
456.000000	21.211800
457.000000	21.395167
458.000000	21.595067
459.000000	21.819500
460.000000	22.047833
461.000000	22.279433
462.000000	22.529567
463.000000	22.797833
464.000000	23.072433
465.000000	23.349933
466.000000	23.615067
467.000000	23.888900
468.000000	24.166933
469.000000	24.445100
470.000000	24.739467
471.000000	25.015367
472.000000	25.290633
473.000000	25.583800
474.000000	25.876833
475.000000	26.148700
476.000000	26.424100
477.000000	26.711800
478.000000	27.009000
479.000000	27.298567
480.000000	27.608033
481.000000	27.925167
482.000000	28.231667
483.000000	28.554100
484.000000	28.888500
485.000000	29.213700
486.000000	29.569067
487.000000	29.963900
488.000000	30.382533
489.000000	30.807867
490.000000	31.255667
491.000000	31.753733
492.000000	32.251400
493.000000	32.759300
494.000000	33.299200
495.000000	33.861033
496.000000	34.452000
497.000000	35.047600
498.000000	35.655133
499.000000	36.276700
500.000000	36.918633
501.000000	37.573933
502.000000	38.235800
503.000000	38.893533
504.000000	39.574700
505.000000	40.255067
506.000000	40.914333
507.000000	41.547267
508.000000	42.181100
509.000000	42.816700
510.000000	43.443433
511.000000	44.101067
512.000000	44.737533
513.000000	45.375433
514.000000	46.046733
515.000000	46.697500
516.000000	47.354833
517.000000	48.003233
518.000000	48.669100
519.000000	49.331500
520.000000	49.992600
521.000000	50.646600
522.000000	51.313900
523.000000	51.962333
524.000000	52.607767
525.000000	53.239500
526.000000	53.857533
527.000000	54.479900
528.000000	55.096267
529.000000	55.718133
530.000000	56.328733
531.000000	56.948933
532.000000	57.575600
533.000000	58.176367
534.000000	58.768333
535.000000	59.349000
536.000000	59.910300
537.000000	60.453800
538.000000	60.952867
539.000000	61.451967
540.000000	61.932667
541.000000	62.386967
542.000000	62.808133
543.000000	63.230467
544.000000	63.634833
545.000000	64.013133
546.000000	64.396900
547.000000	64.767500
548.000000	65.167433
549.000000	65.542967
550.000000	65.919367
551.000000	66.279800
552.000000	66.636300
553.000000	66.989967
554.000000	67.326833
555.000000	67.669067
556.000000	67.953233
557.000000	68.233800
558.000000	68.507133
559.000000	68.772667
560.000000	69.082700
561.000000	69.302800
562.000000	69.526400
563.000000	69.737867
564.000000	69.894167
565.000000	70.083100
566.000000	70.271533
567.000000	70.419567
568.000000	70.594467
569.000000	70.730733
570.000000	70.874200
571.000000	71.015800
572.000000	71.153700
573.000000	71.299933
574.000000	71.383067
575.000000	71.506767
576.000000	71.581533
577.000000	71.678933
578.000000	71.730367
579.000000	71.756900
580.000000	71.817233
581.000000	71.794967
582.000000	71.825367
583.000000	71.841700
584.000000	71.822767
585.000000	71.778967
586.000000	71.722267
587.000000	71.698333
588.000000	71.611133
589.000000	71.507200
590.000000	71.449500
591.000000	71.333100
592.000000	71.228167
593.000000	71.100400
594.000000	71.005700
595.000000	70.875200
596.000000	70.741733
597.000000	70.609533
598.000000	70.451600
599.000000	70.294667
600.000000	70.135267
601.000000	69.906267
602.000000	69.740633
603.000000	69.538600
604.000000	69.326467
605.000000	69.073967
606.000000	68.813767
607.000000	68.571733
608.000000	68.261267
609.000000	67.971300
610.000000	67.696933
611.000000	67.431167
612.000000	67.113767
613.000000	66.848000
614.000000	66.583967
615.000000	66.336767
616.000000	66.113867
617.000000	65.841900
618.000000	65.635767
619.000000	65.406600
620.000000	65.210500
621.000000	65.003167
622.000000	64.808067
623.000000	64.579167
624.000000	64.373333
625.000000	64.123233
626.000000	63.900300
627.000000	63.617267
628.000000	63.399100
629.000000	63.110633
630.000000	62.860600
631.000000	62.635200
632.000000	62.337467
633.000000	62.079233
634.000000	61.827533
635.000000	61.597500
636.000000	61.346467
637.000000	61.141967
638.000000	60.922333
639.000000	60.707767
640.000000	60.486267
641.000000	60.241667
642.000000	59.981367
643.000000	59.738733
644.000000	59.490500
645.000000	59.262700
646.000000	59.002567
647.000000	58.779867
648.000000	58.545333
649.000000	58.301533
650.000000	58.098267
651.000000	57.895833
652.000000	57.728633
653.000000	57.571100
654.000000	57.414167
655.000000	57.280633
656.000000	57.140900
657.000000	57.042267
658.000000	56.974667
659.000000	56.920833
660.000000	56.856300
661.000000	56.806267
662.000000	56.837667
663.000000	56.908900
664.000000	56.960367
665.000000	57.062933
666.000000	57.164067
667.000000	57.308800
668.000000	57.507667
669.000000	57.697500
670.000000	57.932900
671.000000	58.224600
672.000000	58.483700
673.000000	58.765533
674.000000	59.096967
675.000000	59.449200
676.000000	59.819867
677.000000	60.187067
678.000000	60.577067
679.000000	61.006833
680.000000	61.462067
681.000000	61.934833
682.000000	62.387200
683.000000	62.860800
684.000000	63.378500
685.000000	63.873433
686.000000	64.390367
687.000000	64.926433
688.000000	65.427633
689.000000	65.970700
690.000000	66.512167
691.000000	67.059033
692.000000	67.605833
693.000000	68.168367
694.000000	68.712633
695.000000	69.247633
696.000000	69.805100
697.000000	70.357300
698.000000	70.879300
699.000000	71.415700
700.000000	71.949133
701.000000	72.465200
702.000000	72.965367
703.000000	73.513500
704.000000	74.001367
705.000000	74.481333
706.000000	74.958933
707.000000	75.374833
708.000000	75.753233
709.000000	76.158667
710.000000	76.554467
711.000000	76.935467
712.000000	77.255433
713.000000	77.571800
714.000000	77.908800
715.000000	78.161067
716.000000	78.439067
717.000000	78.700133
718.000000	78.924233
719.000000	79.094000
720.000000	79.230567
721.000000	79.396500
722.000000	79.546167
723.000000	79.709733
724.000000	79.807667
725.000000	79.889267
726.000000	79.977933
727.000000	80.075300
728.000000	80.160067
729.000000	80.259000
730.000000	80.298400
731.000000	80.338133
732.000000	80.410900
733.000000	80.432333
734.000000	80.443733
735.000000	80.508033
736.000000	80.586067
737.000000	80.650800
738.000000	80.722900
739.000000	80.824367
740.000000	80.839533
741.000000	80.884967
742.000000	81.011000
743.000000	81.129433
744.000000	81.221500
745.000000	81.317433
746.000000	81.446700
747.000000	81.535900
748.000000	81.674633
749.000000	81.834833
750.000000	81.912633
751.000000	81.972867
752.000000	82.171233
753.000000	82.388900
754.000000	82.451367
755.000000	82.545700
756.000000	82.690567
757.000000	82.818867
758.000000	82.885267
759.000000	82.997433
760.000000	83.161300
761.000000	83.304767
762.000000	83.433133
763.000000	83.562400
764.000000	83.629500
765.000000	83.756000
766.000000	83.866267
767.000000	84.004233
768.000000	84.122267
769.000000	84.212567
770.000000	84.343467
771.000000	84.467967
772.000000	84.529067
773.000000	84.606533
774.000000	84.736833
775.000000	84.892967
776.000000	85.021100
777.000000	85.144567
778.000000	85.303933
779.000000	85.449167
780.000000	85.580500
781.000000	85.693633
782.000000	85.857367
783.000000	86.028367
784.000000	86.157100
785.000000	86.257867
786.000000	86.343700
787.000000	86.409700
788.000000	86.527900
789.000000	86.608600
790.000000	86.652267
791.000000	86.731833
792.000000	86.694167
793.000000	86.708667
794.000000	86.740933
795.000000	86.857500
796.000000	86.895967
797.000000	86.947000
798.000000	86.965033
799.000000	86.961400
800.000000	86.937300
801.000000	86.960033
802.000000	86.931900
803.000000	87.073267
804.000000	87.172133
805.000000	87.262933
806.000000	87.256033
807.000000	87.280800
808.000000	87.508200
809.000000	87.558367
810.000000	87.695633
811.000000	87.836933
812.000000	87.888167
813.000000	88.092333
814.000000	88.162800
815.000000	88.353300
816.000000	88.424433
817.000000	88.480300
818.000000	88.606367
819.000000	88.898233
820.000000	88.966800
821.000000	88.884067
822.000000	88.923267
823.000000	89.083967
824.000000	89.130333
825.000000	89.101733
826.000000	89.157700
827.000000	88.967867
828.000000	88.919567
829.000000	89.032233
830.000000	88.917967
831.000000	88.645200
832.000000	88.455533
833.000000	88.258700
834.000000	88.214100
835.000000	87.945733
836.000000	87.571533
837.000000	87.402833
838.000000	87.192300
839.000000	86.931133
840.000000	86.632400
841.000000	86.332400
842.000000	86.151800
843.000000	85.917667
844.000000	85.466500
845.000000	85.486233
846.000000	84.938767
847.000000	84.731400
848.000000	84.421533
849.000000	84.257500
850.000000	84.226900
851.000000	83.861133
852.000000	83.604500
853.000000	83.559067
854.000000	83.264333
855.000000	83.340200
856.000000	83.067100
857.000000	83.058467
858.000000	83.155256
859.000000	80.943678
860.000000	80.866299
861.000000	80.781636
862.000000	80.717253
863.000000	80.626732
864.000000	80.548007
865.000000	80.473530
866.000000	80.399175
867.000000	80.302472
868.000000	80.223808
869.000000	80.120094
870.000000	79.995261
871.000000	79.898777
872.000000	79.980995
873.000000	80.354769
874.000000	80.865953
875.000000	81.316429
876.000000	81.814424
877.000000	82.159223
878.000000	82.586800
879.000000	82.892769
880.000000	83.130539
881.000000	83.419570
882.000000	83.627853
883.000000	83.890333
884.000000	84.086500
885.000000	84.315218
886.000000	84.506995
887.000000	84.703628
888.000000	84.809607
889.000000	84.958853
890.000000	85.100378
891.000000	85.177667
892.000000	85.230183
893.000000	85.281914
894.000000	85.348681
895.000000	85.409303
896.000000	85.408679
897.000000	85.457329
898.000000	85.432568
899.000000	85.409968
900.000000	85.396906
901.000000	85.354759
902.000000	85.303602
903.000000	85.246383
904.000000	85.213341
905.000000	85.150471
906.000000	85.087434
907.000000	85.001538
908.000000	84.925998
909.000000	84.857186
910.000000	84.790728
911.000000	84.694560
912.000000	84.587604
913.000000	84.492273
914.000000	84.404319
915.000000	84.305221
916.000000	84.226984
917.000000	84.124048
918.000000	84.046477
919.000000	83.927806
920.000000	83.842782
921.000000	83.728508
922.000000	83.607822
923.000000	83.515925
924.000000	83.417586
925.000000	83.306979
926.000000	83.223064
927.000000	83.101836
928.000000	82.975654
929.000000	82.871660
930.000000	82.769932
931.000000	82.630889
932.000000	82.514372
933.000000	82.409839
934.000000	82.311605
935.000000	82.198734
936.000000	82.070874
937.000000	81.949718
938.000000	81.845014
939.000000	81.743008
940.000000	81.622201
941.000000	81.493343
942.000000	81.390782
943.000000	81.293662
944.000000	81.187080
945.000000	81.058304
946.000000	80.956618
947.000000	80.853967
948.000000	80.729465
949.000000	80.625540
950.000000	80.533229
951.000000	80.427910
952.000000	80.341687
953.000000	80.230262
954.000000	80.108208
955.000000	80.015482
956.000000	79.920714
957.000000	79.822836
958.000000	79.723300
959.000000	79.631770
960.000000	79.517101
961.000000	79.412120
962.000000	79.303437
963.000000	79.188839
964.000000	79.072450
965.000000	78.954949
966.000000	78.824500
967.000000	78.700938
968.000000	78.562866
969.000000	78.434165
970.000000	78.327522
971.000000	78.186753
972.000000	78.044737
973.000000	77.935117
974.000000	77.825041
975.000000	77.704237
976.000000	77.584663
977.000000	77.472935
978.000000	77.379324
979.000000	77.279834
980.000000	77.183291
981.000000	77.074577
982.000000	76.990148
983.000000	76.909966
984.000000	76.822977
985.000000	76.731407
986.000000	76.665080
987.000000	76.591800
988.000000	76.516587
989.000000	76.455291
990.000000	76.396012
991.000000	76.323035
992.000000	76.279151
993.000000	76.224232
994.000000	76.172121
995.000000	76.117421
996.000000	76.072626
997.000000	76.022732
998.000000	75.981676
999.000000	75.934840
1000.000000	75.882265
1001.000000	75.834438
1002.000000	75.779297
1003.000000	75.731225
1004.000000	75.676738
1005.000000	75.615284
1006.000000	75.555648
1007.000000	75.502049
1008.000000	75.449067
1009.000000	75.388011
1010.000000	75.328982
1011.000000	75.285682
1012.000000	75.225422
1013.000000	75.166343
1014.000000	75.109800
1015.000000	75.055835
1016.000000	75.015272
1017.000000	74.972206
1018.000000	74.937020
1019.000000	74.902223
1020.000000	74.864384
1021.000000	74.823761
1022.000000	74.793715
1023.000000	74.771787
1024.000000	74.751653
1025.000000	74.736625
1026.000000	74.718562
1027.000000	74.710282
1028.000000	74.700792
1029.000000	74.690723
1030.000000	74.690480
1031.000000	74.693586
1032.000000	74.686766
1033.000000	74.679819
1034.000000	74.686517
1035.000000	74.701986
1036.000000	74.703367
1037.000000	74.698542
1038.000000	74.709666
1039.000000	74.722599
1040.000000	74.733833
1041.000000	74.740538
1042.000000	74.751589
1043.000000	74.775736
1044.000000	74.781925
1045.000000	74.781748
1046.000000	74.807469
1047.000000	74.825742
1048.000000	74.831857
1049.000000	74.857089
1050.000000	74.881141
1051.000000	74.901027
1052.000000	74.915797
1053.000000	74.943889
1054.000000	74.970969
1055.000000	74.999838
1056.000000	75.017519
1057.000000	75.046410
1058.000000	75.086204
1059.000000	75.111718
1060.000000	75.142214
1061.000000	75.182541
1062.000000	75.207414
1063.000000	75.239161
1064.000000	75.283170
1065.000000	75.318860
1066.000000	75.348612
1067.000000	75.372325
1068.000000	75.414238
1069.000000	75.461202
1070.000000	75.499468
1071.000000	75.545114
1072.000000	75.584298
1073.000000	75.623367
1074.000000	75.658830
1075.000000	75.705098
1076.000000	75.755130
1077.000000	75.791417
1078.000000	75.820681
1079.000000	75.868825
1080.000000	75.913036
1081.000000	75.943098
1082.000000	75.971725
1083.000000	76.010916
1084.000000	76.061249
1085.000000	76.096244
1086.000000	76.126687
1087.000000	76.154967
1088.000000	76.180299
1089.000000	76.219488
1090.000000	76.259500
1091.000000	76.290901
1092.000000	76.315449
1093.000000	76.354731
1094.000000	76.387333
1095.000000	76.421754
1096.000000	76.440336
1097.000000	76.471576
1098.000000	76.502057
1099.000000	76.527416
1100.000000	76.550190
1101.000000	76.581537
1102.000000	76.608219
1103.000000	76.639586
1104.000000	76.662874
1105.000000	76.698730
1106.000000	76.716591
1107.000000	76.739697
1108.000000	76.766417
1109.000000	76.796589
1110.000000	76.820947
1111.000000	76.843089
1112.000000	76.863693
1113.000000	76.894264
1114.000000	76.925024
1115.000000	76.945385
1116.000000	76.973525
1117.000000	77.012486
1118.000000	77.038557
1119.000000	77.053199
1120.000000	77.069925
1121.000000	77.090809
1122.000000	77.116559
1123.000000	77.129415
1124.000000	77.146936
1125.000000	77.130292
1126.000000	77.111022
1127.000000	77.095256
1128.000000	77.069519
1129.000000	77.051641
1130.000000	77.024158
1131.000000	76.957354
1132.000000	76.903866
1133.000000	76.839345
1134.000000	76.822809
1135.000000	76.783910
1136.000000	76.708204
1137.000000	76.635565
1138.000000	76.549994
1139.000000	76.454449
1140.000000	76.399291
1141.000000	76.337771
1142.000000	76.276052
1143.000000	76.222939
1144.000000	76.190161
1145.000000	76.169441
1146.000000	76.125068
1147.000000	76.083110
1148.000000	76.036308
1149.000000	75.998862
1150.000000	75.946865
1151.000000	75.912264
1152.000000	75.869598
1153.000000	75.820769
1154.000000	75.759281
1155.000000	75.674841
1156.000000	75.616987
1157.000000	75.538857
1158.000000	75.449578
1159.000000	75.339953
1160.000000	75.250999
1161.000000	75.119369
1162.000000	75.026864
1163.000000	74.906131
1164.000000	74.789213
1165.000000	74.679173
1166.000000	74.589177
1167.000000	74.474707
