Time1=100ms:Average1=5:Objective=10X:Aperture=1: (11/21/2018 12:09:44 PM)
11/21/2018 12:09:44 PM
Reflectance
10X
Ap#: 1
Avg1: 5.000000
Avg2: 0.000000
Int.Time1:100.000000

420.190645	19.480845
420.624620	19.418135
421.058582	19.357450
421.492531	19.327796
421.926468	19.309067
422.360391	19.323036
422.794301	19.361882
423.228199	19.451142
423.662083	19.547166
424.095955	19.673640
424.529813	19.781198
424.963658	19.894407
425.397491	19.993700
425.831310	20.067025
426.265116	20.132593
426.698909	20.208839
427.132689	20.278011
427.566455	20.375287
428.000209	20.477610
428.433949	20.603397
428.867676	20.744640
429.301389	20.873558
429.735090	20.989142
430.168777	21.100813
430.602451	21.192665
431.036111	21.254047
431.469759	21.309861
431.903392	21.350378
432.337013	21.396922
432.770620	21.447788
433.204213	21.511681
433.637794	21.605894
434.071360	21.720573
434.504914	21.847959
434.938453	21.984672
435.371979	22.127446
435.805492	22.269190
436.238991	22.394464
436.672477	22.511978
437.105949	22.612512
437.539407	22.664154
437.972852	22.722029
438.406283	22.770366
438.839700	22.837054
439.273104	22.918033
439.706494	23.009777
440.139871	23.111750
440.573233	23.227398
441.006582	23.325419
441.439917	23.407820
441.873238	23.467820
442.306546	23.507327
442.739839	23.531626
443.173119	23.541808
443.606385	23.544227
444.039636	23.546921
444.472874	23.565886
444.906099	23.583062
445.339309	23.628666
445.772505	23.682852
446.205687	23.762106
446.638855	23.838997
447.072009	23.900512
447.505149	23.969069
447.938275	24.043591
448.371387	24.101528
448.804485	24.148456
449.237569	24.175845
449.670638	24.177843
450.103694	24.159955
450.536735	24.150181
450.969762	24.155396
451.402774	24.151110
451.835773	24.162265
452.268757	24.186612
452.701727	24.209674
453.134683	24.240456
453.567624	24.247910
454.000551	24.260099
454.433464	24.255758
454.866362	24.240682
455.299246	24.224490
455.732116	24.181127
456.164971	24.123431
456.597811	24.076356
457.030638	24.034662
457.463449	23.980925
457.896246	23.940010
458.329029	23.903060
458.761797	23.874486
459.194551	23.832815
459.627290	23.788817
460.060014	23.753187
460.492724	23.721256
460.925419	23.683017
461.358099	23.636247
461.790765	23.588418
462.223416	23.531884
462.656052	23.464352
463.088674	23.404375
463.521281	23.333500
463.953873	23.253554
464.386450	23.175026
464.819012	23.102031
465.251560	23.036283
465.684093	22.970369
466.116611	22.907472
466.549114	22.854087
466.981602	22.814442
467.414075	22.761472
467.846533	22.715379
468.278977	22.674403
468.711405	22.616184
469.143818	22.575418
469.576216	22.540868
470.008600	22.497435
470.440968	22.446216
470.873321	22.401932
471.305659	22.348930
471.737982	22.312127
472.170289	22.257970
472.602582	22.219172
473.034859	22.188536
473.467122	22.170885
473.899369	22.162170
474.331600	22.165877
474.763817	22.196423
475.196018	22.237137
475.628204	22.297341
476.060375	22.373816
476.492530	22.461860
476.924670	22.553140
477.356795	22.645480
477.788904	22.738130
478.220998	22.834566
478.653076	22.920751
479.085139	23.016358
479.517186	23.116552
479.949219	23.216491
480.381235	23.335788
480.813236	23.473896
481.245221	23.639506
481.677191	23.818396
482.109146	24.013402
482.541084	24.210146
482.973008	24.407347
483.404915	24.605662
483.836807	24.799143
484.268683	24.979310
484.700544	25.145440
485.132388	25.295977
485.564217	25.443676
485.996031	25.575498
486.427828	25.694812
486.859610	25.807580
487.291376	25.911386
487.723126	26.021537
488.154860	26.132864
488.586579	26.255637
489.018281	26.391273
489.449968	26.544830
489.881639	26.717749
490.313293	26.906672
490.744932	27.117544
491.176555	27.319428
491.608162	27.521304
492.039753	27.709753
492.471328	27.862001
492.902886	27.986031
493.334429	28.082243
493.765956	28.148239
494.197466	28.197693
494.628960	28.230856
495.060439	28.271354
495.491901	28.318796
495.923347	28.391031
496.354776	28.476934
496.786190	28.581125
497.217587	28.694240
497.648968	28.828719
498.080332	28.964414
498.511681	29.094309
498.943013	29.200608
499.374328	29.296995
499.805628	29.375160
500.236911	29.434234
500.668177	29.462905
501.099427	29.469878
501.530661	29.456850
501.961878	29.422139
502.393079	29.375032
502.824264	29.321112
503.255431	29.258984
503.686583	29.200682
504.117717	29.158350
504.548835	29.151653
504.979937	29.163998
505.411022	29.205070
505.842090	29.282947
506.273142	29.394796
506.704177	29.544255
507.135195	29.710059
507.566197	29.882902
507.997182	30.054071
508.428150	30.214662
508.859102	30.356938
509.290036	30.485977
509.720954	30.607666
510.151855	30.719672
510.582739	30.839999
511.013607	30.967845
511.444457	31.125247
511.875291	31.310506
512.306107	31.549536
512.736907	31.828656
513.167690	32.149891
513.598456	32.512789
514.029205	32.926115
514.459936	33.365608
514.890651	33.821319
515.321349	34.285951
515.752030	34.758310
516.182693	35.223767
516.613340	35.685777
517.043969	36.146993
517.474582	36.589688
517.905177	37.014430
518.335755	37.424458
518.766315	37.829606
519.196859	38.237399
519.627385	38.638975
520.057894	39.037224
520.488386	39.447058
520.918860	39.879254
521.349318	40.341407
521.779757	40.838520
522.210180	41.389410
522.640585	41.964242
523.070973	42.584037
523.501343	43.229842
523.931696	43.894874
524.362031	44.569835
524.792349	45.244505
525.222650	45.922513
525.652933	46.565714
526.083198	47.179468
526.513446	47.756225
526.943677	48.299474
527.373890	48.812926
527.804085	49.300828
528.234262	49.775206
528.664422	50.252444
529.094565	50.730145
529.524689	51.223357
529.954796	51.724830
530.384885	52.245956
530.814957	52.780857
531.245011	53.342524
531.675047	53.915012
532.105065	54.493031
532.535065	55.066621
532.965048	55.632373
533.395013	56.165036
533.824959	56.675302
534.254888	57.144135
534.684799	57.568831
535.114693	57.955846
535.544568	58.290609
535.974425	58.584721
536.404264	58.825983
536.834086	59.035102
537.263889	59.221976
537.693674	59.392559
538.123441	59.553135
538.553190	59.690098
538.982921	59.855549
539.412634	60.035391
539.842329	60.255116
540.272006	60.488712
540.701664	60.747193
541.131304	61.047292
541.560926	61.365994
541.990530	61.714855
542.420116	62.089589
542.849683	62.468317
543.279232	62.868423
543.708763	63.250953
544.138275	63.634084
544.567769	63.986234
544.997245	64.332138
545.426702	64.660241
545.856141	64.975202
546.285562	65.285801
546.714964	65.592724
547.144347	65.905644
547.573713	66.230522
548.003059	66.585171
548.432387	66.961887
548.861697	67.369574
549.290988	67.822001
549.720260	68.315321
550.149514	68.842519
550.578750	69.399669
551.007966	69.976490
551.437164	70.587830
551.866344	71.212490
552.295504	71.824337
552.724646	72.442603
553.153769	73.032987
553.582874	73.607308
554.011960	74.136300
554.441027	74.612854
554.870075	75.042997
555.299104	75.415163
555.728115	75.721784
556.157106	75.993684
556.586079	76.213162
557.015033	76.408573
557.443968	76.572994
557.872884	76.722620
558.301781	76.864633
558.730659	77.026626
559.159518	77.174302
559.588358	77.341210
560.017180	77.527116
560.445982	77.720873
560.874765	77.934228
561.303528	78.154462
561.732273	78.393856
562.160999	78.627188
562.589705	78.861505
563.018393	79.084612
563.447061	79.308211
563.875710	79.516183
564.304340	79.716086
564.732950	79.888519
565.161542	80.049666
565.590114	80.187428
566.018666	80.304683
566.447200	80.399913
566.875714	80.479346
567.304208	80.561664
567.732684	80.632101
568.161140	80.712156
568.589576	80.797874
569.017993	80.893842
569.446391	81.007585
569.874769	81.139695
570.303128	81.291995
570.731467	81.470017
571.159787	81.673695
571.588087	81.902055
572.016368	82.135938
572.444629	82.394095
572.872870	82.650633
573.301092	82.906428
573.729294	83.151183
574.157476	83.381359
574.585639	83.575077
575.013782	83.719955
575.441906	83.832499
575.870009	83.888193
576.298093	83.898692
576.726157	83.863291
577.154202	83.789392
577.582226	83.690050
578.010231	83.543276
578.438216	83.389157
578.866181	83.228370
579.294126	83.074311
579.722051	82.934788
580.149957	82.822422
580.577842	82.717854
581.005707	82.639324
581.433553	82.575273
581.861378	82.541635
582.289184	82.519238
582.716969	82.502876
583.144734	82.491810
583.572479	82.492728
584.000205	82.494271
584.427910	82.502226
584.855594	82.502093
585.283259	82.494691
585.710904	82.495152
586.138528	82.484585
586.566132	82.476743
586.993716	82.467262
587.421280	82.449306
587.848823	82.441855
588.276346	82.435059
588.703849	82.409156
589.131332	82.385168
589.558794	82.360577
589.986236	82.316540
590.413657	82.279117
590.841058	82.230188
591.268438	82.194995
591.695799	82.154613
592.123138	82.119165
592.550458	82.092928
592.977756	82.077035
593.405034	82.067318
593.832292	82.082654
594.259529	82.110017
594.686746	82.153508
595.113942	82.198015
595.541117	82.254190
595.968272	82.313161
596.395406	82.374854
596.822519	82.424966
597.249612	82.463718
597.676684	82.470224
598.103735	82.444833
598.530766	82.396485
598.957775	82.313233
599.384764	82.197638
599.811733	82.043361
600.238680	81.871026
600.665606	81.678460
601.092512	81.468417
601.519397	81.250103
601.946261	81.045929
602.373104	80.839343
602.799926	80.637450
603.226727	80.461098
603.653507	80.290947
604.080266	80.133811
604.507004	79.997115
604.933721	79.859457
605.360417	79.737013
605.787092	79.603205
606.213746	79.463231
606.640379	79.314966
607.066991	79.152189
607.493581	78.979825
607.920150	78.799683
608.346699	78.619998
608.773226	78.436152
609.199731	78.250990
609.626216	78.068145
610.052679	77.886797
610.479121	77.704767
610.905542	77.539655
611.331941	77.387957
611.758319	77.234046
612.184676	77.086190
612.611011	76.948304
613.037325	76.809763
613.463617	76.660261
613.889888	76.504641
614.316138	76.335410
614.742366	76.156882
615.168573	75.958477
615.594758	75.749419
616.020921	75.533253
616.447063	75.302175
616.873184	75.061340
617.299283	74.812922
617.725360	74.563695
618.151416	74.323439
618.577450	74.072445
619.003462	73.826941
619.429453	73.597308
619.855422	73.368670
620.281369	73.148851
620.707295	72.933604
621.133199	72.709560
621.559081	72.471444
621.984941	72.223771
622.410779	71.955478
622.836596	71.661830
623.262391	71.350981
623.688163	71.012292
624.113914	70.649502
624.539644	70.256809
624.965351	69.840223
625.391036	69.398025
625.816699	68.933414
626.242340	68.457918
626.667960	67.965109
627.093557	67.464950
627.519132	66.969110
627.944685	66.461502
628.370216	65.957592
628.795725	65.457808
629.221212	64.948120
629.646677	64.436880
630.072119	63.922614
630.497540	63.403520
630.922938	62.862464
631.348314	62.310109
631.773668	61.752135
632.198999	61.179269
632.624308	60.592226
633.049595	59.996030
633.474860	59.387916
633.900102	58.772377
634.325322	58.158604
634.750520	57.554104
635.175695	56.956262
635.600848	56.374204
636.025978	55.817501
636.451086	55.274832
636.876171	54.760125
637.301234	54.255862
637.726275	53.788250
638.151293	53.343273
638.576288	52.916561
639.001261	52.517223
639.426211	52.141217
639.851139	51.771479
640.276044	51.415843
640.700927	51.069009
641.125787	50.733736
641.550624	50.407673
641.975438	50.081209
642.400230	49.763329
642.824999	49.445551
643.249745	49.133138
643.674469	48.830910
644.099169	48.544913
644.523847	48.271553
644.948502	48.015891
645.373135	47.778239
645.797744	47.560829
646.222330	47.360715
646.646894	47.187992
647.071435	47.038121
647.495953	46.908129
647.920447	46.789836
648.344919	46.692597
648.769368	46.608447
649.193794	46.531360
649.618197	46.463578
650.042576	46.402635
650.466933	46.356798
650.891267	46.300709
651.315577	46.251546
651.739864	46.206981
652.164129	46.158768
652.588370	46.106136
653.012587	46.066211
653.436782	46.032157
653.860953	46.003673
654.285102	45.977715
654.709226	45.958270
655.133328	45.949541
655.557406	45.950547
655.981461	45.965704
656.405493	45.992097
656.829501	46.030040
657.253486	46.070643
657.677448	46.117622
658.101386	46.167914
658.525301	46.223705
658.949192	46.280737
659.373060	46.341806
659.796904	46.398229
660.220725	46.455052
660.644522	46.511138
661.068296	46.574450
661.492046	46.639050
661.915772	46.709598
662.339475	46.788995
662.763154	46.884521
663.186810	46.993885
663.610442	47.120502
664.034050	47.272454
664.457635	47.448151
664.881196	47.654440
665.304733	47.894139
665.728247	48.166142
666.151736	48.468839
666.575202	48.799019
666.998644	49.163392
667.422062	49.556952
667.845457	49.967718
668.268827	50.398286
668.692174	50.850795
669.115496	51.313413
669.538795	51.777830
669.962070	52.239102
670.385321	52.704057
670.808547	53.161256
671.231750	53.613062
671.654929	54.050611
672.078084	54.469749
672.501214	54.872947
672.924321	55.260948
673.347404	55.632876
673.770462	55.990995
674.193496	56.327865
674.616506	56.648758
675.039492	56.957743
675.462454	57.247872
675.885391	57.519368
676.308305	57.779693
676.731194	58.034122
677.154058	58.279275
677.576899	58.505475
677.999715	58.727470
678.422507	58.939315
678.845274	59.136731
679.268017	59.323141
679.690736	59.497685
680.113430	59.648901
680.536100	59.796313
680.958746	59.933422
681.381367	60.061909
681.803963	60.168761
682.226535	60.268881
682.649083	60.366776
683.071605	60.457608
683.494104	60.533800
683.916578	60.606330
684.339027	60.668102
684.761451	60.718152
685.183851	60.759716
685.606227	60.796980
686.028577	60.824115
686.450903	60.837309
686.873204	60.837848
687.295481	60.827232
687.717733	60.802526
688.139959	60.752505
688.562162	60.682209
688.984339	60.593239
689.406492	60.480283
689.828619	60.339243
690.250722	60.174684
690.672800	60.003504
691.094853	59.806362
691.516881	59.582620
691.938884	59.345974
692.360863	59.096526
692.782816	58.840460
693.204744	58.581416
693.626647	58.317542
694.048526	58.057064
694.470379	57.803226
694.892207	57.561649
695.314010	57.338066
695.735788	57.133702
696.157540	56.952157
696.579268	56.803721
697.000970	56.677475
697.422648	56.579338
697.844300	56.510419
698.265926	56.473493
698.687528	56.455936
699.109104	56.467579
699.530655	56.503473
699.952181	56.560196
