PE UV       SUBTECH     SPECTRUM    ASCII       PEDS        4.00        
   -1
CICIMAUCR0205-4.ASC
24/06/06
14:47:53.00
24/06/06
14:47:53.00
Vinicio Soto Monge
C. cupreomarginata. Sex F. Ventral
250,000000
1
Lambda 1050
1050L1511233
PerkinElmer UV WinLab 6.3.2.0749 / 2.02.05 Lambda 900 UV/VIS/NIR, Aug  7 2015 09:38:08

0
0
3350/servo 860,8/2
0
0
UV/VIS
1
1
1
DoubleDePol,CommonBeamDepol,RBeamAtt,SBeamAtt,60mm sphere, WB InGaAs Detector
0
0
0
0
Program
Program
3350/servo 860,8/2
3350/0,2 860,8/0,2
3350/0,2 860,8/0,2
0
15.00
 
 
 
0
 
860,8
319,2
860,8
Front
100
on
S:100 R:100
0
0
0
0
 
0
 
 
 
0
 
 
0
0
0
0
0
 
 
 
 
0
0


0
0
#HDR
-1
-1
#GR
nm
%R
1.0
0.0
2500,000000
-1,000000
2251
8
59,445600
4,483100
#DATA
2482.000000	10.628379
2481.000000	10.636748
2480.000000	10.666966
2479.000000	10.607575
2478.000000	10.651741
2477.000000	10.625009
2476.000000	10.691722
2475.000000	10.660574
2474.000000	10.707762
2473.000000	10.670104
2472.000000	10.720198
2471.000000	10.694047
2470.000000	10.765642
2469.000000	10.770988
2468.000000	10.815503
2467.000000	10.834099
2466.000000	10.814922
2465.000000	10.797372
2464.000000	10.866061
2463.000000	10.892561
2462.000000	10.948698
2461.000000	10.991585
2460.000000	10.999837
2459.000000	11.051674
2458.000000	11.082590
2457.000000	11.137448
2456.000000	11.175338
2455.000000	11.220317
2454.000000	11.289355
2453.000000	11.335381
2452.000000	11.338286
2451.000000	11.434289
2450.000000	11.504140
2449.000000	11.546098
2448.000000	11.595726
2447.000000	11.673365
2446.000000	11.696262
2445.000000	11.763672
2444.000000	11.845147
2443.000000	11.920926
2442.000000	11.985664
2441.000000	12.041220
2440.000000	12.104330
2439.000000	12.153377
2438.000000	12.221021
2437.000000	12.295405
2436.000000	12.331203
2435.000000	12.407563
2434.000000	12.478693
2433.000000	12.519953
2432.000000	12.575509
2431.000000	12.668839
2430.000000	12.717305
2429.000000	12.762749
2428.000000	12.819700
2427.000000	12.847710
2426.000000	12.894200
2425.000000	12.954289
2424.000000	13.011937
2423.000000	13.048432
2422.000000	13.119562
2421.000000	13.147224
2420.000000	13.197898
2419.000000	13.232533
2418.000000	13.285997
2417.000000	13.316216
2416.000000	13.359917
2415.000000	13.400247
2414.000000	13.436510
2413.000000	13.461731
2412.000000	13.495087
2411.000000	13.547738
2410.000000	13.583419
2409.000000	13.595390
2408.000000	13.632118
2407.000000	13.659082
2406.000000	13.683722
2405.000000	13.695693
2404.000000	13.716497
2403.000000	13.746251
2402.000000	13.766010
2401.000000	13.782514
2400.000000	13.788209
2399.000000	13.799831
2398.000000	13.821217
2397.000000	13.827958
2396.000000	13.836442
2395.000000	13.852946
2394.000000	13.875610
2393.000000	13.872240
2392.000000	13.882352
2391.000000	13.888047
2390.000000	13.892231
2389.000000	13.906178
2388.000000	13.896647
2387.000000	13.913151
2386.000000	13.923147
2385.000000	13.925471
2384.000000	13.923263
2383.000000	13.908154
2382.000000	13.895718
2381.000000	13.895950
2380.000000	13.888860
2379.000000	13.877005
2378.000000	13.867010
2377.000000	13.863988
2376.000000	13.855387
2375.000000	13.848995
2374.000000	13.840510
2373.000000	13.825982
2372.000000	13.816219
2371.000000	13.818079
2370.000000	13.810408
2369.000000	13.796693
2368.000000	13.776586
2367.000000	13.767521
2366.000000	13.764382
2365.000000	13.759966
2364.000000	13.759617
2363.000000	13.743927
2362.000000	13.729398
2361.000000	13.707664
2360.000000	13.711500
2359.000000	13.722541
2358.000000	13.708827
2357.000000	13.701039
2356.000000	13.679886
2355.000000	13.681978
2354.000000	13.682560
2353.000000	13.640951
2352.000000	13.629444
2351.000000	13.643856
2350.000000	13.640602
2349.000000	13.622122
2348.000000	13.616543
2347.000000	13.599458
2346.000000	13.584233
2345.000000	13.574237
2344.000000	13.556338
2343.000000	13.553433
2342.000000	13.576562
2341.000000	13.581327
2340.000000	13.557384
2339.000000	13.548784
2338.000000	13.562615
2337.000000	13.546692
2336.000000	13.549830
2335.000000	13.564823
2334.000000	13.570867
2333.000000	13.563777
2332.000000	13.569588
2331.000000	13.577956
2330.000000	13.578421
2329.000000	13.589811
2328.000000	13.600853
2327.000000	13.624447
2326.000000	13.621425
2325.000000	13.628166
2324.000000	13.625376
2323.000000	13.619681
2322.000000	13.638161
2321.000000	13.644902
2320.000000	13.645251
2319.000000	13.632582
2318.000000	13.616078
2317.000000	13.625260
2316.000000	13.603294
2315.000000	13.583419
2314.000000	13.563079
2313.000000	13.534372
2312.000000	13.509499
2311.000000	13.497877
2310.000000	13.456617
2309.000000	13.440926
2308.000000	13.409894
2307.000000	13.396877
2306.000000	13.374678
2305.000000	13.368750
2304.000000	13.334696
2303.000000	13.312264
2302.000000	13.297736
2301.000000	13.300293
2300.000000	13.300874
2299.000000	13.303315
2298.000000	13.303896
2297.000000	13.273445
2296.000000	13.293320
2295.000000	13.308894
2294.000000	13.315054
2293.000000	13.345737
2292.000000	13.370958
2291.000000	13.387346
2290.000000	13.403385
2289.000000	13.425584
2288.000000	13.449992
2287.000000	13.468007
2286.000000	13.478932
2285.000000	13.496947
2284.000000	13.529374
2283.000000	13.560987
2282.000000	13.583768
2281.000000	13.623633
2280.000000	13.639440
2279.000000	13.661755
2278.000000	13.707897
2277.000000	13.718008
2276.000000	13.739045
2275.000000	13.772867
2274.000000	13.795298
2273.000000	13.804945
2272.000000	13.842951
2271.000000	13.875843
2270.000000	13.891533
2269.000000	13.927215
2268.000000	13.927447
2267.000000	13.995439
2266.000000	14.026123
2265.000000	14.062501
2264.000000	14.110386
2263.000000	14.186863
2262.000000	14.250903
2261.000000	14.315409
2260.000000	14.383982
2259.000000	14.481147
2258.000000	14.541352
2257.000000	14.649558
2256.000000	14.723361
2255.000000	14.837960
2254.000000	14.957788
2253.000000	15.039263
2252.000000	15.163276
2251.000000	15.241147
2250.000000	15.356094
2249.000000	15.468949
2248.000000	15.580642
2247.000000	15.661070
2246.000000	15.756027
2245.000000	15.824600
2244.000000	15.938734
2243.000000	16.018929
2242.000000	16.076461
2241.000000	16.157703
2240.000000	16.207099
2239.000000	16.244756
2238.000000	16.301242
2237.000000	16.315886
2236.000000	16.339248
2235.000000	16.372372
2234.000000	16.416770
2233.000000	16.406310
2232.000000	16.411540
2231.000000	16.415957
2230.000000	16.396896
2229.000000	16.395733
2228.000000	16.346686
2227.000000	16.350754
2226.000000	16.302172
2225.000000	16.280205
2224.000000	16.232552
2223.000000	16.196871
2222.000000	16.169790
2221.000000	16.108539
2220.000000	16.067396
2219.000000	16.007772
2218.000000	15.967209
2217.000000	15.930947
2216.000000	15.853308
2215.000000	15.801355
2214.000000	15.755911
2213.000000	15.710699
2212.000000	15.678504
2211.000000	15.627597
2210.000000	15.552980
2209.000000	15.522994
2208.000000	15.507769
2207.000000	15.442915
2206.000000	15.424086
2205.000000	15.388637
2204.000000	15.379455
2203.000000	15.347261
2202.000000	15.322621
2201.000000	15.290659
2200.000000	15.284731
2199.000000	15.268344
2198.000000	15.267995
2197.000000	15.219296
2196.000000	15.196981
2195.000000	15.170714
2194.000000	15.167925
2193.000000	15.157697
2192.000000	15.129686
2191.000000	15.116553
2190.000000	15.094586
2189.000000	15.103535
2188.000000	15.117715
2187.000000	15.069598
2186.000000	15.072155
2185.000000	15.055186
2184.000000	15.033916
2183.000000	15.023107
2182.000000	15.016017
2181.000000	14.993470
2180.000000	14.993702
2179.000000	15.011020
2178.000000	14.998816
2177.000000	14.971968
2176.000000	14.989286
2175.000000	14.969760
2174.000000	14.976966
2173.000000	14.966505
2172.000000	14.987077
2171.000000	14.978128
2170.000000	15.001954
2169.000000	15.005325
2168.000000	15.027175
2167.000000	15.032986
2166.000000	15.058440
2165.000000	15.093656
2164.000000	15.117366
2163.000000	15.139914
2162.000000	15.176177
2161.000000	15.200816
2160.000000	15.246377
2159.000000	15.293681
2158.000000	15.335755
2157.000000	15.383756
2156.000000	15.438266
2155.000000	15.486848
2154.000000	15.563092
2153.000000	15.649448
2152.000000	15.709885
2151.000000	15.782991
2150.000000	15.872950
2149.000000	15.919556
2148.000000	15.992198
2147.000000	16.054262
2146.000000	16.130622
2145.000000	16.202682
2144.000000	16.269396
2143.000000	16.349127
2142.000000	16.420489
2141.000000	16.481973
2140.000000	16.569142
2139.000000	16.623071
2138.000000	16.687227
2137.000000	16.768353
2136.000000	16.839367
2135.000000	16.888647
2134.000000	16.961753
2133.000000	17.048457
2132.000000	17.085417
2131.000000	17.116914
2130.000000	17.171540
2129.000000	17.237091
2128.000000	17.274749
2127.000000	17.304619
2126.000000	17.348319
2125.000000	17.391323
2124.000000	17.440487
2123.000000	17.476516
2122.000000	17.500110
2121.000000	17.526261
2120.000000	17.554853
2119.000000	17.558921
2118.000000	17.582979
2117.000000	17.602970
2116.000000	17.632259
2115.000000	17.656899
2114.000000	17.666429
2113.000000	17.665383
2112.000000	17.680493
2111.000000	17.699205
2110.000000	17.699554
2109.000000	17.708736
2108.000000	17.717452
2107.000000	17.719893
2106.000000	17.721404
2105.000000	17.722101
2104.000000	17.713849
2103.000000	17.715477
2102.000000	17.730237
2101.000000	17.717104
2100.000000	17.713966
2099.000000	17.703738
2098.000000	17.701646
2097.000000	17.706411
2096.000000	17.712571
2095.000000	17.705249
2094.000000	17.703854
2093.000000	17.708038
2092.000000	17.703622
2091.000000	17.707341
2090.000000	17.718498
2089.000000	17.708619
2088.000000	17.710014
2087.000000	17.700135
2086.000000	17.686653
2085.000000	17.663524
2084.000000	17.648531
2083.000000	17.630051
2082.000000	17.582049
2081.000000	17.548460
2080.000000	17.523704
2079.000000	17.478027
2078.000000	17.442346
2077.000000	17.400505
2076.000000	17.336232
2075.000000	17.272657
2074.000000	17.203967
2073.000000	17.121331
2072.000000	17.039973
2071.000000	16.974770
2070.000000	16.895039
2069.000000	16.811589
2068.000000	16.720468
2067.000000	16.639924
2066.000000	16.557868
2065.000000	16.461168
2064.000000	16.377718
2063.000000	16.292874
2062.000000	16.203961
2061.000000	16.134458
2060.000000	16.080762
2059.000000	16.018813
2058.000000	15.949775
2057.000000	15.916535
2056.000000	15.884456
2055.000000	15.861676
2054.000000	15.844242
2053.000000	15.837036
2052.000000	15.857492
2051.000000	15.888640
2050.000000	15.928273
2049.000000	16.000914
2048.000000	16.060887
2047.000000	16.135039
2046.000000	16.204658
2045.000000	16.286714
2044.000000	16.378299
2043.000000	16.491503
2042.000000	16.586576
2041.000000	16.660728
2040.000000	16.770445
2039.000000	16.862612
2038.000000	16.932696
2037.000000	17.025096
2036.000000	17.107848
2035.000000	17.186649
2034.000000	17.262894
2033.000000	17.328910
2032.000000	17.400970
2031.000000	17.467335
2030.000000	17.515917
2029.000000	17.560315
2028.000000	17.596926
2027.000000	17.663524
2026.000000	17.715244
2025.000000	17.731748
2024.000000	17.759294
2023.000000	17.801484
2022.000000	17.851112
2021.000000	17.867616
2020.000000	17.867849
2019.000000	17.897137
2018.000000	17.923288
2017.000000	17.925729
2016.000000	17.924915
2015.000000	17.950485
2014.000000	17.948974
2013.000000	17.936189
2012.000000	17.918755
2011.000000	17.902368
2010.000000	17.895975
2009.000000	17.901786
2008.000000	17.881679
2007.000000	17.842046
2006.000000	17.822637
2005.000000	17.794859
2004.000000	17.767778
2003.000000	17.705133
2002.000000	17.669335
2001.000000	17.637605
2000.000000	17.585420
1999.000000	17.531375
1998.000000	17.466521
1997.000000	17.412127
1996.000000	17.369705
1995.000000	17.310779
1994.000000	17.240462
1993.000000	17.179676
1992.000000	17.112265
1991.000000	17.047179
1990.000000	16.972097
1989.000000	16.910497
1988.000000	16.824141
1987.000000	16.765215
1986.000000	16.699780
1985.000000	16.595293
1984.000000	16.535320
1983.000000	16.444897
1982.000000	16.363423
1981.000000	16.317630
1980.000000	16.237085
1979.000000	16.166420
1978.000000	16.102380
1977.000000	16.016372
1976.000000	15.954540
1975.000000	15.894103
1974.000000	15.798217
1973.000000	15.739639
1972.000000	15.688616
1971.000000	15.625622
1970.000000	15.556467
1969.000000	15.472552
1968.000000	15.430362
1967.000000	15.357837
1966.000000	15.301468
1965.000000	15.253350
1964.000000	15.196632
1963.000000	15.115855
1962.000000	15.072271
1961.000000	15.009044
1960.000000	14.928848
1959.000000	14.872595
1958.000000	14.804487
1957.000000	14.732892
1956.000000	14.705462
1955.000000	14.641422
1954.000000	14.553555
1953.000000	14.506716
1952.000000	14.448255
1951.000000	14.382239
1950.000000	14.343768
1949.000000	14.293558
1948.000000	14.209062
1947.000000	14.156644
1946.000000	14.140140
1945.000000	14.061572
1944.000000	14.040767
1943.000000	13.998345
1942.000000	13.948135
1941.000000	13.933142
1940.000000	13.884444
1939.000000	13.885373
1938.000000	13.885838
1937.000000	13.885373
1936.000000	13.881887
1935.000000	13.858758
1934.000000	13.864569
1933.000000	13.890255
1932.000000	13.919660
1931.000000	13.902924
1930.000000	13.965802
1929.000000	13.998229
1928.000000	14.037164
1927.000000	14.073892
1926.000000	14.147346
1925.000000	14.203367
1924.000000	14.280425
1923.000000	14.344465
1922.000000	14.447557
1921.000000	14.555182
1920.000000	14.721037
1919.000000	14.814482
1918.000000	14.920015
1917.000000	15.058672
1916.000000	15.219413
1915.000000	15.328549
1914.000000	15.496030
1913.000000	15.690708
1912.000000	15.903285
1911.000000	16.128763
1910.000000	16.339829
1909.000000	16.525093
1908.000000	16.732904
1907.000000	16.947689
1906.000000	17.231978
1905.000000	17.580887
1904.000000	17.951647
1903.000000	18.302882
1902.000000	18.660857
1901.000000	19.004420
1900.000000	19.397031
1899.000000	19.852403
1898.000000	20.358334
1897.000000	20.823818
1896.000000	21.238046
1895.000000	21.672382
1894.000000	22.044072
1893.000000	22.515600
1892.000000	23.024901
1891.000000	23.629740
1890.000000	24.181580
1889.000000	24.743647
1888.000000	25.263990
1887.000000	25.751208
1886.000000	26.257255
1885.000000	26.743544
1884.000000	27.242966
1883.000000	27.785043
1882.000000	28.276213
1881.000000	28.693812
1880.000000	29.129426
1879.000000	29.482752
1878.000000	29.831313
1877.000000	30.217183
1876.000000	30.552494
1875.000000	30.901287
1874.000000	31.242991
1873.000000	31.570166
1872.000000	31.928723
1871.000000	32.203248
1870.000000	32.495440
1869.000000	32.790653
1868.000000	33.052510
1867.000000	33.233241
1866.000000	33.382475
1865.000000	33.465808
1864.000000	33.576920
1863.000000	33.661765
1862.000000	33.748702
1861.000000	33.862371
1860.000000	33.989057
1859.000000	34.120857
1858.000000	34.247891
1857.000000	34.346451
1856.000000	34.412351
1855.000000	34.454192
1854.000000	34.506494
1853.000000	34.584830
1852.000000	34.613189
1851.000000	34.622022
1850.000000	34.640502
1849.000000	34.638177
1848.000000	34.660260
1847.000000	34.738713
1846.000000	34.775324
1845.000000	34.734296
1844.000000	34.688852
1843.000000	34.601101
1842.000000	34.569953
1841.000000	34.589246
1840.000000	34.611097
1839.000000	34.596104
1838.000000	34.554727
1837.000000	34.514397
1836.000000	34.487084
1835.000000	34.469534
1834.000000	34.413281
1833.000000	34.331806
1832.000000	34.248937
1831.000000	34.179318
1830.000000	34.135152
1829.000000	34.118416
1828.000000	34.088081
1827.000000	34.042056
1826.000000	34.022646
1825.000000	34.009280
1824.000000	33.953492
1823.000000	33.892241
1822.000000	33.844704
1821.000000	33.869228
1820.000000	33.913626
1819.000000	33.912231
1818.000000	33.874226
1817.000000	33.825759
1816.000000	33.765787
1815.000000	33.738823
1814.000000	33.726038
1813.000000	33.700003
1812.000000	33.669668
1811.000000	33.647818
1810.000000	33.630035
1809.000000	33.576571
1808.000000	33.523573
1807.000000	33.497073
1806.000000	33.454883
1805.000000	33.423851
1804.000000	33.396770
1803.000000	33.353534
1802.000000	33.326919
1801.000000	33.319713
1800.000000	33.287402
1799.000000	33.252883
1798.000000	33.222199
1797.000000	33.179893
1796.000000	33.140609
1795.000000	33.112947
1794.000000	33.090399
1793.000000	33.073895
1792.000000	33.063551
1791.000000	33.037749
1790.000000	33.016015
1789.000000	33.001835
1788.000000	32.995443
1787.000000	32.981612
1786.000000	32.962202
1785.000000	32.949185
1784.000000	32.923848
1783.000000	32.907576
1782.000000	32.898046
1781.000000	32.873871
1780.000000	32.832611
1779.000000	32.790188
1778.000000	32.762061
1777.000000	32.704414
1776.000000	32.652809
1775.000000	32.582260
1774.000000	32.524845
1773.000000	32.482306
1772.000000	32.420242
1771.000000	32.343765
1770.000000	32.267405
1769.000000	32.182676
1768.000000	32.106897
1767.000000	32.019030
1766.000000	31.942786
1765.000000	31.883976
1764.000000	31.815635
1763.000000	31.760428
1762.000000	31.713938
1761.000000	31.699409
1760.000000	31.679070
1759.000000	31.640018
1758.000000	31.600036
1757.000000	31.593877
1756.000000	31.580627
1755.000000	31.571096
1754.000000	31.572723
1753.000000	31.576559
1752.000000	31.539832
1751.000000	31.517632
1750.000000	31.495666
1749.000000	31.471026
1748.000000	31.440575
1747.000000	31.414773
1746.000000	31.365144
1745.000000	31.304126
1744.000000	31.250778
1743.000000	31.204172
1742.000000	31.146175
1741.000000	31.056681
1740.000000	30.983110
1739.000000	30.904658
1738.000000	30.830855
1737.000000	30.754262
1736.000000	30.685340
1735.000000	30.611537
1734.000000	30.547380
1733.000000	30.494730
1732.000000	30.424646
1731.000000	30.359908
1730.000000	30.296797
1729.000000	30.245774
1728.000000	30.208117
1727.000000	30.172784
1726.000000	30.150120
1725.000000	30.139776
1724.000000	30.152677
1723.000000	30.187313
1722.000000	30.219042
1721.000000	30.317369
1720.000000	30.430573
1719.000000	30.550402
1718.000000	30.685921
1717.000000	30.874439
1716.000000	31.045523
1715.000000	31.227068
1714.000000	31.398966
1713.000000	31.556568
1712.000000	31.680348
1711.000000	31.825282
1710.000000	31.951387
1709.000000	32.088068
1708.000000	32.181746
1707.000000	32.287628
1706.000000	32.382584
1705.000000	32.440930
1704.000000	32.504970
1703.000000	32.535770
1702.000000	32.598532
1701.000000	32.677682
1700.000000	32.733470
1699.000000	32.787747
1698.000000	32.858180
1697.000000	32.883401
1696.000000	32.918966
1695.000000	32.973011
1694.000000	32.990213
1693.000000	32.998697
1692.000000	33.011947
1691.000000	32.998000
1690.000000	33.038679
1689.000000	33.080055
1688.000000	33.159437
1687.000000	33.263808
1686.000000	33.413623
1685.000000	33.589705
1684.000000	33.801236
1683.000000	34.053329
1682.000000	34.283573
1681.000000	34.569139
1680.000000	34.818908
1679.000000	35.094945
1678.000000	35.353198
1677.000000	35.628305
1676.000000	35.841695
1675.000000	36.044625
1674.000000	36.252553
1673.000000	36.495465
1672.000000	36.721873
1671.000000	36.929452
1670.000000	37.142377
1669.000000	37.339264
1668.000000	37.571250
1667.000000	37.774180
1666.000000	37.946776
1665.000000	38.140292
1664.000000	38.302426
1663.000000	38.484436
1662.000000	38.630648
1661.000000	38.763610
1660.000000	38.916563
1659.000000	39.064751
1658.000000	39.204803
1657.000000	39.327073
1656.000000	39.426213
1655.000000	39.501295
1654.000000	39.581375
1653.000000	39.621356
1652.000000	39.653899
1651.000000	39.674820
1650.000000	39.696554
1649.000000	39.705387
1648.000000	39.688535
1647.000000	39.701784
1646.000000	39.696671
1645.000000	39.681910
1644.000000	39.669241
1643.000000	39.648204
1642.000000	39.622983
1641.000000	39.591370
1640.000000	39.591602
1639.000000	39.575215
1638.000000	39.550807
1637.000000	39.532095
1636.000000	39.504898
1635.000000	39.468287
1634.000000	39.448993
1633.000000	39.416102
1632.000000	39.389602
1631.000000	39.346715
1630.000000	39.287556
1629.000000	39.214799
1628.000000	39.170517
1627.000000	39.116472
1626.000000	39.057894
1625.000000	39.021864
1624.000000	38.956080
1623.000000	38.889715
1622.000000	38.849734
1621.000000	38.798827
1620.000000	38.776395
1619.000000	38.711192
1618.000000	38.654009
1617.000000	38.619955
1616.000000	38.580322
1615.000000	38.533251
1614.000000	38.506519
1613.000000	38.438411
1612.000000	38.385528
1611.000000	38.327415
1610.000000	38.264188
1609.000000	38.184109
1608.000000	38.131575
1607.000000	38.040221
