PE UV       SUBTECH     SPECTRUM    ASCII       PEDS        4.00        
   -1
CICIMAUCR0258-3.ASC
24/07/01
16:22:41.00
24/07/01
16:22:41.00
Vinicio Soto Monge
C. resplendens. Sex M. Ventral
250,000000
1
Lambda 1050
1050L1511233
PerkinElmer UV WinLab 6.3.2.0749 / 2.02.05 Lambda 900 UV/VIS/NIR, Aug  7 2015 09:38:08

0
0
3350/servo 860,8/2
0
0
UV/VIS
1
1
1
DoubleDePol,CommonBeamDepol,RBeamAtt,SBeamAtt,60mm sphere, WB InGaAs Detector
0
0
0
0
Program
Program
3350/servo 860,8/2
3350/0,2 860,8/0,2
3350/0,2 860,8/0,2
0
15.00
 
 
 
0
 
860,8
319,2
860,8
Front
100
on
S:100 R:100
0
0
0
0
 
0
 
 
 
0
 
 
0
0
0
0
0
 
 
 
 
0
0


0
0
#HDR
-1
-1
#GR
nm
%R
1.0
0.0
2500,000000
-1,000000
2251
8
58,614300
3,808100
#DATA
2482.000000	6.447822
2481.000000	6.475614
2480.000000	6.439034
2479.000000	6.426620
2478.000000	6.451996
2477.000000	6.459246
2476.000000	6.430685
2475.000000	6.463420
2474.000000	6.395313
2473.000000	6.376309
2472.000000	6.388722
2471.000000	6.393775
2470.000000	6.394324
2469.000000	6.475284
2468.000000	6.447492
2467.000000	6.487478
2466.000000	6.421457
2465.000000	6.437605
2464.000000	6.464519
2463.000000	6.510986
2462.000000	6.572722
2461.000000	6.539108
2460.000000	6.544381
2459.000000	6.574480
2458.000000	6.582170
2457.000000	6.613148
2456.000000	6.646652
2455.000000	6.637315
2454.000000	6.697294
2453.000000	6.708059
2452.000000	6.736840
2451.000000	6.754416
2450.000000	6.813736
2449.000000	6.890082
2448.000000	6.870089
2447.000000	6.921060
2446.000000	6.971811
2445.000000	6.987960
2444.000000	7.029593
2443.000000	7.048378
2442.000000	7.125603
2441.000000	7.142191
2440.000000	7.172290
2439.000000	7.203597
2438.000000	7.243473
2437.000000	7.276209
2436.000000	7.301804
2435.000000	7.338495
2434.000000	7.370022
2433.000000	7.402757
2432.000000	7.459001
2431.000000	7.488331
2430.000000	7.500745
2429.000000	7.545015
2428.000000	7.580606
2427.000000	7.580826
2426.000000	7.624547
2425.000000	7.671453
2424.000000	7.698257
2423.000000	7.723303
2422.000000	7.749887
2421.000000	7.778119
2420.000000	7.797123
2419.000000	7.812173
2418.000000	7.846995
2417.000000	7.861825
2416.000000	7.864572
2415.000000	7.890716
2414.000000	7.924221
2413.000000	7.952452
2412.000000	7.967502
2411.000000	7.992328
2410.000000	8.007598
2409.000000	8.023306
2408.000000	8.053186
2407.000000	8.067467
2406.000000	8.071421
2405.000000	8.084603
2404.000000	8.128873
2403.000000	8.174352
2402.000000	8.197860
2401.000000	8.230705
2400.000000	8.247513
2399.000000	8.257399
2398.000000	8.273328
2397.000000	8.287279
2396.000000	8.312544
2395.000000	8.340776
2394.000000	8.348685
2393.000000	8.353189
2392.000000	8.361538
2391.000000	8.387353
2390.000000	8.398558
2389.000000	8.403501
2388.000000	8.424593
2387.000000	8.440960
2386.000000	8.464249
2385.000000	8.471938
2384.000000	8.471499
2383.000000	8.467325
2382.000000	8.472268
2381.000000	8.487867
2380.000000	8.490174
2379.000000	8.483363
2378.000000	8.497973
2377.000000	8.502587
2376.000000	8.489734
2375.000000	8.489295
2374.000000	8.490943
2373.000000	8.498522
2372.000000	8.482155
2371.000000	8.475234
2370.000000	8.492041
2369.000000	8.475454
2368.000000	8.468094
2367.000000	8.461722
2366.000000	8.445135
2365.000000	8.436347
2364.000000	8.440191
2363.000000	8.439203
2362.000000	8.433161
2361.000000	8.411520
2360.000000	8.385376
2359.000000	8.369997
2358.000000	8.362307
2357.000000	8.363735
2356.000000	8.351102
2355.000000	8.321552
2354.000000	8.311336
2353.000000	8.313643
2352.000000	8.298813
2351.000000	8.293211
2350.000000	8.287498
2349.000000	8.284972
2348.000000	8.292332
2347.000000	8.300461
2346.000000	8.296836
2345.000000	8.304306
2344.000000	8.332977
2343.000000	8.340996
2342.000000	8.355716
2341.000000	8.382080
2340.000000	8.400316
2339.000000	8.408554
2338.000000	8.426899
2337.000000	8.421077
2336.000000	8.424373
2335.000000	8.455241
2334.000000	8.476662
2333.000000	8.483363
2332.000000	8.488746
2331.000000	8.480287
2330.000000	8.476003
2329.000000	8.480287
2328.000000	8.470840
2327.000000	8.474355
2326.000000	8.472488
2325.000000	8.442608
2324.000000	8.423933
2323.000000	8.409873
2322.000000	8.393944
2321.000000	8.368569
2320.000000	8.328033
2319.000000	8.293760
2318.000000	8.263002
2317.000000	8.217853
2316.000000	8.175450
2315.000000	8.151722
2314.000000	8.097236
2313.000000	8.050110
2312.000000	8.017155
2311.000000	7.963328
2310.000000	7.919717
2309.000000	7.869625
2308.000000	7.858749
2307.000000	7.835791
2306.000000	7.804922
2305.000000	7.808657
2304.000000	7.795256
2303.000000	7.793388
2302.000000	7.796903
2301.000000	7.804703
2300.000000	7.817445
2299.000000	7.848314
2298.000000	7.875667
2297.000000	7.910709
2296.000000	7.942126
2295.000000	7.974423
2294.000000	8.027481
2293.000000	8.058459
2292.000000	8.082187
2291.000000	8.116131
2290.000000	8.137112
2289.000000	8.170287
2288.000000	8.166552
2287.000000	8.184348
2286.000000	8.221698
2285.000000	8.234550
2284.000000	8.238175
2283.000000	8.232683
2282.000000	8.235649
2281.000000	8.232463
2280.000000	8.242130
2279.000000	8.219830
2278.000000	8.217853
2277.000000	8.214777
2276.000000	8.189182
2275.000000	8.176768
2274.000000	8.179075
2273.000000	8.164905
2272.000000	8.178197
2271.000000	8.182481
2270.000000	8.181272
2269.000000	8.181931
2268.000000	8.201485
2267.000000	8.233561
2266.000000	8.264979
2265.000000	8.330121
2264.000000	8.394603
2263.000000	8.457658
2262.000000	8.501708
2261.000000	8.597498
2260.000000	8.680216
2259.000000	8.796878
2258.000000	8.886736
2257.000000	9.000981
2256.000000	9.106768
2255.000000	9.216180
2254.000000	9.348331
2253.000000	9.452030
2252.000000	9.601208
2251.000000	9.708533
2250.000000	9.846176
2249.000000	9.953281
2248.000000	10.043798
2247.000000	10.150134
2246.000000	10.260754
2245.000000	10.342593
2244.000000	10.421027
2243.000000	10.501877
2242.000000	10.588111
2241.000000	10.653582
2240.000000	10.709276
2239.000000	10.779801
2238.000000	10.840219
2237.000000	10.852412
2236.000000	10.905141
2235.000000	10.938865
2234.000000	10.991923
2233.000000	10.993791
2232.000000	11.032019
2231.000000	11.056406
2230.000000	11.057944
2229.000000	11.079035
2228.000000	11.078156
2227.000000	11.067830
2226.000000	11.047069
2225.000000	11.068050
2224.000000	11.041356
2223.000000	11.049925
2222.000000	11.037292
2221.000000	11.013564
2220.000000	10.978082
2219.000000	10.955892
2218.000000	10.897561
2217.000000	10.886466
2216.000000	10.857026
2215.000000	10.823961
2214.000000	10.808472
2213.000000	10.772660
2212.000000	10.739046
2211.000000	10.722019
2210.000000	10.700269
2209.000000	10.669181
2208.000000	10.665556
2207.000000	10.617441
2206.000000	10.621066
2205.000000	10.603929
2204.000000	10.579982
2203.000000	10.566580
2202.000000	10.552958
2201.000000	10.546697
2200.000000	10.530549
2199.000000	10.485510
2198.000000	10.482104
2197.000000	10.490233
2196.000000	10.480896
2195.000000	10.473536
2194.000000	10.449698
2193.000000	10.437065
2192.000000	10.432122
2191.000000	10.414326
2190.000000	10.398507
2189.000000	10.413557
2188.000000	10.413118
2187.000000	10.365772
2186.000000	10.363026
2185.000000	10.361597
2184.000000	10.332707
2183.000000	10.336661
2182.000000	10.325566
2181.000000	10.314142
2180.000000	10.285910
2179.000000	10.286349
2178.000000	10.288876
2177.000000	10.277891
2176.000000	10.269323
2175.000000	10.253504
2174.000000	10.274815
2173.000000	10.265588
2172.000000	10.256140
2171.000000	10.261523
2170.000000	10.250099
2169.000000	10.273607
2168.000000	10.289865
2167.000000	10.287887
2166.000000	10.290524
2165.000000	10.297554
2164.000000	10.309198
2163.000000	10.323040
2162.000000	10.337101
2161.000000	10.363355
2160.000000	10.390269
2159.000000	10.405428
2158.000000	10.433550
2157.000000	10.466395
2156.000000	10.487047
2155.000000	10.523848
2154.000000	10.557352
2153.000000	10.592614
2152.000000	10.641059
2151.000000	10.665775
2150.000000	10.680056
2149.000000	10.721140
2148.000000	10.763653
2147.000000	10.794960
2146.000000	10.856806
2145.000000	10.887565
2144.000000	10.927990
2143.000000	10.963362
2142.000000	10.988957
2141.000000	11.009499
2140.000000	11.057175
2139.000000	11.092657
2138.000000	11.115725
2137.000000	11.143188
2136.000000	11.175924
2135.000000	11.203716
2134.000000	11.251392
2133.000000	11.274350
2132.000000	11.280392
2131.000000	11.295881
2130.000000	11.308404
2129.000000	11.318511
2128.000000	11.342678
2127.000000	11.369152
2126.000000	11.381565
2125.000000	11.379148
2124.000000	11.399141
2123.000000	11.400130
2122.000000	11.398922
2121.000000	11.412104
2120.000000	11.425176
2119.000000	11.423418
2118.000000	11.405842
2117.000000	11.412983
2116.000000	11.418475
2115.000000	11.390243
2114.000000	11.379478
2113.000000	11.379478
2112.000000	11.373985
2111.000000	11.370360
2110.000000	11.342129
2109.000000	11.335538
2108.000000	11.336307
2107.000000	11.332352
2106.000000	11.326090
2105.000000	11.310601
2104.000000	11.296321
2103.000000	11.270616
2102.000000	11.246229
2101.000000	11.241835
2100.000000	11.241615
2099.000000	11.219095
2098.000000	11.203716
2097.000000	11.192511
2096.000000	11.188007
2095.000000	11.172958
2094.000000	11.154723
2093.000000	11.154503
2092.000000	11.158128
2091.000000	11.134180
2090.000000	11.118362
2089.000000	11.119790
2088.000000	11.112759
2087.000000	11.101994
2086.000000	11.097600
2085.000000	11.081781
2084.000000	11.055417
2083.000000	11.040258
2082.000000	11.018178
2081.000000	11.012905
2080.000000	11.010598
2079.000000	10.974567
2078.000000	10.933043
2077.000000	10.903713
2076.000000	10.866034
2075.000000	10.827696
2074.000000	10.796498
2073.000000	10.760577
2072.000000	10.699060
2071.000000	10.643585
2070.000000	10.609202
2069.000000	10.564822
2068.000000	10.512203
2067.000000	10.480127
2066.000000	10.434648
2065.000000	10.373571
2064.000000	10.326445
2063.000000	10.282065
2062.000000	10.239004
2061.000000	10.190559
2060.000000	10.151123
2059.000000	10.120255
2058.000000	10.083125
2057.000000	10.064780
2056.000000	10.042700
2055.000000	10.015676
2054.000000	10.009964
2053.000000	10.007767
2052.000000	10.013150
2051.000000	10.020729
2050.000000	10.033143
2049.000000	10.078621
2048.000000	10.119046
2047.000000	10.142994
2046.000000	10.182101
2045.000000	10.231094
2044.000000	10.281955
2043.000000	10.336002
2042.000000	10.391477
2041.000000	10.436955
2040.000000	10.488036
2039.000000	10.540875
2038.000000	10.597118
2037.000000	10.640070
2036.000000	10.686317
2035.000000	10.733224
2034.000000	10.779911
2033.000000	10.821105
2032.000000	10.844723
2031.000000	10.887345
2030.000000	10.921399
2029.000000	10.955782
2028.000000	10.978741
2027.000000	11.004996
2026.000000	11.018617
2025.000000	11.043883
2024.000000	11.070467
2023.000000	11.072884
2022.000000	11.089910
2021.000000	11.093536
2020.000000	11.111112
2019.000000	11.117373
2018.000000	11.116494
2017.000000	11.112540
2016.000000	11.096721
2015.000000	11.112650
2014.000000	11.113199
2013.000000	11.106059
2012.000000	11.076728
2011.000000	11.085626
2010.000000	11.066183
2009.000000	11.058603
2008.000000	11.047618
2007.000000	11.027185
2006.000000	10.998954
2005.000000	10.979620
2004.000000	10.945127
2003.000000	10.900857
2002.000000	10.889981
2001.000000	10.874053
2000.000000	10.845711
1999.000000	10.810449
1998.000000	10.753876
1997.000000	10.721140
1996.000000	10.681814
1995.000000	10.645563
1994.000000	10.606016
1993.000000	10.569546
1992.000000	10.506931
1991.000000	10.455300
1990.000000	10.422125
1989.000000	10.354018
1988.000000	10.305024
1987.000000	10.260754
1986.000000	10.198029
1985.000000	10.175729
1984.000000	10.102239
1983.000000	10.033582
1982.000000	10.018752
1981.000000	9.969319
1980.000000	9.911208
1979.000000	9.867707
1978.000000	9.808058
1977.000000	9.760163
1976.000000	9.726768
1975.000000	9.662066
1974.000000	9.635591
1973.000000	9.584620
1972.000000	9.519589
1971.000000	9.493774
1970.000000	9.431488
1969.000000	9.390184
1968.000000	9.339872
1967.000000	9.303402
1966.000000	9.267920
1965.000000	9.246828
1964.000000	9.192782
1963.000000	9.130496
1962.000000	9.098090
1961.000000	9.058214
1960.000000	9.009550
1959.000000	8.986811
1958.000000	8.916286
1957.000000	8.910135
1956.000000	8.847410
1955.000000	8.817420
1954.000000	8.800503
1953.000000	8.751070
1952.000000	8.698122
1951.000000	8.664617
1950.000000	8.648249
1949.000000	8.611340
1948.000000	8.585525
1947.000000	8.544880
1946.000000	8.552130
1945.000000	8.502038
1944.000000	8.487647
1943.000000	8.469961
1942.000000	8.433491
1941.000000	8.403721
1940.000000	8.408444
1939.000000	8.400316
1938.000000	8.415695
1937.000000	8.391857
1936.000000	8.396031
1935.000000	8.410532
1934.000000	8.412619
1933.000000	8.405588
1932.000000	8.424153
1931.000000	8.431184
1930.000000	8.460184
1929.000000	8.513572
1928.000000	8.512803
1927.000000	8.575967
1926.000000	8.608374
1925.000000	8.661541
1924.000000	8.715698
1923.000000	8.743051
1922.000000	8.800723
1921.000000	8.843894
1920.000000	8.958249
1919.000000	9.021963
1918.000000	9.090181
1917.000000	9.176304
1916.000000	9.257044
1915.000000	9.333171
1914.000000	9.434674
1913.000000	9.552434
1912.000000	9.676017
1911.000000	9.818164
1910.000000	9.919776
1909.000000	10.028309
1908.000000	10.135963
1907.000000	10.271849
1906.000000	10.433550
1905.000000	10.631612
1904.000000	10.818578
1903.000000	11.047947
1902.000000	11.215251
1901.000000	11.400569
1900.000000	11.616097
1899.000000	11.849092
1898.000000	12.098454
1897.000000	12.372642
1896.000000	12.643864
1895.000000	12.848407
1894.000000	13.085905
1893.000000	13.353503
1892.000000	13.630108
1891.000000	13.982510
1890.000000	14.357542
1889.000000	14.707308
1888.000000	15.038399
1887.000000	15.377839
1886.000000	15.718597
1885.000000	16.110217
1884.000000	16.480525
1883.000000	16.907077
1882.000000	17.350436
1881.000000	17.735903
1880.000000	18.124117
1879.000000	18.520680
1878.000000	18.896261
1877.000000	19.272062
1876.000000	19.668404
1875.000000	20.016303
1874.000000	20.384085
1873.000000	20.736707
1872.000000	21.138322
1871.000000	21.511596
1870.000000	21.871688
1869.000000	22.200143
1868.000000	22.521018
1867.000000	22.779938
1866.000000	23.007769
1865.000000	23.199898
1864.000000	23.396861
1863.000000	23.549555
1862.000000	23.686759
1861.000000	23.861532
1860.000000	24.051794
1859.000000	24.221514
1858.000000	24.382665
1857.000000	24.531514
1856.000000	24.641035
1855.000000	24.717821
1854.000000	24.811085
1853.000000	24.888200
1852.000000	24.953232
1851.000000	24.991351
1850.000000	25.035950
1849.000000	25.037268
1848.000000	25.086042
1847.000000	25.175791
1846.000000	25.227860
1845.000000	25.228299
1844.000000	25.176669
1843.000000	25.134706
1842.000000	25.115592
1841.000000	25.168870
1840.000000	25.207538
1839.000000	25.207098
1838.000000	25.179635
1837.000000	25.163707
1836.000000	25.162608
1835.000000	25.143385
1834.000000	25.116691
1833.000000	25.066379
1832.000000	24.998161
1831.000000	24.970039
1830.000000	24.947081
1829.000000	24.900723
1828.000000	24.867109
1827.000000	24.833824
1826.000000	24.796365
1825.000000	24.765277
1824.000000	24.709363
1823.000000	24.657293
1822.000000	24.636861
1821.000000	24.637410
1820.000000	24.634554
1819.000000	24.632906
1818.000000	24.591932
1817.000000	24.541291
1816.000000	24.524264
1815.000000	24.528767
1814.000000	24.502293
1813.000000	24.471205
1812.000000	24.454398
1811.000000	24.421553
1810.000000	24.404855
1809.000000	24.387279
1808.000000	24.344657
1807.000000	24.308186
1806.000000	24.278197
1805.000000	24.233927
1804.000000	24.183176
1803.000000	24.136819
1802.000000	24.106390
1801.000000	24.079586
1800.000000	24.048389
1799.000000	24.001043
1798.000000	23.945019
1797.000000	23.898332
1796.000000	23.860104
1795.000000	23.818470
1794.000000	23.795182
1793.000000	23.766620
1792.000000	23.715979
1791.000000	23.677202
1790.000000	23.637216
1789.000000	23.585256
1788.000000	23.555047
1787.000000	23.536263
1786.000000	23.497925
1785.000000	23.454753
1784.000000	23.419601
1783.000000	23.371925
1782.000000	23.336114
1781.000000	23.302170
1780.000000	23.246365
1779.000000	23.206929
1778.000000	23.170348
1777.000000	23.120037
1776.000000	23.064232
1775.000000	23.007439
1774.000000	22.939881
1773.000000	22.876936
1772.000000	22.816628
1771.000000	22.749069
1770.000000	22.680412
1769.000000	22.611756
1768.000000	22.545955
1767.000000	22.470817
1766.000000	22.398864
1765.000000	22.346575
1764.000000	22.313510
1763.000000	22.286816
1762.000000	22.262099
1761.000000	22.247819
1760.000000	22.256717
1759.000000	22.282312
1758.000000	22.314389
1757.000000	22.372500
1756.000000	22.421493
1755.000000	22.467521
1754.000000	22.525193
1753.000000	22.544746
1752.000000	22.555072
1751.000000	22.588028
1750.000000	22.597035
1749.000000	22.593081
1748.000000	22.583524
1747.000000	22.562542
1746.000000	22.519261
1745.000000	22.471695
1744.000000	22.408860
1743.000000	22.343938
1742.000000	22.243315
1741.000000	22.150930
1740.000000	22.051295
1739.000000	21.920462
1738.000000	21.779743
1737.000000	21.669233
1736.000000	21.543014
1735.000000	21.428439
1734.000000	21.361979
1733.000000	21.303978
1732.000000	21.256302
1731.000000	21.223237
1730.000000	21.227521
1729.000000	21.225764
1728.000000	21.257401
1727.000000	21.288709
1726.000000	21.337592
1725.000000	21.401306
1724.000000	21.433163
1723.000000	21.481827
1722.000000	21.553889
1721.000000	21.602773
1720.000000	21.669782
1719.000000	21.764364
1718.000000	21.851805
1717.000000	21.938478
1716.000000	22.034817
1715.000000	22.172900
1714.000000	22.296153
1713.000000	22.400512
1712.000000	22.501575
1711.000000	22.602528
1710.000000	22.654927
1709.000000	22.725122
1708.000000	22.785760
1707.000000	22.829920
1706.000000	22.836291
1705.000000	22.830799
1704.000000	22.812563
1703.000000	22.798832
1702.000000	22.768403
1701.000000	22.704580
1700.000000	22.631419
1699.000000	22.569573
1698.000000	22.482461
1697.000000	22.405235
1696.000000	22.321639
1695.000000	22.241667
1694.000000	22.204428
1693.000000	22.177075
1692.000000	22.198715
1691.000000	22.237273
1690.000000	22.283630
1689.000000	22.362174
1688.000000	22.420724
1687.000000	22.522227
1686.000000	22.600990
1685.000000	22.684587
1684.000000	22.781036
1683.000000	22.869796
1682.000000	23.082138
1681.000000	23.275037
1680.000000	23.521872
1679.000000	23.824732
1678.000000	24.123856
1677.000000	24.472853
1676.000000	24.823059
1675.000000	25.124490
1674.000000	25.410652
1673.000000	25.689894
1672.000000	25.926074
1671.000000	26.165220
1670.000000	26.345705
1669.000000	26.523334
1668.000000	26.724362
1667.000000	26.885514
1666.000000	27.002725
1665.000000	27.120046
1664.000000	27.211771
1663.000000	27.325577
1662.000000	27.420708
1661.000000	27.493649
1660.000000	27.567579
1659.000000	27.644585
1658.000000	27.706980
1657.000000	27.747186
1656.000000	27.799475
1655.000000	27.818150
1654.000000	27.841328
1653.000000	27.842646
1652.000000	27.848908
1651.000000	27.837374
1650.000000	27.835836
1649.000000	27.810130
1648.000000	27.811998
1647.000000	27.778493
1646.000000	27.723568
1645.000000	27.715439
1644.000000	27.677101
1643.000000	27.615694
1642.000000	27.582299
1641.000000	27.566700
1640.000000	27.505733
1639.000000	27.459595
1638.000000	27.432902
1637.000000	27.400166
1636.000000	27.336452
1635.000000	27.287569
1634.000000	27.242090
1633.000000	27.178157
1632.000000	27.088409
1631.000000	27.046665
1630.000000	26.989872
1629.000000	26.931431
1628.000000	26.856183
1627.000000	26.776431
1626.000000	26.709202
1625.000000	26.656364
1624.000000	26.574305
1623.000000	26.491148
1622.000000	26.419745
1621.000000	26.356690
1620.000000	26.303303
1619.000000	26.217289
1618.000000	26.149621
1617.000000	26.086237
1616.000000	26.025928
1615.000000	25.952109
1614.000000	25.886088
1613.000000	25.827098
1612.000000	25.761077
1611.000000	25.695496
1610.000000	25.616623
1609.000000	25.554228
1608.000000	25.494469
1607.000000	25.432623
1606.000000	25.353200
1605.000000	25.259827
1604.000000	25.174692
1603.000000	25.110649
1602.000000	25.026613
1601.000000	24.950706
1600.000000	24.880621
1599.000000	24.788016
1598.000000	24.711340
1597.000000	24.651801
1596.000000	24.599072
1595.000000	24.507017
1594.000000	24.424189
1593.000000	24.366298
