PE UV       SUBTECH     SPECTRUM    ASCII       PEDS        4.00        
   -1
CICIMAUCR0238-1.ASC
24/06/20
12:55:16.00
24/06/20
12:55:16.00
Vinicio Soto Monge
C. cupreomarginata. Sex M. Ventral 
250,000000
1
Lambda 1050
1050L1511233
PerkinElmer UV WinLab 6.3.2.0749 / 2.02.05 Lambda 900 UV/VIS/NIR, Aug  7 2015 09:38:08

0
0
3350/servo 860,8/2
0
0
UV/VIS
1
1
1
DoubleDePol,CommonBeamDepol,RBeamAtt,SBeamAtt,60mm sphere, WB InGaAs Detector
0
0
0
0
Program
Program
3350/servo 860,8/2
3350/0,2 860,8/0,2
3350/0,2 860,8/0,2
0
15.00
 
 
 
0
 
860,8
319,2
860,8
Front
100
on
S:100 R:100
0
0
0
0
 
0
 
 
 
0
 
 
0
0
0
0
0
 
 
 
 
0
0


0
0
#HDR
-1
-1
#GR
nm
%R
1.0
0.0
2500,000000
-1,000000
2251
8
57,405400
3,940300
#DATA
2482.000000	6.060139
2481.000000	6.011957
2480.000000	6.032256
2479.000000	5.945371
2478.000000	6.014745
2477.000000	6.002922
2476.000000	5.972920
2475.000000	6.003369
2474.000000	6.017756
2473.000000	5.989650
2472.000000	5.973589
2471.000000	5.942918
2470.000000	5.949833
2469.000000	5.947825
2468.000000	5.963997
2467.000000	5.961655
2466.000000	5.922061
2465.000000	5.927080
2464.000000	5.934441
2463.000000	5.936560
2462.000000	5.964332
2461.000000	5.955075
2460.000000	5.951283
2459.000000	5.978497
2458.000000	5.981397
2457.000000	5.980950
2456.000000	6.003815
2455.000000	6.001361
2454.000000	5.992773
2453.000000	6.031921
2452.000000	6.037721
2451.000000	6.032479
2450.000000	6.077649
2449.000000	6.072519
2448.000000	6.103971
2447.000000	6.133527
2446.000000	6.151373
2445.000000	6.173456
2444.000000	6.150815
2443.000000	6.194313
2442.000000	6.202120
2441.000000	6.200893
2440.000000	6.244056
2439.000000	6.249522
2438.000000	6.270378
2437.000000	6.288447
2436.000000	6.308076
2435.000000	6.345105
2434.000000	6.354139
2433.000000	6.349455
2432.000000	6.366631
2431.000000	6.401764
2430.000000	6.408344
2429.000000	6.431432
2428.000000	6.437231
2427.000000	6.453181
2426.000000	6.460765
2425.000000	6.479279
2424.000000	6.476603
2423.000000	6.485414
2422.000000	6.495675
2421.000000	6.524339
2420.000000	6.525119
2419.000000	6.544526
2418.000000	6.543857
2417.000000	6.560810
2416.000000	6.576871
2415.000000	6.594827
2414.000000	6.603415
2413.000000	6.611111
2412.000000	6.621149
2411.000000	6.607208
2410.000000	6.623603
2409.000000	6.660409
2408.000000	6.668774
2407.000000	6.650594
2406.000000	6.659293
2405.000000	6.667993
2404.000000	6.691638
2403.000000	6.706026
2402.000000	6.708145
2401.000000	6.700337
2400.000000	6.716064
2399.000000	6.741605
2398.000000	6.749412
2397.000000	6.770380
2396.000000	6.787668
2395.000000	6.795363
2394.000000	6.798933
2393.000000	6.810532
2392.000000	6.809751
2391.000000	6.824250
2390.000000	6.833842
2389.000000	6.839977
2388.000000	6.866968
2387.000000	6.856149
2386.000000	6.858380
2385.000000	6.884144
2384.000000	6.877563
2383.000000	6.869979
2382.000000	6.888159
2381.000000	6.879571
2380.000000	6.861949
2379.000000	6.867860
2378.000000	6.874552
2377.000000	6.873325
2376.000000	6.863510
2375.000000	6.853361
2374.000000	6.861502
2373.000000	6.866187
2372.000000	6.872990
2371.000000	6.865406
2370.000000	6.844215
2369.000000	6.832392
2368.000000	6.821908
2367.000000	6.803840
2366.000000	6.794025
2365.000000	6.784545
2364.000000	6.772053
2363.000000	6.757331
2362.000000	6.731344
2361.000000	6.731455
2360.000000	6.719633
2359.000000	6.693645
2358.000000	6.678254
2357.000000	6.662193
2356.000000	6.652601
2355.000000	6.635537
2354.000000	6.627172
2353.000000	6.620591
2352.000000	6.618807
2351.000000	6.626057
2350.000000	6.641448
2349.000000	6.633195
2348.000000	6.634979
2347.000000	6.647917
2346.000000	6.655724
2345.000000	6.673458
2344.000000	6.685057
2343.000000	6.689407
2342.000000	6.711156
2341.000000	6.720636
2340.000000	6.730674
2339.000000	6.722756
2338.000000	6.719967
2337.000000	6.733128
2336.000000	6.737589
2335.000000	6.744839
2334.000000	6.746512
2333.000000	6.735916
2332.000000	6.730786
2331.000000	6.728890
2330.000000	6.719410
2329.000000	6.703460
2328.000000	6.673793
2327.000000	6.652490
2326.000000	6.643010
2325.000000	6.626837
2324.000000	6.600739
2323.000000	6.576647
2322.000000	6.563487
2321.000000	6.528465
2320.000000	6.499244
2319.000000	6.480172
2318.000000	6.447269
2317.000000	6.418605
2316.000000	6.393287
2315.000000	6.364066
2314.000000	6.329268
2313.000000	6.307742
2312.000000	6.257998
2311.000000	6.226880
2310.000000	6.207697
2309.000000	6.208031
2308.000000	6.181040
2307.000000	6.165426
2306.000000	6.180371
2305.000000	6.164422
2304.000000	6.175129
2303.000000	6.176691
2302.000000	6.181598
2301.000000	6.180483
2300.000000	6.213943
2299.000000	6.241714
2298.000000	6.250302
2297.000000	6.255098
2296.000000	6.287554
2295.000000	6.299711
2294.000000	6.332391
2293.000000	6.340532
2292.000000	6.355701
2291.000000	6.368750
2290.000000	6.374327
2289.000000	6.393064
2288.000000	6.406448
2287.000000	6.402322
2286.000000	6.403214
2285.000000	6.397080
2284.000000	6.404106
2283.000000	6.376446
2282.000000	6.385480
2281.000000	6.366296
2280.000000	6.344994
2279.000000	6.335179
2278.000000	6.336183
2277.000000	6.298931
2276.000000	6.315772
2275.000000	6.298819
2274.000000	6.296477
2273.000000	6.279412
2272.000000	6.275397
2271.000000	6.275620
2270.000000	6.272386
2269.000000	6.272720
2268.000000	6.290343
2267.000000	6.320010
2266.000000	6.349567
2265.000000	6.367858
2264.000000	6.405445
2263.000000	6.440912
2262.000000	6.462549
2261.000000	6.537723
2260.000000	6.607096
2259.000000	6.651932
2258.000000	6.734132
2257.000000	6.824027
2256.000000	6.872433
2255.000000	6.971028
2254.000000	7.049101
2253.000000	7.124943
2252.000000	7.214727
2251.000000	7.307188
2250.000000	7.410579
2249.000000	7.474487
2248.000000	7.542188
2247.000000	7.607211
2246.000000	7.667774
2245.000000	7.749750
2244.000000	7.820128
2243.000000	7.877232
2242.000000	7.952740
2241.000000	7.999695
2240.000000	8.033936
2239.000000	8.088587
2238.000000	8.126954
2237.000000	8.156176
2236.000000	8.212166
2235.000000	8.247410
2234.000000	8.259009
2233.000000	8.314441
2232.000000	8.317006
2231.000000	8.361397
2230.000000	8.371658
2229.000000	8.422963
2228.000000	8.401437
2227.000000	8.415378
2226.000000	8.404337
2225.000000	8.452742
2224.000000	8.437239
2223.000000	8.426755
2222.000000	8.432778
2221.000000	8.448392
2220.000000	8.439693
2219.000000	8.431662
2218.000000	8.397979
2217.000000	8.398202
2216.000000	8.391064
2215.000000	8.386826
2214.000000	8.351582
2213.000000	8.370877
2212.000000	8.364519
2211.000000	8.373665
2210.000000	8.343105
2209.000000	8.330167
2208.000000	8.353366
2207.000000	8.319795
2206.000000	8.322025
2205.000000	8.281874
2204.000000	8.271390
2203.000000	8.300723
2202.000000	8.283547
2201.000000	8.276409
2200.000000	8.286112
2199.000000	8.268155
2198.000000	8.265813
2197.000000	8.250421
2196.000000	8.240272
2195.000000	8.255775
2194.000000	8.241499
2193.000000	8.248860
2192.000000	8.263805
2191.000000	8.262802
2190.000000	8.251537
2189.000000	8.239045
2188.000000	8.224992
2187.000000	8.208820
2186.000000	8.231907
2185.000000	8.204470
2184.000000	8.198001
2183.000000	8.202908
2182.000000	8.195547
2181.000000	8.202351
2180.000000	8.169783
2179.000000	8.177925
2178.000000	8.162422
2177.000000	8.159076
2176.000000	8.149038
2175.000000	8.143015
2174.000000	8.173018
2173.000000	8.181159
2172.000000	8.179821
2171.000000	8.196328
2170.000000	8.185844
2169.000000	8.184840
2168.000000	8.187517
2167.000000	8.191978
2166.000000	8.196997
2165.000000	8.209154
2164.000000	8.221200
2163.000000	8.229676
2162.000000	8.237818
2161.000000	8.254437
2160.000000	8.268601
2159.000000	8.277524
2158.000000	8.272170
2157.000000	8.305072
2156.000000	8.321579
2155.000000	8.319349
2154.000000	8.332844
2153.000000	8.357716
2152.000000	8.375004
2151.000000	8.396752
2150.000000	8.412590
2149.000000	8.430882
2148.000000	8.441477
2147.000000	8.456869
2146.000000	8.486760
2145.000000	8.505943
2144.000000	8.507839
2143.000000	8.533492
2142.000000	8.559925
2141.000000	8.589816
2140.000000	8.587474
2139.000000	8.579109
2138.000000	8.594277
2137.000000	8.601861
2136.000000	8.606434
2135.000000	8.625618
2134.000000	8.656624
2133.000000	8.647478
2132.000000	8.652497
2131.000000	8.663093
2130.000000	8.659412
2129.000000	8.658743
2128.000000	8.676365
2127.000000	8.672908
2126.000000	8.671569
2125.000000	8.674581
2124.000000	8.679711
2123.000000	8.678261
2122.000000	8.658297
2121.000000	8.644132
2120.000000	8.636771
2119.000000	8.644355
2118.000000	8.637106
2117.000000	8.616695
2116.000000	8.604427
2115.000000	8.584016
2114.000000	8.584797
2113.000000	8.565167
2112.000000	8.549776
2111.000000	8.547545
2110.000000	8.543084
2109.000000	8.530703
2108.000000	8.527469
2107.000000	8.512970
2106.000000	8.490440
2105.000000	8.467353
2104.000000	8.458876
2103.000000	8.443708
2102.000000	8.428093
2101.000000	8.419617
2100.000000	8.418390
2099.000000	8.391845
2098.000000	8.382588
2097.000000	8.379688
2096.000000	8.356601
2095.000000	8.345559
2094.000000	8.336525
2093.000000	8.314441
2092.000000	8.311207
2091.000000	8.314330
2090.000000	8.305742
2089.000000	8.286335
2088.000000	8.267486
2087.000000	8.263694
2086.000000	8.259679
2085.000000	8.251314
2084.000000	8.238822
2083.000000	8.228672
2082.000000	8.217742
2081.000000	8.199005
2080.000000	8.185286
2079.000000	8.177256
2078.000000	8.169783
2077.000000	8.148257
2076.000000	8.126397
2075.000000	8.115913
2074.000000	8.113124
2073.000000	8.101190
2072.000000	8.079665
2071.000000	8.054012
2070.000000	8.028694
2069.000000	8.016983
2068.000000	8.018545
2067.000000	7.995123
2066.000000	7.960324
2065.000000	7.950286
2064.000000	7.915042
2063.000000	7.895301
2062.000000	7.901993
2061.000000	7.898647
2060.000000	7.875002
2059.000000	7.863402
2058.000000	7.864183
2057.000000	7.855707
2056.000000	7.853253
2055.000000	7.861841
2054.000000	7.866748
2053.000000	7.869537
2052.000000	7.885040
2051.000000	7.917273
2050.000000	7.937349
2049.000000	7.939245
2048.000000	7.981850
2047.000000	8.019102
2046.000000	8.044532
2045.000000	8.082564
2044.000000	8.120820
2043.000000	8.166437
2042.000000	8.202685
2041.000000	8.222984
2040.000000	8.269940
2039.000000	8.316895
2038.000000	8.364966
2037.000000	8.400656
2036.000000	8.414932
2035.000000	8.449619
2034.000000	8.505162
2033.000000	8.531707
2032.000000	8.560706
2031.000000	8.585020
2030.000000	8.609111
2029.000000	8.634206
2028.000000	8.642013
2027.000000	8.671681
2026.000000	8.688522
2025.000000	8.715513
2024.000000	8.742951
2023.000000	8.743620
2022.000000	8.748527
2021.000000	8.775964
2020.000000	8.779868
2019.000000	8.804740
2018.000000	8.801282
2017.000000	8.797044
2016.000000	8.817231
2015.000000	8.818347
2014.000000	8.827716
2013.000000	8.839203
2012.000000	8.846788
2011.000000	8.804294
2010.000000	8.793810
2009.000000	8.809313
2008.000000	8.807974
2007.000000	8.798048
2006.000000	8.768045
2005.000000	8.760907
2004.000000	8.763807
2003.000000	8.744177
2002.000000	8.709268
2001.000000	8.705810
2000.000000	8.681161
1999.000000	8.688411
1998.000000	8.649040
1997.000000	8.602531
1996.000000	8.587808
1995.000000	8.554906
1994.000000	8.546987
1993.000000	8.500367
1992.000000	8.477837
1991.000000	8.458653
1990.000000	8.431216
1989.000000	8.398202
1988.000000	8.357381
1987.000000	8.311318
1986.000000	8.295481
1985.000000	8.255663
1984.000000	8.231461
1983.000000	8.207927
1982.000000	8.171679
1981.000000	8.142123
1980.000000	8.112567
1979.000000	8.083457
1978.000000	8.036278
1977.000000	8.003822
1976.000000	7.987092
1975.000000	7.942925
1974.000000	7.896081
1973.000000	7.872102
1972.000000	7.854257
1971.000000	7.836188
1970.000000	7.801278
1969.000000	7.768042
1968.000000	7.734916
1967.000000	7.726217
1966.000000	7.683165
1965.000000	7.665543
1964.000000	7.663089
1963.000000	7.619814
1962.000000	7.590704
1961.000000	7.558806
1960.000000	7.543972
1959.000000	7.521554
1958.000000	7.504043
1957.000000	7.454188
1956.000000	7.452069
1955.000000	7.414929
1954.000000	7.397195
1953.000000	7.385595
1952.000000	7.350686
1951.000000	7.335629
1950.000000	7.332060
1949.000000	7.277409
1948.000000	7.255102
1947.000000	7.260679
1946.000000	7.248633
1945.000000	7.233911
1944.000000	7.223761
1943.000000	7.227330
1942.000000	7.205916
1941.000000	7.198109
1940.000000	7.193090
1939.000000	7.167326
1938.000000	7.170449
1937.000000	7.162976
1936.000000	7.176248
1935.000000	7.181936
1934.000000	7.156172
1933.000000	7.177921
1932.000000	7.188628
1931.000000	7.191751
1930.000000	7.217404
1929.000000	7.218854
1928.000000	7.255883
1927.000000	7.259229
1926.000000	7.301611
1925.000000	7.323360
1924.000000	7.338863
1923.000000	7.387380
1922.000000	7.432439
1921.000000	7.461549
1920.000000	7.509174
1919.000000	7.581447
1918.000000	7.614684
1917.000000	7.675581
1916.000000	7.717406
1915.000000	7.771834
1914.000000	7.829385
1913.000000	7.909800
1912.000000	7.997465
1911.000000	8.069292
1910.000000	8.151492
1909.000000	8.224657
1908.000000	8.287896
1907.000000	8.363516
1906.000000	8.451292
1905.000000	8.562602
1904.000000	8.694545
1903.000000	8.770499
1902.000000	8.907015
1901.000000	9.032601
1900.000000	9.151607
1899.000000	9.298161
1898.000000	9.462449
1897.000000	9.614022
1896.000000	9.746858
1895.000000	9.886943
1894.000000	10.023571
1893.000000	10.185405
1892.000000	10.362854
1891.000000	10.549895
1890.000000	10.753442
1889.000000	10.978739
1888.000000	11.183290
1887.000000	11.429889
1886.000000	11.678161
1885.000000	11.953647
1884.000000	12.251775
1883.000000	12.591504
1882.000000	12.961012
1881.000000	13.348924
1880.000000	13.724566
1879.000000	14.105005
1878.000000	14.482878
1877.000000	14.880382
1876.000000	15.270300
1875.000000	15.642040
1874.000000	16.011325
1873.000000	16.394663
1872.000000	16.767518
1871.000000	17.091521
1870.000000	17.411620
1869.000000	17.715324
1868.000000	18.019920
1867.000000	18.251909
1866.000000	18.474082
1865.000000	18.613275
1864.000000	18.762395
1863.000000	18.899246
1862.000000	19.016467
1861.000000	19.164471
1860.000000	19.304779
1859.000000	19.400474
1858.000000	19.490147
1857.000000	19.578258
1856.000000	19.627221
1855.000000	19.666815
1854.000000	19.691129
1853.000000	19.710759
1852.000000	19.724589
1851.000000	19.716782
1850.000000	19.707636
1849.000000	19.700609
1848.000000	19.682095
1847.000000	19.678972
1846.000000	19.656331
1845.000000	19.605583
1844.000000	19.546471
1843.000000	19.507546
1842.000000	19.489255
1841.000000	19.489924
1840.000000	19.496950
1839.000000	19.465498
1838.000000	19.442968
1837.000000	19.411293
1836.000000	19.376272
1835.000000	19.328536
1834.000000	19.276115
1833.000000	19.215887
1832.000000	19.135695
1831.000000	19.087067
1830.000000	19.031858
1829.000000	18.965162
1828.000000	18.914749
1827.000000	18.844148
1826.000000	18.767191
1825.000000	18.712093
1824.000000	18.648074
1823.000000	18.590077
1822.000000	18.574462
1821.000000	18.569889
1820.000000	18.543679
1819.000000	18.502969
1818.000000	18.458468
1817.000000	18.421104
1816.000000	18.412628
1815.000000	18.414747
1814.000000	18.398240
1813.000000	18.380395
1812.000000	18.367122
1811.000000	18.345485
1810.000000	18.312694
1809.000000	18.284142
1808.000000	18.244213
1807.000000	18.210084
1806.000000	18.183205
1805.000000	18.136138
1804.000000	18.079144
1803.000000	18.037208
1802.000000	17.992372
1801.000000	17.941959
1800.000000	17.899911
1799.000000	17.860094
1798.000000	17.806223
1797.000000	17.748784
1796.000000	17.702609
1795.000000	17.666138
1794.000000	17.627659
1793.000000	17.568547
1792.000000	17.522038
1791.000000	17.487351
1790.000000	17.431585
1789.000000	17.373476
1788.000000	17.319271
1787.000000	17.266739
1786.000000	17.204950
1785.000000	17.128104
1784.000000	17.053711
1783.000000	16.988687
1782.000000	16.925225
1781.000000	16.853510
1780.000000	16.798412
1779.000000	16.725358
1778.000000	16.636690
1777.000000	16.573897
1776.000000	16.498277
1775.000000	16.409832
1774.000000	16.317594
1773.000000	16.213757
1772.000000	16.103786
1771.000000	15.991807
1770.000000	15.895554
1769.000000	15.803985
1768.000000	15.691560
1767.000000	15.601219
1766.000000	15.512438
1765.000000	15.430462
1764.000000	15.374807
1763.000000	15.343243
1762.000000	15.329524
1761.000000	15.337666
1760.000000	15.371349
1759.000000	15.410943
1758.000000	15.459014
1757.000000	15.518796
1756.000000	15.567313
1755.000000	15.628656
1754.000000	15.670480
1753.000000	15.697471
1752.000000	15.714647
1751.000000	15.709517
1750.000000	15.705279
1749.000000	15.689776
1748.000000	15.648955
1747.000000	15.587723
1746.000000	15.520246
1745.000000	15.454887
1744.000000	15.346366
1743.000000	15.240298
1742.000000	15.120735
1741.000000	14.958343
1740.000000	14.786136
1739.000000	14.603669
1738.000000	14.431016
1737.000000	14.267508
1736.000000	14.129765
1735.000000	14.020352
1734.000000	13.934137
1733.000000	13.885062
1732.000000	13.885062
1731.000000	13.907034
1730.000000	13.948413
1729.000000	14.007637
1728.000000	14.116047
1727.000000	14.193674
1726.000000	14.288254
1725.000000	14.359412
1724.000000	14.436704
1723.000000	14.471725
1722.000000	14.507862
1721.000000	14.536191
1720.000000	14.567086
1719.000000	14.599430
1718.000000	14.611810
1717.000000	14.645493
1716.000000	14.680515
1715.000000	14.746765
1714.000000	14.802755
1713.000000	14.835657
1712.000000	14.896554
1711.000000	14.946074
1710.000000	14.976411
1709.000000	15.007529
1708.000000	15.002064
1707.000000	14.988122
1706.000000	14.983326
1705.000000	14.932914
1704.000000	14.906034
1703.000000	14.853168
1702.000000	14.783794
1701.000000	14.697022
1700.000000	14.594300
1699.000000	14.499943
1698.000000	14.363427
1697.000000	14.240964
1696.000000	14.160437
1695.000000	14.125639
1694.000000	14.075449
1693.000000	14.128315
1692.000000	14.191220
1691.000000	14.288254
1690.000000	14.439046
1689.000000	14.565301
1688.000000	14.689660
1687.000000	14.734162
1686.000000	14.772975
1685.000000	14.808889
1684.000000	14.842795
1683.000000	14.950870
1682.000000	15.088837
1681.000000	15.355623
1680.000000	15.686764
1679.000000	16.105459
1678.000000	16.578358
1677.000000	17.051704
1676.000000	17.513561
1675.000000	17.936940
1674.000000	18.326859
1673.000000	18.655100
1672.000000	18.949993
1671.000000	19.211761
1670.000000	19.420662
1669.000000	19.658338
1668.000000	19.813815
1667.000000	19.964608
1666.000000	20.102128
1665.000000	20.206299
1664.000000	20.311140
1663.000000	20.370810
1662.000000	20.457806
1661.000000	20.523610
1660.000000	20.553278
1659.000000	20.608375
1658.000000	20.641389
1657.000000	20.651427
1656.000000	20.671280
1655.000000	20.666930
1654.000000	20.687675
1653.000000	20.676187
1652.000000	20.686225
1651.000000	20.630905
1650.000000	20.617187
1649.000000	20.586738
1648.000000	20.555955
1647.000000	20.504984
1646.000000	20.468513
1645.000000	20.403378
1644.000000	20.361999
1643.000000	20.319171
1642.000000	20.254705
1641.000000	20.206522
1640.000000	20.131461
1639.000000	20.067218
1638.000000	20.012901
1637.000000	19.936501
1636.000000	19.875270
1635.000000	19.819615
1634.000000	19.732619
1633.000000	19.667373
1632.000000	19.605583
1631.000000	19.519145
1630.000000	19.439845
1629.000000	19.366345
1628.000000	19.288384
1627.000000	19.198711
1626.000000	19.123315
1625.000000	19.067549
1624.000000	18.992041
1623.000000	18.893557
1622.000000	18.834445
1621.000000	18.740311
1620.000000	18.677518
1619.000000	18.633686
1618.000000	18.554609
1617.000000	18.453895
1616.000000	18.388983
1615.000000	18.323290
1614.000000	18.260051
1613.000000	18.210976
1612.000000	18.137030
1611.000000	18.051930
1610.000000	17.986461
1609.000000	17.935936
1608.000000	17.886750
1607.000000	17.813027
1606.000000	17.747669
1605.000000	17.678741
1604.000000	17.608141
1603.000000	17.533637
1602.000000	17.484563
1601.000000	17.424893
1600.000000	17.363884
1599.000000	17.293061
1598.000000	17.227479
1597.000000	17.184316
1596.000000	17.110928
1595.000000	17.057949
1594.000000	17.005083
1593.000000	16.951324
1592.000000	16.892435
1591.000000	16.849494
1590.000000	16.818488
1589.000000	16.756922
1588.000000	16.722124
1587.000000	16.674722
1586.000000	16.629106
1585.000000	16.579473
1584.000000	16.540214
1583.000000	16.536087
1582.000000	16.479317
1581.000000	16.458237
1580.000000	16.420316
