PE UV       SUBTECH     SPECTRUM    ASCII       PEDS        4.00        
   -1
CICIMAUCR0212-3.Sample.ASC
24/06/12
14:09:41.00
24/06/12
14:09:41.00
Vinicio Soto Monge
C. resplendens. Sex F. Ventral
250,000000
1
Lambda 1050
1050L1511233
PerkinElmer UV WinLab 6.3.2.0749 / 2.02.05 Lambda 900 UV/VIS/NIR, Aug  7 2015 09:38:08

0
0
3350/servo 860,8/2
0
0
UV/VIS
1
1
1
DoubleDePol,CommonBeamDepol,RBeamAtt,SBeamAtt,60mm sphere, WB InGaAs Detector
0
0
0
0
Program
Program
3350/servo 860,8/2
3350/0,2 860,8/0,2
3350/0,2 860,8/0,2
0
15.00
 
 
 
0
 
860,8
319,2
860,8
Front
100
on
S:100 R:100
0
0
0
0
 
0
 
 
 
0
 
 
0
0
0
0
0
 
 
 
 
0
0


0
0
#HDR
-1
-1
#GR
nm
%R
1.0
0.0
2500,000000
-1,000000
2251
8
63,644600
3,723400
#DATA
2482.000000	6.072030
2481.000000	6.212573
2480.000000	6.235161
2479.000000	6.146275
2478.000000	6.161333
2477.000000	6.236938
2476.000000	6.182352
2475.000000	6.143870
2474.000000	6.189254
2473.000000	6.204521
2472.000000	6.194692
2471.000000	6.201384
2470.000000	6.146694
2469.000000	6.166980
2468.000000	6.257225
2467.000000	6.228886
2466.000000	6.243736
2465.000000	6.066697
2464.000000	6.176705
2463.000000	6.183189
2462.000000	6.197306
2461.000000	6.215188
2460.000000	6.189777
2459.000000	6.206299
2458.000000	6.245200
2457.000000	6.299577
2456.000000	6.335549
2455.000000	6.281799
2454.000000	6.317667
2453.000000	6.337431
2452.000000	6.332935
2451.000000	6.417219
2450.000000	6.460512
2449.000000	6.465845
2448.000000	6.472224
2447.000000	6.524927
2446.000000	6.517817
2445.000000	6.611512
2444.000000	6.650413
2443.000000	6.704058
2442.000000	6.704685
2441.000000	6.719534
2440.000000	6.774330
2439.000000	6.835295
2438.000000	6.889776
2437.000000	6.910377
2436.000000	6.911632
2435.000000	6.953460
2434.000000	6.986714
2433.000000	6.993929
2432.000000	7.040359
2431.000000	7.021013
2430.000000	7.108435
2429.000000	7.104461
2428.000000	7.137924
2427.000000	7.156014
2426.000000	7.199725
2425.000000	7.239149
2424.000000	7.264455
2423.000000	7.307538
2422.000000	7.310884
2421.000000	7.321028
2420.000000	7.340896
2419.000000	7.355850
2418.000000	7.388476
2417.000000	7.436788
2416.000000	7.479035
2415.000000	7.474852
2414.000000	7.467114
2413.000000	7.504341
2412.000000	7.529438
2411.000000	7.542196
2410.000000	7.581828
2409.000000	7.586743
2408.000000	7.575659
2407.000000	7.608494
2406.000000	7.619265
2405.000000	7.640179
2404.000000	7.661825
2403.000000	7.675629
2402.000000	7.687236
2401.000000	7.714006
2400.000000	7.726136
2399.000000	7.707523
2398.000000	7.724568
2397.000000	7.758972
2396.000000	7.790448
2395.000000	7.821610
2394.000000	7.823388
2393.000000	7.842942
2392.000000	7.870340
2391.000000	7.878392
2390.000000	7.887490
2389.000000	7.910495
2388.000000	7.920953
2387.000000	7.913319
2386.000000	7.922312
2385.000000	7.939566
2384.000000	7.939253
2383.000000	7.939880
2382.000000	7.949082
2381.000000	7.949291
2380.000000	7.950755
2379.000000	7.957866
2378.000000	7.957971
2377.000000	7.959016
2376.000000	7.968846
2375.000000	7.968532
2374.000000	7.956089
2373.000000	7.962676
2372.000000	7.958807
2371.000000	7.937161
2370.000000	7.939566
2369.000000	7.956089
2368.000000	7.935593
2367.000000	7.937789
2366.000000	7.952742
2365.000000	7.946886
2364.000000	7.942913
2363.000000	7.894287
2362.000000	7.870236
2361.000000	7.876824
2360.000000	7.851831
2359.000000	7.828930
2358.000000	7.817009
2357.000000	7.796304
2356.000000	7.777690
2355.000000	7.758449
2354.000000	7.733456
2353.000000	7.730633
2352.000000	7.736698
2351.000000	7.748828
2350.000000	7.743077
2349.000000	7.737430
2348.000000	7.744436
2347.000000	7.759286
2346.000000	7.778422
2345.000000	7.800591
2344.000000	7.822760
2343.000000	7.832590
2342.000000	7.859674
2341.000000	7.882680
2340.000000	7.904639
2339.000000	7.893137
2338.000000	7.918966
2337.000000	7.944586
2336.000000	7.936534
2335.000000	7.960167
2334.000000	7.957448
2333.000000	7.937057
2332.000000	7.940507
2331.000000	7.939253
2330.000000	7.921475
2329.000000	7.913214
2328.000000	7.904430
2327.000000	7.890313
2326.000000	7.874209
2325.000000	7.861242
2324.000000	7.849112
2323.000000	7.827675
2322.000000	7.797349
2321.000000	7.750920
2320.000000	7.714529
2319.000000	7.688491
2318.000000	7.655237
2317.000000	7.600233
2316.000000	7.557777
2315.000000	7.516785
2314.000000	7.473911
2313.000000	7.442330
2312.000000	7.396528
2311.000000	7.353549
2310.000000	7.301891
2309.000000	7.262259
2308.000000	7.243227
2307.000000	7.215306
2306.000000	7.214993
2305.000000	7.198052
2304.000000	7.183308
2303.000000	7.186968
2302.000000	7.200666
2301.000000	7.218548
2300.000000	7.247933
2299.000000	7.252115
2298.000000	7.309002
2297.000000	7.328139
2296.000000	7.356164
2295.000000	7.412737
2294.000000	7.467009
2293.000000	7.491793
2292.000000	7.527660
2291.000000	7.547006
2290.000000	7.574195
2289.000000	7.589253
2288.000000	7.612572
2287.000000	7.627630
2286.000000	7.622925
2285.000000	7.628572
2284.000000	7.640493
2283.000000	7.641852
2282.000000	7.627003
2281.000000	7.618742
2280.000000	7.598455
2279.000000	7.596259
2278.000000	7.565411
2277.000000	7.562901
2276.000000	7.567293
2275.000000	7.544915
2274.000000	7.526196
2273.000000	7.495139
2272.000000	7.513857
2271.000000	7.514066
2270.000000	7.510197
2269.000000	7.508210
2268.000000	7.530902
2267.000000	7.556208
2266.000000	7.597305
2265.000000	7.629826
2264.000000	7.699471
2263.000000	7.748724
2262.000000	7.830708
2261.000000	7.922103
2260.000000	8.013080
2259.000000	8.131036
2258.000000	8.239058
2257.000000	8.325120
2256.000000	8.462631
2255.000000	8.568457
2254.000000	8.716844
2253.000000	8.822670
2252.000000	8.957880
2251.000000	9.069876
2250.000000	9.180303
2249.000000	9.309762
2248.000000	9.422385
2247.000000	9.514199
2246.000000	9.612914
2245.000000	9.733694
2244.000000	9.811181
2243.000000	9.883335
2242.000000	9.951725
2241.000000	10.031303
2240.000000	10.095092
2239.000000	10.153024
2238.000000	10.207715
2237.000000	10.245988
2236.000000	10.317933
2235.000000	10.354324
2234.000000	10.385486
2233.000000	10.419053
2232.000000	10.458686
2231.000000	10.451052
2230.000000	10.471443
2229.000000	10.498632
2228.000000	10.517350
2227.000000	10.510762
2226.000000	10.522683
2225.000000	10.509194
2224.000000	10.499155
2223.000000	10.502501
2222.000000	10.496645
2221.000000	10.488802
2220.000000	10.464856
2219.000000	10.450948
2218.000000	10.410792
2217.000000	10.404832
2216.000000	10.370219
2215.000000	10.377016
2214.000000	10.353383
2213.000000	10.313541
2212.000000	10.291790
2211.000000	10.256968
2210.000000	10.250798
2209.000000	10.233439
2208.000000	10.226747
2207.000000	10.204160
2206.000000	10.190252
2205.000000	10.173207
2204.000000	10.166409
2203.000000	10.161181
2202.000000	10.148423
2201.000000	10.133679
2200.000000	10.113078
2199.000000	10.131378
2198.000000	10.086203
2197.000000	10.072191
2196.000000	10.084530
2195.000000	10.057133
2194.000000	10.065707
2193.000000	10.070831
2192.000000	10.053577
2191.000000	10.038414
2190.000000	10.030258
2189.000000	10.018546
2188.000000	10.022729
2187.000000	9.999827
2186.000000	9.992612
2185.000000	9.990730
2184.000000	9.964901
2183.000000	9.973162
2182.000000	9.925687
2181.000000	9.924641
2180.000000	9.922027
2179.000000	9.915752
2178.000000	9.910628
2177.000000	9.884485
2176.000000	9.868277
2175.000000	9.862212
2174.000000	9.845167
2173.000000	9.852905
2172.000000	9.857924
2171.000000	9.855938
2170.000000	9.853323
2169.000000	9.863258
2168.000000	9.854055
2167.000000	9.853742
2166.000000	9.859702
2165.000000	9.858343
2164.000000	9.870891
2163.000000	9.883231
2162.000000	9.868904
2161.000000	9.912092
2160.000000	9.920772
2159.000000	9.928510
2158.000000	9.954653
2157.000000	9.965214
2156.000000	9.979122
2155.000000	10.010494
2154.000000	10.031513
2153.000000	10.063930
2152.000000	10.083171
2151.000000	10.109000
2150.000000	10.120398
2149.000000	10.140057
2148.000000	10.169442
2147.000000	10.192866
2146.000000	10.229989
2145.000000	10.252681
2144.000000	10.265857
2143.000000	10.303502
2142.000000	10.324312
2141.000000	10.361330
2140.000000	10.376075
2139.000000	10.380780
2138.000000	10.405668
2137.000000	10.419890
2136.000000	10.437667
2135.000000	10.471339
2134.000000	10.482737
2133.000000	10.497273
2132.000000	10.501455
2131.000000	10.526657
2130.000000	10.538055
2129.000000	10.541820
2128.000000	10.565244
2127.000000	10.582394
2126.000000	10.572564
2125.000000	10.571309
2124.000000	10.578420
2123.000000	10.585635
2122.000000	10.579988
2121.000000	10.564512
2120.000000	10.566080
2119.000000	10.567858
2118.000000	10.563884
2117.000000	10.556460
2116.000000	10.552277
2115.000000	10.542447
2114.000000	10.536696
2113.000000	10.528121
2112.000000	10.532408
2111.000000	10.524147
2110.000000	10.495913
2109.000000	10.488279
2108.000000	10.480332
2107.000000	10.462764
2106.000000	10.449693
2105.000000	10.418112
2104.000000	10.411210
2103.000000	10.415393
2102.000000	10.409014
2101.000000	10.379944
2100.000000	10.378375
2099.000000	10.376075
2098.000000	10.345331
2097.000000	10.328495
2096.000000	10.298796
2095.000000	10.297332
2094.000000	10.291476
2093.000000	10.282693
2092.000000	10.273490
2091.000000	10.260628
2090.000000	10.235635
2089.000000	10.220159
2088.000000	10.227479
2087.000000	10.221309
2086.000000	10.205728
2085.000000	10.191297
2084.000000	10.177076
2083.000000	10.165364
2082.000000	10.141312
2081.000000	10.121235
2080.000000	10.093523
2079.000000	10.061838
2078.000000	10.035068
2077.000000	10.016036
2076.000000	10.010389
2075.000000	9.973685
2074.000000	9.937712
2073.000000	9.910419
2072.000000	9.880721
2071.000000	9.842239
2070.000000	9.786816
2069.000000	9.756386
2068.000000	9.731393
2067.000000	9.694898
2066.000000	9.659448
2065.000000	9.623162
2064.000000	9.584471
2063.000000	9.554668
2062.000000	9.521937
2061.000000	9.485337
2060.000000	9.469443
2059.000000	9.459404
2058.000000	9.432215
2057.000000	9.399380
2056.000000	9.383903
2055.000000	9.369159
2054.000000	9.362152
2053.000000	9.357447
2052.000000	9.376583
2051.000000	9.397288
2050.000000	9.419667
2049.000000	9.445391
2048.000000	9.457940
2047.000000	9.467979
2046.000000	9.510644
2045.000000	9.562302
2044.000000	9.582902
2043.000000	9.633828
2042.000000	9.664468
2041.000000	9.705041
2040.000000	9.749902
2039.000000	9.799574
2038.000000	9.832618
2037.000000	9.845271
2036.000000	9.874342
2035.000000	9.904563
2034.000000	9.919831
2033.000000	9.963018
2032.000000	9.974940
2031.000000	10.002128
2030.000000	10.002023
2029.000000	10.013735
2028.000000	10.028898
2027.000000	10.033186
2026.000000	10.059642
2025.000000	10.068949
2024.000000	10.075328
2023.000000	10.067276
2022.000000	10.079092
2021.000000	10.081498
2020.000000	10.076792
2019.000000	10.067590
2018.000000	10.068844
2017.000000	10.060583
2016.000000	10.051799
2015.000000	10.053054
2014.000000	10.041029
2013.000000	10.011435
2012.000000	10.013526
2011.000000	9.985606
2010.000000	9.966574
2009.000000	9.946601
2008.000000	9.937189
2007.000000	9.911047
2006.000000	9.895779
2005.000000	9.872251
2004.000000	9.831259
2003.000000	9.809613
2002.000000	9.772071
2001.000000	9.744256
2000.000000	9.708597
1999.000000	9.667814
1998.000000	9.642717
1997.000000	9.602666
1996.000000	9.556550
1995.000000	9.506774
1994.000000	9.481991
1993.000000	9.426882
1992.000000	9.405759
1991.000000	9.352846
1990.000000	9.304115
1989.000000	9.268038
1988.000000	9.233321
1987.000000	9.174134
1986.000000	9.124776
1985.000000	9.077405
1984.000000	9.038505
1983.000000	8.994480
1982.000000	8.938326
1981.000000	8.906536
1980.000000	8.873701
1979.000000	8.808657
1978.000000	8.773835
1977.000000	8.727092
1976.000000	8.685995
1975.000000	8.636010
1974.000000	8.607358
1973.000000	8.576718
1972.000000	8.519204
1971.000000	8.502055
1970.000000	8.446632
1969.000000	8.379288
1968.000000	8.360884
1967.000000	8.339237
1966.000000	8.292703
1965.000000	8.250247
1964.000000	8.230170
1963.000000	8.178198
1962.000000	8.150486
1961.000000	8.124030
1960.000000	8.062333
1959.000000	8.047484
1958.000000	8.025419
1957.000000	7.989447
1956.000000	7.965500
1955.000000	7.910077
1954.000000	7.888117
1953.000000	7.861661
1952.000000	7.823806
1951.000000	7.794317
1950.000000	7.769743
1949.000000	7.756044
1948.000000	7.707105
1947.000000	7.706373
1946.000000	7.658374
1945.000000	7.652623
1944.000000	7.643525
1943.000000	7.617173
1942.000000	7.588416
1941.000000	7.574299
1940.000000	7.579528
1939.000000	7.566352
1938.000000	7.548888
1937.000000	7.557463
1936.000000	7.546588
1935.000000	7.566770
1934.000000	7.564574
1933.000000	7.561019
1932.000000	7.593227
1931.000000	7.614559
1930.000000	7.636519
1929.000000	7.650636
1928.000000	7.676151
1927.000000	7.712438
1926.000000	7.721849
1925.000000	7.781873
1924.000000	7.816068
1923.000000	7.877346
1922.000000	7.900561
1921.000000	7.960690
1920.000000	8.030648
1919.000000	8.104161
1918.000000	8.157806
1917.000000	8.235189
1916.000000	8.323342
1915.000000	8.358269
1914.000000	8.459703
1913.000000	8.557164
1912.000000	8.655565
1911.000000	8.771848
1910.000000	8.868786
1909.000000	8.964155
1908.000000	9.050635
1907.000000	9.179571
1906.000000	9.322311
1905.000000	9.451561
1904.000000	9.622639
1903.000000	9.778241
1902.000000	9.918262
1901.000000	10.103771
1900.000000	10.281019
1899.000000	10.462973
1898.000000	10.676298
1897.000000	10.905414
1896.000000	11.134216
1895.000000	11.330391
1894.000000	11.538697
1893.000000	11.783289
1892.000000	12.032691
1891.000000	12.346195
1890.000000	12.640982
1889.000000	12.939323
1888.000000	13.262030
1887.000000	13.598540
1886.000000	13.921665
1885.000000	14.296343
1884.000000	14.687335
1883.000000	15.096836
1882.000000	15.501735
1881.000000	15.924203
1880.000000	16.346147
1879.000000	16.749374
1878.000000	17.119974
1877.000000	17.548088
1876.000000	17.937721
1875.000000	18.336032
1874.000000	18.721377
1873.000000	19.120734
1872.000000	19.539437
1871.000000	19.919972
1870.000000	20.318179
1869.000000	20.678008
1868.000000	21.052791
1867.000000	21.315160
1866.000000	21.571883
1865.000000	21.771509
1864.000000	21.967789
1863.000000	22.125378
1862.000000	22.288718
1861.000000	22.501625
1860.000000	22.677304
1859.000000	22.852461
1858.000000	23.043408
1857.000000	23.175482
1856.000000	23.279321
1855.000000	23.368102
1854.000000	23.469536
1853.000000	23.573061
1852.000000	23.627124
1851.000000	23.653058
1850.000000	23.695723
1849.000000	23.707017
1848.000000	23.775720
1847.000000	23.865547
1846.000000	23.915323
1845.000000	23.890853
1844.000000	23.845678
1843.000000	23.799144
1842.000000	23.801549
1841.000000	23.845469
1840.000000	23.880396
1839.000000	23.876318
1838.000000	23.868998
1837.000000	23.829783
1836.000000	23.836790
1835.000000	23.852998
1834.000000	23.813993
1833.000000	23.741421
1832.000000	23.682233
1831.000000	23.636640
1830.000000	23.614994
1829.000000	23.570761
1828.000000	23.529246
1827.000000	23.483339
1826.000000	23.431681
1825.000000	23.397068
1824.000000	23.344050
1823.000000	23.282144
1822.000000	23.238433
1821.000000	23.233832
1820.000000	23.245335
1819.000000	23.231950
1818.000000	23.204866
1817.000000	23.142542
1816.000000	23.113053
1815.000000	23.119850
1814.000000	23.106569
1813.000000	23.079276
1812.000000	23.051146
1811.000000	23.032846
1810.000000	23.006181
1809.000000	22.967594
1808.000000	22.917923
1807.000000	22.879127
1806.000000	22.857271
1805.000000	22.809482
1804.000000	22.757092
1803.000000	22.718610
1802.000000	22.678246
1801.000000	22.633698
1800.000000	22.597935
1799.000000	22.557570
1798.000000	22.500056
1797.000000	22.448189
1796.000000	22.402073
1795.000000	22.367878
1794.000000	22.319462
1793.000000	22.272300
1792.000000	22.232040
1791.000000	22.181010
1790.000000	22.141482
1789.000000	22.092333
1788.000000	22.050505
1787.000000	22.008572
1786.000000	21.968521
1785.000000	21.927947
1784.000000	21.886433
1783.000000	21.827036
1782.000000	21.771718
1781.000000	21.724347
1780.000000	21.663696
1779.000000	21.614025
1778.000000	21.566236
1777.000000	21.518238
1776.000000	21.465220
1775.000000	21.404360
1774.000000	21.341617
1773.000000	21.271136
1772.000000	21.199714
1771.000000	21.126305
1770.000000	21.064190
1769.000000	20.989839
1768.000000	20.910679
1767.000000	20.835179
1766.000000	20.785612
1765.000000	20.738346
1764.000000	20.686374
1763.000000	20.655839
1762.000000	20.644964
1761.000000	20.666401
1760.000000	20.687420
1759.000000	20.707602
1758.000000	20.757169
1757.000000	20.825872
1756.000000	20.874393
1755.000000	20.919358
1754.000000	20.985134
1753.000000	21.032818
1752.000000	21.053628
1751.000000	21.059588
1750.000000	21.073601
1749.000000	21.094097
1748.000000	21.073706
1747.000000	21.042125
1746.000000	21.005839
1745.000000	20.965265
1744.000000	20.913921
1743.000000	20.819598
1742.000000	20.715236
1741.000000	20.627605
1740.000000	20.516027
1739.000000	20.353315
1738.000000	20.231280
1737.000000	20.085822
1736.000000	19.957722
1735.000000	19.837883
1734.000000	19.763847
1733.000000	19.690752
1732.000000	19.662099
1731.000000	19.667014
1730.000000	19.696817
1729.000000	19.733208
1728.000000	19.788526
1727.000000	19.857334
1726.000000	19.915266
1725.000000	19.990557
1724.000000	20.073273
1723.000000	20.121899
1722.000000	20.175335
1721.000000	20.227620
1720.000000	20.306362
1719.000000	20.375798
1718.000000	20.433521
1717.000000	20.511008
1716.000000	20.585881
1715.000000	20.657303
1714.000000	20.764175
1713.000000	20.867073
1712.000000	20.937763
1711.000000	20.997891
1710.000000	21.062412
1709.000000	21.110305
1708.000000	21.134043
1707.000000	21.135716
1706.000000	21.107587
1705.000000	21.098489
1704.000000	21.060843
1703.000000	21.005107
1702.000000	20.931802
1701.000000	20.873556
1700.000000	20.772227
1699.000000	20.667028
1698.000000	20.585986
1697.000000	20.454330
1696.000000	20.353838
1695.000000	20.290154
1694.000000	20.233894
1693.000000	20.230862
1692.000000	20.281579
1691.000000	20.333132
1690.000000	20.439168
1689.000000	20.530040
1688.000000	20.617775
1687.000000	20.700282
1686.000000	20.810186
1685.000000	20.861740
1684.000000	20.944978
1683.000000	21.058229
1682.000000	21.182982
1681.000000	21.404778
1680.000000	21.671643
1679.000000	21.995500
1678.000000	22.368087
1677.000000	22.756465
1676.000000	23.133235
1675.000000	23.470895
1674.000000	23.813575
1673.000000	24.123628
1672.000000	24.363933
1671.000000	24.592735
1670.000000	24.800622
1669.000000	24.959570
1668.000000	25.150936
1667.000000	25.263559
1666.000000	25.373986
1665.000000	25.459002
1664.000000	25.590971
1663.000000	25.660929
1662.000000	25.734547
1661.000000	25.771565
1660.000000	25.836922
1659.000000	25.877078
1658.000000	25.902907
1657.000000	25.945154
1656.000000	25.959689
1655.000000	25.987505
1654.000000	25.975270
1653.000000	25.962199
1652.000000	25.971610
1651.000000	25.954774
1650.000000	25.915769
1649.000000	25.878855
1648.000000	25.851249
1647.000000	25.806178
1646.000000	25.776794
1645.000000	25.737162
1644.000000	25.685608
1643.000000	25.626525
1642.000000	25.588775
1641.000000	25.544855
1640.000000	25.472283
1639.000000	25.417697
1638.000000	25.378692
1637.000000	25.304132
1636.000000	25.267951
1635.000000	25.188163
1634.000000	25.129080
1633.000000	25.058076
1632.000000	25.005582
1631.000000	24.932486
1630.000000	24.862005
1629.000000	24.774270
1628.000000	24.691764
1627.000000	24.617413
1626.000000	24.542854
1625.000000	24.472164
1624.000000	24.396036
1623.000000	24.338313
1622.000000	24.250578
1621.000000	24.190763
1620.000000	24.113276
1619.000000	24.044154
1618.000000	23.971791
1617.000000	23.908212
1616.000000	23.826228
1615.000000	23.761498
1614.000000	23.690913
1613.000000	23.623046
1612.000000	23.566473
1611.000000	23.500280
1610.000000	23.417250
1609.000000	23.347815
1608.000000	23.260707
1607.000000	23.213023
1606.000000	23.149234
1605.000000	23.092661
1604.000000	23.010677
1603.000000	22.920223
1602.000000	22.846605
1601.000000	22.775497
1600.000000	22.718505
1599.000000	22.635685
1598.000000	22.561649
1597.000000	22.482802
1596.000000	22.418073
1595.000000	22.335984
1594.000000	22.303776
1593.000000	22.219283
1592.000000	22.139495
1591.000000	22.069223
1590.000000	22.011813
1589.000000	21.953044
1588.000000	21.901386
