PE UV       SUBTECH     SPECTRUM    ASCII       PEDS        4.00        
   -1
CICIMAUCR0141-2.Sample.ASC
24/04/04
11:05:18.00
24/04/04
11:05:18.00
Vinicio Soto Monge
C. kalinini
250,000000
1
Lambda 1050
1050L1511233
PerkinElmer UV WinLab 6.3.2.0749 / 2.02.05 Lambda 900 UV/VIS/NIR, Aug  7 2015 09:38:08

0
0
3350/servo 860,8/2
0
0
UV/VIS
1
1
1
DoubleDePol,CommonBeamDepol,RBeamAtt,SBeamAtt,60mm sphere, WB InGaAs Detector
0
0
0
0
Program
Program
3350/servo 860,8/2
3350/0,2 860,8/0,2
3350/0,2 860,8/0,2
0
15.00
 
 
 
0
 
860,8
319,2
860,8
Front
100
on
S:100 R:100
0
0
0
0
 
0
 
 
 
0
 
 
0
0
0
0
0
 
 
 
 
0
0


0
0
#HDR
-1
-1
#GR
nm
%R
1.0
0.0
2500,000000
-1,000000
2251
8
74,769100
5,495500
#DATA
2500.000000	6.843600
2499.000000	6.975900
2498.000000	6.871500
2497.000000	6.853200
2496.000000	6.919300
2495.000000	6.822700
2494.000000	6.869400
2493.000000	6.886400
2492.000000	6.905100
2491.000000	6.905100
2490.000000	6.875500
2489.000000	6.921100
2488.000000	6.844900
2487.000000	6.825200
2486.000000	6.932800
2485.000000	6.954400
2484.000000	6.914400
2483.000000	6.875400
2482.000000	6.873500
2481.000000	6.906700
2480.000000	6.965400
2479.000000	6.920600
2478.000000	6.994800
2477.000000	7.047100
2476.000000	7.020800
2475.000000	6.981800
2474.000000	6.978400
2473.000000	7.052700
2472.000000	7.097200
2471.000000	7.099100
2470.000000	7.116500
2469.000000	7.125000
2468.000000	7.176700
2467.000000	7.161300
2466.000000	7.208300
2465.000000	7.207600
2464.000000	7.272000
2463.000000	7.320500
2462.000000	7.363500
2461.000000	7.385500
2460.000000	7.403100
2459.000000	7.429700
2458.000000	7.500100
2457.000000	7.569400
2456.000000	7.583500
2455.000000	7.632900
2454.000000	7.718300
2453.000000	7.752000
2452.000000	7.806900
2451.000000	7.843900
2450.000000	7.921600
2449.000000	7.991900
2448.000000	8.048300
2447.000000	8.115700
2446.000000	8.163700
2445.000000	8.235900
2444.000000	8.318500
2443.000000	8.391100
2442.000000	8.447500
2441.000000	8.515700
2440.000000	8.584000
2439.000000	8.631700
2438.000000	8.702800
2437.000000	8.795300
2436.000000	8.856900
2435.000000	8.916100
2434.000000	8.994000
2433.000000	9.049200
2432.000000	9.110900
2431.000000	9.178100
2430.000000	9.259800
2429.000000	9.315300
2428.000000	9.364800
2427.000000	9.435800
2426.000000	9.497300
2425.000000	9.540200
2424.000000	9.606200
2423.000000	9.661000
2422.000000	9.710500
2421.000000	9.760600
2420.000000	9.802200
2419.000000	9.844100
2418.000000	9.896500
2417.000000	9.931800
2416.000000	9.981700
2415.000000	10.017800
2414.000000	10.058000
2413.000000	10.101700
2412.000000	10.131800
2411.000000	10.162500
2410.000000	10.197800
2409.000000	10.222100
2408.000000	10.253000
2407.000000	10.282000
2406.000000	10.300900
2405.000000	10.323100
2404.000000	10.344900
2403.000000	10.376200
2402.000000	10.400500
2401.000000	10.425700
2400.000000	10.422700
2399.000000	10.432200
2398.000000	10.456200
2397.000000	10.483300
2396.000000	10.513100
2395.000000	10.518500
2394.000000	10.521300
2393.000000	10.550300
2392.000000	10.550300
2391.000000	10.562400
2390.000000	10.588500
2389.000000	10.577300
2388.000000	10.567200
2387.000000	10.583400
2386.000000	10.594100
2385.000000	10.589500
2384.000000	10.589600
2383.000000	10.592000
2382.000000	10.583500
2381.000000	10.583900
2380.000000	10.575500
2379.000000	10.559500
2378.000000	10.552300
2377.000000	10.539400
2376.000000	10.534900
2375.000000	10.531700
2374.000000	10.512600
2373.000000	10.496200
2372.000000	10.490800
2371.000000	10.488200
2370.000000	10.477000
2369.000000	10.460000
2368.000000	10.451000
2367.000000	10.458300
2366.000000	10.455100
2365.000000	10.443800
2364.000000	10.435900
2363.000000	10.430200
2362.000000	10.411400
2361.000000	10.392800
2360.000000	10.391700
2359.000000	10.397000
2358.000000	10.398900
2357.000000	10.384200
2356.000000	10.357700
2355.000000	10.334700
2354.000000	10.320900
2353.000000	10.308900
2352.000000	10.284300
2351.000000	10.267700
2350.000000	10.264000
2349.000000	10.242700
2348.000000	10.203300
2347.000000	10.188700
2346.000000	10.169200
2345.000000	10.148600
2344.000000	10.141100
2343.000000	10.115000
2342.000000	10.100700
2341.000000	10.093700
2340.000000	10.079300
2339.000000	10.058800
2338.000000	10.033800
2337.000000	10.018100
2336.000000	10.011600
2335.000000	9.996500
2334.000000	9.985000
2333.000000	9.987900
2332.000000	9.977000
2331.000000	9.968700
2330.000000	9.944700
2329.000000	9.948900
2328.000000	9.962200
2327.000000	9.964200
2326.000000	9.955900
2325.000000	9.952400
2324.000000	9.952400
2323.000000	9.939500
2322.000000	9.925400
2321.000000	9.931100
2320.000000	9.912200
2319.000000	9.882900
2318.000000	9.864300
2317.000000	9.842500
2316.000000	9.801600
2315.000000	9.775000
2314.000000	9.746900
2313.000000	9.708200
2312.000000	9.666900
2311.000000	9.614600
2310.000000	9.582300
2309.000000	9.555200
2308.000000	9.511400
2307.000000	9.442800
2306.000000	9.424700
2305.000000	9.383800
2304.000000	9.341400
2303.000000	9.317200
2302.000000	9.276200
2301.000000	9.256200
2300.000000	9.232800
2299.000000	9.205400
2298.000000	9.170200
2297.000000	9.141700
2296.000000	9.139600
2295.000000	9.118300
2294.000000	9.096700
2293.000000	9.079300
2292.000000	9.068800
2291.000000	9.052100
2290.000000	9.041700
2289.000000	9.015600
2288.000000	9.004500
2287.000000	9.000800
2286.000000	8.986400
2285.000000	8.986800
2284.000000	8.965900
2283.000000	8.946300
2282.000000	8.938400
2281.000000	8.935700
2280.000000	8.914800
2279.000000	8.899700
2278.000000	8.888600
2277.000000	8.869900
2276.000000	8.852800
2275.000000	8.825700
2274.000000	8.773300
2273.000000	8.761500
2272.000000	8.742000
2271.000000	8.726000
2270.000000	8.696900
2269.000000	8.662900
2268.000000	8.655700
2267.000000	8.647200
2266.000000	8.621200
2265.000000	8.622000
2264.000000	8.637100
2263.000000	8.647200
2262.000000	8.643200
2261.000000	8.651200
2260.000000	8.677800
2259.000000	8.713000
2258.000000	8.735600
2257.000000	8.756800
2256.000000	8.808300
2255.000000	8.862300
2254.000000	8.897900
2253.000000	8.929600
2252.000000	8.984000
2251.000000	9.028000
2250.000000	9.076100
2249.000000	9.133300
2248.000000	9.188000
2247.000000	9.234100
2246.000000	9.267500
2245.000000	9.305200
2244.000000	9.339200
2243.000000	9.369800
2242.000000	9.415900
2241.000000	9.407300
2240.000000	9.443700
2239.000000	9.457600
2238.000000	9.486700
2237.000000	9.460200
2236.000000	9.479900
2235.000000	9.467100
2234.000000	9.446900
2233.000000	9.416400
2232.000000	9.401300
2231.000000	9.365900
2230.000000	9.319800
2229.000000	9.284400
2228.000000	9.226100
2227.000000	9.176300
2226.000000	9.085300
2225.000000	9.059300
2224.000000	8.951900
2223.000000	8.902100
2222.000000	8.836100
2221.000000	8.724100
2220.000000	8.647700
2219.000000	8.576300
2218.000000	8.481000
2217.000000	8.423000
2216.000000	8.348400
2215.000000	8.300300
2214.000000	8.219000
2213.000000	8.180600
2212.000000	8.155000
2211.000000	8.113300
2210.000000	8.120000
2209.000000	8.118600
2208.000000	8.136500
2207.000000	8.187900
2206.000000	8.227400
2205.000000	8.285000
2204.000000	8.363800
2203.000000	8.451100
2202.000000	8.551300
2201.000000	8.655000
2200.000000	8.746300
2199.000000	8.883500
2198.000000	8.989500
2197.000000	9.112700
2196.000000	9.239600
2195.000000	9.339100
2194.000000	9.439000
2193.000000	9.559700
2192.000000	9.669100
2191.000000	9.761800
2190.000000	9.865300
2189.000000	9.925200
2188.000000	9.979500
2187.000000	10.048900
2186.000000	10.112400
2185.000000	10.136000
2184.000000	10.200700
2183.000000	10.250700
2182.000000	10.277500
2181.000000	10.299100
2180.000000	10.336100
2179.000000	10.367600
2178.000000	10.385300
2177.000000	10.414600
2176.000000	10.439200
2175.000000	10.455500
2174.000000	10.475200
2173.000000	10.528400
2172.000000	10.553400
2171.000000	10.588500
2170.000000	10.609300
2169.000000	10.632800
2168.000000	10.674200
2167.000000	10.699300
2166.000000	10.745600
2165.000000	10.785500
2164.000000	10.836600
2163.000000	10.884000
2162.000000	10.910900
2161.000000	10.956000
2160.000000	11.019900
2159.000000	11.063900
2158.000000	11.140700
2157.000000	11.216000
2156.000000	11.251800
2155.000000	11.327000
2154.000000	11.385200
2153.000000	11.465700
2152.000000	11.557000
2151.000000	11.636300
2150.000000	11.696600
2149.000000	11.769300
2148.000000	11.861500
2147.000000	11.942600
2146.000000	12.013200
2145.000000	12.081600
2144.000000	12.162300
2143.000000	12.229000
2142.000000	12.302800
2141.000000	12.373500
2140.000000	12.440800
2139.000000	12.508900
2138.000000	12.585200
2137.000000	12.644300
2136.000000	12.704100
2135.000000	12.755600
2134.000000	12.816500
2133.000000	12.865900
2132.000000	12.916000
2131.000000	12.967300
2130.000000	13.019600
2129.000000	13.059600
2128.000000	13.091200
2127.000000	13.130600
2126.000000	13.175900
2125.000000	13.200700
2124.000000	13.216800
2123.000000	13.254400
2122.000000	13.285600
2121.000000	13.309600
2120.000000	13.331500
2119.000000	13.342000
2118.000000	13.349300
2117.000000	13.364400
2116.000000	13.387100
2115.000000	13.390400
2114.000000	13.392100
2113.000000	13.396100
2112.000000	13.411700
2111.000000	13.430400
2110.000000	13.426200
2109.000000	13.420100
2108.000000	13.413600
2107.000000	13.421400
2106.000000	13.431500
2105.000000	13.417500
2104.000000	13.403200
2103.000000	13.416500
2102.000000	13.418000
2101.000000	13.400100
2100.000000	13.408300
2099.000000	13.416300
2098.000000	13.401500
2097.000000	13.405400
2096.000000	13.417400
2095.000000	13.424300
2094.000000	13.439100
2093.000000	13.439700
2092.000000	13.442300
2091.000000	13.454100
2090.000000	13.460300
2089.000000	13.458300
2088.000000	13.463500
2087.000000	13.478100
2086.000000	13.472100
2085.000000	13.449800
2084.000000	13.437800
2083.000000	13.439500
2082.000000	13.412600
2081.000000	13.387000
2080.000000	13.360900
2079.000000	13.318500
2078.000000	13.276000
2077.000000	13.238300
2076.000000	13.199600
2075.000000	13.139400
2074.000000	13.089000
2073.000000	13.027300
2072.000000	12.961000
2071.000000	12.899300
2070.000000	12.822000
2069.000000	12.750300
2068.000000	12.676700
2067.000000	12.599800
2066.000000	12.526000
2065.000000	12.442400
2064.000000	12.378900
2063.000000	12.308700
2062.000000	12.233000
2061.000000	12.168700
2060.000000	12.101300
2059.000000	12.040200
2058.000000	12.001700
2057.000000	11.958300
2056.000000	11.938600
2055.000000	11.915900
2054.000000	11.895000
2053.000000	11.910000
2052.000000	11.930200
2051.000000	11.963300
2050.000000	12.021100
2049.000000	12.067300
2048.000000	12.117900
2047.000000	12.199700
2046.000000	12.279900
2045.000000	12.367200
2044.000000	12.444400
2043.000000	12.525500
2042.000000	12.644000
2041.000000	12.734700
2040.000000	12.814700
2039.000000	12.915400
2038.000000	13.008300
2037.000000	13.095400
2036.000000	13.172200
2035.000000	13.250400
2034.000000	13.318500
2033.000000	13.414900
2032.000000	13.481500
2031.000000	13.537100
2030.000000	13.599900
2029.000000	13.668000
2028.000000	13.733600
2027.000000	13.789600
2026.000000	13.839100
2025.000000	13.895700
2024.000000	13.938800
2023.000000	13.974800
2022.000000	14.026800
2021.000000	14.080500
2020.000000	14.128900
2019.000000	14.150600
2018.000000	14.197600
2017.000000	14.217400
2016.000000	14.251600
2015.000000	14.282600
2014.000000	14.281300
2013.000000	14.318400
2012.000000	14.316700
2011.000000	14.327800
2010.000000	14.331300
2009.000000	14.328700
2008.000000	14.325600
2007.000000	14.308700
2006.000000	14.299100
2005.000000	14.284700
2004.000000	14.279300
2003.000000	14.240500
2002.000000	14.213700
2001.000000	14.192700
2000.000000	14.154900
1999.000000	14.137000
1998.000000	14.079100
1997.000000	14.031200
1996.000000	14.012600
1995.000000	13.949400
1994.000000	13.927800
1993.000000	13.878200
1992.000000	13.813000
1991.000000	13.773700
1990.000000	13.735800
1989.000000	13.656900
1988.000000	13.609800
1987.000000	13.554800
1986.000000	13.495900
1985.000000	13.439600
1984.000000	13.381600
1983.000000	13.329600
1982.000000	13.258400
1981.000000	13.194300
1980.000000	13.122800
1979.000000	13.069600
1978.000000	12.994000
1977.000000	12.945100
1976.000000	12.901900
1975.000000	12.834200
1974.000000	12.780000
1973.000000	12.723400
1972.000000	12.661800
1971.000000	12.612200
1970.000000	12.552000
1969.000000	12.472800
1968.000000	12.436800
1967.000000	12.381300
1966.000000	12.321200
1965.000000	12.283700
1964.000000	12.228700
1963.000000	12.172100
1962.000000	12.114300
1961.000000	12.040900
1960.000000	11.985300
1959.000000	11.938600
1958.000000	11.866900
1957.000000	11.813700
1956.000000	11.760400
1955.000000	11.714900
1954.000000	11.630900
1953.000000	11.582200
1952.000000	11.531400
1951.000000	11.463000
1950.000000	11.411600
1949.000000	11.370500
1948.000000	11.323600
1947.000000	11.274500
1946.000000	11.217600
1945.000000	11.192500
1944.000000	11.143400
1943.000000	11.121800
1942.000000	11.105600
1941.000000	11.065000
1940.000000	11.058000
1939.000000	11.044300
1938.000000	11.044300
1937.000000	11.026200
1936.000000	11.002400
1935.000000	11.025100
1934.000000	11.000400
1933.000000	11.030800
1932.000000	11.055600
1931.000000	11.083200
1930.000000	11.129700
1929.000000	11.154800
1928.000000	11.201000
1927.000000	11.252100
1926.000000	11.318800
1925.000000	11.380200
1924.000000	11.455900
1923.000000	11.546500
1922.000000	11.635900
1921.000000	11.748600
1920.000000	11.856800
1919.000000	11.966400
1918.000000	12.076900
1917.000000	12.196200
1916.000000	12.319900
1915.000000	12.491300
1914.000000	12.654400
1913.000000	12.873900
1912.000000	13.066600
1911.000000	13.243300
1910.000000	13.446800
1909.000000	13.630900
1908.000000	13.875200
1907.000000	14.154600
1906.000000	14.464000
1905.000000	14.821700
1904.000000	15.153100
1903.000000	15.452500
1902.000000	15.800100
1901.000000	16.176000
1900.000000	16.580500
1899.000000	17.010800
1898.000000	17.434700
1897.000000	17.859000
1896.000000	18.219200
1895.000000	18.600100
1894.000000	19.031700
1893.000000	19.496600
1892.000000	20.011700
1891.000000	20.513400
1890.000000	20.984800
1889.000000	21.420200
1888.000000	21.866400
1887.000000	22.264600
1886.000000	22.673600
1885.000000	23.092600
1884.000000	23.517700
1883.000000	23.903500
1882.000000	24.247300
1881.000000	24.592100
1880.000000	24.872400
1879.000000	25.164800
1878.000000	25.470300
1877.000000	25.747800
1876.000000	26.023800
1875.000000	26.310500
1874.000000	26.560100
1873.000000	26.806500
1872.000000	27.041700
1871.000000	27.238800
1870.000000	27.404200
1869.000000	27.571500
1868.000000	27.682900
1867.000000	27.771900
1866.000000	27.843000
1865.000000	27.907100
1864.000000	27.983500
1863.000000	28.063400
1862.000000	28.158000
1861.000000	28.270700
1860.000000	28.381400
1859.000000	28.469500
1858.000000	28.545500
1857.000000	28.587800
1856.000000	28.634400
1855.000000	28.678300
1854.000000	28.722300
1853.000000	28.737000
1852.000000	28.734700
1851.000000	28.762200
1850.000000	28.815100
1849.000000	28.879500
1848.000000	28.904200
1847.000000	28.904900
1846.000000	28.869400
1845.000000	28.831100
1844.000000	28.801600
1843.000000	28.803200
1842.000000	28.826000
1841.000000	28.839100
1840.000000	28.814200
1839.000000	28.776500
1838.000000	28.769700
1837.000000	28.747400
1836.000000	28.683100
1835.000000	28.630000
1834.000000	28.581000
1833.000000	28.539400
1832.000000	28.516200
1831.000000	28.491100
1830.000000	28.472100
1829.000000	28.452300
1828.000000	28.415500
1827.000000	28.393000
1826.000000	28.376200
1825.000000	28.351700
1824.000000	28.332600
1823.000000	28.353000
1822.000000	28.399900
1821.000000	28.427500
1820.000000	28.423400
1819.000000	28.397000
1818.000000	28.365700
1817.000000	28.340300
1816.000000	28.341200
1815.000000	28.325000
1814.000000	28.302900
1813.000000	28.304900
1812.000000	28.294000
1811.000000	28.256800
1810.000000	28.210500
1809.000000	28.175600
1808.000000	28.151600
1807.000000	28.138500
1806.000000	28.110900
1805.000000	28.079400
1804.000000	28.058400
1803.000000	28.039700
1802.000000	28.034200
1801.000000	28.007500
1800.000000	27.967400
1799.000000	27.939000
1798.000000	27.907000
1797.000000	27.887800
1796.000000	27.852300
1795.000000	27.816900
1794.000000	27.792900
1793.000000	27.778000
1792.000000	27.757000
1791.000000	27.736900
1790.000000	27.713100
1789.000000	27.708300
1788.000000	27.703800
1787.000000	27.702000
1786.000000	27.698700
1785.000000	27.698100
1784.000000	27.675100
1783.000000	27.641500
1782.000000	27.624500
1781.000000	27.607200
1780.000000	27.580400
1779.000000	27.546100
1778.000000	27.503900
1777.000000	27.470600
1776.000000	27.426100
1775.000000	27.365100
1774.000000	27.310000
1773.000000	27.272900
1772.000000	27.206000
1771.000000	27.159400
1770.000000	27.112300
1769.000000	27.056900
1768.000000	26.997400
1767.000000	26.954200
1766.000000	26.913500
1765.000000	26.856700
1764.000000	26.832700
1763.000000	26.802600
1762.000000	26.785300
1761.000000	26.781900
1760.000000	26.787500
1759.000000	26.761900
1758.000000	26.747900
1757.000000	26.728800
1756.000000	26.726900
1755.000000	26.717600
1754.000000	26.714600
1753.000000	26.696400
1752.000000	26.664900
1751.000000	26.653000
1750.000000	26.638100
1749.000000	26.585200
1748.000000	26.553800
1747.000000	26.496800
1746.000000	26.432900
1745.000000	26.354100
1744.000000	26.292100
1743.000000	26.233400
1742.000000	26.159300
1741.000000	26.090400
1740.000000	26.001000
1739.000000	25.931400
1738.000000	25.855400
1737.000000	25.793800
1736.000000	25.753700
1735.000000	25.714800
1734.000000	25.659600
1733.000000	25.602100
1732.000000	25.575900
1731.000000	25.534600
1730.000000	25.496400
1729.000000	25.439300
1728.000000	25.411600
1727.000000	25.378600
1726.000000	25.372300
1725.000000	25.355700
1724.000000	25.357800
1723.000000	25.427800
1722.000000	25.508200
1721.000000	25.617700
1720.000000	25.778100
1719.000000	25.965500
1718.000000	26.160600
1717.000000	26.391800
1716.000000	26.593100
1715.000000	26.787000
1714.000000	26.981400
1713.000000	27.157400
1712.000000	27.308500
1711.000000	27.465100
1710.000000	27.576500
1709.000000	27.718100
1708.000000	27.788800
1707.000000	27.883000
1706.000000	27.934700
1705.000000	28.007800
1704.000000	28.043900
1703.000000	28.088700
1702.000000	28.089300
1701.000000	28.120900
1700.000000	28.159000
1699.000000	28.149000
1698.000000	28.150000
1697.000000	28.150000
1696.000000	28.118400
1695.000000	28.066100
1694.000000	28.036100
1693.000000	27.932400
1692.000000	27.877500
1691.000000	27.788900
1690.000000	27.772300
1689.000000	27.734700
1688.000000	27.766600
1687.000000	27.831400
1686.000000	27.927900
1685.000000	28.085300
1684.000000	28.260800
1683.000000	28.449900
1682.000000	28.664000
1681.000000	28.860100
1680.000000	29.064500
1679.000000	29.256600
1678.000000	29.437100
1677.000000	29.589400
1676.000000	29.760300
1675.000000	29.893000
1674.000000	30.034200
1673.000000	30.189300
1672.000000	30.356900
1671.000000	30.497400
1670.000000	30.648900
1669.000000	30.810300
1668.000000	30.979200
1667.000000	31.107200
1666.000000	31.239800
1665.000000	31.393000
1664.000000	31.515400
1663.000000	31.643300
1662.000000	31.763900
1661.000000	31.872300
1660.000000	31.977000
1659.000000	32.043800
1658.000000	32.122100
1657.000000	32.188900
1656.000000	32.256500
1655.000000	32.295300
1654.000000	32.328600
1653.000000	32.361400
1652.000000	32.374500
1651.000000	32.374900
1650.000000	32.370300
1649.000000	32.372100
1648.000000	32.380500
1647.000000	32.381700
1646.000000	32.349900
1645.000000	32.340400
1644.000000	32.328800
1643.000000	32.317600
1642.000000	32.307600
1641.000000	32.299000
1640.000000	32.295300
1639.000000	32.266800
1638.000000	32.244300
1637.000000	32.221900
1636.000000	32.206200
1635.000000	32.191100
1634.000000	32.151100
1633.000000	32.113400
1632.000000	32.084600
1631.000000	32.062800
1630.000000	32.019800
1629.000000	31.985100
1628.000000	31.957600
1627.000000	31.914300
1626.000000	31.876400
1625.000000	31.827800
1624.000000	31.800000
1623.000000	31.773300
1622.000000	31.746400
1621.000000	31.718900
1620.000000	31.696900
1619.000000	31.673900
1618.000000	31.629300
1617.000000	31.602400
1616.000000	31.581100
1615.000000	31.561600
1614.000000	31.522800
