PE UV       SUBTECH     SPECTRUM    ASCII       PEDS        4.00        
   -1
CICIMAUCR0014-2.Sample.ASC
24/04/04
11:56:19.00
24/04/04
11:56:19.00
Vinicio Soto Monge
C. cupreomarginata
250,000000
1
Lambda 1050
1050L1511233
PerkinElmer UV WinLab 6.3.2.0749 / 2.02.05 Lambda 900 UV/VIS/NIR, Aug  7 2015 09:38:08

0
0
3350/servo 860,8/2
0
0
UV/VIS
1
1
1
DoubleDePol,CommonBeamDepol,RBeamAtt,SBeamAtt,60mm sphere, WB InGaAs Detector
0
0
0
0
Program
Program
3350/servo 860,8/2
3350/0,2 860,8/0,2
3350/0,2 860,8/0,2
0
15.00
 
 
 
0
 
860,8
319,2
860,8
Front
100
on
S:100 R:100
0
0
0
0
 
0
 
 
 
0
 
 
0
0
0
0
0
 
 
 
 
0
0


0
0
#HDR
-1
-1
#GR
nm
%R
1.0
0.0
2500,000000
-1,000000
2251
8
66,693600
4,828800
#DATA
2500.000000	11.186500
2499.000000	11.061400
2498.000000	11.143100
2497.000000	11.127700
2496.000000	11.172600
2495.000000	11.114200
2494.000000	11.151500
2493.000000	11.203800
2492.000000	11.206100
2491.000000	11.238300
2490.000000	11.223600
2489.000000	11.196100
2488.000000	11.194700
2487.000000	11.176100
2486.000000	11.257900
2485.000000	11.212600
2484.000000	11.221300
2483.000000	11.333800
2482.000000	11.268400
2481.000000	11.242100
2480.000000	11.310700
2479.000000	11.364500
2478.000000	11.364300
2477.000000	11.431800
2476.000000	11.424900
2475.000000	11.416200
2474.000000	11.467700
2473.000000	11.512100
2472.000000	11.558400
2471.000000	11.565800
2470.000000	11.589500
2469.000000	11.633400
2468.000000	11.700900
2467.000000	11.729400
2466.000000	11.760100
2465.000000	11.854500
2464.000000	11.913400
2463.000000	11.991500
2462.000000	12.031100
2461.000000	12.126500
2460.000000	12.183700
2459.000000	12.253300
2458.000000	12.341800
2457.000000	12.411800
2456.000000	12.513300
2455.000000	12.587400
2454.000000	12.702600
2453.000000	12.779400
2452.000000	12.872000
2451.000000	12.974400
2450.000000	13.083600
2449.000000	13.205900
2448.000000	13.307700
2447.000000	13.437000
2446.000000	13.536200
2445.000000	13.670600
2444.000000	13.772600
2443.000000	13.894700
2442.000000	13.978200
2441.000000	14.102000
2440.000000	14.211100
2439.000000	14.335000
2438.000000	14.426600
2437.000000	14.542000
2436.000000	14.653800
2435.000000	14.769400
2434.000000	14.883400
2433.000000	14.962700
2432.000000	15.062600
2431.000000	15.158800
2430.000000	15.271400
2429.000000	15.373200
2428.000000	15.457600
2427.000000	15.554100
2426.000000	15.637200
2425.000000	15.726400
2424.000000	15.809100
2423.000000	15.879900
2422.000000	15.968600
2421.000000	16.059400
2420.000000	16.132100
2419.000000	16.189200
2418.000000	16.263700
2417.000000	16.328800
2416.000000	16.375600
2415.000000	16.439100
2414.000000	16.504200
2413.000000	16.553700
2412.000000	16.608300
2411.000000	16.665100
2410.000000	16.714900
2409.000000	16.740200
2408.000000	16.778400
2407.000000	16.838500
2406.000000	16.889600
2405.000000	16.922500
2404.000000	16.955200
2403.000000	16.980800
2402.000000	17.012600
2401.000000	17.052500
2400.000000	17.082900
2399.000000	17.107000
2398.000000	17.122800
2397.000000	17.154000
2396.000000	17.196900
2395.000000	17.215400
2394.000000	17.236300
2393.000000	17.253300
2392.000000	17.274300
2391.000000	17.291500
2390.000000	17.299000
2389.000000	17.297400
2388.000000	17.301000
2387.000000	17.316100
2386.000000	17.296900
2385.000000	17.288100
2384.000000	17.285400
2383.000000	17.272600
2382.000000	17.270000
2381.000000	17.236100
2380.000000	17.202200
2379.000000	17.200800
2378.000000	17.188200
2377.000000	17.158500
2376.000000	17.131700
2375.000000	17.097000
2374.000000	17.049500
2373.000000	17.020300
2372.000000	16.984200
2371.000000	16.942900
2370.000000	16.916200
2369.000000	16.875400
2368.000000	16.836800
2367.000000	16.800600
2366.000000	16.757200
2365.000000	16.720800
2364.000000	16.673200
2363.000000	16.618500
2362.000000	16.572400
2361.000000	16.539300
2360.000000	16.500600
2359.000000	16.447600
2358.000000	16.403300
2357.000000	16.371600
2356.000000	16.337700
2355.000000	16.290300
2354.000000	16.252500
2353.000000	16.230900
2352.000000	16.188700
2351.000000	16.162200
2350.000000	16.156600
2349.000000	16.140000
2348.000000	16.129400
2347.000000	16.129300
2346.000000	16.121700
2345.000000	16.110400
2344.000000	16.104400
2343.000000	16.092200
2342.000000	16.085500
2341.000000	16.069900
2340.000000	16.063400
2339.000000	16.050800
2338.000000	16.051600
2337.000000	16.022000
2336.000000	16.001200
2335.000000	15.972900
2334.000000	15.942600
2333.000000	15.926700
2332.000000	15.898100
2331.000000	15.870600
2330.000000	15.829400
2329.000000	15.805500
2328.000000	15.774400
2327.000000	15.726300
2326.000000	15.689400
2325.000000	15.648800
2324.000000	15.602800
2323.000000	15.550100
2322.000000	15.496100
2321.000000	15.435600
2320.000000	15.362600
2319.000000	15.297600
2318.000000	15.211600
2317.000000	15.122800
2316.000000	15.036400
2315.000000	14.926000
2314.000000	14.838800
2313.000000	14.747500
2312.000000	14.651300
2311.000000	14.553200
2310.000000	14.463200
2309.000000	14.384000
2308.000000	14.327800
2307.000000	14.277300
2306.000000	14.211200
2305.000000	14.161800
2304.000000	14.145900
2303.000000	14.115400
2302.000000	14.105500
2301.000000	14.111900
2300.000000	14.111200
2299.000000	14.103000
2298.000000	14.123500
2297.000000	14.149600
2296.000000	14.150700
2295.000000	14.151100
2294.000000	14.164200
2293.000000	14.181400
2292.000000	14.186000
2291.000000	14.171100
2290.000000	14.148200
2289.000000	14.151600
2288.000000	14.126700
2287.000000	14.095800
2286.000000	14.058200
2285.000000	14.024300
2284.000000	14.010800
2283.000000	13.951900
2282.000000	13.901800
2281.000000	13.865200
2280.000000	13.805600
2279.000000	13.746900
2278.000000	13.693900
2277.000000	13.636400
2276.000000	13.587000
2275.000000	13.531200
2274.000000	13.489900
2273.000000	13.447900
2272.000000	13.411000
2271.000000	13.355100
2270.000000	13.345300
2269.000000	13.323500
2268.000000	13.326600
2267.000000	13.332000
2266.000000	13.370700
2265.000000	13.404600
2264.000000	13.457400
2263.000000	13.517200
2262.000000	13.589700
2261.000000	13.679700
2260.000000	13.774100
2259.000000	13.895800
2258.000000	14.013700
2257.000000	14.140900
2256.000000	14.274200
2255.000000	14.399900
2254.000000	14.554600
2253.000000	14.689000
2252.000000	14.802400
2251.000000	14.948600
2250.000000	15.073200
2249.000000	15.185200
2248.000000	15.303600
2247.000000	15.397400
2246.000000	15.508300
2245.000000	15.602900
2244.000000	15.676800
2243.000000	15.758800
2242.000000	15.843100
2241.000000	15.889800
2240.000000	15.928200
2239.000000	15.974100
2238.000000	16.028700
2237.000000	16.046800
2236.000000	16.033400
2235.000000	16.063800
2234.000000	16.039800
2233.000000	16.019300
2232.000000	16.006800
2231.000000	15.952700
2230.000000	15.913300
2229.000000	15.832600
2228.000000	15.751400
2227.000000	15.686600
2226.000000	15.585100
2225.000000	15.451800
2224.000000	15.343400
2223.000000	15.240200
2222.000000	15.124700
2221.000000	14.991500
2220.000000	14.859300
2219.000000	14.722300
2218.000000	14.594700
2217.000000	14.463700
2216.000000	14.366700
2215.000000	14.254900
2214.000000	14.156500
2213.000000	14.088200
2212.000000	14.032600
2211.000000	14.004800
2210.000000	13.971100
2209.000000	13.978300
2208.000000	14.006400
2207.000000	14.057900
2206.000000	14.157500
2205.000000	14.274000
2204.000000	14.401700
2203.000000	14.536200
2202.000000	14.726100
2201.000000	14.906900
2200.000000	15.098700
2199.000000	15.322700
2198.000000	15.528700
2197.000000	15.748300
2196.000000	15.961100
2195.000000	16.172100
2194.000000	16.358300
2193.000000	16.563300
2192.000000	16.744100
2191.000000	16.909400
2190.000000	17.074200
2189.000000	17.202900
2188.000000	17.337300
2187.000000	17.429700
2186.000000	17.543200
2185.000000	17.631500
2184.000000	17.715500
2183.000000	17.789100
2182.000000	17.852200
2181.000000	17.918500
2180.000000	17.964400
2179.000000	18.004400
2178.000000	18.073500
2177.000000	18.099400
2176.000000	18.129200
2175.000000	18.164400
2174.000000	18.211300
2173.000000	18.251000
2172.000000	18.323700
2171.000000	18.365100
2170.000000	18.416200
2169.000000	18.451000
2168.000000	18.511100
2167.000000	18.569300
2166.000000	18.611600
2165.000000	18.685000
2164.000000	18.766200
2163.000000	18.834100
2162.000000	18.889600
2161.000000	18.972300
2160.000000	19.057800
2159.000000	19.145600
2158.000000	19.234900
2157.000000	19.333000
2156.000000	19.424800
2155.000000	19.538700
2154.000000	19.658700
2153.000000	19.764800
2152.000000	19.872300
2151.000000	19.988500
2150.000000	20.121100
2149.000000	20.244500
2148.000000	20.367900
2147.000000	20.490600
2146.000000	20.619400
2145.000000	20.738800
2144.000000	20.860700
2143.000000	20.978200
2142.000000	21.092800
2141.000000	21.201700
2140.000000	21.315600
2139.000000	21.432300
2138.000000	21.529300
2137.000000	21.633500
2136.000000	21.731300
2135.000000	21.826800
2134.000000	21.918400
2133.000000	21.991200
2132.000000	22.074600
2131.000000	22.160900
2130.000000	22.228500
2129.000000	22.288500
2128.000000	22.353900
2127.000000	22.417200
2126.000000	22.476000
2125.000000	22.523100
2124.000000	22.561700
2123.000000	22.605600
2122.000000	22.634200
2121.000000	22.671100
2120.000000	22.700200
2119.000000	22.723900
2118.000000	22.739200
2117.000000	22.755600
2116.000000	22.762300
2115.000000	22.774900
2114.000000	22.782200
2113.000000	22.791200
2112.000000	22.788500
2111.000000	22.784100
2110.000000	22.779200
2109.000000	22.778900
2108.000000	22.773800
2107.000000	22.755500
2106.000000	22.743200
2105.000000	22.740000
2104.000000	22.733100
2103.000000	22.724800
2102.000000	22.711300
2101.000000	22.706400
2100.000000	22.696600
2099.000000	22.680200
2098.000000	22.675000
2097.000000	22.678900
2096.000000	22.672500
2095.000000	22.668700
2094.000000	22.674700
2093.000000	22.670400
2092.000000	22.664900
2091.000000	22.666900
2090.000000	22.674500
2089.000000	22.674300
2088.000000	22.660100
2087.000000	22.648700
2086.000000	22.631000
2085.000000	22.613900
2084.000000	22.590300
2083.000000	22.554700
2082.000000	22.525800
2081.000000	22.496700
2080.000000	22.447200
2079.000000	22.388100
2078.000000	22.322600
2077.000000	22.258100
2076.000000	22.192900
2075.000000	22.110600
2074.000000	22.012900
2073.000000	21.939100
2072.000000	21.843100
2071.000000	21.737700
2070.000000	21.658200
2069.000000	21.554600
2068.000000	21.432700
2067.000000	21.338100
2066.000000	21.243300
2065.000000	21.125100
2064.000000	21.030400
2063.000000	20.930700
2062.000000	20.825600
2061.000000	20.748500
2060.000000	20.682900
2059.000000	20.616400
2058.000000	20.553600
2057.000000	20.518000
2056.000000	20.498600
2055.000000	20.492900
2054.000000	20.523100
2053.000000	20.567800
2052.000000	20.615100
2051.000000	20.703600
2050.000000	20.793000
2049.000000	20.909700
2048.000000	21.048300
2047.000000	21.195900
2046.000000	21.365400
2045.000000	21.539500
2044.000000	21.703000
2043.000000	21.880700
2042.000000	22.079500
2041.000000	22.271300
2040.000000	22.457100
2039.000000	22.646800
2038.000000	22.798300
2037.000000	22.971200
2036.000000	23.134900
2035.000000	23.299800
2034.000000	23.450100
2033.000000	23.590800
2032.000000	23.729000
2031.000000	23.873200
2030.000000	24.008000
2029.000000	24.116300
2028.000000	24.227200
2027.000000	24.339800
2026.000000	24.444800
2025.000000	24.546700
2024.000000	24.635100
2023.000000	24.714200
2022.000000	24.792400
2021.000000	24.894200
2020.000000	24.965400
2019.000000	25.020200
2018.000000	25.083600
2017.000000	25.128500
2016.000000	25.190900
2015.000000	25.224900
2014.000000	25.268800
2013.000000	25.330900
2012.000000	25.351400
2011.000000	25.377200
2010.000000	25.389700
2009.000000	25.402700
2008.000000	25.419400
2007.000000	25.401800
2006.000000	25.407100
2005.000000	25.395100
2004.000000	25.379000
2003.000000	25.355300
2002.000000	25.306600
2001.000000	25.281400
2000.000000	25.228100
1999.000000	25.196200
1998.000000	25.150700
1997.000000	25.089000
1996.000000	25.039600
1995.000000	24.976300
1994.000000	24.910200
1993.000000	24.841600
1992.000000	24.758700
1991.000000	24.680900
1990.000000	24.596900
1989.000000	24.531800
1988.000000	24.436700
1987.000000	24.333800
1986.000000	24.256300
1985.000000	24.169000
1984.000000	24.062700
1983.000000	23.984900
1982.000000	23.887700
1981.000000	23.811800
1980.000000	23.703300
1979.000000	23.618100
1978.000000	23.511400
1977.000000	23.424300
1976.000000	23.335500
1975.000000	23.249300
1974.000000	23.175300
1973.000000	23.080800
1972.000000	23.005400
1971.000000	22.924600
1970.000000	22.843100
1969.000000	22.750700
1968.000000	22.672400
1967.000000	22.592900
1966.000000	22.509700
1965.000000	22.433500
1964.000000	22.335700
1963.000000	22.293000
1962.000000	22.192800
1961.000000	22.112000
1960.000000	21.999500
1959.000000	21.936800
1958.000000	21.853300
1957.000000	21.768700
1956.000000	21.688200
1955.000000	21.637000
1954.000000	21.529400
1953.000000	21.423100
1952.000000	21.363900
1951.000000	21.272500
1950.000000	21.216200
1949.000000	21.153700
1948.000000	21.091700
1947.000000	21.009200
1946.000000	20.977700
1945.000000	20.919500
1944.000000	20.851700
1943.000000	20.819900
1942.000000	20.806400
1941.000000	20.787600
1940.000000	20.785500
1939.000000	20.766800
1938.000000	20.742100
1937.000000	20.737300
1936.000000	20.744100
1935.000000	20.787900
1934.000000	20.826300
1933.000000	20.902000
1932.000000	20.955400
1931.000000	21.029600
1930.000000	21.114200
1929.000000	21.190200
1928.000000	21.289100
1927.000000	21.397500
1926.000000	21.512900
1925.000000	21.641300
1924.000000	21.814700
1923.000000	21.959900
1922.000000	22.158800
1921.000000	22.336500
1920.000000	22.507100
1919.000000	22.686800
1918.000000	22.891500
1917.000000	23.145500
1916.000000	23.399700
1915.000000	23.659300
1914.000000	23.955800
1913.000000	24.219900
1912.000000	24.486700
1911.000000	24.784500
1910.000000	25.092800
1909.000000	25.443500
1908.000000	25.788600
1907.000000	26.171500
1906.000000	26.574800
1905.000000	26.978000
1904.000000	27.388300
1903.000000	27.806400
1902.000000	28.256900
1901.000000	28.692500
1900.000000	29.161300
1899.000000	29.637500
1898.000000	30.117100
1897.000000	30.582500
1896.000000	31.026500
1895.000000	31.517400
1894.000000	32.025900
1893.000000	32.544600
1892.000000	33.066200
1891.000000	33.567100
1890.000000	34.048900
1889.000000	34.501300
1888.000000	35.010500
1887.000000	35.474900
1886.000000	35.927900
1885.000000	36.413600
1884.000000	36.875200
1883.000000	37.292700
1882.000000	37.683500
1881.000000	38.069600
1880.000000	38.425400
1879.000000	38.780300
1878.000000	39.124800
1877.000000	39.442500
1876.000000	39.733200
1875.000000	40.008900
1874.000000	40.274300
1873.000000	40.508100
1872.000000	40.699300
1871.000000	40.860700
1870.000000	40.947400
1869.000000	41.063400
1868.000000	41.187500
1867.000000	41.252800
1866.000000	41.330000
1865.000000	41.416700
1864.000000	41.520200
1863.000000	41.631500
1862.000000	41.724300
1861.000000	41.811000
1860.000000	41.880700
1859.000000	41.905600
1858.000000	41.926300
1857.000000	41.965500
1856.000000	41.998600
1855.000000	42.016800
1854.000000	42.011100
1853.000000	41.976700
1852.000000	41.977700
1851.000000	42.031300
1850.000000	42.113600
1849.000000	42.151600
1848.000000	42.074600
1847.000000	41.940100
1846.000000	41.843400
1845.000000	41.834100
1844.000000	41.865600
1843.000000	41.927700
1842.000000	41.937100
1841.000000	41.860500
1840.000000	41.765900
1839.000000	41.704200
1838.000000	41.681500
1837.000000	41.619300
1836.000000	41.525900
1835.000000	41.438000
1834.000000	41.371800
1833.000000	41.327300
1832.000000	41.306500
1831.000000	41.279200
1830.000000	41.208700
1829.000000	41.153400
1828.000000	41.087400
1827.000000	41.021700
1826.000000	40.955600
1825.000000	40.905200
1824.000000	40.914100
1823.000000	40.984500
1822.000000	41.030300
1821.000000	40.998900
1820.000000	40.921200
1819.000000	40.849200
1818.000000	40.840100
1817.000000	40.865000
1816.000000	40.876200
1815.000000	40.838300
1814.000000	40.822900
1813.000000	40.834000
1812.000000	40.814600
1811.000000	40.762100
1810.000000	40.685000
1809.000000	40.659500
1808.000000	40.659800
1807.000000	40.645100
1806.000000	40.586400
1805.000000	40.512100
1804.000000	40.489500
1803.000000	40.485000
1802.000000	40.465900
1801.000000	40.421700
1800.000000	40.358500
1799.000000	40.313900
1798.000000	40.289300
1797.000000	40.269100
1796.000000	40.224900
1795.000000	40.180100
1794.000000	40.153800
1793.000000	40.117600
1792.000000	40.096700
1791.000000	40.058100
1790.000000	40.031400
1789.000000	39.998600
1788.000000	39.974400
1787.000000	39.963500
1786.000000	39.939500
1785.000000	39.901400
1784.000000	39.863500
1783.000000	39.819400
1782.000000	39.781700
1781.000000	39.737000
1780.000000	39.673600
1779.000000	39.620900
1778.000000	39.555800
1777.000000	39.474300
1776.000000	39.386100
1775.000000	39.309900
1774.000000	39.208100
1773.000000	39.135000
1772.000000	39.042200
1771.000000	38.940300
1770.000000	38.852400
1769.000000	38.759300
1768.000000	38.672200
1767.000000	38.592100
1766.000000	38.521600
1765.000000	38.451800
1764.000000	38.409100
1763.000000	38.380500
1762.000000	38.350700
1761.000000	38.319600
1760.000000	38.319300
1759.000000	38.314800
1758.000000	38.315000
1757.000000	38.290700
1756.000000	38.277300
1755.000000	38.269300
1754.000000	38.231300
1753.000000	38.207100
1752.000000	38.177100
1751.000000	38.111100
1750.000000	38.060000
1749.000000	37.980300
1748.000000	37.903300
1747.000000	37.804000
1746.000000	37.686700
1745.000000	37.575600
1744.000000	37.426000
1743.000000	37.292400
1742.000000	37.153200
1741.000000	36.990000
1740.000000	36.837300
1739.000000	36.695700
1738.000000	36.565600
1737.000000	36.454100
1736.000000	36.377600
1735.000000	36.291600
1734.000000	36.263300
1733.000000	36.230300
1732.000000	36.206900
1731.000000	36.206000
1730.000000	36.197200
1729.000000	36.202300
1728.000000	36.199600
1727.000000	36.194400
1726.000000	36.169300
1725.000000	36.189000
1724.000000	36.209000
1723.000000	36.242000
1722.000000	36.302500
1721.000000	36.393000
1720.000000	36.518600
1719.000000	36.692200
1718.000000	36.857600
1717.000000	37.026600
1716.000000	37.235100
1715.000000	37.382600
1714.000000	37.555300
1713.000000	37.701600
1712.000000	37.836900
1711.000000	37.940200
1710.000000	38.025600
1709.000000	38.086000
1708.000000	38.118600
1707.000000	38.161200
1706.000000	38.179400
1705.000000	38.164000
1704.000000	38.156300
1703.000000	38.119500
1702.000000	38.065400
1701.000000	37.987400
1700.000000	37.921200
1699.000000	37.840800
1698.000000	37.790900
1697.000000	37.746500
1696.000000	37.697200
1695.000000	37.682300
1694.000000	37.679100
1693.000000	37.653800
1692.000000	37.651800
1691.000000	37.629100
1690.000000	37.630600
1689.000000	37.646500
1688.000000	37.707100
1687.000000	37.772500
1686.000000	37.896400
1685.000000	38.053500
1684.000000	38.270500
1683.000000	38.543100
1682.000000	38.846500
1681.000000	39.178500
1680.000000	39.530800
1679.000000	39.880600
1678.000000	40.198100
1677.000000	40.505500
1676.000000	40.768000
1675.000000	41.032700
1674.000000	41.275100
1673.000000	41.520500
1672.000000	41.751100
1671.000000	41.981100
1670.000000	42.179300
1669.000000	42.395600
1668.000000	42.583700
1667.000000	42.771300
1666.000000	42.928800
1665.000000	43.078100
1664.000000	43.221700
1663.000000	43.367800
1662.000000	43.503400
1661.000000	43.634200
1660.000000	43.720200
1659.000000	43.833800
1658.000000	43.905200
1657.000000	43.985900
1656.000000	44.039500
1655.000000	44.090500
1654.000000	44.123700
1653.000000	44.170600
1652.000000	44.154200
1651.000000	44.178100
1650.000000	44.188100
1649.000000	44.169600
1648.000000	44.162000
1647.000000	44.138500
1646.000000	44.120700
1645.000000	44.099000
1644.000000	44.072200
1643.000000	44.056800
1642.000000	44.031600
1641.000000	44.015700
1640.000000	43.994200
1639.000000	43.978600
1638.000000	43.946300
1637.000000	43.914700
1636.000000	43.886600
1635.000000	43.858500
1634.000000	43.820600
1633.000000	43.785300
1632.000000	43.735400
1631.000000	43.678100
1630.000000	43.606600
1629.000000	43.552200
1628.000000	43.508500
1627.000000	43.465600
1626.000000	43.397300
1625.000000	43.325300
