PE UV       SUBTECH     SPECTRUM    ASCII       PEDS        4.00        
   -1
CICIMAUCR0104-3.Sample.ASC
24/04/04
11:30:21.00
24/04/04
11:30:21.00
Vinicio Soto Monge
C. resplendens
250,000000
1
Lambda 1050
1050L1511233
PerkinElmer UV WinLab 6.3.2.0749 / 2.02.05 Lambda 900 UV/VIS/NIR, Aug  7 2015 09:38:08

0
0
3350/servo 860,8/2
0
0
UV/VIS
1
1
1
DoubleDePol,CommonBeamDepol,RBeamAtt,SBeamAtt,60mm sphere, WB InGaAs Detector
0
0
0
0
Program
Program
3350/servo 860,8/2
3350/0,2 860,8/0,2
3350/0,2 860,8/0,2
0
15.00
 
 
 
0
 
860,8
319,2
860,8
Front
100
on
S:100 R:100
0
0
0
0
 
0
 
 
 
0
 
 
0
0
0
0
0
 
 
 
 
0
0


0
0
#HDR
-1
-1
#GR
nm
%R
1.0
0.0
2500,000000
-1,000000
2251
8
72,628200
5,074300
#DATA
2500.000000	6.222400
2499.000000	6.144300
2498.000000	6.187700
2497.000000	6.256600
2496.000000	6.126300
2495.000000	6.167700
2494.000000	6.103100
2493.000000	6.090700
2492.000000	6.126300
2491.000000	6.080200
2490.000000	6.110200
2489.000000	6.111300
2488.000000	6.055200
2487.000000	6.070900
2486.000000	6.072800
2485.000000	6.017600
2484.000000	6.111000
2483.000000	6.114200
2482.000000	6.228100
2481.000000	6.126900
2480.000000	6.106600
2479.000000	6.083300
2478.000000	6.093200
2477.000000	6.157400
2476.000000	6.151800
2475.000000	6.130800
2474.000000	6.200400
2473.000000	6.200300
2472.000000	6.202400
2471.000000	6.229500
2470.000000	6.201500
2469.000000	6.212400
2468.000000	6.240300
2467.000000	6.318000
2466.000000	6.277000
2465.000000	6.303900
2464.000000	6.340600
2463.000000	6.371900
2462.000000	6.405100
2461.000000	6.433300
2460.000000	6.462800
2459.000000	6.495200
2458.000000	6.564300
2457.000000	6.605500
2456.000000	6.648600
2455.000000	6.720100
2454.000000	6.780200
2453.000000	6.815600
2452.000000	6.858800
2451.000000	6.919500
2450.000000	6.993000
2449.000000	7.060100
2448.000000	7.108500
2447.000000	7.179700
2446.000000	7.257500
2445.000000	7.317400
2444.000000	7.368800
2443.000000	7.435600
2442.000000	7.498200
2441.000000	7.570600
2440.000000	7.653100
2439.000000	7.719700
2438.000000	7.773300
2437.000000	7.840700
2436.000000	7.895300
2435.000000	7.963600
2434.000000	8.017200
2433.000000	8.069600
2432.000000	8.118100
2431.000000	8.168500
2430.000000	8.226800
2429.000000	8.263200
2428.000000	8.330500
2427.000000	8.376900
2426.000000	8.418000
2425.000000	8.457400
2424.000000	8.500600
2423.000000	8.542800
2422.000000	8.579500
2421.000000	8.627000
2420.000000	8.692300
2419.000000	8.737300
2418.000000	8.788400
2417.000000	8.823200
2416.000000	8.863900
2415.000000	8.892700
2414.000000	8.918500
2413.000000	8.959500
2412.000000	8.999600
2411.000000	9.032100
2410.000000	9.064300
2409.000000	9.104600
2408.000000	9.126100
2407.000000	9.169400
2406.000000	9.201800
2405.000000	9.242200
2404.000000	9.259400
2403.000000	9.292500
2402.000000	9.334600
2401.000000	9.374100
2400.000000	9.399100
2399.000000	9.413000
2398.000000	9.456000
2397.000000	9.496300
2396.000000	9.522000
2395.000000	9.544400
2394.000000	9.580800
2393.000000	9.605900
2392.000000	9.627600
2391.000000	9.655400
2390.000000	9.683300
2389.000000	9.700300
2388.000000	9.713000
2387.000000	9.722100
2386.000000	9.729500
2385.000000	9.733600
2384.000000	9.745100
2383.000000	9.748100
2382.000000	9.752400
2381.000000	9.747000
2380.000000	9.726300
2379.000000	9.721300
2378.000000	9.716700
2377.000000	9.700100
2376.000000	9.681100
2375.000000	9.672300
2374.000000	9.652000
2373.000000	9.617900
2372.000000	9.590700
2371.000000	9.565700
2370.000000	9.549600
2369.000000	9.526600
2368.000000	9.494100
2367.000000	9.458500
2366.000000	9.405400
2365.000000	9.355000
2364.000000	9.311400
2363.000000	9.258100
2362.000000	9.214400
2361.000000	9.164600
2360.000000	9.108400
2359.000000	9.056300
2358.000000	8.999200
2357.000000	8.951300
2356.000000	8.922300
2355.000000	8.891100
2354.000000	8.870800
2353.000000	8.850100
2352.000000	8.828900
2351.000000	8.844700
2350.000000	8.848300
2349.000000	8.849200
2348.000000	8.865300
2347.000000	8.894800
2346.000000	8.928900
2345.000000	8.949400
2344.000000	8.974000
2343.000000	8.991300
2342.000000	9.026700
2341.000000	9.057100
2340.000000	9.067200
2339.000000	9.068500
2338.000000	9.076000
2337.000000	9.082100
2336.000000	9.055300
2335.000000	9.051300
2334.000000	9.039300
2333.000000	9.004300
2332.000000	8.976300
2331.000000	8.937100
2330.000000	8.886500
2329.000000	8.829600
2328.000000	8.788200
2327.000000	8.740600
2326.000000	8.684100
2325.000000	8.603600
2324.000000	8.533800
2323.000000	8.465100
2322.000000	8.400700
2321.000000	8.315700
2320.000000	8.233500
2319.000000	8.133500
2318.000000	8.047100
2317.000000	7.955300
2316.000000	7.849500
2315.000000	7.762700
2314.000000	7.685600
2313.000000	7.597300
2312.000000	7.516000
2311.000000	7.444200
2310.000000	7.372500
2309.000000	7.313100
2308.000000	7.283300
2307.000000	7.248300
2306.000000	7.247300
2305.000000	7.243400
2304.000000	7.236000
2303.000000	7.244300
2302.000000	7.270600
2301.000000	7.302700
2300.000000	7.351400
2299.000000	7.406400
2298.000000	7.445700
2297.000000	7.484400
2296.000000	7.546500
2295.000000	7.584000
2294.000000	7.632600
2293.000000	7.651700
2292.000000	7.656700
2291.000000	7.655000
2290.000000	7.646200
2289.000000	7.651000
2288.000000	7.631700
2287.000000	7.593100
2286.000000	7.548200
2285.000000	7.517800
2284.000000	7.480500
2283.000000	7.439500
2282.000000	7.382000
2281.000000	7.318300
2280.000000	7.265800
2279.000000	7.211500
2278.000000	7.158000
2277.000000	7.113800
2276.000000	7.072200
2275.000000	7.029200
2274.000000	6.982900
2273.000000	6.960100
2272.000000	6.928900
2271.000000	6.914200
2270.000000	6.910700
2269.000000	6.923500
2268.000000	6.918700
2267.000000	6.952700
2266.000000	6.985500
2265.000000	7.044400
2264.000000	7.122400
2263.000000	7.189200
2262.000000	7.281600
2261.000000	7.402700
2260.000000	7.529400
2259.000000	7.615600
2258.000000	7.768600
2257.000000	7.914700
2256.000000	8.067400
2255.000000	8.173800
2254.000000	8.347400
2253.000000	8.465800
2252.000000	8.625100
2251.000000	8.754500
2250.000000	8.860300
2249.000000	8.988500
2248.000000	9.097700
2247.000000	9.184400
2246.000000	9.288500
2245.000000	9.379700
2244.000000	9.466500
2243.000000	9.556600
2242.000000	9.618400
2241.000000	9.695600
2240.000000	9.773700
2239.000000	9.807800
2238.000000	9.861100
2237.000000	9.886900
2236.000000	9.971800
2235.000000	9.988200
2234.000000	10.006900
2233.000000	10.007400
2232.000000	10.019900
2231.000000	10.032700
2230.000000	10.025700
2229.000000	10.019100
2228.000000	9.997100
2227.000000	9.967900
2226.000000	9.917000
2225.000000	9.865600
2224.000000	9.820200
2223.000000	9.777700
2222.000000	9.712000
2221.000000	9.640900
2220.000000	9.581300
2219.000000	9.488900
2218.000000	9.449700
2217.000000	9.386500
2216.000000	9.336600
2215.000000	9.273700
2214.000000	9.226100
2213.000000	9.217400
2212.000000	9.171400
2211.000000	9.153100
2210.000000	9.161800
2209.000000	9.199400
2208.000000	9.211200
2207.000000	9.266100
2206.000000	9.351900
2205.000000	9.437300
2204.000000	9.511400
2203.000000	9.632300
2202.000000	9.769800
2201.000000	9.912100
2200.000000	10.044000
2199.000000	10.191600
2198.000000	10.343100
2197.000000	10.509200
2196.000000	10.647400
2195.000000	10.788700
2194.000000	10.922900
2193.000000	11.075300
2192.000000	11.186900
2191.000000	11.317700
2190.000000	11.414700
2189.000000	11.525600
2188.000000	11.589500
2187.000000	11.679900
2186.000000	11.766900
2185.000000	11.807800
2184.000000	11.853700
2183.000000	11.919700
2182.000000	11.970700
2181.000000	11.994100
2180.000000	12.026300
2179.000000	12.069000
2178.000000	12.089200
2177.000000	12.128700
2176.000000	12.162800
2175.000000	12.178300
2174.000000	12.216900
2173.000000	12.239100
2172.000000	12.259500
2171.000000	12.286700
2170.000000	12.310200
2169.000000	12.346500
2168.000000	12.388200
2167.000000	12.421400
2166.000000	12.459900
2165.000000	12.489000
2164.000000	12.524600
2163.000000	12.557600
2162.000000	12.594900
2161.000000	12.627800
2160.000000	12.686500
2159.000000	12.723300
2158.000000	12.747800
2157.000000	12.795400
2156.000000	12.880600
2155.000000	12.930900
2154.000000	12.975500
2153.000000	13.019200
2152.000000	13.071100
2151.000000	13.142900
2150.000000	13.197100
2149.000000	13.260400
2148.000000	13.298500
2147.000000	13.355300
2146.000000	13.410600
2145.000000	13.465800
2144.000000	13.505500
2143.000000	13.554800
2142.000000	13.612900
2141.000000	13.661700
2140.000000	13.701500
2139.000000	13.752500
2138.000000	13.806900
2137.000000	13.835800
2136.000000	13.864900
2135.000000	13.902300
2134.000000	13.931900
2133.000000	13.951600
2132.000000	13.981100
2131.000000	14.000300
2130.000000	14.015700
2129.000000	14.043700
2128.000000	14.076200
2127.000000	14.086600
2126.000000	14.079400
2125.000000	14.080900
2124.000000	14.086500
2123.000000	14.088500
2122.000000	14.095000
2121.000000	14.080200
2120.000000	14.076500
2119.000000	14.073100
2118.000000	14.048600
2117.000000	14.039200
2116.000000	14.025800
2115.000000	14.008100
2114.000000	13.993400
2113.000000	13.967300
2112.000000	13.948600
2111.000000	13.933000
2110.000000	13.919500
2109.000000	13.894300
2108.000000	13.866800
2107.000000	13.846800
2106.000000	13.824600
2105.000000	13.796500
2104.000000	13.782500
2103.000000	13.774100
2102.000000	13.757400
2101.000000	13.743300
2100.000000	13.721100
2099.000000	13.694500
2098.000000	13.665400
2097.000000	13.640600
2096.000000	13.621500
2095.000000	13.609200
2094.000000	13.601500
2093.000000	13.581400
2092.000000	13.573100
2091.000000	13.575000
2090.000000	13.553900
2089.000000	13.533800
2088.000000	13.533200
2087.000000	13.520500
2086.000000	13.494400
2085.000000	13.486800
2084.000000	13.478800
2083.000000	13.457300
2082.000000	13.442400
2081.000000	13.409800
2080.000000	13.388800
2079.000000	13.377900
2078.000000	13.360800
2077.000000	13.333700
2076.000000	13.300900
2075.000000	13.274200
2074.000000	13.244400
2073.000000	13.207800
2072.000000	13.172300
2071.000000	13.141600
2070.000000	13.108600
2069.000000	13.085300
2068.000000	13.053000
2067.000000	13.006900
2066.000000	12.976300
2065.000000	12.949700
2064.000000	12.921100
2063.000000	12.901300
2062.000000	12.868300
2061.000000	12.866800
2060.000000	12.860500
2059.000000	12.865700
2058.000000	12.857000
2057.000000	12.856900
2056.000000	12.888900
2055.000000	12.913100
2054.000000	12.946000
2053.000000	13.004100
2052.000000	13.062900
2051.000000	13.137500
2050.000000	13.237200
2049.000000	13.333800
2048.000000	13.446400
2047.000000	13.551100
2046.000000	13.651800
2045.000000	13.776400
2044.000000	13.911000
2043.000000	14.057700
2042.000000	14.202600
2041.000000	14.325300
2040.000000	14.471400
2039.000000	14.610000
2038.000000	14.713400
2037.000000	14.827800
2036.000000	14.944600
2035.000000	15.067300
2034.000000	15.188400
2033.000000	15.288900
2032.000000	15.387900
2031.000000	15.496900
2030.000000	15.587800
2029.000000	15.673100
2028.000000	15.764700
2027.000000	15.827400
2026.000000	15.915000
2025.000000	15.986900
2024.000000	16.061800
2023.000000	16.134600
2022.000000	16.199400
2021.000000	16.267300
2020.000000	16.319400
2019.000000	16.373400
2018.000000	16.425900
2017.000000	16.488200
2016.000000	16.550300
2015.000000	16.587500
2014.000000	16.631100
2013.000000	16.681800
2012.000000	16.706700
2011.000000	16.729100
2010.000000	16.769800
2009.000000	16.790700
2008.000000	16.795700
2007.000000	16.822400
2006.000000	16.828400
2005.000000	16.825000
2004.000000	16.847100
2003.000000	16.821200
2002.000000	16.807100
2001.000000	16.795300
2000.000000	16.801900
1999.000000	16.749200
1998.000000	16.745900
1997.000000	16.691400
1996.000000	16.692900
1995.000000	16.650400
1994.000000	16.631800
1993.000000	16.576800
1992.000000	16.537800
1991.000000	16.456300
1990.000000	16.422000
1989.000000	16.388700
1988.000000	16.329900
1987.000000	16.276200
1986.000000	16.211600
1985.000000	16.147300
1984.000000	16.108400
1983.000000	16.037100
1982.000000	15.962500
1981.000000	15.914800
1980.000000	15.854100
1979.000000	15.793600
1978.000000	15.735000
1977.000000	15.661100
1976.000000	15.585700
1975.000000	15.527600
1974.000000	15.470600
1973.000000	15.415900
1972.000000	15.376600
1971.000000	15.300900
1970.000000	15.245800
1969.000000	15.181900
1968.000000	15.119300
1967.000000	15.068700
1966.000000	14.996600
1965.000000	14.954900
1964.000000	14.912300
1963.000000	14.849000
1962.000000	14.779500
1961.000000	14.717600
1960.000000	14.647000
1959.000000	14.593200
1958.000000	14.555700
1957.000000	14.479400
1956.000000	14.425000
1955.000000	14.369700
1954.000000	14.304800
1953.000000	14.243100
1952.000000	14.192200
1951.000000	14.151600
1950.000000	14.092400
1949.000000	14.036600
1948.000000	13.991500
1947.000000	13.931600
1946.000000	13.932900
1945.000000	13.895700
1944.000000	13.819900
1943.000000	13.826700
1942.000000	13.811500
1941.000000	13.789900
1940.000000	13.785200
1939.000000	13.765900
1938.000000	13.774600
1937.000000	13.783000
1936.000000	13.780800
1935.000000	13.808300
1934.000000	13.853200
1933.000000	13.876600
1932.000000	13.910600
1931.000000	13.987100
1930.000000	14.055700
1929.000000	14.105600
1928.000000	14.193900
1927.000000	14.265300
1926.000000	14.356300
1925.000000	14.458500
1924.000000	14.563800
1923.000000	14.685400
1922.000000	14.818700
1921.000000	14.960500
1920.000000	15.079600
1919.000000	15.221100
1918.000000	15.379600
1917.000000	15.537500
1916.000000	15.735300
1915.000000	15.898500
1914.000000	16.108900
1913.000000	16.312500
1912.000000	16.469200
1911.000000	16.667300
1910.000000	16.899600
1909.000000	17.093200
1908.000000	17.316500
1907.000000	17.575200
1906.000000	17.826900
1905.000000	18.082900
1904.000000	18.325800
1903.000000	18.561400
1902.000000	18.828000
1901.000000	19.098000
1900.000000	19.356000
1899.000000	19.622700
1898.000000	19.891900
1897.000000	20.198000
1896.000000	20.468800
1895.000000	20.750700
1894.000000	21.018500
1893.000000	21.303800
1892.000000	21.614400
1891.000000	21.911000
1890.000000	22.200400
1889.000000	22.463400
1888.000000	22.774400
1887.000000	23.110800
1886.000000	23.474600
1885.000000	23.855600
1884.000000	24.295100
1883.000000	24.735700
1882.000000	25.158900
1881.000000	25.641400
1880.000000	26.098300
1879.000000	26.523300
1878.000000	26.938100
1877.000000	27.341900
1876.000000	27.690100
1875.000000	28.039900
1874.000000	28.350500
1873.000000	28.630900
1872.000000	28.879300
1871.000000	29.093300
1870.000000	29.263000
1869.000000	29.433800
1868.000000	29.554300
1867.000000	29.659200
1866.000000	29.760500
1865.000000	29.854600
1864.000000	29.952500
1863.000000	30.048700
1862.000000	30.123200
1861.000000	30.187400
1860.000000	30.228200
1859.000000	30.219300
1858.000000	30.203700
1857.000000	30.216100
1856.000000	30.227200
1855.000000	30.206800
1854.000000	30.152200
1853.000000	30.081600
1852.000000	30.055500
1851.000000	30.067600
1850.000000	30.077700
1849.000000	30.039000
1848.000000	29.943500
1847.000000	29.801000
1846.000000	29.690600
1845.000000	29.660900
1844.000000	29.666900
1843.000000	29.688300
1842.000000	29.662600
1841.000000	29.597600
1840.000000	29.531200
1839.000000	29.483700
1838.000000	29.439500
1837.000000	29.361500
1836.000000	29.280400
1835.000000	29.192500
1834.000000	29.111400
1833.000000	29.058000
1832.000000	28.998700
1831.000000	28.930200
1830.000000	28.853300
1829.000000	28.769400
1828.000000	28.669000
1827.000000	28.589000
1826.000000	28.523200
1825.000000	28.467700
1824.000000	28.438100
1823.000000	28.450400
1822.000000	28.460200
1821.000000	28.418300
1820.000000	28.339900
1819.000000	28.293000
1818.000000	28.279200
1817.000000	28.278900
1816.000000	28.282900
1815.000000	28.269900
1814.000000	28.274700
1813.000000	28.274800
1812.000000	28.232700
1811.000000	28.176100
1810.000000	28.141900
1809.000000	28.127500
1808.000000	28.108300
1807.000000	28.052500
1806.000000	27.996400
1805.000000	27.941300
1804.000000	27.888800
1803.000000	27.865900
1802.000000	27.832300
1801.000000	27.768000
1800.000000	27.710200
1799.000000	27.653500
1798.000000	27.608000
1797.000000	27.579800
1796.000000	27.525500
1795.000000	27.474100
1794.000000	27.431400
1793.000000	27.353400
1792.000000	27.294800
1791.000000	27.245500
1790.000000	27.195700
1789.000000	27.144700
1788.000000	27.081800
1787.000000	27.016300
1786.000000	26.936700
1785.000000	26.842500
1784.000000	26.771100
1783.000000	26.687900
1782.000000	26.608800
1781.000000	26.533200
1780.000000	26.445500
1779.000000	26.347400
1778.000000	26.238900
1777.000000	26.145700
1776.000000	26.026900
1775.000000	25.893500
1774.000000	25.739400
1773.000000	25.607800
1772.000000	25.470300
1771.000000	25.321400
1770.000000	25.186900
1769.000000	25.058900
1768.000000	24.928000
1767.000000	24.813700
1766.000000	24.734700
1765.000000	24.666800
1764.000000	24.601900
1763.000000	24.573100
1762.000000	24.600000
1761.000000	24.627500
1760.000000	24.684900
1759.000000	24.752300
1758.000000	24.788800
1757.000000	24.847600
1756.000000	24.897400
1755.000000	24.928600
1754.000000	24.922900
1753.000000	24.891100
1752.000000	24.858500
1751.000000	24.827800
1750.000000	24.762800
1749.000000	24.679400
1748.000000	24.619000
1747.000000	24.509500
1746.000000	24.349900
1745.000000	24.213300
1744.000000	24.053200
1743.000000	23.852300
1742.000000	23.644000
1741.000000	23.404200
1740.000000	23.157900
1739.000000	22.927500
1738.000000	22.725600
1737.000000	22.558800
1736.000000	22.413400
1735.000000	22.326800
1734.000000	22.287300
1733.000000	22.288300
1732.000000	22.333300
1731.000000	22.409200
1730.000000	22.528300
1729.000000	22.616300
1728.000000	22.720900
1727.000000	22.830200
1726.000000	22.895800
1725.000000	22.966500
1724.000000	23.018300
1723.000000	23.050800
1722.000000	23.072800
1721.000000	23.100600
1720.000000	23.123500
1719.000000	23.168800
1718.000000	23.223600
1717.000000	23.290600
1716.000000	23.363500
1715.000000	23.437100
1714.000000	23.537100
1713.000000	23.609400
1712.000000	23.656800
1711.000000	23.703500
1710.000000	23.727400
1709.000000	23.729200
1708.000000	23.714000
1707.000000	23.703300
1706.000000	23.675400
1705.000000	23.628500
1704.000000	23.549400
1703.000000	23.463100
1702.000000	23.365700
1701.000000	23.226300
1700.000000	23.029000
1699.000000	22.896400
1698.000000	22.753600
1697.000000	22.644700
1696.000000	22.613000
1695.000000	22.593500
1694.000000	22.645400
1693.000000	22.782600
1692.000000	22.921900
1691.000000	23.085300
1690.000000	23.235200
1689.000000	23.305900
1688.000000	23.358100
1687.000000	23.390400
1686.000000	23.419700
1685.000000	23.466800
1684.000000	23.584200
1683.000000	23.837200
1682.000000	24.190600
1681.000000	24.698300
1680.000000	25.223100
1679.000000	25.801300
1678.000000	26.341800
1677.000000	26.839600
1676.000000	27.305200
1675.000000	27.709000
1674.000000	28.061800
1673.000000	28.373700
1672.000000	28.621400
1671.000000	28.873600
1670.000000	29.079700
1669.000000	29.259900
1668.000000	29.436900
1667.000000	29.574800
1666.000000	29.682900
1665.000000	29.815500
1664.000000	29.901000
1663.000000	29.994100
1662.000000	30.090600
1661.000000	30.141900
1660.000000	30.185300
1659.000000	30.233300
1658.000000	30.290700
1657.000000	30.327300
1656.000000	30.304000
1655.000000	30.331900
1654.000000	30.329600
1653.000000	30.329400
1652.000000	30.294300
1651.000000	30.272100
1650.000000	30.250600
1649.000000	30.219500
1648.000000	30.181400
1647.000000	30.150900
1646.000000	30.088700
1645.000000	30.027600
1644.000000	29.970600
1643.000000	29.924000
1642.000000	29.874200
1641.000000	29.813600
1640.000000	29.752000
1639.000000	29.694500
1638.000000	29.632400
1637.000000	29.571700
1636.000000	29.494900
1635.000000	29.417900
1634.000000	29.344800
1633.000000	29.268200
1632.000000	29.195800
1631.000000	29.117200
1630.000000	29.052300
1629.000000	28.971800
1628.000000	28.876500
1627.000000	28.794700
1626.000000	28.728500
1625.000000	28.646100
1624.000000	28.557000
1623.000000	28.476700
1622.000000	28.393100
1621.000000	28.310400
1620.000000	28.231200
1619.000000	28.158700
1618.000000	28.087800
1617.000000	28.014100
1616.000000	27.938100
1615.000000	27.863700
1614.000000	27.786900
1613.000000	27.712100
1612.000000	27.650300
1611.000000	27.578900
