PE UV       SUBTECH     SPECTRUM    ASCII       PEDS        4.00        
   -1
CICIMAUCR0001-1.Sample.ASC
24/03/08
10:42:50.00
24/03/08
10:42:50.00
Vinicio Soto Monge
C. kalinini
250,000000
1
Lambda 1050
1050L1511233
PerkinElmer UV WinLab 6.3.2.0749 / 2.02.05 Lambda 900 UV/VIS/NIR, Aug  7 2015 09:38:08

0
0
3350/servo 860,8/2
0
0
UV/VIS
1
1
1
DoubleDePol,CommonBeamDepol,RBeamAtt,SBeamAtt,60mm sphere, WB InGaAs Detector
0
0
0
0
Program
Program
3350/servo 860,8/2
3350/0,2 860,8/0,2
3350/0,2 860,8/0,2
0
15.00
 
 
 
0
 
860,8
319,2
860,8
Front
100
on
S:100 R:100
0
0
0
0
 
0
 
 
 
0
 
 
0
0
0
0
0
 
 
 
 
0
0


0
0
#HDR
-1
-1
#GR
nm
%R
1.0
0.0
2500,000000
-1,000000
2251
8
36,425100
2,679800
#DATA
2500.000000	3.463500
2499.000000	3.416200
2498.000000	3.524100
2497.000000	3.399600
2496.000000	3.417400
2495.000000	3.518100
2494.000000	3.499800
2493.000000	3.519300
2492.000000	3.504600
2491.000000	3.465000
2490.000000	3.492000
2489.000000	3.455200
2488.000000	3.486200
2487.000000	3.453200
2486.000000	3.505100
2485.000000	3.518400
2484.000000	3.451200
2483.000000	3.508100
2482.000000	3.450200
2481.000000	3.481900
2480.000000	3.500800
2479.000000	3.507300
2478.000000	3.539100
2477.000000	3.535900
2476.000000	3.547000
2475.000000	3.555000
2474.000000	3.584200
2473.000000	3.607700
2472.000000	3.561200
2471.000000	3.563700
2470.000000	3.572400
2469.000000	3.588600
2468.000000	3.630300
2467.000000	3.637600
2466.000000	3.666600
2465.000000	3.676000
2464.000000	3.713000
2463.000000	3.751700
2462.000000	3.762600
2461.000000	3.772900
2460.000000	3.820100
2459.000000	3.807800
2458.000000	3.837800
2457.000000	3.851400
2456.000000	3.906800
2455.000000	3.934700
2454.000000	3.943700
2453.000000	3.983700
2452.000000	3.989400
2451.000000	4.024600
2450.000000	4.043500
2449.000000	4.097600
2448.000000	4.127400
2447.000000	4.156000
2446.000000	4.195200
2445.000000	4.226700
2444.000000	4.271800
2443.000000	4.295600
2442.000000	4.322700
2441.000000	4.367200
2440.000000	4.398800
2439.000000	4.446300
2438.000000	4.462600
2437.000000	4.503700
2436.000000	4.543700
2435.000000	4.567300
2434.000000	4.616200
2433.000000	4.641100
2432.000000	4.683600
2431.000000	4.713600
2430.000000	4.746700
2429.000000	4.782200
2428.000000	4.825000
2427.000000	4.886700
2426.000000	4.957900
2425.000000	5.027200
2424.000000	5.095900
2423.000000	5.145300
2422.000000	5.171900
2421.000000	5.197700
2420.000000	5.226300
2419.000000	5.279800
2418.000000	5.313800
2417.000000	5.346600
2416.000000	5.371000
2415.000000	5.405800
2414.000000	5.465400
2413.000000	5.481900
2412.000000	5.508900
2411.000000	5.559800
2410.000000	5.582000
2409.000000	5.599000
2408.000000	5.619000
2407.000000	5.649400
2406.000000	5.687100
2405.000000	5.714600
2404.000000	5.752700
2403.000000	5.762800
2402.000000	5.782600
2401.000000	5.823000
2400.000000	5.835900
2399.000000	5.844700
2398.000000	5.885200
2397.000000	5.894800
2396.000000	5.921100
2395.000000	5.939800
2394.000000	5.953900
2393.000000	5.982400
2392.000000	6.002400
2391.000000	6.015600
2390.000000	6.036500
2389.000000	6.064400
2388.000000	6.080200
2387.000000	6.090000
2386.000000	6.080500
2385.000000	6.101900
2384.000000	6.118500
2383.000000	6.124800
2382.000000	6.138500
2381.000000	6.149200
2380.000000	6.144800
2379.000000	6.150900
2378.000000	6.180300
2377.000000	6.188300
2376.000000	6.171200
2375.000000	6.178900
2374.000000	6.199900
2373.000000	6.208200
2372.000000	6.207300
2371.000000	6.216900
2370.000000	6.219400
2369.000000	6.217600
2368.000000	6.219300
2367.000000	6.237400
2366.000000	6.257500
2365.000000	6.262100
2364.000000	6.284500
2363.000000	6.287900
2362.000000	6.278400
2361.000000	6.286100
2360.000000	6.297000
2359.000000	6.298100
2358.000000	6.309400
2357.000000	6.306600
2356.000000	6.316400
2355.000000	6.333000
2354.000000	6.340000
2353.000000	6.335700
2352.000000	6.333900
2351.000000	6.332500
2350.000000	6.332900
2349.000000	6.333200
2348.000000	6.338400
2347.000000	6.325500
2346.000000	6.309000
2345.000000	6.310700
2344.000000	6.315000
2343.000000	6.331800
2342.000000	6.335700
2341.000000	6.349700
2340.000000	6.343300
2339.000000	6.323100
2338.000000	6.339500
2337.000000	6.331800
2336.000000	6.343300
2335.000000	6.361800
2334.000000	6.349500
2333.000000	6.344000
2332.000000	6.351100
2331.000000	6.379100
2330.000000	6.387300
2329.000000	6.395800
2328.000000	6.404900
2327.000000	6.398700
2326.000000	6.414800
2325.000000	6.416800
2324.000000	6.433500
2323.000000	6.446100
2322.000000	6.448100
2321.000000	6.462200
2320.000000	6.458300
2319.000000	6.454000
2318.000000	6.462000
2317.000000	6.441800
2316.000000	6.423100
2315.000000	6.400400
2314.000000	6.396100
2313.000000	6.387700
2312.000000	6.383800
2311.000000	6.365900
2310.000000	6.362200
2309.000000	6.335300
2308.000000	6.315200
2307.000000	6.289300
2306.000000	6.262700
2305.000000	6.245300
2304.000000	6.236200
2303.000000	6.231500
2302.000000	6.209800
2301.000000	6.178800
2300.000000	6.174200
2299.000000	6.177000
2298.000000	6.144600
2297.000000	6.133800
2296.000000	6.115800
2295.000000	6.113900
2294.000000	6.105600
2293.000000	6.098300
2292.000000	6.085000
2291.000000	6.070500
2290.000000	6.069900
2289.000000	6.064400
2288.000000	6.062600
2287.000000	6.031400
2286.000000	6.050200
2285.000000	6.024800
2284.000000	6.011700
2283.000000	6.018700
2282.000000	6.021100
2281.000000	6.016200
2280.000000	6.015600
2279.000000	5.980500
2278.000000	5.967200
2277.000000	5.964700
2276.000000	5.946900
2275.000000	5.945600
2274.000000	5.927200
2273.000000	5.928400
2272.000000	5.890600
2271.000000	5.881500
2270.000000	5.866500
2269.000000	5.878700
2268.000000	5.860700
2267.000000	5.830000
2266.000000	5.832000
2265.000000	5.810800
2264.000000	5.813200
2263.000000	5.829900
2262.000000	5.827700
2261.000000	5.841300
2260.000000	5.834200
2259.000000	5.864200
2258.000000	5.872900
2257.000000	5.885900
2256.000000	5.893400
2255.000000	5.914100
2254.000000	5.959900
2253.000000	5.981700
2252.000000	6.020300
2251.000000	6.018100
2250.000000	6.050900
2249.000000	6.078000
2248.000000	6.126100
2247.000000	6.148000
2246.000000	6.140400
2245.000000	6.177100
2244.000000	6.218800
2243.000000	6.225300
2242.000000	6.256700
2241.000000	6.250200
2240.000000	6.262700
2239.000000	6.293500
2238.000000	6.277200
2237.000000	6.281000
2236.000000	6.283700
2235.000000	6.268300
2234.000000	6.271000
2233.000000	6.253500
2232.000000	6.251100
2231.000000	6.217600
2230.000000	6.189700
2229.000000	6.160100
2228.000000	6.131100
2227.000000	6.090700
2226.000000	6.074300
2225.000000	6.030700
2224.000000	5.961600
2223.000000	5.927600
2222.000000	5.876400
2221.000000	5.845200
2220.000000	5.777500
2219.000000	5.726700
2218.000000	5.684500
2217.000000	5.646700
2216.000000	5.598900
2215.000000	5.554300
2214.000000	5.525700
2213.000000	5.511500
2212.000000	5.469800
2211.000000	5.482700
2210.000000	5.450900
2209.000000	5.472800
2208.000000	5.487000
2207.000000	5.508800
2206.000000	5.563600
2205.000000	5.599600
2204.000000	5.651700
2203.000000	5.723900
2202.000000	5.787400
2201.000000	5.869100
2200.000000	5.945200
2199.000000	6.030500
2198.000000	6.135200
2197.000000	6.203400
2196.000000	6.280700
2195.000000	6.371300
2194.000000	6.433100
2193.000000	6.503600
2192.000000	6.585000
2191.000000	6.654600
2190.000000	6.731600
2189.000000	6.785500
2188.000000	6.826000
2187.000000	6.871500
2186.000000	6.916200
2185.000000	6.939300
2184.000000	6.969800
2183.000000	6.997000
2182.000000	7.033200
2181.000000	7.050000
2180.000000	7.078600
2179.000000	7.112500
2178.000000	7.125600
2177.000000	7.139300
2176.000000	7.153900
2175.000000	7.156100
2174.000000	7.184600
2173.000000	7.203500
2172.000000	7.228300
2171.000000	7.243100
2170.000000	7.262100
2169.000000	7.281900
2168.000000	7.307000
2167.000000	7.325500
2166.000000	7.347900
2165.000000	7.357300
2164.000000	7.380900
2163.000000	7.400900
2162.000000	7.422200
2161.000000	7.464600
2160.000000	7.486000
2159.000000	7.514200
2158.000000	7.540000
2157.000000	7.573100
2156.000000	7.619700
2155.000000	7.652000
2154.000000	7.697000
2153.000000	7.715400
2152.000000	7.747600
2151.000000	7.808500
2150.000000	7.853200
2149.000000	7.879700
2148.000000	7.917000
2147.000000	7.970200
2146.000000	8.024500
2145.000000	8.054200
2144.000000	8.093900
2143.000000	8.138200
2142.000000	8.187300
2141.000000	8.220900
2140.000000	8.251300
2139.000000	8.279700
2138.000000	8.327100
2137.000000	8.371900
2136.000000	8.400500
2135.000000	8.425100
2134.000000	8.459100
2133.000000	8.490800
2132.000000	8.498600
2131.000000	8.535100
2130.000000	8.568100
2129.000000	8.577400
2128.000000	8.611600
2127.000000	8.623600
2126.000000	8.636000
2125.000000	8.661500
2124.000000	8.678600
2123.000000	8.691900
2122.000000	8.703400
2121.000000	8.717400
2120.000000	8.737600
2119.000000	8.744400
2118.000000	8.747200
2117.000000	8.751600
2116.000000	8.759700
2115.000000	8.766200
2114.000000	8.772800
2113.000000	8.776000
2112.000000	8.767500
2111.000000	8.767600
2110.000000	8.782700
2109.000000	8.787900
2108.000000	8.779900
2107.000000	8.782500
2106.000000	8.775200
2105.000000	8.772800
2104.000000	8.775200
2103.000000	8.769100
2102.000000	8.768200
2101.000000	8.769100
2100.000000	8.777400
2099.000000	8.768200
2098.000000	8.760800
2097.000000	8.763100
2096.000000	8.775100
2095.000000	8.766500
2094.000000	8.753500
2093.000000	8.756900
2092.000000	8.765700
2091.000000	8.783000
2090.000000	8.773900
2089.000000	8.768600
2088.000000	8.769500
2087.000000	8.770800
2086.000000	8.764400
2085.000000	8.745000
2084.000000	8.740900
2083.000000	8.728500
2082.000000	8.706100
2081.000000	8.690200
2080.000000	8.677500
2079.000000	8.661000
2078.000000	8.641800
2077.000000	8.624200
2076.000000	8.592900
2075.000000	8.573100
2074.000000	8.535500
2073.000000	8.494200
2072.000000	8.460600
2071.000000	8.431900
2070.000000	8.382500
2069.000000	8.342500
2068.000000	8.302300
2067.000000	8.267300
2066.000000	8.233000
2065.000000	8.179500
2064.000000	8.128200
2063.000000	8.088000
2062.000000	8.058700
2061.000000	8.028000
2060.000000	7.991200
2059.000000	7.963700
2058.000000	7.942200
2057.000000	7.910900
2056.000000	7.898000
2055.000000	7.891400
2054.000000	7.883700
2053.000000	7.885800
2052.000000	7.891100
2051.000000	7.906500
2050.000000	7.926600
2049.000000	7.940000
2048.000000	7.972900
2047.000000	8.000800
2046.000000	8.049200
2045.000000	8.095500
2044.000000	8.137800
2043.000000	8.172800
2042.000000	8.201600
2041.000000	8.250400
2040.000000	8.298700
2039.000000	8.337400
2038.000000	8.373900
2037.000000	8.413800
2036.000000	8.445200
2035.000000	8.486400
2034.000000	8.518400
2033.000000	8.531600
2032.000000	8.547000
2031.000000	8.572500
2030.000000	8.606000
2029.000000	8.626800
2028.000000	8.639000
2027.000000	8.664500
2026.000000	8.665400
2025.000000	8.697700
2024.000000	8.706600
2023.000000	8.717500
2022.000000	8.726600
2021.000000	8.734100
2020.000000	8.734100
2019.000000	8.744300
2018.000000	8.740000
2017.000000	8.756600
2016.000000	8.748200
2015.000000	8.743400
2014.000000	8.734700
2013.000000	8.757900
2012.000000	8.729200
2011.000000	8.712200
2010.000000	8.710100
2009.000000	8.693800
2008.000000	8.699900
2007.000000	8.675200
2006.000000	8.656600
2005.000000	8.633600
2004.000000	8.623400
2003.000000	8.618300
2002.000000	8.570400
2001.000000	8.534100
2000.000000	8.529900
1999.000000	8.483800
1998.000000	8.460800
1997.000000	8.418600
1996.000000	8.396700
1995.000000	8.374300
1994.000000	8.333000
1993.000000	8.296800
1992.000000	8.258400
1991.000000	8.215000
1990.000000	8.201100
1989.000000	8.164300
1988.000000	8.119700
1987.000000	8.076100
1986.000000	8.040900
1985.000000	8.011000
1984.000000	7.972500
1983.000000	7.941000
1982.000000	7.884700
1981.000000	7.853100
1980.000000	7.831300
1979.000000	7.771600
1978.000000	7.737900
1977.000000	7.720200
1976.000000	7.662300
1975.000000	7.626300
1974.000000	7.594500
1973.000000	7.541900
1972.000000	7.507200
1971.000000	7.474100
1970.000000	7.435500
1969.000000	7.391700
1968.000000	7.380600
1967.000000	7.363200
1966.000000	7.312000
1965.000000	7.274500
1964.000000	7.200600
1963.000000	7.199500
1962.000000	7.171800
1961.000000	7.127900
1960.000000	7.077400
1959.000000	7.055700
1958.000000	7.025300
1957.000000	6.979600
1956.000000	6.952600
1955.000000	6.919000
1954.000000	6.870100
1953.000000	6.826000
1952.000000	6.804400
1951.000000	6.776400
1950.000000	6.747900
1949.000000	6.738800
1948.000000	6.687500
1947.000000	6.660800
1946.000000	6.643100
1945.000000	6.613400
1944.000000	6.592600
1943.000000	6.583400
1942.000000	6.581700
1941.000000	6.545500
1940.000000	6.526600
1939.000000	6.499900
1938.000000	6.511900
1937.000000	6.502100
1936.000000	6.477900
1935.000000	6.484500
1934.000000	6.487300
1933.000000	6.515500
1932.000000	6.500200
1931.000000	6.515000
1930.000000	6.538200
1929.000000	6.561100
1928.000000	6.577800
1927.000000	6.617600
1926.000000	6.635100
1925.000000	6.684800
1924.000000	6.739600
1923.000000	6.785800
1922.000000	6.806600
1921.000000	6.859000
1920.000000	6.921600
1919.000000	6.983000
1918.000000	7.065100
1917.000000	7.118300
1916.000000	7.207300
1915.000000	7.290200
1914.000000	7.400400
1913.000000	7.479600
1912.000000	7.575100
1911.000000	7.661900
1910.000000	7.778100
1909.000000	7.926400
1908.000000	8.074200
1907.000000	8.233300
1906.000000	8.364600
1905.000000	8.510000
1904.000000	8.671300
1903.000000	8.862200
1902.000000	9.029500
1901.000000	9.220600
1900.000000	9.407500
1899.000000	9.603700
1898.000000	9.817200
1897.000000	10.029500
1896.000000	10.249700
1895.000000	10.490200
1894.000000	10.719800
1893.000000	10.948600
1892.000000	11.181000
1891.000000	11.381000
1890.000000	11.589000
1889.000000	11.843200
1888.000000	12.071700
1887.000000	12.294300
1886.000000	12.511800
1885.000000	12.733400
1884.000000	12.928100
1883.000000	13.086900
1882.000000	13.269300
1881.000000	13.469700
1880.000000	13.660000
1879.000000	13.834000
1878.000000	13.982200
1877.000000	14.135200
1876.000000	14.292800
1875.000000	14.417900
1874.000000	14.544700
1873.000000	14.662000
1872.000000	14.748900
1871.000000	14.807900
1870.000000	14.849100
1869.000000	14.920700
1868.000000	14.987600
1867.000000	15.056800
1866.000000	15.131200
1865.000000	15.220600
1864.000000	15.321500
1863.000000	15.400000
1862.000000	15.455300
1861.000000	15.507500
1860.000000	15.549100
1859.000000	15.569300
1858.000000	15.585700
1857.000000	15.636800
1856.000000	15.680900
1855.000000	15.702100
1854.000000	15.719200
1853.000000	15.727000
1852.000000	15.762400
1851.000000	15.828300
1850.000000	15.913100
1849.000000	15.898500
1848.000000	15.808900
1847.000000	15.739000
1846.000000	15.723700
1845.000000	15.800100
1844.000000	15.894200
1843.000000	15.932800
1842.000000	15.906600
1841.000000	15.856900
1840.000000	15.823600
1839.000000	15.830000
1838.000000	15.821000
1837.000000	15.780200
1836.000000	15.729500
1835.000000	15.715600
1834.000000	15.731200
1833.000000	15.743400
1832.000000	15.748100
1831.000000	15.726000
1830.000000	15.716800
1829.000000	15.696900
1828.000000	15.666200
1827.000000	15.641100
1826.000000	15.613900
1825.000000	15.621300
1824.000000	15.682200
1823.000000	15.727300
1822.000000	15.711600
1821.000000	15.659500
1820.000000	15.620400
1819.000000	15.613900
1818.000000	15.625700
1817.000000	15.629100
1816.000000	15.632800
1815.000000	15.625500
1814.000000	15.610300
1813.000000	15.602800
1812.000000	15.599100
1811.000000	15.578900
1810.000000	15.563000
1809.000000	15.554700
1808.000000	15.567200
1807.000000	15.555000
1806.000000	15.536000
1805.000000	15.515300
1804.000000	15.503600
1803.000000	15.523900
1802.000000	15.499800
1801.000000	15.472300
1800.000000	15.455400
1799.000000	15.442300
1798.000000	15.435900
1797.000000	15.428200
1796.000000	15.417300
1795.000000	15.409400
1794.000000	15.393500
1793.000000	15.383400
1792.000000	15.378900
1791.000000	15.362300
1790.000000	15.356400
1789.000000	15.373000
1788.000000	15.367400
1787.000000	15.362600
1786.000000	15.349700
1785.000000	15.340800
1784.000000	15.334300
1783.000000	15.327700
1782.000000	15.333100
1781.000000	15.330900
1780.000000	15.323700
1779.000000	15.305500
1778.000000	15.297700
1777.000000	15.278400
1776.000000	15.260200
1775.000000	15.243200
1774.000000	15.215900
1773.000000	15.200800
1772.000000	15.185200
1771.000000	15.185600
1770.000000	15.157600
1769.000000	15.146500
1768.000000	15.131600
1767.000000	15.118800
1766.000000	15.095200
1765.000000	15.101100
1764.000000	15.107000
1763.000000	15.104900
1762.000000	15.099900
1761.000000	15.075200
1760.000000	15.085400
1759.000000	15.102400
1758.000000	15.096000
1757.000000	15.066500
1756.000000	15.073800
1755.000000	15.074200
1754.000000	15.080100
1753.000000	15.079300
1752.000000	15.081500
1751.000000	15.090200
1750.000000	15.095100
1749.000000	15.067600
1748.000000	15.061300
1747.000000	15.047900
1746.000000	15.017600
1745.000000	15.012700
1744.000000	14.986200
1743.000000	14.953800
1742.000000	14.947000
1741.000000	14.923500
1740.000000	14.894400
1739.000000	14.868400
1738.000000	14.861800
1737.000000	14.832800
1736.000000	14.826900
1735.000000	14.809600
1734.000000	14.796600
1733.000000	14.801300
1732.000000	14.771000
1731.000000	14.749900
1730.000000	14.746500
1729.000000	14.725600
1728.000000	14.719500
1727.000000	14.687600
1726.000000	14.701200
1725.000000	14.707200
1724.000000	14.729700
1723.000000	14.731900
1722.000000	14.766700
1721.000000	14.821500
1720.000000	14.904800
1719.000000	14.959900
1718.000000	15.075900
1717.000000	15.129000
1716.000000	15.203700
1715.000000	15.278800
1714.000000	15.349600
1713.000000	15.414200
1712.000000	15.480700
1711.000000	15.518500
1710.000000	15.561800
1709.000000	15.622700
1708.000000	15.663000
1707.000000	15.688100
1706.000000	15.714600
1705.000000	15.722400
1704.000000	15.753500
1703.000000	15.735600
1702.000000	15.750500
1701.000000	15.778100
1700.000000	15.756100
1699.000000	15.769200
1698.000000	15.766600
1697.000000	15.742600
1696.000000	15.751700
1695.000000	15.728500
1694.000000	15.685900
1693.000000	15.678400
1692.000000	15.639600
1691.000000	15.620200
1690.000000	15.592000
1689.000000	15.614000
1688.000000	15.608400
1687.000000	15.652200
1686.000000	15.693900
1685.000000	15.743400
1684.000000	15.832400
1683.000000	15.885700
1682.000000	15.962600
1681.000000	16.036400
1680.000000	16.100700
1679.000000	16.187100
1678.000000	16.243900
1677.000000	16.311300
1676.000000	16.371800
1675.000000	16.417200
1674.000000	16.487600
1673.000000	16.541100
1672.000000	16.593200
1671.000000	16.665500
1670.000000	16.716500
1669.000000	16.775400
1668.000000	16.845900
1667.000000	16.964700
1666.000000	17.008000
1665.000000	17.038000
1664.000000	17.089700
1663.000000	17.154200
1662.000000	17.164500
1661.000000	17.202000
1660.000000	17.224700
1659.000000	17.254600
1658.000000	17.300900
1657.000000	17.312900
1656.000000	17.335300
1655.000000	17.350700
1654.000000	17.356800
1653.000000	17.356500
1652.000000	17.376100
1651.000000	17.378100
1650.000000	17.354500
1649.000000	17.342800
1648.000000	17.351800
1647.000000	17.356000
1646.000000	17.336500
1645.000000	17.316100
1644.000000	17.316500
1643.000000	17.315200
1642.000000	17.315200
1641.000000	17.291000
1640.000000	17.299100
1639.000000	17.280700
1638.000000	17.279100
1637.000000	17.270200
1636.000000	17.258600
1635.000000	17.246400
1634.000000	17.239200
1633.000000	17.240900
1632.000000	17.226900
1631.000000	17.205500
1630.000000	17.196700
1629.000000	17.172000
1628.000000	17.158000
1627.000000	17.136300
1626.000000	17.135400
1625.000000	17.133900
1624.000000	17.103100
1623.000000	17.079300
1622.000000	17.080900
1621.000000	17.060500
1620.000000	17.046200
1619.000000	17.040500
1618.000000	17.026900
1617.000000	17.015900
1616.000000	17.008400
1615.000000	16.987500
1614.000000	16.966200
1613.000000	16.943400
1612.000000	16.944100
1611.000000	16.925900
1610.000000	16.915000
1609.000000	16.878700
1608.000000	16.841700
1607.000000	16.825700
1606.000000	16.809100
1605.000000	16.778400
1604.000000	16.752800
1603.000000	16.732000
1602.000000	16.708200
1601.000000	16.686200
1600.000000	16.662000
1599.000000	16.630000
1598.000000	16.595300
1597.000000	16.560500
