PE UV       SUBTECH     SPECTRUM    ASCII       PEDS        4.00        
   -1
CICIMAUCR0098-1.ASC
24/04/03
14:55:53.00
24/04/03
14:55:53.00
Vinicio Soto Monge
C. cupreomarginata
250,000000
1
Lambda 1050
1050L1511233
PerkinElmer UV WinLab 6.3.2.0749 / 2.02.05 Lambda 900 UV/VIS/NIR, Aug  7 2015 09:38:08

0
0
3350/servo 860,8/2
0
0
UV/VIS
1
1
1
DoubleDePol,CommonBeamDepol,RBeamAtt,SBeamAtt,60mm sphere, WB InGaAs Detector
0
0
0
0
Program
Program
3350/servo 860,8/2
3350/0,2 860,8/0,2
3350/0,2 860,8/0,2
0
15.00
 
 
 
0
 
860,8
319,2
860,8
Front
100
on
S:100 R:100
0
0
0
0
 
0
 
 
 
0
 
 
0
0
0
0
0
 
 
 
 
0
0


0
0
#HDR
-1
-1
#GR
nm
%R
1.0
0.0
2500,000000
-1,000000
2251
8
55,162100
5,208800
#DATA
2500.000000	5.449500
2499.000000	5.597100
2498.000000	5.678900
2497.000000	5.685800
2496.000000	5.624700
2495.000000	5.808200
2494.000000	5.565000
2493.000000	5.596800
2492.000000	5.638500
2491.000000	5.568500
2490.000000	5.599500
2489.000000	5.773400
2488.000000	5.598900
2487.000000	5.581300
2486.000000	5.603200
2485.000000	5.717600
2484.000000	5.728400
2483.000000	5.648100
2482.000000	5.737100
2481.000000	5.600200
2480.000000	5.609100
2479.000000	5.717300
2478.000000	5.697900
2477.000000	5.714600
2476.000000	5.717700
2475.000000	5.741200
2474.000000	5.790100
2473.000000	5.742100
2472.000000	5.807100
2471.000000	5.796100
2470.000000	5.771900
2469.000000	5.793100
2468.000000	5.809100
2467.000000	5.810700
2466.000000	5.815500
2465.000000	5.865000
2464.000000	5.861500
2463.000000	5.911100
2462.000000	5.914900
2461.000000	5.950300
2460.000000	5.944200
2459.000000	5.953500
2458.000000	6.019000
2457.000000	6.025800
2456.000000	6.043500
2455.000000	6.061000
2454.000000	6.125500
2453.000000	6.137700
2452.000000	6.175500
2451.000000	6.203700
2450.000000	6.246400
2449.000000	6.256500
2448.000000	6.311700
2447.000000	6.331200
2446.000000	6.371000
2445.000000	6.380000
2444.000000	6.414100
2443.000000	6.448300
2442.000000	6.482500
2441.000000	6.499400
2440.000000	6.536800
2439.000000	6.575800
2438.000000	6.589500
2437.000000	6.623000
2436.000000	6.643300
2435.000000	6.684600
2434.000000	6.711800
2433.000000	6.727300
2432.000000	6.761500
2431.000000	6.751000
2430.000000	6.769900
2429.000000	6.800900
2428.000000	6.812100
2427.000000	6.828300
2426.000000	6.847500
2425.000000	6.862000
2424.000000	6.885800
2423.000000	6.897300
2422.000000	6.914400
2421.000000	6.932900
2420.000000	6.946700
2419.000000	6.963000
2418.000000	6.970300
2417.000000	6.976100
2416.000000	6.979200
2415.000000	7.006100
2414.000000	7.019500
2413.000000	7.039600
2412.000000	7.049500
2411.000000	7.047400
2410.000000	7.065200
2409.000000	7.071200
2408.000000	7.077200
2407.000000	7.087700
2406.000000	7.109800
2405.000000	7.112500
2404.000000	7.124800
2403.000000	7.131000
2402.000000	7.139500
2401.000000	7.159400
2400.000000	7.169800
2399.000000	7.183000
2398.000000	7.193000
2397.000000	7.207000
2396.000000	7.208700
2395.000000	7.222000
2394.000000	7.224500
2393.000000	7.233100
2392.000000	7.243000
2391.000000	7.240700
2390.000000	7.249200
2389.000000	7.270900
2388.000000	7.276900
2387.000000	7.266000
2386.000000	7.266300
2385.000000	7.270900
2384.000000	7.262800
2383.000000	7.245900
2382.000000	7.231500
2381.000000	7.224100
2380.000000	7.228200
2379.000000	7.215000
2378.000000	7.201300
2377.000000	7.212300
2376.000000	7.196800
2375.000000	7.189800
2374.000000	7.187200
2373.000000	7.164800
2372.000000	7.154500
2371.000000	7.148300
2370.000000	7.130400
2369.000000	7.116600
2368.000000	7.107600
2367.000000	7.077200
2366.000000	7.063900
2365.000000	7.047100
2364.000000	7.002100
2363.000000	6.973900
2362.000000	6.959100
2361.000000	6.930400
2360.000000	6.893500
2359.000000	6.859000
2358.000000	6.836400
2357.000000	6.826400
2356.000000	6.818100
2355.000000	6.792700
2354.000000	6.762600
2353.000000	6.764000
2352.000000	6.757500
2351.000000	6.764400
2350.000000	6.779000
2349.000000	6.777000
2348.000000	6.780100
2347.000000	6.781900
2346.000000	6.797900
2345.000000	6.826000
2344.000000	6.858100
2343.000000	6.876500
2342.000000	6.897300
2341.000000	6.913800
2340.000000	6.923900
2339.000000	6.945600
2338.000000	6.946400
2337.000000	6.952500
2336.000000	6.956300
2335.000000	6.966100
2334.000000	6.958600
2333.000000	6.951600
2332.000000	6.932600
2331.000000	6.915900
2330.000000	6.892400
2329.000000	6.873500
2328.000000	6.849400
2327.000000	6.824300
2326.000000	6.790700
2325.000000	6.741000
2324.000000	6.701900
2323.000000	6.665900
2322.000000	6.598600
2321.000000	6.544800
2320.000000	6.495800
2319.000000	6.437800
2318.000000	6.374700
2317.000000	6.295000
2316.000000	6.232000
2315.000000	6.169600
2314.000000	6.112200
2313.000000	6.040900
2312.000000	6.003600
2311.000000	5.949600
2310.000000	5.911800
2309.000000	5.876500
2308.000000	5.852700
2307.000000	5.837500
2306.000000	5.840400
2305.000000	5.843000
2304.000000	5.848900
2303.000000	5.871200
2302.000000	5.898600
2301.000000	5.929000
2300.000000	5.954400
2299.000000	5.961600
2298.000000	5.990900
2297.000000	6.026100
2296.000000	6.065000
2295.000000	6.073500
2294.000000	6.104300
2293.000000	6.128700
2292.000000	6.139100
2291.000000	6.143900
2290.000000	6.147100
2289.000000	6.147500
2288.000000	6.135300
2287.000000	6.134800
2286.000000	6.103900
2285.000000	6.082600
2284.000000	6.067300
2283.000000	6.059200
2282.000000	6.025400
2281.000000	5.998100
2280.000000	5.986500
2279.000000	5.979700
2278.000000	5.953900
2277.000000	5.935600
2276.000000	5.927300
2275.000000	5.905800
2274.000000	5.879800
2273.000000	5.894300
2272.000000	5.899700
2271.000000	5.876200
2270.000000	5.877900
2269.000000	5.889400
2268.000000	5.914800
2267.000000	5.924700
2266.000000	5.949100
2265.000000	5.992000
2264.000000	6.026800
2263.000000	6.069100
2262.000000	6.110800
2261.000000	6.155100
2260.000000	6.231300
2259.000000	6.279500
2258.000000	6.354800
2257.000000	6.415100
2256.000000	6.484500
2255.000000	6.555500
2254.000000	6.588300
2253.000000	6.637200
2252.000000	6.700200
2251.000000	6.753700
2250.000000	6.815200
2249.000000	6.862300
2248.000000	6.915000
2247.000000	6.966200
2246.000000	7.002700
2245.000000	7.051400
2244.000000	7.048400
2243.000000	7.085700
2242.000000	7.116100
2241.000000	7.165600
2240.000000	7.176800
2239.000000	7.211200
2238.000000	7.229100
2237.000000	7.258300
2236.000000	7.269900
2235.000000	7.268600
2234.000000	7.286800
2233.000000	7.276300
2232.000000	7.281600
2231.000000	7.300300
2230.000000	7.301300
2229.000000	7.276600
2228.000000	7.261200
2227.000000	7.217200
2226.000000	7.208100
2225.000000	7.181800
2224.000000	7.129500
2223.000000	7.122100
2222.000000	7.101800
2221.000000	7.051400
2220.000000	6.992900
2219.000000	6.966200
2218.000000	6.927200
2217.000000	6.891000
2216.000000	6.872100
2215.000000	6.833100
2214.000000	6.814400
2213.000000	6.801700
2212.000000	6.768000
2211.000000	6.769100
2210.000000	6.789400
2209.000000	6.819800
2208.000000	6.865000
2207.000000	6.896300
2206.000000	6.959400
2205.000000	7.019600
2204.000000	7.116000
2203.000000	7.194300
2202.000000	7.307400
2201.000000	7.415400
2200.000000	7.516400
2199.000000	7.617900
2198.000000	7.754400
2197.000000	7.867200
2196.000000	7.979200
2195.000000	8.080600
2194.000000	8.171800
2193.000000	8.285900
2192.000000	8.401800
2191.000000	8.475200
2190.000000	8.549000
2189.000000	8.639600
2188.000000	8.699700
2187.000000	8.774300
2186.000000	8.825900
2185.000000	8.863200
2184.000000	8.916200
2183.000000	8.967800
2182.000000	8.978800
2181.000000	9.032200
2180.000000	9.041100
2179.000000	9.081700
2178.000000	9.105900
2177.000000	9.123700
2176.000000	9.151900
2175.000000	9.184600
2174.000000	9.210000
2173.000000	9.238500
2172.000000	9.249000
2171.000000	9.267700
2170.000000	9.308500
2169.000000	9.331900
2168.000000	9.370200
2167.000000	9.393800
2166.000000	9.417600
2165.000000	9.443000
2164.000000	9.487900
2163.000000	9.516000
2162.000000	9.535100
2161.000000	9.569100
2160.000000	9.600900
2159.000000	9.630000
2158.000000	9.655400
2157.000000	9.670200
2156.000000	9.700800
2155.000000	9.732200
2154.000000	9.777400
2153.000000	9.812100
2152.000000	9.836200
2151.000000	9.870100
2150.000000	9.901200
2149.000000	9.925900
2148.000000	9.954800
2147.000000	9.970400
2146.000000	10.014000
2145.000000	10.046200
2144.000000	10.058400
2143.000000	10.075600
2142.000000	10.087800
2141.000000	10.119900
2140.000000	10.148200
2139.000000	10.165800
2138.000000	10.196600
2137.000000	10.218600
2136.000000	10.235600
2135.000000	10.250100
2134.000000	10.263900
2133.000000	10.279300
2132.000000	10.296300
2131.000000	10.298200
2130.000000	10.297300
2129.000000	10.316300
2128.000000	10.332000
2127.000000	10.322300
2126.000000	10.320400
2125.000000	10.321600
2124.000000	10.318100
2123.000000	10.317600
2122.000000	10.321500
2121.000000	10.321900
2120.000000	10.321100
2119.000000	10.307100
2118.000000	10.295300
2117.000000	10.295400
2116.000000	10.286500
2115.000000	10.287600
2114.000000	10.278900
2113.000000	10.274200
2112.000000	10.261300
2111.000000	10.247100
2110.000000	10.238600
2109.000000	10.224800
2108.000000	10.208300
2107.000000	10.207400
2106.000000	10.213600
2105.000000	10.199000
2104.000000	10.192100
2103.000000	10.203200
2102.000000	10.188300
2101.000000	10.168900
2100.000000	10.155400
2099.000000	10.142100
2098.000000	10.132100
2097.000000	10.121400
2096.000000	10.114100
2095.000000	10.114500
2094.000000	10.115500
2093.000000	10.108600
2092.000000	10.096700
2091.000000	10.092900
2090.000000	10.084200
2089.000000	10.088900
2088.000000	10.094900
2087.000000	10.087000
2086.000000	10.085600
2085.000000	10.088600
2084.000000	10.069800
2083.000000	10.054200
2082.000000	10.044500
2081.000000	10.045700
2080.000000	10.038300
2079.000000	10.034300
2078.000000	10.035200
2077.000000	10.018200
2076.000000	9.996400
2075.000000	9.977800
2074.000000	9.973500
2073.000000	9.949500
2072.000000	9.943400
2071.000000	9.926100
2070.000000	9.913200
2069.000000	9.896300
2068.000000	9.866300
2067.000000	9.852600
2066.000000	9.834900
2065.000000	9.797200
2064.000000	9.792700
2063.000000	9.756700
2062.000000	9.735000
2061.000000	9.719100
2060.000000	9.711700
2059.000000	9.686300
2058.000000	9.672300
2057.000000	9.664900
2056.000000	9.648200
2055.000000	9.631300
2054.000000	9.643100
2053.000000	9.650200
2052.000000	9.642300
2051.000000	9.650500
2050.000000	9.663800
2049.000000	9.698000
2048.000000	9.715900
2047.000000	9.767100
2046.000000	9.822100
2045.000000	9.866200
2044.000000	9.900300
2043.000000	9.966200
2042.000000	10.032700
2041.000000	10.103300
2040.000000	10.170600
2039.000000	10.225500
2038.000000	10.283200
2037.000000	10.348100
2036.000000	10.425300
2035.000000	10.479300
2034.000000	10.522200
2033.000000	10.581200
2032.000000	10.645200
2031.000000	10.687400
2030.000000	10.718000
2029.000000	10.760600
2028.000000	10.796600
2027.000000	10.847100
2026.000000	10.873700
2025.000000	10.905200
2024.000000	10.938600
2023.000000	10.970000
2022.000000	11.005000
2021.000000	11.043100
2020.000000	11.079100
2019.000000	11.108700
2018.000000	11.114900
2017.000000	11.144500
2016.000000	11.174000
2015.000000	11.176300
2014.000000	11.213800
2013.000000	11.243800
2012.000000	11.240200
2011.000000	11.262800
2010.000000	11.283700
2009.000000	11.310200
2008.000000	11.305200
2007.000000	11.333200
2006.000000	11.343100
2005.000000	11.371500
2004.000000	11.361200
2003.000000	11.362700
2002.000000	11.368300
2001.000000	11.384700
2000.000000	11.387500
1999.000000	11.364900
1998.000000	11.371100
1997.000000	11.356500
1996.000000	11.361500
1995.000000	11.339400
1994.000000	11.330900
1993.000000	11.309400
1992.000000	11.322200
1991.000000	11.306600
1990.000000	11.279300
1989.000000	11.264400
1988.000000	11.237800
1987.000000	11.210900
1986.000000	11.185200
1985.000000	11.160100
1984.000000	11.125300
1983.000000	11.113000
1982.000000	11.104100
1981.000000	11.073300
1980.000000	11.054900
1979.000000	11.028800
1978.000000	10.994000
1977.000000	10.966000
1976.000000	10.952200
1975.000000	10.931200
1974.000000	10.889600
1973.000000	10.876100
1972.000000	10.868000
1971.000000	10.838100
1970.000000	10.803300
1969.000000	10.794300
1968.000000	10.753200
1967.000000	10.772200
1966.000000	10.729300
1965.000000	10.696800
1964.000000	10.659300
1963.000000	10.667800
1962.000000	10.658300
1961.000000	10.642100
1960.000000	10.611500
1959.000000	10.569800
1958.000000	10.552600
1957.000000	10.531200
1956.000000	10.520900
1955.000000	10.522300
1954.000000	10.486700
1953.000000	10.470000
1952.000000	10.441500
1951.000000	10.444300
1950.000000	10.422600
1949.000000	10.428600
1948.000000	10.411400
1947.000000	10.396900
1946.000000	10.380000
1945.000000	10.403600
1944.000000	10.369500
1943.000000	10.373300
1942.000000	10.391500
1941.000000	10.377700
1940.000000	10.390400
1939.000000	10.394100
1938.000000	10.414800
1937.000000	10.405400
1936.000000	10.430200
1935.000000	10.442200
1934.000000	10.463300
1933.000000	10.517600
1932.000000	10.545600
1931.000000	10.587100
1930.000000	10.636500
1929.000000	10.676400
1928.000000	10.712300
1927.000000	10.739200
1926.000000	10.782000
1925.000000	10.837800
1924.000000	10.925200
1923.000000	10.983300
1922.000000	11.028500
1921.000000	11.101800
1920.000000	11.164600
1919.000000	11.222400
1918.000000	11.297100
1917.000000	11.393000
1916.000000	11.481800
1915.000000	11.572600
1914.000000	11.658100
1913.000000	11.750300
1912.000000	11.825900
1911.000000	11.908000
1910.000000	12.001200
1909.000000	12.091400
1908.000000	12.206700
1907.000000	12.307700
1906.000000	12.402000
1905.000000	12.521700
1904.000000	12.621100
1903.000000	12.740600
1902.000000	12.840500
1901.000000	12.956700
1900.000000	13.078200
1899.000000	13.198600
1898.000000	13.277900
1897.000000	13.410000
1896.000000	13.519800
1895.000000	13.614400
1894.000000	13.733500
1893.000000	13.858800
1892.000000	13.995500
1891.000000	14.122100
1890.000000	14.239500
1889.000000	14.361200
1888.000000	14.508600
1887.000000	14.661200
1886.000000	14.833000
1885.000000	15.039200
1884.000000	15.269300
1883.000000	15.506600
1882.000000	15.741100
1881.000000	15.980500
1880.000000	16.225100
1879.000000	16.469800
1878.000000	16.719800
1877.000000	16.945800
1876.000000	17.155400
1875.000000	17.358900
1874.000000	17.546500
1873.000000	17.713700
1872.000000	17.875600
1871.000000	18.005900
1870.000000	18.116900
1869.000000	18.219200
1868.000000	18.286400
1867.000000	18.322000
1866.000000	18.347200
1865.000000	18.386500
1864.000000	18.404000
1863.000000	18.424300
1862.000000	18.443500
1861.000000	18.451000
1860.000000	18.450200
1859.000000	18.429100
1858.000000	18.395100
1857.000000	18.370900
1856.000000	18.327700
1855.000000	18.287700
1854.000000	18.244300
1853.000000	18.178200
1852.000000	18.109900
1851.000000	18.046700
1850.000000	18.008300
1849.000000	17.984200
1848.000000	17.909700
1847.000000	17.836600
1846.000000	17.759700
1845.000000	17.679700
1844.000000	17.641600
1843.000000	17.626900
1842.000000	17.611100
1841.000000	17.573300
1840.000000	17.528600
1839.000000	17.483900
1838.000000	17.440300
1837.000000	17.395300
1836.000000	17.350300
1835.000000	17.284700
1834.000000	17.209300
1833.000000	17.152500
1832.000000	17.093500
1831.000000	17.037800
1830.000000	16.983700
1829.000000	16.921100
1828.000000	16.841300
1827.000000	16.767300
1826.000000	16.699900
1825.000000	16.653400
1824.000000	16.622100
1823.000000	16.601600
1822.000000	16.582700
1821.000000	16.567200
1820.000000	16.533800
1819.000000	16.480900
1818.000000	16.454300
1817.000000	16.444500
1816.000000	16.438400
1815.000000	16.424400
1814.000000	16.409300
1813.000000	16.404600
1812.000000	16.400200
1811.000000	16.380400
1810.000000	16.341600
1809.000000	16.312100
1808.000000	16.282300
1807.000000	16.241300
1806.000000	16.199700
1805.000000	16.175000
1804.000000	16.144800
1803.000000	16.116100
1802.000000	16.081500
1801.000000	16.040600
1800.000000	15.991400
1799.000000	15.962700
1798.000000	15.915900
1797.000000	15.872400
1796.000000	15.844300
1795.000000	15.816400
1794.000000	15.782400
1793.000000	15.749800
1792.000000	15.704400
1791.000000	15.660000
1790.000000	15.618500
1789.000000	15.586900
1788.000000	15.540200
1787.000000	15.495100
1786.000000	15.434600
1785.000000	15.391000
1784.000000	15.306700
1783.000000	15.250900
1782.000000	15.199800
1781.000000	15.146500
1780.000000	15.092300
1779.000000	15.017200
1778.000000	14.943900
1777.000000	14.875300
1776.000000	14.795300
1775.000000	14.711600
1774.000000	14.626400
1773.000000	14.544800
1772.000000	14.440300
1771.000000	14.348900
1770.000000	14.241300
1769.000000	14.143600
1768.000000	14.054400
1767.000000	13.980100
1766.000000	13.907100
1765.000000	13.838100
1764.000000	13.800100
1763.000000	13.783500
1762.000000	13.811200
1761.000000	13.832800
1760.000000	13.874800
1759.000000	13.898500
1758.000000	13.950300
1757.000000	13.991900
1756.000000	14.028500
1755.000000	14.064900
1754.000000	14.075900
1753.000000	14.066100
1752.000000	14.078500
1751.000000	14.063000
1750.000000	14.041300
1749.000000	14.016000
1748.000000	13.978500
1747.000000	13.927400
1746.000000	13.867100
1745.000000	13.795000
1744.000000	13.694900
1743.000000	13.592200
1742.000000	13.487900
1741.000000	13.369200
1740.000000	13.221800
1739.000000	13.084500
1738.000000	12.948400
1737.000000	12.843200
1736.000000	12.739800
1735.000000	12.657300
1734.000000	12.597100
1733.000000	12.591400
1732.000000	12.588600
1731.000000	12.595700
1730.000000	12.671900
1729.000000	12.731900
1728.000000	12.816900
1727.000000	12.889100
1726.000000	12.962700
1725.000000	13.014100
1724.000000	13.055600
1723.000000	13.084300
1722.000000	13.127400
1721.000000	13.139400
1720.000000	13.164500
1719.000000	13.194700
1718.000000	13.230100
1717.000000	13.264100
1716.000000	13.288300
1715.000000	13.336100
1714.000000	13.376300
1713.000000	13.420200
1712.000000	13.471700
1711.000000	13.500900
1710.000000	13.534000
1709.000000	13.562000
1708.000000	13.572100
1707.000000	13.589600
1706.000000	13.595600
1705.000000	13.599700
1704.000000	13.611100
1703.000000	13.604900
1702.000000	13.571500
1701.000000	13.578000
1700.000000	13.502000
1699.000000	13.471000
1698.000000	13.402500
1697.000000	13.397900
1696.000000	13.405600
1695.000000	13.420400
1694.000000	13.452600
1693.000000	13.550400
1692.000000	13.659600
1691.000000	13.741300
1690.000000	13.849400
1689.000000	13.919400
1688.000000	13.963100
1687.000000	14.007100
1686.000000	13.997400
1685.000000	14.002200
1684.000000	14.082800
1683.000000	14.187100
1682.000000	14.340800
1681.000000	14.590200
1680.000000	14.857000
1679.000000	15.163000
1678.000000	15.475000
1677.000000	15.751500
1676.000000	16.023300
1675.000000	16.273500
1674.000000	16.482900
1673.000000	16.683200
1672.000000	16.823600
1671.000000	16.979400
1670.000000	17.081700
1669.000000	17.190200
1668.000000	17.282200
1667.000000	17.372200
1666.000000	17.426700
1665.000000	17.486800
1664.000000	17.523500
1663.000000	17.567600
1662.000000	17.607900
1661.000000	17.634900
1660.000000	17.667200
1659.000000	17.670700
1658.000000	17.688000
1657.000000	17.681700
1656.000000	17.704800
1655.000000	17.687300
1654.000000	17.691800
1653.000000	17.686200
1652.000000	17.652000
1651.000000	17.644200
1650.000000	17.626300
1649.000000	17.596100
1648.000000	17.558400
1647.000000	17.542900
1646.000000	17.494700
1645.000000	17.463600
1644.000000	17.422100
1643.000000	17.389700
1642.000000	17.362200
1641.000000	17.329600
1640.000000	17.280900
1639.000000	17.219600
1638.000000	17.170700
1637.000000	17.142000
1636.000000	17.095100
1635.000000	17.026800
1634.000000	16.976700
1633.000000	16.929900
1632.000000	16.865600
1631.000000	16.806500
1630.000000	16.765300
1629.000000	16.730000
1628.000000	16.669700
1627.000000	16.607900
1626.000000	16.543100
1625.000000	16.489300
1624.000000	16.447100
1623.000000	16.388800
1622.000000	16.353900
1621.000000	16.294300
1620.000000	16.243900
1619.000000	16.181300
1618.000000	16.148800
1617.000000	16.102000
1616.000000	16.036600
1615.000000	15.991100
1614.000000	15.930200
1613.000000	15.869500
1612.000000	15.835000
1611.000000	15.794700
1610.000000	15.754900
1609.000000	15.710700
1608.000000	15.672500
1607.000000	15.626800
