PE UV       SUBTECH     SPECTRUM    ASCII       PEDS        4.00        
   -1
CICIMAUCR0113-1.ASC
24/04/03
16:15:49.00
24/04/03
16:15:49.00
Vinicio Soto Monge
C. kalinini
250,000000
1
Lambda 1050
1050L1511233
PerkinElmer UV WinLab 6.3.2.0749 / 2.02.05 Lambda 900 UV/VIS/NIR, Aug  7 2015 09:38:08

0
0
3350/servo 860,8/2
0
0
UV/VIS
1
1
1
DoubleDePol,CommonBeamDepol,RBeamAtt,SBeamAtt,60mm sphere, WB InGaAs Detector
0
0
0
0
Program
Program
3350/servo 860,8/2
3350/0,2 860,8/0,2
3350/0,2 860,8/0,2
0
15.00
 
 
 
0
 
860,8
319,2
860,8
Front
100
on
S:100 R:100
0
0
0
0
 
0
 
 
 
0
 
 
0
0
0
0
0
 
 
 
 
0
0


0
0
#HDR
-1
-1
#GR
nm
%R
1.0
0.0
2500,000000
-1,000000
2251
8
83,958100
4,718900
#DATA
2500.000000	4.930500
2499.000000	4.776700
2498.000000	4.848900
2497.000000	4.825500
2496.000000	4.855200
2495.000000	4.808700
2494.000000	4.859900
2493.000000	4.823900
2492.000000	4.853200
2491.000000	4.815700
2490.000000	4.824400
2489.000000	4.764000
2488.000000	4.842600
2487.000000	4.760500
2486.000000	4.758500
2485.000000	4.767800
2484.000000	4.789700
2483.000000	4.827600
2482.000000	4.826600
2481.000000	4.718900
2480.000000	4.821000
2479.000000	4.817100
2478.000000	4.813200
2477.000000	4.806100
2476.000000	4.857200
2475.000000	4.869500
2474.000000	4.874000
2473.000000	4.826500
2472.000000	4.882100
2471.000000	4.867900
2470.000000	4.929300
2469.000000	4.938700
2468.000000	4.894600
2467.000000	4.953800
2466.000000	4.923900
2465.000000	4.984700
2464.000000	4.976300
2463.000000	4.996500
2462.000000	4.965000
2461.000000	5.025900
2460.000000	5.040300
2459.000000	5.051000
2458.000000	5.088400
2457.000000	5.110000
2456.000000	5.151200
2455.000000	5.201400
2454.000000	5.208500
2453.000000	5.229100
2452.000000	5.291500
2451.000000	5.310900
2450.000000	5.350100
2449.000000	5.385100
2448.000000	5.437800
2447.000000	5.468100
2446.000000	5.495000
2445.000000	5.537000
2444.000000	5.602500
2443.000000	5.622200
2442.000000	5.663600
2441.000000	5.697800
2440.000000	5.740100
2439.000000	5.779000
2438.000000	5.818100
2437.000000	5.849700
2436.000000	5.883400
2435.000000	5.915500
2434.000000	5.958000
2433.000000	5.997600
2432.000000	6.021000
2431.000000	6.065400
2430.000000	6.097500
2429.000000	6.140800
2428.000000	6.188400
2427.000000	6.200400
2426.000000	6.222100
2425.000000	6.253100
2424.000000	6.291000
2423.000000	6.317000
2422.000000	6.337900
2421.000000	6.359000
2420.000000	6.398400
2419.000000	6.430100
2418.000000	6.463600
2417.000000	6.495400
2416.000000	6.521500
2415.000000	6.535100
2414.000000	6.554600
2413.000000	6.589300
2412.000000	6.612200
2411.000000	6.619700
2410.000000	6.641500
2409.000000	6.657300
2408.000000	6.696700
2407.000000	6.706400
2406.000000	6.714100
2405.000000	6.740900
2404.000000	6.762900
2403.000000	6.774600
2402.000000	6.784000
2401.000000	6.814800
2400.000000	6.846400
2399.000000	6.862500
2398.000000	6.881200
2397.000000	6.901800
2396.000000	6.922700
2395.000000	6.942600
2394.000000	6.965700
2393.000000	6.969600
2392.000000	6.973600
2391.000000	6.999200
2390.000000	7.018800
2389.000000	7.026500
2388.000000	7.040100
2387.000000	7.045200
2386.000000	7.050200
2385.000000	7.049300
2384.000000	7.050000
2383.000000	7.059700
2382.000000	7.067600
2381.000000	7.068700
2380.000000	7.074500
2379.000000	7.089100
2378.000000	7.081900
2377.000000	7.066300
2376.000000	7.049000
2375.000000	7.037000
2374.000000	7.037500
2373.000000	7.040100
2372.000000	7.038000
2371.000000	7.028200
2370.000000	7.008500
2369.000000	7.002600
2368.000000	6.991900
2367.000000	6.961800
2366.000000	6.937200
2365.000000	6.918400
2364.000000	6.899600
2363.000000	6.873700
2362.000000	6.855200
2361.000000	6.824600
2360.000000	6.796700
2359.000000	6.777200
2358.000000	6.758100
2357.000000	6.740200
2356.000000	6.710100
2355.000000	6.683200
2354.000000	6.676100
2353.000000	6.665800
2352.000000	6.656000
2351.000000	6.665300
2350.000000	6.667000
2349.000000	6.669400
2348.000000	6.684600
2347.000000	6.684900
2346.000000	6.694400
2345.000000	6.722000
2344.000000	6.748700
2343.000000	6.766600
2342.000000	6.785100
2341.000000	6.791800
2340.000000	6.819200
2339.000000	6.830400
2338.000000	6.832400
2337.000000	6.841300
2336.000000	6.834400
2335.000000	6.839100
2334.000000	6.841200
2333.000000	6.828600
2332.000000	6.816000
2331.000000	6.782400
2330.000000	6.757700
2329.000000	6.742900
2328.000000	6.729300
2327.000000	6.700900
2326.000000	6.664600
2325.000000	6.633500
2324.000000	6.606500
2323.000000	6.582500
2322.000000	6.532600
2321.000000	6.482600
2320.000000	6.446300
2319.000000	6.406800
2318.000000	6.334800
2317.000000	6.287100
2316.000000	6.245700
2315.000000	6.184600
2314.000000	6.119000
2313.000000	6.064500
2312.000000	6.036800
2311.000000	5.972600
2310.000000	5.931800
2309.000000	5.905100
2308.000000	5.864600
2307.000000	5.847100
2306.000000	5.833700
2305.000000	5.812800
2304.000000	5.803000
2303.000000	5.810200
2302.000000	5.822600
2301.000000	5.843700
2300.000000	5.863100
2299.000000	5.878700
2298.000000	5.911500
2297.000000	5.945200
2296.000000	5.984300
2295.000000	6.002600
2294.000000	6.014800
2293.000000	6.026400
2292.000000	6.075300
2291.000000	6.080600
2290.000000	6.066500
2289.000000	6.077500
2288.000000	6.071600
2287.000000	6.053500
2286.000000	6.034500
2285.000000	6.021900
2284.000000	5.998200
2283.000000	5.958800
2282.000000	5.932500
2281.000000	5.889600
2280.000000	5.852000
2279.000000	5.814200
2278.000000	5.782100
2277.000000	5.740900
2276.000000	5.705200
2275.000000	5.647300
2274.000000	5.621300
2273.000000	5.589100
2272.000000	5.558800
2271.000000	5.537600
2270.000000	5.514700
2269.000000	5.501600
2268.000000	5.507800
2267.000000	5.509800
2266.000000	5.526400
2265.000000	5.559100
2264.000000	5.585100
2263.000000	5.620700
2262.000000	5.668300
2261.000000	5.717800
2260.000000	5.761000
2259.000000	5.842300
2258.000000	5.906500
2257.000000	5.979200
2256.000000	6.042100
2255.000000	6.159000
2254.000000	6.200600
2253.000000	6.325100
2252.000000	6.372300
2251.000000	6.448300
2250.000000	6.510700
2249.000000	6.581100
2248.000000	6.637500
2247.000000	6.711900
2246.000000	6.771300
2245.000000	6.821000
2244.000000	6.850400
2243.000000	6.882100
2242.000000	6.922000
2241.000000	6.983300
2240.000000	6.995600
2239.000000	7.031300
2238.000000	7.062400
2237.000000	7.079600
2236.000000	7.080800
2235.000000	7.095600
2234.000000	7.110300
2233.000000	7.134400
2232.000000	7.119300
2231.000000	7.110000
2230.000000	7.106600
2229.000000	7.099100
2228.000000	7.086400
2227.000000	7.049400
2226.000000	7.001400
2225.000000	6.987700
2224.000000	6.961700
2223.000000	6.917800
2222.000000	6.883100
2221.000000	6.831100
2220.000000	6.768000
2219.000000	6.743300
2218.000000	6.691000
2217.000000	6.651200
2216.000000	6.613200
2215.000000	6.567700
2214.000000	6.530500
2213.000000	6.511300
2212.000000	6.495400
2211.000000	6.481200
2210.000000	6.483600
2209.000000	6.484600
2208.000000	6.523500
2207.000000	6.556400
2206.000000	6.593100
2205.000000	6.655700
2204.000000	6.710600
2203.000000	6.777700
2202.000000	6.882700
2201.000000	6.982100
2200.000000	7.093700
2199.000000	7.198100
2198.000000	7.302900
2197.000000	7.393400
2196.000000	7.529300
2195.000000	7.611200
2194.000000	7.701800
2193.000000	7.794600
2192.000000	7.873500
2191.000000	7.972800
2190.000000	8.043900
2189.000000	8.113800
2188.000000	8.206900
2187.000000	8.249800
2186.000000	8.286300
2185.000000	8.317800
2184.000000	8.401700
2183.000000	8.432900
2182.000000	8.461400
2181.000000	8.487500
2180.000000	8.525900
2179.000000	8.539100
2178.000000	8.569100
2177.000000	8.586000
2176.000000	8.615300
2175.000000	8.639600
2174.000000	8.651800
2173.000000	8.669900
2172.000000	8.680200
2171.000000	8.714500
2170.000000	8.753800
2169.000000	8.757700
2168.000000	8.783600
2167.000000	8.802200
2166.000000	8.810700
2165.000000	8.850600
2164.000000	8.863500
2163.000000	8.886900
2162.000000	8.929400
2161.000000	8.933700
2160.000000	8.951100
2159.000000	8.989900
2158.000000	9.012000
2157.000000	9.042400
2156.000000	9.082900
2155.000000	9.122800
2154.000000	9.162900
2153.000000	9.197600
2152.000000	9.226400
2151.000000	9.270700
2150.000000	9.299500
2149.000000	9.328900
2148.000000	9.362800
2147.000000	9.411500
2146.000000	9.454400
2145.000000	9.484200
2144.000000	9.505600
2143.000000	9.535500
2142.000000	9.577900
2141.000000	9.616600
2140.000000	9.640700
2139.000000	9.660500
2138.000000	9.680800
2137.000000	9.715100
2136.000000	9.733600
2135.000000	9.758500
2134.000000	9.786400
2133.000000	9.797500
2132.000000	9.809300
2131.000000	9.829300
2130.000000	9.850800
2129.000000	9.856400
2128.000000	9.870100
2127.000000	9.877100
2126.000000	9.885100
2125.000000	9.893600
2124.000000	9.900700
2123.000000	9.902700
2122.000000	9.890300
2121.000000	9.886100
2120.000000	9.890200
2119.000000	9.891300
2118.000000	9.887600
2117.000000	9.863600
2116.000000	9.855600
2115.000000	9.848700
2114.000000	9.851300
2113.000000	9.846400
2112.000000	9.824400
2111.000000	9.818100
2110.000000	9.801200
2109.000000	9.780500
2108.000000	9.770500
2107.000000	9.758500
2106.000000	9.739500
2105.000000	9.721500
2104.000000	9.713200
2103.000000	9.718300
2102.000000	9.714000
2101.000000	9.688500
2100.000000	9.661500
2099.000000	9.661600
2098.000000	9.662700
2097.000000	9.646400
2096.000000	9.647600
2095.000000	9.632900
2094.000000	9.621900
2093.000000	9.612500
2092.000000	9.609400
2091.000000	9.607900
2090.000000	9.594700
2089.000000	9.599700
2088.000000	9.585800
2087.000000	9.567200
2086.000000	9.566700
2085.000000	9.550800
2084.000000	9.554700
2083.000000	9.549200
2082.000000	9.532700
2081.000000	9.504600
2080.000000	9.481500
2079.000000	9.470400
2078.000000	9.439700
2077.000000	9.435800
2076.000000	9.421500
2075.000000	9.403500
2074.000000	9.390300
2073.000000	9.359000
2072.000000	9.320800
2071.000000	9.301800
2070.000000	9.292100
2069.000000	9.260400
2068.000000	9.233100
2067.000000	9.210200
2066.000000	9.204400
2065.000000	9.170100
2064.000000	9.142600
2063.000000	9.120100
2062.000000	9.106700
2061.000000	9.084700
2060.000000	9.062300
2059.000000	9.040100
2058.000000	9.040500
2057.000000	9.039200
2056.000000	9.031100
2055.000000	9.031000
2054.000000	9.040400
2053.000000	9.043700
2052.000000	9.056100
2051.000000	9.097700
2050.000000	9.126100
2049.000000	9.170600
2048.000000	9.174400
2047.000000	9.213900
2046.000000	9.265700
2045.000000	9.308700
2044.000000	9.364300
2043.000000	9.413300
2042.000000	9.442500
2041.000000	9.496600
2040.000000	9.542400
2039.000000	9.583700
2038.000000	9.630000
2037.000000	9.669000
2036.000000	9.681400
2035.000000	9.727600
2034.000000	9.755900
2033.000000	9.806100
2032.000000	9.825000
2031.000000	9.856100
2030.000000	9.894600
2029.000000	9.908300
2028.000000	9.923900
2027.000000	9.952000
2026.000000	9.958100
2025.000000	9.992800
2024.000000	9.994000
2023.000000	10.009200
2022.000000	10.026000
2021.000000	10.032200
2020.000000	10.048400
2019.000000	10.051300
2018.000000	10.046800
2017.000000	10.058600
2016.000000	10.062000
2015.000000	10.068200
2014.000000	10.063000
2013.000000	10.058300
2012.000000	10.065200
2011.000000	10.031500
2010.000000	10.030700
2009.000000	10.026200
2008.000000	10.011000
2007.000000	10.009200
2006.000000	9.984000
2005.000000	9.979200
2004.000000	9.941200
2003.000000	9.929900
2002.000000	9.897300
2001.000000	9.851800
2000.000000	9.858300
1999.000000	9.821000
1998.000000	9.789100
1997.000000	9.763000
1996.000000	9.744600
1995.000000	9.714000
1994.000000	9.681100
1993.000000	9.680700
1992.000000	9.615900
1991.000000	9.550300
1990.000000	9.539400
1989.000000	9.499300
1988.000000	9.474600
1987.000000	9.404800
1986.000000	9.378100
1985.000000	9.346000
1984.000000	9.308600
1983.000000	9.244800
1982.000000	9.218400
1981.000000	9.184500
1980.000000	9.136300
1979.000000	9.103800
1978.000000	9.087800
1977.000000	9.036900
1976.000000	9.004600
1975.000000	8.961500
1974.000000	8.923600
1973.000000	8.860000
1972.000000	8.834100
1971.000000	8.810000
1970.000000	8.755200
1969.000000	8.742700
1968.000000	8.679300
1967.000000	8.652400
1966.000000	8.641500
1965.000000	8.614600
1964.000000	8.573600
1963.000000	8.529200
1962.000000	8.506200
1961.000000	8.454800
1960.000000	8.435600
1959.000000	8.409200
1958.000000	8.377600
1957.000000	8.361600
1956.000000	8.308300
1955.000000	8.284900
1954.000000	8.259100
1953.000000	8.223100
1952.000000	8.208400
1951.000000	8.205100
1950.000000	8.166100
1949.000000	8.111500
1948.000000	8.105500
1947.000000	8.092000
1946.000000	8.061900
1945.000000	8.042300
1944.000000	8.023200
1943.000000	8.015200
1942.000000	8.033100
1941.000000	8.013100
1940.000000	8.004600
1939.000000	8.022900
1938.000000	8.003300
1937.000000	7.998300
1936.000000	7.988200
1935.000000	7.998500
1934.000000	8.014500
1933.000000	8.029500
1932.000000	8.044600
1931.000000	8.091300
1930.000000	8.132300
1929.000000	8.142700
1928.000000	8.147900
1927.000000	8.187500
1926.000000	8.237900
1925.000000	8.290400
1924.000000	8.342000
1923.000000	8.398400
1922.000000	8.453600
1921.000000	8.488200
1920.000000	8.551000
1919.000000	8.613500
1918.000000	8.679100
1917.000000	8.777100
1916.000000	8.846100
1915.000000	8.957000
1914.000000	9.060000
1913.000000	9.125200
1912.000000	9.204800
1911.000000	9.287100
1910.000000	9.404600
1909.000000	9.506400
1908.000000	9.624700
1907.000000	9.746000
1906.000000	9.872300
1905.000000	9.988700
1904.000000	10.108100
1903.000000	10.230200
1902.000000	10.359100
1901.000000	10.505600
1900.000000	10.651700
1899.000000	10.780400
1898.000000	10.926600
1897.000000	11.076200
1896.000000	11.221100
1895.000000	11.393800
1894.000000	11.579500
1893.000000	11.755700
1892.000000	11.957700
1891.000000	12.131500
1890.000000	12.308900
1889.000000	12.501000
1888.000000	12.720400
1887.000000	12.926700
1886.000000	13.182300
1885.000000	13.440500
1884.000000	13.722300
1883.000000	14.013300
1882.000000	14.296900
1881.000000	14.619700
1880.000000	14.926600
1879.000000	15.217100
1878.000000	15.531300
1877.000000	15.843400
1876.000000	16.155300
1875.000000	16.431500
1874.000000	16.699600
1873.000000	16.952500
1872.000000	17.188600
1871.000000	17.395100
1870.000000	17.588200
1869.000000	17.780800
1868.000000	17.948200
1867.000000	18.086500
1866.000000	18.193300
1865.000000	18.315600
1864.000000	18.423900
1863.000000	18.527000
1862.000000	18.632400
1861.000000	18.724900
1860.000000	18.824100
1859.000000	18.877800
1858.000000	18.913500
1857.000000	18.961700
1856.000000	18.997200
1855.000000	19.025100
1854.000000	19.026900
1853.000000	19.019600
1852.000000	19.011500
1851.000000	19.015300
1850.000000	19.054200
1849.000000	19.075200
1848.000000	19.035900
1847.000000	18.994000
1846.000000	18.941500
1845.000000	18.912000
1844.000000	18.907900
1843.000000	18.933500
1842.000000	18.962200
1841.000000	18.947400
1840.000000	18.909300
1839.000000	18.883100
1838.000000	18.875400
1837.000000	18.864800
1836.000000	18.817100
1835.000000	18.760300
1834.000000	18.712800
1833.000000	18.682200
1832.000000	18.661800
1831.000000	18.640800
1830.000000	18.595000
1829.000000	18.544100
1828.000000	18.484300
1827.000000	18.432500
1826.000000	18.390200
1825.000000	18.359000
1824.000000	18.331300
1823.000000	18.315600
1822.000000	18.332500
1821.000000	18.328500
1820.000000	18.280200
1819.000000	18.235100
1818.000000	18.224900
1817.000000	18.241200
1816.000000	18.243800
1815.000000	18.238800
1814.000000	18.243700
1813.000000	18.237500
1812.000000	18.230600
1811.000000	18.213400
1810.000000	18.175300
1809.000000	18.162200
1808.000000	18.137300
1807.000000	18.109000
1806.000000	18.088100
1805.000000	18.057400
1804.000000	18.016600
1803.000000	17.998400
1802.000000	17.975800
1801.000000	17.943700
1800.000000	17.887000
1799.000000	17.835200
1798.000000	17.816700
1797.000000	17.804500
1796.000000	17.763900
1795.000000	17.716900
1794.000000	17.685300
1793.000000	17.651600
1792.000000	17.611400
1791.000000	17.582900
1790.000000	17.547100
1789.000000	17.492200
1788.000000	17.448000
1787.000000	17.426000
1786.000000	17.382500
1785.000000	17.328300
1784.000000	17.272300
1783.000000	17.207700
1782.000000	17.149400
1781.000000	17.115400
1780.000000	17.071900
1779.000000	17.007400
1778.000000	16.939500
1777.000000	16.892100
1776.000000	16.832100
1775.000000	16.762800
1774.000000	16.689600
1773.000000	16.604800
1772.000000	16.536700
1771.000000	16.441200
1770.000000	16.384300
1769.000000	16.302400
1768.000000	16.251300
1767.000000	16.186600
1766.000000	16.119100
1765.000000	16.075800
1764.000000	16.033300
1763.000000	16.016800
1762.000000	16.014800
1761.000000	16.042100
1760.000000	16.050000
1759.000000	16.091600
1758.000000	16.142700
1757.000000	16.188600
1756.000000	16.218300
1755.000000	16.255400
1754.000000	16.284100
1753.000000	16.282500
1752.000000	16.281600
1751.000000	16.258800
1750.000000	16.245700
1749.000000	16.239000
1748.000000	16.195800
1747.000000	16.160600
1746.000000	16.095000
1745.000000	16.032200
1744.000000	15.966700
1743.000000	15.857900
1742.000000	15.769700
1741.000000	15.635100
1740.000000	15.504500
1739.000000	15.371500
1738.000000	15.237600
1737.000000	15.137500
1736.000000	15.058700
1735.000000	14.973900
1734.000000	14.927400
1733.000000	14.903400
1732.000000	14.915900
1731.000000	14.974200
1730.000000	14.995700
1729.000000	15.071000
1728.000000	15.123300
1727.000000	15.212800
1726.000000	15.264500
1725.000000	15.317200
1724.000000	15.365000
1723.000000	15.399800
1722.000000	15.416200
1721.000000	15.458400
1720.000000	15.458200
1719.000000	15.486700
1718.000000	15.529400
1717.000000	15.580200
1716.000000	15.616700
1715.000000	15.680600
1714.000000	15.738800
1713.000000	15.781200
1712.000000	15.825100
1711.000000	15.855500
1710.000000	15.891300
1709.000000	15.883900
1708.000000	15.905400
1707.000000	15.898100
1706.000000	15.863400
1705.000000	15.857300
1704.000000	15.831500
1703.000000	15.794300
1702.000000	15.741300
1701.000000	15.689600
1700.000000	15.593400
1699.000000	15.504700
1698.000000	15.428800
1697.000000	15.364200
1696.000000	15.292600
1695.000000	15.306500
1694.000000	15.317700
1693.000000	15.374300
1692.000000	15.449300
1691.000000	15.528900
1690.000000	15.614000
1689.000000	15.733800
1688.000000	15.770400
1687.000000	15.800900
1686.000000	15.850300
1685.000000	15.878200
1684.000000	15.912100
1683.000000	16.038400
1682.000000	16.185100
1681.000000	16.425700
1680.000000	16.721500
1679.000000	17.052100
1678.000000	17.395500
1677.000000	17.712400
1676.000000	18.005900
1675.000000	18.278800
1674.000000	18.503200
1673.000000	18.725200
1672.000000	18.906400
1671.000000	19.073200
1670.000000	19.222300
1669.000000	19.328400
1668.000000	19.462800
1667.000000	19.538300
1666.000000	19.592600
1665.000000	19.662500
1664.000000	19.724300
1663.000000	19.775900
1662.000000	19.824800
1661.000000	19.855700
1660.000000	19.872000
1659.000000	19.909600
1658.000000	19.912300
1657.000000	19.922400
1656.000000	19.931600
1655.000000	19.937200
1654.000000	19.934700
1653.000000	19.910900
1652.000000	19.896500
1651.000000	19.879200
1650.000000	19.846500
1649.000000	19.840500
1648.000000	19.803500
1647.000000	19.773900
1646.000000	19.734700
1645.000000	19.693400
1644.000000	19.634200
1643.000000	19.595200
1642.000000	19.556700
1641.000000	19.501600
1640.000000	19.475200
1639.000000	19.440700
1638.000000	19.385600
1637.000000	19.343000
1636.000000	19.296100
1635.000000	19.240500
1634.000000	19.186700
1633.000000	19.150800
1632.000000	19.097300
1631.000000	19.036100
1630.000000	18.980300
1629.000000	18.926000
1628.000000	18.877100
1627.000000	18.828300
1626.000000	18.772300
1625.000000	18.719200
1624.000000	18.660100
1623.000000	18.609300
1622.000000	18.552600
1621.000000	18.512100
1620.000000	18.471900
1619.000000	18.409200
1618.000000	18.375700
1617.000000	18.337500
1616.000000	18.298300
1615.000000	18.271400
1614.000000	18.212700
1613.000000	18.178300
1612.000000	18.128300
1611.000000	18.089100
1610.000000	18.040500
1609.000000	18.001300
1608.000000	17.961400
1607.000000	17.930500
1606.000000	17.895000
1605.000000	17.842600
1604.000000	17.819500
1603.000000	17.790200
1602.000000	17.744300
1601.000000	17.712800
1600.000000	17.682500
1599.000000	17.641900
1598.000000	17.600100
