PE UV       SUBTECH     SPECTRUM    ASCII       PEDS        4.00        
   -1
CICIMAUCR0018-1.Sample.ASC
24/03/08
12:50:34.00
24/03/08
12:50:34.00
Vinicio Soto Monge
c. cupreomarginata
250,000000
1
Lambda 1050
1050L1511233
PerkinElmer UV WinLab 6.3.2.0749 / 2.02.05 Lambda 900 UV/VIS/NIR, Aug  7 2015 09:38:08

0
0
3350/servo 860,8/2
0
0
UV/VIS
1
1
1
DoubleDePol,CommonBeamDepol,RBeamAtt,SBeamAtt,60mm sphere, WB InGaAs Detector
0
0
0
0
Program
Program
3350/servo 860,8/2
3350/0,2 860,8/0,2
3350/0,2 860,8/0,2
0
15.00
 
 
 
0
 
860,8
319,2
860,8
Front
100
on
S:100 R:100
0
0
0
0
 
0
 
 
 
0
 
 
0
0
0
0
0
 
 
 
 
0
0


0
0
#HDR
-1
-1
#GR
nm
%R
1.0
0.0
2500,000000
-1,000000
2251
8
27,295000
2,488900
#DATA
2500.000000	3.071000
2499.000000	2.992900
2498.000000	3.002000
2497.000000	3.100800
2496.000000	3.150000
2495.000000	3.040300
2494.000000	3.033900
2493.000000	3.070400
2492.000000	3.029100
2491.000000	3.004600
2490.000000	2.904200
2489.000000	2.911000
2488.000000	2.950600
2487.000000	2.899000
2486.000000	2.937000
2485.000000	2.929000
2484.000000	2.936600
2483.000000	3.018900
2482.000000	2.942500
2481.000000	2.932000
2480.000000	2.944000
2479.000000	2.948400
2478.000000	2.971500
2477.000000	2.957300
2476.000000	2.985200
2475.000000	2.954500
2474.000000	2.936000
2473.000000	2.989500
2472.000000	2.945200
2471.000000	2.974500
2470.000000	2.965200
2469.000000	2.978600
2468.000000	3.006200
2467.000000	2.983600
2466.000000	2.987700
2465.000000	2.991000
2464.000000	3.009900
2463.000000	3.053900
2462.000000	3.056900
2461.000000	3.017600
2460.000000	3.024600
2459.000000	3.057500
2458.000000	3.119600
2457.000000	3.133500
2456.000000	3.152800
2455.000000	3.168300
2454.000000	3.211000
2453.000000	3.219900
2452.000000	3.253300
2451.000000	3.268600
2450.000000	3.304000
2449.000000	3.333400
2448.000000	3.350400
2447.000000	3.376900
2446.000000	3.422300
2445.000000	3.458500
2444.000000	3.505600
2443.000000	3.531600
2442.000000	3.558600
2441.000000	3.594800
2440.000000	3.641700
2439.000000	3.658100
2438.000000	3.681000
2437.000000	3.710100
2436.000000	3.717000
2435.000000	3.763400
2434.000000	3.781700
2433.000000	3.807300
2432.000000	3.833100
2431.000000	3.862500
2430.000000	3.897100
2429.000000	3.929600
2428.000000	3.966100
2427.000000	3.960500
2426.000000	3.986600
2425.000000	4.024100
2424.000000	4.052800
2423.000000	4.096000
2422.000000	4.137900
2421.000000	4.179000
2420.000000	4.214700
2419.000000	4.242100
2418.000000	4.268700
2417.000000	4.272000
2416.000000	4.289500
2415.000000	4.321000
2414.000000	4.322100
2413.000000	4.350000
2412.000000	4.372800
2411.000000	4.396100
2410.000000	4.404600
2409.000000	4.435900
2408.000000	4.468600
2407.000000	4.481900
2406.000000	4.508900
2405.000000	4.536000
2404.000000	4.528000
2403.000000	4.538500
2402.000000	4.562300
2401.000000	4.588900
2400.000000	4.607700
2399.000000	4.629500
2398.000000	4.648200
2397.000000	4.652900
2396.000000	4.676700
2395.000000	4.711900
2394.000000	4.731900
2393.000000	4.740500
2392.000000	4.745200
2391.000000	4.752000
2390.000000	4.768100
2389.000000	4.790600
2388.000000	4.815000
2387.000000	4.827100
2386.000000	4.836400
2385.000000	4.833500
2384.000000	4.830600
2383.000000	4.838800
2382.000000	4.857400
2381.000000	4.866700
2380.000000	4.875300
2379.000000	4.872100
2378.000000	4.859200
2377.000000	4.871900
2376.000000	4.872500
2375.000000	4.867700
2374.000000	4.871300
2373.000000	4.872600
2372.000000	4.865600
2371.000000	4.851600
2370.000000	4.830700
2369.000000	4.823100
2368.000000	4.825200
2367.000000	4.816500
2366.000000	4.801600
2365.000000	4.794300
2364.000000	4.782700
2363.000000	4.765900
2362.000000	4.740300
2361.000000	4.728800
2360.000000	4.713100
2359.000000	4.682200
2358.000000	4.665500
2357.000000	4.660000
2356.000000	4.651800
2355.000000	4.647000
2354.000000	4.630000
2353.000000	4.622800
2352.000000	4.619000
2351.000000	4.585900
2350.000000	4.592300
2349.000000	4.617800
2348.000000	4.631200
2347.000000	4.637100
2346.000000	4.656000
2345.000000	4.671900
2344.000000	4.707500
2343.000000	4.734800
2342.000000	4.743300
2341.000000	4.752900
2340.000000	4.777200
2339.000000	4.801200
2338.000000	4.810700
2337.000000	4.808400
2336.000000	4.810700
2335.000000	4.816000
2334.000000	4.811900
2333.000000	4.804100
2332.000000	4.799700
2331.000000	4.783800
2330.000000	4.769200
2329.000000	4.751000
2328.000000	4.755600
2327.000000	4.733000
2326.000000	4.702300
2325.000000	4.680700
2324.000000	4.661600
2323.000000	4.637600
2322.000000	4.608600
2321.000000	4.556600
2320.000000	4.533700
2319.000000	4.489900
2318.000000	4.433500
2317.000000	4.402400
2316.000000	4.366800
2315.000000	4.320400
2314.000000	4.274900
2313.000000	4.236700
2312.000000	4.201800
2311.000000	4.156700
2310.000000	4.125800
2309.000000	4.097400
2308.000000	4.092000
2307.000000	4.053700
2306.000000	4.053900
2305.000000	4.045200
2304.000000	4.047700
2303.000000	4.068400
2302.000000	4.076100
2301.000000	4.087400
2300.000000	4.100900
2299.000000	4.144100
2298.000000	4.171000
2297.000000	4.202500
2296.000000	4.228600
2295.000000	4.266500
2294.000000	4.307000
2293.000000	4.315100
2292.000000	4.346600
2291.000000	4.349400
2290.000000	4.333200
2289.000000	4.337300
2288.000000	4.334700
2287.000000	4.314700
2286.000000	4.308000
2285.000000	4.312800
2284.000000	4.274000
2283.000000	4.254100
2282.000000	4.217100
2281.000000	4.206100
2280.000000	4.180600
2279.000000	4.169800
2278.000000	4.141400
2277.000000	4.119600
2276.000000	4.077000
2275.000000	4.058000
2274.000000	4.040200
2273.000000	4.027100
2272.000000	4.010500
2271.000000	3.984500
2270.000000	4.002100
2269.000000	3.995400
2268.000000	4.015600
2267.000000	4.034000
2266.000000	4.041000
2265.000000	4.052900
2264.000000	4.078200
2263.000000	4.119000
2262.000000	4.179000
2261.000000	4.229000
2260.000000	4.286400
2259.000000	4.329400
2258.000000	4.391100
2257.000000	4.459300
2256.000000	4.527500
2255.000000	4.595300
2254.000000	4.659400
2253.000000	4.723300
2252.000000	4.752700
2251.000000	4.822100
2250.000000	4.900300
2249.000000	4.951500
2248.000000	5.003900
2247.000000	5.039800
2246.000000	5.083200
2245.000000	5.115600
2244.000000	5.170100
2243.000000	5.198000
2242.000000	5.219800
2241.000000	5.224200
2240.000000	5.284900
2239.000000	5.286500
2238.000000	5.310000
2237.000000	5.326400
2236.000000	5.346500
2235.000000	5.363700
2234.000000	5.347100
2233.000000	5.375700
2232.000000	5.379200
2231.000000	5.374300
2230.000000	5.385700
2229.000000	5.368700
2228.000000	5.370600
2227.000000	5.341800
2226.000000	5.323500
2225.000000	5.308800
2224.000000	5.268600
2223.000000	5.234000
2222.000000	5.216100
2221.000000	5.174200
2220.000000	5.149000
2219.000000	5.138500
2218.000000	5.093300
2217.000000	5.065700
2216.000000	5.030400
2215.000000	5.001600
2214.000000	4.960500
2213.000000	4.967300
2212.000000	4.961500
2211.000000	4.928600
2210.000000	4.931500
2209.000000	4.961300
2208.000000	4.965100
2207.000000	5.010400
2206.000000	5.012700
2205.000000	5.078500
2204.000000	5.108800
2203.000000	5.156500
2202.000000	5.235300
2201.000000	5.309100
2200.000000	5.386500
2199.000000	5.457300
2198.000000	5.556000
2197.000000	5.634700
2196.000000	5.719700
2195.000000	5.781200
2194.000000	5.856400
2193.000000	5.937400
2192.000000	6.012200
2191.000000	6.071700
2190.000000	6.127100
2189.000000	6.189500
2188.000000	6.214300
2187.000000	6.251500
2186.000000	6.307300
2185.000000	6.338000
2184.000000	6.373200
2183.000000	6.384400
2182.000000	6.429000
2181.000000	6.440200
2180.000000	6.452700
2179.000000	6.477000
2178.000000	6.496200
2177.000000	6.507800
2176.000000	6.521900
2175.000000	6.524500
2174.000000	6.537400
2173.000000	6.539100
2172.000000	6.583600
2171.000000	6.585700
2170.000000	6.584300
2169.000000	6.596300
2168.000000	6.621900
2167.000000	6.638100
2166.000000	6.652800
2165.000000	6.646700
2164.000000	6.657300
2163.000000	6.684300
2162.000000	6.711000
2161.000000	6.724700
2160.000000	6.730000
2159.000000	6.763400
2158.000000	6.789900
2157.000000	6.787400
2156.000000	6.816400
2155.000000	6.832800
2154.000000	6.862700
2153.000000	6.878500
2152.000000	6.893700
2151.000000	6.893400
2150.000000	6.924900
2149.000000	6.958000
2148.000000	6.978700
2147.000000	6.993400
2146.000000	7.011800
2145.000000	7.053200
2144.000000	7.064400
2143.000000	7.074800
2142.000000	7.094700
2141.000000	7.109700
2140.000000	7.127300
2139.000000	7.139900
2138.000000	7.145100
2137.000000	7.168800
2136.000000	7.190300
2135.000000	7.199000
2134.000000	7.204700
2133.000000	7.215800
2132.000000	7.222100
2131.000000	7.224700
2130.000000	7.232900
2129.000000	7.240000
2128.000000	7.232500
2127.000000	7.233100
2126.000000	7.246800
2125.000000	7.244500
2124.000000	7.238400
2123.000000	7.247300
2122.000000	7.248000
2121.000000	7.234300
2120.000000	7.227200
2119.000000	7.220600
2118.000000	7.220500
2117.000000	7.220100
2116.000000	7.198500
2115.000000	7.203700
2114.000000	7.213900
2113.000000	7.202900
2112.000000	7.193900
2111.000000	7.166100
2110.000000	7.158200
2109.000000	7.169100
2108.000000	7.160600
2107.000000	7.137800
2106.000000	7.116000
2105.000000	7.104500
2104.000000	7.105800
2103.000000	7.085700
2102.000000	7.069800
2101.000000	7.077400
2100.000000	7.074600
2099.000000	7.053700
2098.000000	7.050100
2097.000000	7.046200
2096.000000	7.026100
2095.000000	7.009800
2094.000000	7.012100
2093.000000	7.015000
2092.000000	7.008800
2091.000000	7.009600
2090.000000	7.011300
2089.000000	7.002100
2088.000000	6.989700
2087.000000	6.982500
2086.000000	6.978200
2085.000000	6.977100
2084.000000	6.967900
2083.000000	6.959200
2082.000000	6.950800
2081.000000	6.931600
2080.000000	6.933400
2079.000000	6.922300
2078.000000	6.900200
2077.000000	6.895300
2076.000000	6.884500
2075.000000	6.861600
2074.000000	6.845800
2073.000000	6.848900
2072.000000	6.833100
2071.000000	6.804500
2070.000000	6.795700
2069.000000	6.792000
2068.000000	6.776400
2067.000000	6.774000
2066.000000	6.751800
2065.000000	6.714800
2064.000000	6.696500
2063.000000	6.692700
2062.000000	6.692500
2061.000000	6.681800
2060.000000	6.684200
2059.000000	6.678700
2058.000000	6.663200
2057.000000	6.676400
2056.000000	6.684600
2055.000000	6.684100
2054.000000	6.704000
2053.000000	6.723600
2052.000000	6.752300
2051.000000	6.782800
2050.000000	6.803600
2049.000000	6.857300
2048.000000	6.895200
2047.000000	6.950800
2046.000000	6.973100
2045.000000	7.023000
2044.000000	7.087700
2043.000000	7.134700
2042.000000	7.180000
2041.000000	7.224000
2040.000000	7.285000
2039.000000	7.362300
2038.000000	7.399300
2037.000000	7.439200
2036.000000	7.500400
2035.000000	7.550200
2034.000000	7.589900
2033.000000	7.641000
2032.000000	7.668700
2031.000000	7.698300
2030.000000	7.757700
2029.000000	7.792800
2028.000000	7.831400
2027.000000	7.836700
2026.000000	7.873000
2025.000000	7.900700
2024.000000	7.939600
2023.000000	7.984700
2022.000000	8.009000
2021.000000	8.035300
2020.000000	8.068900
2019.000000	8.079700
2018.000000	8.109900
2017.000000	8.129200
2016.000000	8.145700
2015.000000	8.172600
2014.000000	8.192900
2013.000000	8.203800
2012.000000	8.228500
2011.000000	8.244100
2010.000000	8.279600
2009.000000	8.289900
2008.000000	8.284800
2007.000000	8.289700
2006.000000	8.295800
2005.000000	8.310500
2004.000000	8.305600
2003.000000	8.305600
2002.000000	8.279500
2001.000000	8.290800
2000.000000	8.292300
1999.000000	8.293800
1998.000000	8.277500
1997.000000	8.280400
1996.000000	8.280200
1995.000000	8.255700
1994.000000	8.229900
1993.000000	8.222600
1992.000000	8.215000
1991.000000	8.187500
1990.000000	8.187600
1989.000000	8.154600
1988.000000	8.139100
1987.000000	8.112100
1986.000000	8.112800
1985.000000	8.079900
1984.000000	8.044300
1983.000000	8.005100
1982.000000	7.986500
1981.000000	7.952100
1980.000000	7.925100
1979.000000	7.922000
1978.000000	7.895100
1977.000000	7.878200
1976.000000	7.838400
1975.000000	7.821000
1974.000000	7.806800
1973.000000	7.770800
1972.000000	7.746300
1971.000000	7.710400
1970.000000	7.682500
1969.000000	7.658800
1968.000000	7.650300
1967.000000	7.610000
1966.000000	7.595900
1965.000000	7.582600
1964.000000	7.537500
1963.000000	7.524600
1962.000000	7.496000
1961.000000	7.482500
1960.000000	7.456100
1959.000000	7.442700
1958.000000	7.426800
1957.000000	7.383600
1956.000000	7.380500
1955.000000	7.337200
1954.000000	7.338300
1953.000000	7.310500
1952.000000	7.279900
1951.000000	7.235500
1950.000000	7.225000
1949.000000	7.209000
1948.000000	7.185600
1947.000000	7.189000
1946.000000	7.185500
1945.000000	7.142100
1944.000000	7.134500
1943.000000	7.116400
1942.000000	7.126000
1941.000000	7.122700
1940.000000	7.110300
1939.000000	7.102200
1938.000000	7.109100
1937.000000	7.105000
1936.000000	7.121800
1935.000000	7.117500
1934.000000	7.150500
1933.000000	7.154100
1932.000000	7.194200
1931.000000	7.207200
1930.000000	7.238600
1929.000000	7.276000
1928.000000	7.319700
1927.000000	7.333700
1926.000000	7.371600
1925.000000	7.414500
1924.000000	7.490800
1923.000000	7.547200
1922.000000	7.588000
1921.000000	7.647200
1920.000000	7.691400
1919.000000	7.751400
1918.000000	7.836200
1917.000000	7.945600
1916.000000	8.010400
1915.000000	8.091800
1914.000000	8.162400
1913.000000	8.234000
1912.000000	8.314800
1911.000000	8.384800
1910.000000	8.488800
1909.000000	8.589000
1908.000000	8.687800
1907.000000	8.778900
1906.000000	8.887900
1905.000000	8.972000
1904.000000	9.070900
1903.000000	9.162300
1902.000000	9.262500
1901.000000	9.375700
1900.000000	9.478700
1899.000000	9.573900
1898.000000	9.703000
1897.000000	9.806700
1896.000000	9.906500
1895.000000	10.020100
1894.000000	10.139800
1893.000000	10.253900
1892.000000	10.339000
1891.000000	10.425500
1890.000000	10.522800
1889.000000	10.618200
1888.000000	10.744400
1887.000000	10.890100
1886.000000	11.001800
1885.000000	11.121300
1884.000000	11.281600
1883.000000	11.414100
1882.000000	11.574400
1881.000000	11.736700
1880.000000	11.899700
1879.000000	12.058700
1878.000000	12.215000
1877.000000	12.332800
1876.000000	12.459300
1875.000000	12.573200
1874.000000	12.650800
1873.000000	12.736300
1872.000000	12.818300
1871.000000	12.873900
1870.000000	12.892500
1869.000000	12.918100
1868.000000	12.969800
1867.000000	13.010000
1866.000000	13.041100
1865.000000	13.078400
1864.000000	13.119800
1863.000000	13.143100
1862.000000	13.176900
1861.000000	13.169700
1860.000000	13.140600
1859.000000	13.112900
1858.000000	13.105700
1857.000000	13.097300
1856.000000	13.080100
1855.000000	13.068200
1854.000000	13.031200
1853.000000	12.999300
1852.000000	12.974300
1851.000000	12.971900
1850.000000	12.986600
1849.000000	12.956000
1848.000000	12.877300
1847.000000	12.781600
1846.000000	12.723900
1845.000000	12.726400
1844.000000	12.743600
1843.000000	12.767400
1842.000000	12.759400
1841.000000	12.706400
1840.000000	12.660300
1839.000000	12.634500
1838.000000	12.620600
1837.000000	12.584900
1836.000000	12.538600
1835.000000	12.502800
1834.000000	12.486600
1833.000000	12.479500
1832.000000	12.466600
1831.000000	12.433100
1830.000000	12.382400
1829.000000	12.330600
1828.000000	12.297400
1827.000000	12.264700
1826.000000	12.226600
1825.000000	12.208500
1824.000000	12.206700
1823.000000	12.214600
1822.000000	12.201400
1821.000000	12.168500
1820.000000	12.131400
1819.000000	12.116800
1818.000000	12.128000
1817.000000	12.133000
1816.000000	12.138000
1815.000000	12.138000
1814.000000	12.132000
1813.000000	12.136800
1812.000000	12.118400
1811.000000	12.094600
1810.000000	12.092700
1809.000000	12.085700
1808.000000	12.082000
1807.000000	12.070800
1806.000000	12.038700
1805.000000	12.010200
1804.000000	12.000600
1803.000000	11.983100
1802.000000	11.952500
1801.000000	11.931500
1800.000000	11.913900
1799.000000	11.901400
1798.000000	11.880800
1797.000000	11.863500
1796.000000	11.840800
1795.000000	11.831000
1794.000000	11.814300
1793.000000	11.797200
1792.000000	11.786700
1791.000000	11.753700
1790.000000	11.721500
1789.000000	11.701600
1788.000000	11.691600
1787.000000	11.663000
1786.000000	11.630700
1785.000000	11.601900
1784.000000	11.586300
1783.000000	11.543000
1782.000000	11.526200
1781.000000	11.483100
1780.000000	11.449100
1779.000000	11.409700
1778.000000	11.389600
1777.000000	11.339800
1776.000000	11.309200
1775.000000	11.238300
1774.000000	11.172600
1773.000000	11.138600
1772.000000	11.099900
1771.000000	11.054600
1770.000000	11.010700
1769.000000	10.962100
1768.000000	10.903700
1767.000000	10.866500
1766.000000	10.836300
1765.000000	10.816000
1764.000000	10.811200
1763.000000	10.805400
1762.000000	10.801300
1761.000000	10.832200
1760.000000	10.861900
1759.000000	10.879700
1758.000000	10.911200
1757.000000	10.924100
1756.000000	10.942100
1755.000000	10.952200
1754.000000	10.950000
1753.000000	10.973100
1752.000000	10.962200
1751.000000	10.935400
1750.000000	10.930900
1749.000000	10.907600
1748.000000	10.869100
1747.000000	10.827400
1746.000000	10.798100
1745.000000	10.764500
1744.000000	10.699200
1743.000000	10.624600
1742.000000	10.551400
1741.000000	10.478200
1740.000000	10.392200
1739.000000	10.323600
1738.000000	10.246600
1737.000000	10.186000
1736.000000	10.136100
1735.000000	10.117700
1734.000000	10.113900
1733.000000	10.114700
1732.000000	10.136400
1731.000000	10.141000
1730.000000	10.206600
1729.000000	10.248000
1728.000000	10.284300
1727.000000	10.337100
1726.000000	10.356700
1725.000000	10.383200
1724.000000	10.405700
1723.000000	10.423900
1722.000000	10.441500
1721.000000	10.439900
1720.000000	10.425200
1719.000000	10.468100
1718.000000	10.482400
1717.000000	10.501200
1716.000000	10.535200
1715.000000	10.531700
1714.000000	10.596200
1713.000000	10.600700
1712.000000	10.609400
1711.000000	10.631000
1710.000000	10.661600
1709.000000	10.669000
1708.000000	10.631500
1707.000000	10.671600
1706.000000	10.648800
1705.000000	10.631600
1704.000000	10.628100
1703.000000	10.606100
1702.000000	10.558500
1701.000000	10.506500
1700.000000	10.462200
1699.000000	10.406100
1698.000000	10.354400
1697.000000	10.316100
1696.000000	10.313400
1695.000000	10.292300
1694.000000	10.325500
1693.000000	10.371900
1692.000000	10.422800
1691.000000	10.474000
1690.000000	10.528400
1689.000000	10.559200
1688.000000	10.583200
1687.000000	10.586200
1686.000000	10.608900
1685.000000	10.601800
1684.000000	10.654400
1683.000000	10.731300
1682.000000	10.843000
1681.000000	11.001900
1680.000000	11.185500
1679.000000	11.381100
1678.000000	11.562700
1677.000000	11.752000
1676.000000	11.914100
1675.000000	12.076300
1674.000000	12.205800
1673.000000	12.334200
1672.000000	12.378100
1671.000000	12.465000
1670.000000	12.537300
1669.000000	12.602200
1668.000000	12.671100
1667.000000	12.754600
1666.000000	12.788400
1665.000000	12.828600
1664.000000	12.839800
1663.000000	12.860800
1662.000000	12.894400
1661.000000	12.921700
1660.000000	12.927900
1659.000000	12.928100
1658.000000	12.941000
1657.000000	12.935300
1656.000000	12.936300
1655.000000	12.956000
1654.000000	12.922700
1653.000000	12.912500
1652.000000	12.911200
1651.000000	12.879600
1650.000000	12.877700
1649.000000	12.859400
1648.000000	12.839000
1647.000000	12.825700
1646.000000	12.813200
1645.000000	12.769700
1644.000000	12.745900
1643.000000	12.723900
1642.000000	12.696100
1641.000000	12.695400
1640.000000	12.666300
1639.000000	12.634600
1638.000000	12.608700
1637.000000	12.581300
1636.000000	12.547800
1635.000000	12.525300
1634.000000	12.493200
1633.000000	12.457300
1632.000000	12.404100
1631.000000	12.390300
1630.000000	12.370200
1629.000000	12.332300
1628.000000	12.284800
1627.000000	12.258200
1626.000000	12.233600
1625.000000	12.194200
1624.000000	12.154800
1623.000000	12.121600
1622.000000	12.087200
1621.000000	12.058900
1620.000000	12.047100
1619.000000	11.994700
1618.000000	11.964500
1617.000000	11.941300
1616.000000	11.913900
1615.000000	11.871100
1614.000000	11.848400
1613.000000	11.827500
1612.000000	11.808000
1611.000000	11.787200
1610.000000	11.747200
1609.000000	11.725800
1608.000000	11.708600
1607.000000	11.676100
1606.000000	11.659200
1605.000000	11.630500
1604.000000	11.591200
1603.000000	11.568000
1602.000000	11.538700
1601.000000	11.513900
1600.000000	11.490000
1599.000000	11.459100
1598.000000	11.429100
1597.000000	11.421300
