PE UV       SUBTECH     SPECTRUM    ASCII       PEDS        4.00        
   -1
CICIMAUCR0008-1.Sample.ASC
24/03/08
13:07:07.00
24/03/08
13:07:07.00
Vinicio Soto Monge
C. kalinini
250,000000
1
Lambda 1050
1050L1511233
PerkinElmer UV WinLab 6.3.2.0749 / 2.02.05 Lambda 900 UV/VIS/NIR, Aug  7 2015 09:38:08

0
0
3350/servo 860,8/2
0
0
UV/VIS
1
1
1
DoubleDePol,CommonBeamDepol,RBeamAtt,SBeamAtt,60mm sphere, WB InGaAs Detector
0
0
0
0
Program
Program
3350/servo 860,8/2
3350/0,2 860,8/0,2
3350/0,2 860,8/0,2
0
15.00
 
 
 
0
 
860,8
319,2
860,8
Front
100
on
S:100 R:100
0
0
0
0
 
0
 
 
 
0
 
 
0
0
0
0
0
 
 
 
 
0
0


0
0
#HDR
-1
-1
#GR
nm
%R
1.0
0.0
2500,000000
-1,000000
2251
8
36,165400
2,347300
#DATA
2500.000000	2.410900
2499.000000	2.379200
2498.000000	2.513700
2497.000000	2.457500
2496.000000	2.413200
2495.000000	2.453400
2494.000000	2.496500
2493.000000	2.462800
2492.000000	2.478100
2491.000000	2.370000
2490.000000	2.434300
2489.000000	2.395200
2488.000000	2.388300
2487.000000	2.385800
2486.000000	2.404000
2485.000000	2.442900
2484.000000	2.426200
2483.000000	2.347300
2482.000000	2.391100
2481.000000	2.428700
2480.000000	2.430600
2479.000000	2.408200
2478.000000	2.413200
2477.000000	2.425800
2476.000000	2.395600
2475.000000	2.412600
2474.000000	2.453600
2473.000000	2.436100
2472.000000	2.406200
2471.000000	2.433600
2470.000000	2.435400
2469.000000	2.414400
2468.000000	2.459000
2467.000000	2.456700
2466.000000	2.447400
2465.000000	2.440300
2464.000000	2.463200
2463.000000	2.514700
2462.000000	2.503700
2461.000000	2.526700
2460.000000	2.547300
2459.000000	2.553200
2458.000000	2.580600
2457.000000	2.566100
2456.000000	2.601000
2455.000000	2.612900
2454.000000	2.667200
2453.000000	2.670600
2452.000000	2.659500
2451.000000	2.685400
2450.000000	2.737900
2449.000000	2.762000
2448.000000	2.763300
2447.000000	2.803100
2446.000000	2.840600
2445.000000	2.842500
2444.000000	2.868300
2443.000000	2.913000
2442.000000	2.924600
2441.000000	2.944200
2440.000000	2.969700
2439.000000	2.987600
2438.000000	3.006700
2437.000000	3.033600
2436.000000	3.068200
2435.000000	3.104400
2434.000000	3.117600
2433.000000	3.121500
2432.000000	3.141500
2431.000000	3.153700
2430.000000	3.183500
2429.000000	3.202200
2428.000000	3.225000
2427.000000	3.258000
2426.000000	3.272800
2425.000000	3.287200
2424.000000	3.317900
2423.000000	3.356500
2422.000000	3.395900
2421.000000	3.432400
2420.000000	3.449400
2419.000000	3.454800
2418.000000	3.471600
2417.000000	3.503900
2416.000000	3.523400
2415.000000	3.529900
2414.000000	3.554800
2413.000000	3.589700
2412.000000	3.606200
2411.000000	3.618100
2410.000000	3.639900
2409.000000	3.659500
2408.000000	3.657500
2407.000000	3.675700
2406.000000	3.701100
2405.000000	3.712800
2404.000000	3.729900
2403.000000	3.739700
2402.000000	3.768000
2401.000000	3.767400
2400.000000	3.788600
2399.000000	3.829300
2398.000000	3.831000
2397.000000	3.832200
2396.000000	3.847200
2395.000000	3.884000
2394.000000	3.909400
2393.000000	3.909200
2392.000000	3.893800
2391.000000	3.919000
2390.000000	3.937200
2389.000000	3.943500
2388.000000	3.957100
2387.000000	3.986600
2386.000000	3.996700
2385.000000	3.988500
2384.000000	3.994500
2383.000000	4.011600
2382.000000	4.015300
2381.000000	4.018300
2380.000000	4.007500
2379.000000	3.993900
2378.000000	4.005100
2377.000000	4.018400
2376.000000	4.007100
2375.000000	4.023700
2374.000000	4.028900
2373.000000	4.015700
2372.000000	4.009500
2371.000000	4.002000
2370.000000	3.987700
2369.000000	3.997300
2368.000000	4.001700
2367.000000	3.976000
2366.000000	3.962600
2365.000000	3.951500
2364.000000	3.935900
2363.000000	3.916900
2362.000000	3.907900
2361.000000	3.897400
2360.000000	3.885800
2359.000000	3.866600
2358.000000	3.857500
2357.000000	3.832500
2356.000000	3.806600
2355.000000	3.798200
2354.000000	3.787300
2353.000000	3.782600
2352.000000	3.765200
2351.000000	3.767400
2350.000000	3.784600
2349.000000	3.791300
2348.000000	3.792300
2347.000000	3.794000
2346.000000	3.826100
2345.000000	3.849600
2344.000000	3.855700
2343.000000	3.870600
2342.000000	3.887000
2341.000000	3.886600
2340.000000	3.899000
2339.000000	3.920500
2338.000000	3.945700
2337.000000	3.951600
2336.000000	3.928500
2335.000000	3.923300
2334.000000	3.944400
2333.000000	3.943700
2332.000000	3.930100
2331.000000	3.923000
2330.000000	3.916600
2329.000000	3.893900
2328.000000	3.884400
2327.000000	3.861600
2326.000000	3.836300
2325.000000	3.832800
2324.000000	3.804500
2323.000000	3.768200
2322.000000	3.749000
2321.000000	3.717200
2320.000000	3.669200
2319.000000	3.639900
2318.000000	3.590900
2317.000000	3.546200
2316.000000	3.518000
2315.000000	3.482500
2314.000000	3.446500
2313.000000	3.397400
2312.000000	3.357700
2311.000000	3.337200
2310.000000	3.330100
2309.000000	3.307500
2308.000000	3.285000
2307.000000	3.250600
2306.000000	3.247200
2305.000000	3.249100
2304.000000	3.240700
2303.000000	3.251300
2302.000000	3.265000
2301.000000	3.284300
2300.000000	3.305100
2299.000000	3.322600
2298.000000	3.335600
2297.000000	3.376500
2296.000000	3.396000
2295.000000	3.418700
2294.000000	3.438100
2293.000000	3.447900
2292.000000	3.469400
2291.000000	3.487200
2290.000000	3.491100
2289.000000	3.491800
2288.000000	3.491500
2287.000000	3.492100
2286.000000	3.463900
2285.000000	3.456900
2284.000000	3.433900
2283.000000	3.427800
2282.000000	3.393400
2281.000000	3.375800
2280.000000	3.348800
2279.000000	3.335400
2278.000000	3.296500
2277.000000	3.284800
2276.000000	3.254400
2275.000000	3.215500
2274.000000	3.208800
2273.000000	3.204800
2272.000000	3.187700
2271.000000	3.181600
2270.000000	3.160300
2269.000000	3.175400
2268.000000	3.181700
2267.000000	3.191100
2266.000000	3.203600
2265.000000	3.227800
2264.000000	3.261900
2263.000000	3.289400
2262.000000	3.342400
2261.000000	3.371500
2260.000000	3.408200
2259.000000	3.464400
2258.000000	3.514800
2257.000000	3.606300
2256.000000	3.645100
2255.000000	3.690100
2254.000000	3.770500
2253.000000	3.813600
2252.000000	3.864400
2251.000000	3.923600
2250.000000	3.957600
2249.000000	4.010700
2248.000000	4.077500
2247.000000	4.106500
2246.000000	4.154600
2245.000000	4.177500
2244.000000	4.222400
2243.000000	4.254500
2242.000000	4.289600
2241.000000	4.326000
2240.000000	4.340200
2239.000000	4.367800
2238.000000	4.372100
2237.000000	4.403700
2236.000000	4.418200
2235.000000	4.422200
2234.000000	4.446700
2233.000000	4.450700
2232.000000	4.446900
2231.000000	4.465100
2230.000000	4.437800
2229.000000	4.460600
2228.000000	4.430500
2227.000000	4.422100
2226.000000	4.402300
2225.000000	4.355800
2224.000000	4.370100
2223.000000	4.353600
2222.000000	4.325200
2221.000000	4.296400
2220.000000	4.276300
2219.000000	4.249000
2218.000000	4.224100
2217.000000	4.174700
2216.000000	4.146900
2215.000000	4.137900
2214.000000	4.128900
2213.000000	4.108200
2212.000000	4.095100
2211.000000	4.077600
2210.000000	4.093500
2209.000000	4.102500
2208.000000	4.108500
2207.000000	4.146900
2206.000000	4.191900
2205.000000	4.193400
2204.000000	4.224800
2203.000000	4.292600
2202.000000	4.348200
2201.000000	4.417400
2200.000000	4.455400
2199.000000	4.538600
2198.000000	4.599300
2197.000000	4.681800
2196.000000	4.739000
2195.000000	4.797900
2194.000000	4.855900
2193.000000	4.925100
2192.000000	4.983600
2191.000000	5.033700
2190.000000	5.100300
2189.000000	5.127600
2188.000000	5.181100
2187.000000	5.206400
2186.000000	5.233400
2185.000000	5.273300
2184.000000	5.293000
2183.000000	5.297100
2182.000000	5.331000
2181.000000	5.338100
2180.000000	5.363900
2179.000000	5.381600
2178.000000	5.384100
2177.000000	5.403000
2176.000000	5.405600
2175.000000	5.412500
2174.000000	5.425700
2173.000000	5.444700
2172.000000	5.450200
2171.000000	5.449600
2170.000000	5.449900
2169.000000	5.467200
2168.000000	5.476800
2167.000000	5.490300
2166.000000	5.522700
2165.000000	5.521900
2164.000000	5.538400
2163.000000	5.554100
2162.000000	5.568300
2161.000000	5.557600
2160.000000	5.583400
2159.000000	5.602500
2158.000000	5.618800
2157.000000	5.604500
2156.000000	5.619900
2155.000000	5.653100
2154.000000	5.666400
2153.000000	5.676100
2152.000000	5.693100
2151.000000	5.711300
2150.000000	5.732000
2149.000000	5.755700
2148.000000	5.773000
2147.000000	5.777500
2146.000000	5.794000
2145.000000	5.842300
2144.000000	5.859500
2143.000000	5.853700
2142.000000	5.870900
2141.000000	5.890900
2140.000000	5.909900
2139.000000	5.934200
2138.000000	5.960700
2137.000000	5.956900
2136.000000	5.964600
2135.000000	5.974300
2134.000000	5.988100
2133.000000	5.991300
2132.000000	6.004700
2131.000000	6.020900
2130.000000	6.008500
2129.000000	6.039300
2128.000000	6.042300
2127.000000	6.036300
2126.000000	6.041700
2125.000000	6.038900
2124.000000	6.032700
2123.000000	6.029800
2122.000000	6.047200
2121.000000	6.057800
2120.000000	6.044600
2119.000000	6.047500
2118.000000	6.043700
2117.000000	6.025800
2116.000000	6.020500
2115.000000	6.016200
2114.000000	6.019700
2113.000000	6.020200
2112.000000	6.010000
2111.000000	6.002800
2110.000000	5.983100
2109.000000	5.974200
2108.000000	5.976600
2107.000000	5.983100
2106.000000	5.958100
2105.000000	5.940600
2104.000000	5.956100
2103.000000	5.947300
2102.000000	5.934600
2101.000000	5.945900
2100.000000	5.947500
2099.000000	5.932700
2098.000000	5.928000
2097.000000	5.918200
2096.000000	5.901700
2095.000000	5.899800
2094.000000	5.918100
2093.000000	5.924100
2092.000000	5.917600
2091.000000	5.909400
2090.000000	5.897100
2089.000000	5.898100
2088.000000	5.894900
2087.000000	5.891400
2086.000000	5.903500
2085.000000	5.909700
2084.000000	5.892400
2083.000000	5.881400
2082.000000	5.879900
2081.000000	5.874900
2080.000000	5.867200
2079.000000	5.854300
2078.000000	5.857900
2077.000000	5.849200
2076.000000	5.829700
2075.000000	5.826200
2074.000000	5.822000
2073.000000	5.806500
2072.000000	5.802100
2071.000000	5.783600
2070.000000	5.784300
2069.000000	5.784800
2068.000000	5.765300
2067.000000	5.742100
2066.000000	5.728000
2065.000000	5.712400
2064.000000	5.710600
2063.000000	5.710700
2062.000000	5.697300
2061.000000	5.697000
2060.000000	5.694100
2059.000000	5.686400
2058.000000	5.673500
2057.000000	5.675300
2056.000000	5.683700
2055.000000	5.695400
2054.000000	5.727400
2053.000000	5.735500
2052.000000	5.736500
2051.000000	5.761800
2050.000000	5.803300
2049.000000	5.829600
2048.000000	5.865500
2047.000000	5.891900
2046.000000	5.923900
2045.000000	5.955400
2044.000000	6.009900
2043.000000	6.054400
2042.000000	6.116000
2041.000000	6.132900
2040.000000	6.165800
2039.000000	6.221200
2038.000000	6.247200
2037.000000	6.277800
2036.000000	6.307500
2035.000000	6.350400
2034.000000	6.383300
2033.000000	6.423500
2032.000000	6.449100
2031.000000	6.474200
2030.000000	6.481000
2029.000000	6.514900
2028.000000	6.546000
2027.000000	6.560000
2026.000000	6.573400
2025.000000	6.604800
2024.000000	6.619000
2023.000000	6.635700
2022.000000	6.661300
2021.000000	6.673700
2020.000000	6.676100
2019.000000	6.692600
2018.000000	6.696500
2017.000000	6.716900
2016.000000	6.713900
2015.000000	6.732900
2014.000000	6.721700
2013.000000	6.733300
2012.000000	6.719100
2011.000000	6.727200
2010.000000	6.729700
2009.000000	6.729400
2008.000000	6.715700
2007.000000	6.734300
2006.000000	6.717600
2005.000000	6.695400
2004.000000	6.691000
2003.000000	6.691400
2002.000000	6.677700
2001.000000	6.665500
2000.000000	6.648000
1999.000000	6.610100
1998.000000	6.613700
1997.000000	6.597700
1996.000000	6.553600
1995.000000	6.547000
1994.000000	6.531000
1993.000000	6.510100
1992.000000	6.478600
1991.000000	6.450700
1990.000000	6.430000
1989.000000	6.393600
1988.000000	6.369000
1987.000000	6.356700
1986.000000	6.320300
1985.000000	6.307200
1984.000000	6.264200
1983.000000	6.230400
1982.000000	6.191800
1981.000000	6.182900
1980.000000	6.160100
1979.000000	6.119200
1978.000000	6.093800
1977.000000	6.058500
1976.000000	6.026600
1975.000000	5.995500
1974.000000	5.958700
1973.000000	5.902400
1972.000000	5.919200
1971.000000	5.893200
1970.000000	5.859800
1969.000000	5.835500
1968.000000	5.790900
1967.000000	5.774400
1966.000000	5.752000
1965.000000	5.741000
1964.000000	5.679600
1963.000000	5.660400
1962.000000	5.640500
1961.000000	5.604400
1960.000000	5.578200
1959.000000	5.561300
1958.000000	5.514100
1957.000000	5.494800
1956.000000	5.489200
1955.000000	5.442700
1954.000000	5.434800
1953.000000	5.403600
1952.000000	5.368500
1951.000000	5.356900
1950.000000	5.329500
1949.000000	5.305600
1948.000000	5.283500
1947.000000	5.264000
1946.000000	5.239300
1945.000000	5.237000
1944.000000	5.204500
1943.000000	5.199300
1942.000000	5.191800
1941.000000	5.166000
1940.000000	5.182900
1939.000000	5.159400
1938.000000	5.167300
1937.000000	5.156400
1936.000000	5.154900
1935.000000	5.157600
1934.000000	5.168000
1933.000000	5.183400
1932.000000	5.206200
1931.000000	5.233100
1930.000000	5.250900
1929.000000	5.272800
1928.000000	5.280100
1927.000000	5.315900
1926.000000	5.330100
1925.000000	5.368800
1924.000000	5.409000
1923.000000	5.451300
1922.000000	5.498500
1921.000000	5.563300
1920.000000	5.612200
1919.000000	5.651900
1918.000000	5.700000
1917.000000	5.756100
1916.000000	5.831900
1915.000000	5.906100
1914.000000	5.955200
1913.000000	6.011500
1912.000000	6.101900
1911.000000	6.155300
1910.000000	6.230700
1909.000000	6.299400
1908.000000	6.375900
1907.000000	6.453400
1906.000000	6.577900
1905.000000	6.654700
1904.000000	6.729200
1903.000000	6.818400
1902.000000	6.903800
1901.000000	7.013400
1900.000000	7.102900
1899.000000	7.195500
1898.000000	7.283100
1897.000000	7.382700
1896.000000	7.485400
1895.000000	7.590400
1894.000000	7.702700
1893.000000	7.818400
1892.000000	7.920800
1891.000000	8.014500
1890.000000	8.117500
1889.000000	8.214500
1888.000000	8.353200
1887.000000	8.464700
1886.000000	8.599700
1885.000000	8.753900
1884.000000	8.907900
1883.000000	9.048700
1882.000000	9.208700
1881.000000	9.396800
1880.000000	9.568500
1879.000000	9.749100
1878.000000	9.909400
1877.000000	10.076100
1876.000000	10.230200
1875.000000	10.364800
1874.000000	10.490800
1873.000000	10.611400
1872.000000	10.731700
1871.000000	10.810200
1870.000000	10.866000
1869.000000	10.936600
1868.000000	10.998900
1867.000000	11.045500
1866.000000	11.121900
1865.000000	11.159300
1864.000000	11.208000
1863.000000	11.279000
1862.000000	11.321800
1861.000000	11.352200
1860.000000	11.386500
1859.000000	11.411000
1858.000000	11.403400
1857.000000	11.403100
1856.000000	11.412400
1855.000000	11.428300
1854.000000	11.424800
1853.000000	11.404400
1852.000000	11.391400
1851.000000	11.407100
1850.000000	11.433600
1849.000000	11.453400
1848.000000	11.411600
1847.000000	11.334500
1846.000000	11.281100
1845.000000	11.274000
1844.000000	11.296500
1843.000000	11.321400
1842.000000	11.327100
1841.000000	11.307500
1840.000000	11.268400
1839.000000	11.241900
1838.000000	11.242300
1837.000000	11.226600
1836.000000	11.183700
1835.000000	11.135100
1834.000000	11.112600
1833.000000	11.094000
1832.000000	11.079600
1831.000000	11.070400
1830.000000	11.037700
1829.000000	11.010300
1828.000000	10.967100
1827.000000	10.933700
1826.000000	10.907500
1825.000000	10.879300
1824.000000	10.863500
1823.000000	10.881100
1822.000000	10.889900
1821.000000	10.863900
1820.000000	10.826200
1819.000000	10.782900
1818.000000	10.787800
1817.000000	10.807700
1816.000000	10.809200
1815.000000	10.799500
1814.000000	10.789900
1813.000000	10.778400
1812.000000	10.786700
1811.000000	10.777800
1810.000000	10.752500
1809.000000	10.739400
1808.000000	10.730500
1807.000000	10.718600
1806.000000	10.698100
1805.000000	10.671800
1804.000000	10.657700
1803.000000	10.640300
1802.000000	10.624700
1801.000000	10.608600
1800.000000	10.579600
1799.000000	10.564600
1798.000000	10.542100
1797.000000	10.522800
1796.000000	10.502100
1795.000000	10.492800
1794.000000	10.493200
1793.000000	10.466800
1792.000000	10.458700
1791.000000	10.438400
1790.000000	10.415900
1789.000000	10.380500
1788.000000	10.380300
1787.000000	10.350100
1786.000000	10.336300
1785.000000	10.307100
1784.000000	10.299800
1783.000000	10.275400
1782.000000	10.242200
1781.000000	10.202000
1780.000000	10.192300
1779.000000	10.169100
1778.000000	10.145400
1777.000000	10.101700
1776.000000	10.053300
1775.000000	10.021000
1774.000000	9.979200
1773.000000	9.950400
1772.000000	9.907400
1771.000000	9.869400
1770.000000	9.816400
1769.000000	9.786700
1768.000000	9.767800
1767.000000	9.733200
1766.000000	9.695900
1765.000000	9.669900
1764.000000	9.656000
1763.000000	9.660400
1762.000000	9.662000
1761.000000	9.674500
1760.000000	9.698100
1759.000000	9.733800
1758.000000	9.758300
1757.000000	9.772400
1756.000000	9.804200
1755.000000	9.815200
1754.000000	9.833300
1753.000000	9.825600
1752.000000	9.830800
1751.000000	9.829500
1750.000000	9.829900
1749.000000	9.821000
1748.000000	9.797600
1747.000000	9.760100
1746.000000	9.743100
1745.000000	9.698300
1744.000000	9.676400
1743.000000	9.622900
1742.000000	9.546100
1741.000000	9.466800
1740.000000	9.403900
1739.000000	9.331600
1738.000000	9.259600
1737.000000	9.203200
1736.000000	9.155400
1735.000000	9.112100
1734.000000	9.110400
1733.000000	9.107900
1732.000000	9.131200
1731.000000	9.133200
1730.000000	9.157400
1729.000000	9.194700
1728.000000	9.234600
1727.000000	9.263600
1726.000000	9.307400
1725.000000	9.321800
1724.000000	9.325900
1723.000000	9.368600
1722.000000	9.375100
1721.000000	9.395700
1720.000000	9.371900
1719.000000	9.406200
1718.000000	9.404600
1717.000000	9.425000
1716.000000	9.442000
1715.000000	9.498900
1714.000000	9.499400
1713.000000	9.531000
1712.000000	9.568000
1711.000000	9.569000
1710.000000	9.577200
1709.000000	9.578300
1708.000000	9.588500
1707.000000	9.570800
1706.000000	9.572600
1705.000000	9.561300
1704.000000	9.549600
1703.000000	9.505100
1702.000000	9.470500
1701.000000	9.413900
1700.000000	9.367800
1699.000000	9.350200
1698.000000	9.278100
1697.000000	9.237400
1696.000000	9.201500
1695.000000	9.218800
1694.000000	9.230400
1693.000000	9.252500
1692.000000	9.271000
1691.000000	9.339500
1690.000000	9.367900
1689.000000	9.431400
1688.000000	9.465800
1687.000000	9.475600
1686.000000	9.469200
1685.000000	9.487100
1684.000000	9.524600
1683.000000	9.575200
1682.000000	9.670400
1681.000000	9.806700
1680.000000	9.983100
1679.000000	10.159900
1678.000000	10.349500
1677.000000	10.523500
1676.000000	10.674700
1675.000000	10.805000
1674.000000	10.925800
1673.000000	11.032800
1672.000000	11.136400
1671.000000	11.197500
1670.000000	11.272100
1669.000000	11.316100
1668.000000	11.417400
1667.000000	11.472700
1666.000000	11.524900
1665.000000	11.561100
1664.000000	11.584900
1663.000000	11.622100
1662.000000	11.635300
1661.000000	11.650100
1660.000000	11.666800
1659.000000	11.678200
1658.000000	11.687500
1657.000000	11.701000
1656.000000	11.694600
1655.000000	11.700700
1654.000000	11.715200
1653.000000	11.700900
1652.000000	11.711300
1651.000000	11.682100
1650.000000	11.692300
1649.000000	11.693900
1648.000000	11.662500
1647.000000	11.661300
1646.000000	11.651800
1645.000000	11.629300
1644.000000	11.616100
1643.000000	11.608100
1642.000000	11.580800
1641.000000	11.568400
1640.000000	11.541700
1639.000000	11.519500
1638.000000	11.508400
1637.000000	11.494200
1636.000000	11.473000
1635.000000	11.448400
1634.000000	11.449400
1633.000000	11.414300
1632.000000	11.389900
1631.000000	11.369200
1630.000000	11.339900
1629.000000	11.311000
1628.000000	11.307100
1627.000000	11.260100
1626.000000	11.243000
1625.000000	11.222400
1624.000000	11.201400
1623.000000	11.168500
1622.000000	11.137500
1621.000000	11.119700
1620.000000	11.082900
1619.000000	11.073700
1618.000000	11.063000
1617.000000	11.046600
1616.000000	11.009400
1615.000000	10.984900
1614.000000	10.978600
1613.000000	10.956100
1612.000000	10.940700
1611.000000	10.912600
1610.000000	10.892000
1609.000000	10.858200
1608.000000	10.831900
1607.000000	10.800000
1606.000000	10.785000
1605.000000	10.780500
1604.000000	10.751500
1603.000000	10.704100
1602.000000	10.693800
1601.000000	10.684300
1600.000000	10.665000
1599.000000	10.641600
1598.000000	10.609000
1597.000000	10.592800
1596.000000	10.572500
1595.000000	10.551400
1594.000000	10.527300
1593.000000	10.502100
1592.000000	10.484500
