PE UV       SUBTECH     SPECTRUM    ASCII       PEDS        4.00        
   -1
CICIMAUCR0104-2.Sample.ASC
24/04/04
10:52:55.00
24/04/04
10:52:55.00
Vinicio Soto Monge
C. resplendens
250,000000
1
Lambda 1050
1050L1511233
PerkinElmer UV WinLab 6.3.2.0749 / 2.02.05 Lambda 900 UV/VIS/NIR, Aug  7 2015 09:38:08

0
0
3350/servo 860,8/2
0
0
UV/VIS
1
1
1
DoubleDePol,CommonBeamDepol,RBeamAtt,SBeamAtt,60mm sphere, WB InGaAs Detector
0
0
0
0
Program
Program
3350/servo 860,8/2
3350/0,2 860,8/0,2
3350/0,2 860,8/0,2
0
15.00
 
 
 
0
 
860,8
319,2
860,8
Front
100
on
S:100 R:100
0
0
0
0
 
0
 
 
 
0
 
 
0
0
0
0
0
 
 
 
 
0
0


0
0
#HDR
-1
-1
#GR
nm
%R
1.0
0.0
2500,000000
-1,000000
2251
8
74,605500
5,229500
#DATA
2500.000000	6.116600
2499.000000	6.284000
2498.000000	6.176800
2497.000000	6.216000
2496.000000	6.222200
2495.000000	6.101900
2494.000000	6.119800
2493.000000	6.182600
2492.000000	6.198200
2491.000000	6.058300
2490.000000	6.092300
2489.000000	6.178200
2488.000000	6.223600
2487.000000	6.162500
2486.000000	6.144500
2485.000000	6.143300
2484.000000	6.073600
2483.000000	6.131900
2482.000000	6.182100
2481.000000	6.136600
2480.000000	6.165800
2479.000000	6.126400
2478.000000	6.179000
2477.000000	6.193900
2476.000000	6.199700
2475.000000	6.177700
2474.000000	6.177000
2473.000000	6.239200
2472.000000	6.251800
2471.000000	6.197000
2470.000000	6.238800
2469.000000	6.281400
2468.000000	6.284800
2467.000000	6.302700
2466.000000	6.344100
2465.000000	6.359000
2464.000000	6.376800
2463.000000	6.423000
2462.000000	6.473700
2461.000000	6.480500
2460.000000	6.546200
2459.000000	6.564500
2458.000000	6.588000
2457.000000	6.653200
2456.000000	6.698900
2455.000000	6.760100
2454.000000	6.833200
2453.000000	6.899000
2452.000000	6.974500
2451.000000	7.032100
2450.000000	7.084500
2449.000000	7.137600
2448.000000	7.212900
2447.000000	7.279700
2446.000000	7.360600
2445.000000	7.419200
2444.000000	7.475400
2443.000000	7.552200
2442.000000	7.629000
2441.000000	7.689400
2440.000000	7.756400
2439.000000	7.815400
2438.000000	7.884600
2437.000000	7.958800
2436.000000	8.020500
2435.000000	8.070100
2434.000000	8.139800
2433.000000	8.209000
2432.000000	8.275000
2431.000000	8.310200
2430.000000	8.379800
2429.000000	8.431000
2428.000000	8.478400
2427.000000	8.516800
2426.000000	8.553300
2425.000000	8.625100
2424.000000	8.654900
2423.000000	8.702200
2422.000000	8.765200
2421.000000	8.813000
2420.000000	8.854200
2419.000000	8.892000
2418.000000	8.931000
2417.000000	8.949500
2416.000000	8.981000
2415.000000	9.028100
2414.000000	9.072800
2413.000000	9.113100
2412.000000	9.137800
2411.000000	9.186200
2410.000000	9.196100
2409.000000	9.222100
2408.000000	9.272500
2407.000000	9.315700
2406.000000	9.326700
2405.000000	9.352500
2404.000000	9.397600
2403.000000	9.431200
2402.000000	9.453100
2401.000000	9.495900
2400.000000	9.519600
2399.000000	9.547600
2398.000000	9.594500
2397.000000	9.619500
2396.000000	9.639600
2395.000000	9.686700
2394.000000	9.702300
2393.000000	9.720400
2392.000000	9.745500
2391.000000	9.773800
2390.000000	9.790500
2389.000000	9.805800
2388.000000	9.828400
2387.000000	9.837200
2386.000000	9.839200
2385.000000	9.846800
2384.000000	9.858700
2383.000000	9.850100
2382.000000	9.837800
2381.000000	9.823300
2380.000000	9.815600
2379.000000	9.823100
2378.000000	9.811200
2377.000000	9.788500
2376.000000	9.777900
2375.000000	9.759100
2374.000000	9.731600
2373.000000	9.704400
2372.000000	9.689800
2371.000000	9.663900
2370.000000	9.628300
2369.000000	9.595400
2368.000000	9.562800
2367.000000	9.516700
2366.000000	9.462200
2365.000000	9.424100
2364.000000	9.380400
2363.000000	9.319400
2362.000000	9.263300
2361.000000	9.207800
2360.000000	9.161700
2359.000000	9.112600
2358.000000	9.062100
2357.000000	9.009800
2356.000000	8.964100
2355.000000	8.930700
2354.000000	8.913000
2353.000000	8.896700
2352.000000	8.883400
2351.000000	8.878200
2350.000000	8.871700
2349.000000	8.884800
2348.000000	8.912400
2347.000000	8.939800
2346.000000	8.962900
2345.000000	8.986000
2344.000000	9.001700
2343.000000	9.039500
2342.000000	9.074500
2341.000000	9.087700
2340.000000	9.099200
2339.000000	9.102200
2338.000000	9.089900
2337.000000	9.083600
2336.000000	9.080200
2335.000000	9.066300
2334.000000	9.027000
2333.000000	9.003100
2332.000000	8.983300
2331.000000	8.946600
2330.000000	8.893100
2329.000000	8.840000
2328.000000	8.802600
2327.000000	8.748900
2326.000000	8.677500
2325.000000	8.621700
2324.000000	8.551800
2323.000000	8.470800
2322.000000	8.391800
2321.000000	8.309800
2320.000000	8.224200
2319.000000	8.135000
2318.000000	8.046900
2317.000000	7.959700
2316.000000	7.855900
2315.000000	7.767900
2314.000000	7.685200
2313.000000	7.595600
2312.000000	7.506800
2311.000000	7.430200
2310.000000	7.370000
2309.000000	7.308400
2308.000000	7.264500
2307.000000	7.240500
2306.000000	7.224900
2305.000000	7.221900
2304.000000	7.231700
2303.000000	7.246600
2302.000000	7.276000
2301.000000	7.300300
2300.000000	7.352300
2299.000000	7.408200
2298.000000	7.448800
2297.000000	7.491900
2296.000000	7.538700
2295.000000	7.577100
2294.000000	7.604600
2293.000000	7.642500
2292.000000	7.654600
2291.000000	7.643700
2290.000000	7.641300
2289.000000	7.643300
2288.000000	7.603800
2287.000000	7.584700
2286.000000	7.554600
2285.000000	7.502900
2284.000000	7.448800
2283.000000	7.400400
2282.000000	7.335600
2281.000000	7.291700
2280.000000	7.257200
2279.000000	7.193400
2278.000000	7.147300
2277.000000	7.103300
2276.000000	7.056300
2275.000000	6.986200
2274.000000	6.957500
2273.000000	6.945000
2272.000000	6.914000
2271.000000	6.906800
2270.000000	6.883500
2269.000000	6.900000
2268.000000	6.907900
2267.000000	6.939700
2266.000000	6.976600
2265.000000	7.058500
2264.000000	7.114300
2263.000000	7.186900
2262.000000	7.293700
2261.000000	7.416800
2260.000000	7.514300
2259.000000	7.665100
2258.000000	7.803800
2257.000000	7.930200
2256.000000	8.116000
2255.000000	8.222100
2254.000000	8.373000
2253.000000	8.513800
2252.000000	8.682200
2251.000000	8.771500
2250.000000	8.921100
2249.000000	9.041200
2248.000000	9.156000
2247.000000	9.298400
2246.000000	9.384000
2245.000000	9.477900
2244.000000	9.563100
2243.000000	9.633700
2242.000000	9.703900
2241.000000	9.796500
2240.000000	9.828900
2239.000000	9.902900
2238.000000	9.963400
2237.000000	10.014500
2236.000000	10.046900
2235.000000	10.080500
2234.000000	10.087400
2233.000000	10.105000
2232.000000	10.116100
2231.000000	10.137700
2230.000000	10.144600
2229.000000	10.113600
2228.000000	10.089600
2227.000000	10.044700
2226.000000	10.005900
2225.000000	9.974000
2224.000000	9.896700
2223.000000	9.845000
2222.000000	9.779700
2221.000000	9.727400
2220.000000	9.671900
2219.000000	9.598600
2218.000000	9.524600
2217.000000	9.444500
2216.000000	9.407200
2215.000000	9.347200
2214.000000	9.311400
2213.000000	9.265900
2212.000000	9.233600
2211.000000	9.242100
2210.000000	9.256800
2209.000000	9.259300
2208.000000	9.316600
2207.000000	9.356300
2206.000000	9.463300
2205.000000	9.536300
2204.000000	9.628600
2203.000000	9.756900
2202.000000	9.877100
2201.000000	10.016500
2200.000000	10.160800
2199.000000	10.312400
2198.000000	10.469400
2197.000000	10.618900
2196.000000	10.777700
2195.000000	10.913200
2194.000000	11.055100
2193.000000	11.184400
2192.000000	11.315600
2191.000000	11.432900
2190.000000	11.535000
2189.000000	11.635800
2188.000000	11.718300
2187.000000	11.796300
2186.000000	11.866000
2185.000000	11.918400
2184.000000	11.987700
2183.000000	12.030200
2182.000000	12.058000
2181.000000	12.107900
2180.000000	12.142600
2179.000000	12.182200
2178.000000	12.195200
2177.000000	12.226700
2176.000000	12.267200
2175.000000	12.290300
2174.000000	12.316000
2173.000000	12.343100
2172.000000	12.375300
2171.000000	12.395900
2170.000000	12.456700
2169.000000	12.474800
2168.000000	12.508100
2167.000000	12.554000
2166.000000	12.566000
2165.000000	12.613900
2164.000000	12.640200
2163.000000	12.676600
2162.000000	12.718200
2161.000000	12.758400
2160.000000	12.809000
2159.000000	12.857300
2158.000000	12.901700
2157.000000	12.940900
2156.000000	12.993900
2155.000000	13.050800
2154.000000	13.113200
2153.000000	13.181800
2152.000000	13.224800
2151.000000	13.287800
2150.000000	13.343200
2149.000000	13.399300
2148.000000	13.459400
2147.000000	13.519700
2146.000000	13.572300
2145.000000	13.624000
2144.000000	13.681600
2143.000000	13.735700
2142.000000	13.794800
2141.000000	13.840000
2140.000000	13.885500
2139.000000	13.930600
2138.000000	13.977100
2137.000000	14.004400
2136.000000	14.021100
2135.000000	14.066700
2134.000000	14.104500
2133.000000	14.131900
2132.000000	14.164700
2131.000000	14.182400
2130.000000	14.201500
2129.000000	14.214200
2128.000000	14.239800
2127.000000	14.262200
2126.000000	14.268100
2125.000000	14.259100
2124.000000	14.254700
2123.000000	14.258700
2122.000000	14.258000
2121.000000	14.232400
2120.000000	14.236700
2119.000000	14.241200
2118.000000	14.216000
2117.000000	14.199600
2116.000000	14.196400
2115.000000	14.181100
2114.000000	14.151500
2113.000000	14.140400
2112.000000	14.125300
2111.000000	14.091900
2110.000000	14.059300
2109.000000	14.038200
2108.000000	14.020600
2107.000000	13.999700
2106.000000	13.968300
2105.000000	13.955300
2104.000000	13.948200
2103.000000	13.909500
2102.000000	13.874300
2101.000000	13.845500
2100.000000	13.823100
2099.000000	13.821900
2098.000000	13.800100
2097.000000	13.772400
2096.000000	13.755300
2095.000000	13.740500
2094.000000	13.728200
2093.000000	13.720900
2092.000000	13.717200
2091.000000	13.702200
2090.000000	13.677200
2089.000000	13.658300
2088.000000	13.653300
2087.000000	13.641800
2086.000000	13.627200
2085.000000	13.610800
2084.000000	13.597800
2083.000000	13.568900
2082.000000	13.550900
2081.000000	13.553500
2080.000000	13.532100
2079.000000	13.499900
2078.000000	13.477100
2077.000000	13.446200
2076.000000	13.417800
2075.000000	13.385900
2074.000000	13.350000
2073.000000	13.316300
2072.000000	13.283500
2071.000000	13.258000
2070.000000	13.227900
2069.000000	13.176400
2068.000000	13.141400
2067.000000	13.118000
2066.000000	13.074900
2065.000000	13.052600
2064.000000	13.026400
2063.000000	13.005500
2062.000000	12.984300
2061.000000	12.962800
2060.000000	12.957500
2059.000000	12.957200
2058.000000	12.946100
2057.000000	12.972600
2056.000000	13.001400
2055.000000	13.020000
2054.000000	13.060900
2053.000000	13.133100
2052.000000	13.205500
2051.000000	13.275700
2050.000000	13.366300
2049.000000	13.452100
2048.000000	13.567100
2047.000000	13.697200
2046.000000	13.815400
2045.000000	13.965600
2044.000000	14.104400
2043.000000	14.237400
2042.000000	14.378900
2041.000000	14.519100
2040.000000	14.654200
2039.000000	14.804000
2038.000000	14.917300
2037.000000	15.050800
2036.000000	15.191200
2035.000000	15.303500
2034.000000	15.410000
2033.000000	15.526700
2032.000000	15.638700
2031.000000	15.743800
2030.000000	15.846500
2029.000000	15.946000
2028.000000	16.040800
2027.000000	16.123300
2026.000000	16.201100
2025.000000	16.249600
2024.000000	16.337800
2023.000000	16.413700
2022.000000	16.499600
2021.000000	16.563000
2020.000000	16.633900
2019.000000	16.695900
2018.000000	16.772500
2017.000000	16.835200
2016.000000	16.862400
2015.000000	16.915000
2014.000000	16.965000
2013.000000	16.999000
2012.000000	17.047900
2011.000000	17.081700
2010.000000	17.098900
2009.000000	17.134700
2008.000000	17.139600
2007.000000	17.144300
2006.000000	17.144500
2005.000000	17.156300
2004.000000	17.166100
2003.000000	17.162200
2002.000000	17.155400
2001.000000	17.131100
2000.000000	17.101500
1999.000000	17.085700
1998.000000	17.055200
1997.000000	17.038100
1996.000000	16.997200
1995.000000	16.995300
1994.000000	16.939900
1993.000000	16.878100
1992.000000	16.847000
1991.000000	16.821500
1990.000000	16.741900
1989.000000	16.689700
1988.000000	16.634400
1987.000000	16.582200
1986.000000	16.497300
1985.000000	16.460600
1984.000000	16.385800
1983.000000	16.332500
1982.000000	16.282600
1981.000000	16.192500
1980.000000	16.141200
1979.000000	16.069700
1978.000000	16.003300
1977.000000	15.940600
1976.000000	15.864000
1975.000000	15.820000
1974.000000	15.748600
1973.000000	15.676000
1972.000000	15.603000
1971.000000	15.543300
1970.000000	15.495900
1969.000000	15.436700
1968.000000	15.373700
1967.000000	15.303900
1966.000000	15.270900
1965.000000	15.206900
1964.000000	15.134700
1963.000000	15.083800
1962.000000	15.027200
1961.000000	14.966300
1960.000000	14.896200
1959.000000	14.838000
1958.000000	14.769200
1957.000000	14.732300
1956.000000	14.649600
1955.000000	14.619800
1954.000000	14.531500
1953.000000	14.480300
1952.000000	14.416300
1951.000000	14.374300
1950.000000	14.326500
1949.000000	14.260600
1948.000000	14.238300
1947.000000	14.186600
1946.000000	14.146300
1945.000000	14.116700
1944.000000	14.076700
1943.000000	14.050800
1942.000000	14.042200
1941.000000	14.029900
1940.000000	14.036800
1939.000000	14.019400
1938.000000	14.017600
1937.000000	14.032400
1936.000000	14.035200
1935.000000	14.057500
1934.000000	14.093300
1933.000000	14.148900
1932.000000	14.196800
1931.000000	14.254500
1930.000000	14.326700
1929.000000	14.394700
1928.000000	14.480400
1927.000000	14.562100
1926.000000	14.656000
1925.000000	14.772200
1924.000000	14.893000
1923.000000	14.997400
1922.000000	15.134600
1921.000000	15.298300
1920.000000	15.425700
1919.000000	15.570900
1918.000000	15.752800
1917.000000	15.920900
1916.000000	16.094900
1915.000000	16.273400
1914.000000	16.480900
1913.000000	16.694000
1912.000000	16.914800
1911.000000	17.124200
1910.000000	17.330100
1909.000000	17.534300
1908.000000	17.768600
1907.000000	18.009000
1906.000000	18.300400
1905.000000	18.562500
1904.000000	18.827200
1903.000000	19.096600
1902.000000	19.352200
1901.000000	19.630500
1900.000000	19.926600
1899.000000	20.219100
1898.000000	20.487200
1897.000000	20.790200
1896.000000	21.061500
1895.000000	21.327600
1894.000000	21.621300
1893.000000	21.939300
1892.000000	22.254000
1891.000000	22.567500
1890.000000	22.856900
1889.000000	23.146400
1888.000000	23.484500
1887.000000	23.828100
1886.000000	24.184700
1885.000000	24.590900
1884.000000	25.051000
1883.000000	25.498000
1882.000000	25.950600
1881.000000	26.424200
1880.000000	26.868400
1879.000000	27.315000
1878.000000	27.747100
1877.000000	28.135300
1876.000000	28.527500
1875.000000	28.893100
1874.000000	29.209500
1873.000000	29.487700
1872.000000	29.748700
1871.000000	29.968400
1870.000000	30.124200
1869.000000	30.280300
1868.000000	30.432200
1867.000000	30.523000
1866.000000	30.593700
1865.000000	30.681400
1864.000000	30.751900
1863.000000	30.843100
1862.000000	30.921600
1861.000000	30.975500
1860.000000	31.019900
1859.000000	31.024900
1858.000000	31.010800
1857.000000	31.010800
1856.000000	31.014000
1855.000000	30.997000
1854.000000	30.930900
1853.000000	30.856400
1852.000000	30.817200
1851.000000	30.810700
1850.000000	30.804700
1849.000000	30.767200
1848.000000	30.676500
1847.000000	30.559500
1846.000000	30.457700
1845.000000	30.403800
1844.000000	30.396800
1843.000000	30.410200
1842.000000	30.390500
1841.000000	30.321200
1840.000000	30.250800
1839.000000	30.201900
1838.000000	30.155000
1837.000000	30.081900
1836.000000	29.981200
1835.000000	29.873600
1834.000000	29.797300
1833.000000	29.732200
1832.000000	29.665000
1831.000000	29.587700
1830.000000	29.503100
1829.000000	29.415800
1828.000000	29.314300
1827.000000	29.236400
1826.000000	29.149000
1825.000000	29.081600
1824.000000	29.070000
1823.000000	29.099800
1822.000000	29.104600
1821.000000	29.055900
1820.000000	28.989100
1819.000000	28.933600
1818.000000	28.925400
1817.000000	28.939000
1816.000000	28.937200
1815.000000	28.913900
1814.000000	28.912700
1813.000000	28.908900
1812.000000	28.873800
1811.000000	28.830700
1810.000000	28.792300
1809.000000	28.754300
1808.000000	28.712400
1807.000000	28.668700
1806.000000	28.627300
1805.000000	28.571200
1804.000000	28.518800
1803.000000	28.480800
1802.000000	28.448800
1801.000000	28.389300
1800.000000	28.320000
1799.000000	28.258300
1798.000000	28.207000
1797.000000	28.163300
1796.000000	28.124900
1795.000000	28.065000
1794.000000	28.014300
1793.000000	27.951100
1792.000000	27.899000
1791.000000	27.841900
1790.000000	27.773100
1789.000000	27.712000
1788.000000	27.644100
1787.000000	27.593200
1786.000000	27.525900
1785.000000	27.436000
1784.000000	27.349100
1783.000000	27.268100
1782.000000	27.183100
1781.000000	27.087500
1780.000000	27.001200
1779.000000	26.900100
1778.000000	26.783300
1777.000000	26.657900
1776.000000	26.543500
1775.000000	26.405600
1774.000000	26.249000
1773.000000	26.108300
1772.000000	25.961100
1771.000000	25.822200
1770.000000	25.660700
1769.000000	25.532100
1768.000000	25.405000
1767.000000	25.274600
1766.000000	25.188200
1765.000000	25.108800
1764.000000	25.070300
1763.000000	25.046200
1762.000000	25.059700
1761.000000	25.097100
1760.000000	25.144600
1759.000000	25.213600
1758.000000	25.255900
1757.000000	25.317000
1756.000000	25.351700
1755.000000	25.375300
1754.000000	25.373400
1753.000000	25.353600
1752.000000	25.320200
1751.000000	25.265200
1750.000000	25.202300
1749.000000	25.109500
1748.000000	25.023700
1747.000000	24.883200
1746.000000	24.752500
1745.000000	24.595800
1744.000000	24.405700
1743.000000	24.193100
1742.000000	23.951400
1741.000000	23.707900
1740.000000	23.447000
1739.000000	23.220800
1738.000000	22.986900
1737.000000	22.801500
1736.000000	22.683600
1735.000000	22.581500
1734.000000	22.548400
1733.000000	22.553100
1732.000000	22.614200
1731.000000	22.677000
1730.000000	22.789800
1729.000000	22.879100
1728.000000	22.997700
1727.000000	23.087200
1726.000000	23.170200
1725.000000	23.234700
1724.000000	23.274000
1723.000000	23.301300
1722.000000	23.323700
1721.000000	23.348300
1720.000000	23.394500
1719.000000	23.436900
1718.000000	23.496600
1717.000000	23.588900
1716.000000	23.676300
1715.000000	23.753600
1714.000000	23.836100
1713.000000	23.917300
1712.000000	23.972100
1711.000000	24.021600
1710.000000	24.043600
1709.000000	24.042800
1708.000000	24.033800
1707.000000	24.012700
1706.000000	23.964100
1705.000000	23.936500
1704.000000	23.868500
1703.000000	23.794400
1702.000000	23.656200
1701.000000	23.508500
1700.000000	23.338900
1699.000000	23.195000
1698.000000	23.041300
1697.000000	22.942400
1696.000000	22.887200
1695.000000	22.894000
1694.000000	22.957200
1693.000000	23.115500
1692.000000	23.248700
1691.000000	23.409600
1690.000000	23.541100
1689.000000	23.647400
1688.000000	23.694800
1687.000000	23.720000
1686.000000	23.725300
1685.000000	23.801900
1684.000000	23.966000
1683.000000	24.226100
1682.000000	24.618900
1681.000000	25.134000
1680.000000	25.728300
1679.000000	26.297300
1678.000000	26.875000
1677.000000	27.410600
1676.000000	27.893400
1675.000000	28.288300
1674.000000	28.648400
1673.000000	28.960300
1672.000000	29.247700
1671.000000	29.474300
1670.000000	29.682300
1669.000000	29.877800
1668.000000	30.061700
1667.000000	30.221000
1666.000000	30.362500
1665.000000	30.458300
1664.000000	30.565000
1663.000000	30.655600
1662.000000	30.745000
1661.000000	30.812500
1660.000000	30.874700
1659.000000	30.914200
1658.000000	30.960200
1657.000000	30.981800
1656.000000	30.998800
1655.000000	31.012300
1654.000000	31.012400
1653.000000	31.006400
1652.000000	30.983200
1651.000000	30.960600
1650.000000	30.948600
1649.000000	30.890100
1648.000000	30.855800
1647.000000	30.812200
1646.000000	30.753000
1645.000000	30.696400
1644.000000	30.649000
1643.000000	30.592300
1642.000000	30.522800
1641.000000	30.462000
1640.000000	30.404800
1639.000000	30.335400
1638.000000	30.274100
1637.000000	30.193200
1636.000000	30.125800
1635.000000	30.054300
1634.000000	29.969600
1633.000000	29.884900
1632.000000	29.807100
1631.000000	29.724900
1630.000000	29.637700
1629.000000	29.534100
1628.000000	29.454000
1627.000000	29.367000
1626.000000	29.269800
1625.000000	29.174300
1624.000000	29.098500
1623.000000	29.015800
1622.000000	28.922000
1621.000000	28.845500
1620.000000	28.763600
1619.000000	28.675800
1618.000000	28.593700
1617.000000	28.511000
1616.000000	28.437200
1615.000000	28.359800
1614.000000	28.279100
1613.000000	28.197000
1612.000000	28.121800
1611.000000	28.047700
