PE UV       SUBTECH     SPECTRUM    ASCII       PEDS        4.00        
   -1
CICIMAUCR0104-1.Sample.ASC
24/04/04
12:08:58.00
24/04/04
12:08:58.00
Vinicio Soto Monge
C. resplendens
250,000000
1
Lambda 1050
1050L1511233
PerkinElmer UV WinLab 6.3.2.0749 / 2.02.05 Lambda 900 UV/VIS/NIR, Aug  7 2015 09:38:08

0
0
3350/servo 860,8/2
0
0
UV/VIS
1
1
1
DoubleDePol,CommonBeamDepol,RBeamAtt,SBeamAtt,60mm sphere, WB InGaAs Detector
0
0
0
0
Program
Program
3350/servo 860,8/2
3350/0,2 860,8/0,2
3350/0,2 860,8/0,2
0
15.00
 
 
 
0
 
860,8
319,2
860,8
Front
100
on
S:100 R:100
0
0
0
0
 
0
 
 
 
0
 
 
0
0
0
0
0
 
 
 
 
0
0


0
0
#HDR
-1
-1
#GR
nm
%R
1.0
0.0
2500,000000
-1,000000
2251
8
75,606600
5,487200
#DATA
2500.000000	6.812100
2499.000000	6.775600
2498.000000	6.640100
2497.000000	6.830300
2496.000000	6.677100
2495.000000	6.638400
2494.000000	6.627200
2493.000000	6.676900
2492.000000	6.651900
2491.000000	6.622000
2490.000000	6.684400
2489.000000	6.613300
2488.000000	6.696900
2487.000000	6.579800
2486.000000	6.646300
2485.000000	6.697300
2484.000000	6.662100
2483.000000	6.598200
2482.000000	6.637800
2481.000000	6.680800
2480.000000	6.646400
2479.000000	6.730100
2478.000000	6.686200
2477.000000	6.705100
2476.000000	6.661000
2475.000000	6.732100
2474.000000	6.692000
2473.000000	6.712900
2472.000000	6.727200
2471.000000	6.755200
2470.000000	6.772900
2469.000000	6.741500
2468.000000	6.814100
2467.000000	6.810100
2466.000000	6.840800
2465.000000	6.844200
2464.000000	6.925800
2463.000000	6.911600
2462.000000	6.952300
2461.000000	6.991500
2460.000000	7.015500
2459.000000	7.072100
2458.000000	7.115600
2457.000000	7.140500
2456.000000	7.216200
2455.000000	7.268000
2454.000000	7.325900
2453.000000	7.383300
2452.000000	7.447600
2451.000000	7.504300
2450.000000	7.575400
2449.000000	7.652700
2448.000000	7.713800
2447.000000	7.793200
2446.000000	7.854100
2445.000000	7.934000
2444.000000	7.983200
2443.000000	8.063800
2442.000000	8.132800
2441.000000	8.164000
2440.000000	8.224700
2439.000000	8.306000
2438.000000	8.381200
2437.000000	8.450700
2436.000000	8.514100
2435.000000	8.561000
2434.000000	8.617000
2433.000000	8.671100
2432.000000	8.741100
2431.000000	8.784900
2430.000000	8.816500
2429.000000	8.860300
2428.000000	8.932700
2427.000000	8.972500
2426.000000	9.019300
2425.000000	9.050400
2424.000000	9.097600
2423.000000	9.147300
2422.000000	9.184300
2421.000000	9.226600
2420.000000	9.271100
2419.000000	9.308500
2418.000000	9.365100
2417.000000	9.421300
2416.000000	9.440800
2415.000000	9.459800
2414.000000	9.505400
2413.000000	9.552600
2412.000000	9.578700
2411.000000	9.616200
2410.000000	9.648300
2409.000000	9.669500
2408.000000	9.703000
2407.000000	9.749800
2406.000000	9.799900
2405.000000	9.816900
2404.000000	9.838800
2403.000000	9.878200
2402.000000	9.906000
2401.000000	9.922000
2400.000000	9.967500
2399.000000	10.003500
2398.000000	10.023800
2397.000000	10.068900
2396.000000	10.089600
2395.000000	10.121300
2394.000000	10.166900
2393.000000	10.190200
2392.000000	10.219100
2391.000000	10.232400
2390.000000	10.248700
2389.000000	10.267500
2388.000000	10.280600
2387.000000	10.283100
2386.000000	10.295300
2385.000000	10.316600
2384.000000	10.331200
2383.000000	10.320300
2382.000000	10.315700
2381.000000	10.306400
2380.000000	10.292000
2379.000000	10.284600
2378.000000	10.270100
2377.000000	10.247700
2376.000000	10.241000
2375.000000	10.231400
2374.000000	10.204300
2373.000000	10.180400
2372.000000	10.157300
2371.000000	10.137900
2370.000000	10.097600
2369.000000	10.050000
2368.000000	10.019400
2367.000000	9.982300
2366.000000	9.933400
2365.000000	9.880600
2364.000000	9.827300
2363.000000	9.778100
2362.000000	9.726900
2361.000000	9.667500
2360.000000	9.602300
2359.000000	9.546000
2358.000000	9.508100
2357.000000	9.473800
2356.000000	9.424100
2355.000000	9.390400
2354.000000	9.371400
2353.000000	9.347600
2352.000000	9.342500
2351.000000	9.351900
2350.000000	9.367200
2349.000000	9.383900
2348.000000	9.408000
2347.000000	9.437900
2346.000000	9.464500
2345.000000	9.485200
2344.000000	9.515100
2343.000000	9.543400
2342.000000	9.557000
2341.000000	9.575600
2340.000000	9.601600
2339.000000	9.605700
2338.000000	9.602000
2337.000000	9.589300
2336.000000	9.579300
2335.000000	9.566700
2334.000000	9.547300
2333.000000	9.507000
2332.000000	9.468000
2331.000000	9.421300
2330.000000	9.378000
2329.000000	9.330200
2328.000000	9.272900
2327.000000	9.192100
2326.000000	9.131200
2325.000000	9.053200
2324.000000	8.992500
2323.000000	8.923400
2322.000000	8.834600
2321.000000	8.743400
2320.000000	8.666400
2319.000000	8.566200
2318.000000	8.468700
2317.000000	8.377100
2316.000000	8.288300
2315.000000	8.190800
2314.000000	8.095000
2313.000000	8.031700
2312.000000	7.950300
2311.000000	7.869600
2310.000000	7.799600
2309.000000	7.752500
2308.000000	7.704000
2307.000000	7.679000
2306.000000	7.651400
2305.000000	7.640800
2304.000000	7.650500
2303.000000	7.669800
2302.000000	7.699100
2301.000000	7.735800
2300.000000	7.750700
2299.000000	7.807000
2298.000000	7.872300
2297.000000	7.902900
2296.000000	7.926300
2295.000000	7.957700
2294.000000	7.987400
2293.000000	8.005900
2292.000000	8.019300
2291.000000	8.001300
2290.000000	7.996600
2289.000000	7.972600
2288.000000	7.955000
2287.000000	7.935800
2286.000000	7.883600
2285.000000	7.833500
2284.000000	7.791600
2283.000000	7.719700
2282.000000	7.669200
2281.000000	7.629300
2280.000000	7.553100
2279.000000	7.493600
2278.000000	7.439800
2277.000000	7.374600
2276.000000	7.327400
2275.000000	7.295600
2274.000000	7.244000
2273.000000	7.209800
2272.000000	7.170300
2271.000000	7.163100
2270.000000	7.146000
2269.000000	7.144800
2268.000000	7.150800
2267.000000	7.171600
2266.000000	7.201900
2265.000000	7.240400
2264.000000	7.320600
2263.000000	7.369400
2262.000000	7.472000
2261.000000	7.547900
2260.000000	7.654600
2259.000000	7.797600
2258.000000	7.942700
2257.000000	8.041800
2256.000000	8.161000
2255.000000	8.312200
2254.000000	8.457600
2253.000000	8.596700
2252.000000	8.696200
2251.000000	8.845900
2250.000000	8.972000
2249.000000	9.092300
2248.000000	9.185200
2247.000000	9.292200
2246.000000	9.386200
2245.000000	9.455900
2244.000000	9.561300
2243.000000	9.641500
2242.000000	9.719300
2241.000000	9.779600
2240.000000	9.843900
2239.000000	9.919800
2238.000000	9.963700
2237.000000	10.013500
2236.000000	10.048800
2235.000000	10.105000
2234.000000	10.111400
2233.000000	10.160900
2232.000000	10.146900
2231.000000	10.147200
2230.000000	10.145600
2229.000000	10.125100
2228.000000	10.111300
2227.000000	10.072500
2226.000000	10.036800
2225.000000	9.995400
2224.000000	9.932700
2223.000000	9.870300
2222.000000	9.829800
2221.000000	9.762000
2220.000000	9.707600
2219.000000	9.671000
2218.000000	9.589600
2217.000000	9.526400
2216.000000	9.437200
2215.000000	9.388700
2214.000000	9.355900
2213.000000	9.334100
2212.000000	9.310900
2211.000000	9.288900
2210.000000	9.295100
2209.000000	9.324500
2208.000000	9.352500
2207.000000	9.386700
2206.000000	9.474500
2205.000000	9.551700
2204.000000	9.662900
2203.000000	9.774600
2202.000000	9.894000
2201.000000	10.031100
2200.000000	10.190700
2199.000000	10.338800
2198.000000	10.498700
2197.000000	10.656000
2196.000000	10.800400
2195.000000	10.957500
2194.000000	11.079200
2193.000000	11.216100
2192.000000	11.343500
2191.000000	11.464600
2190.000000	11.576200
2189.000000	11.677700
2188.000000	11.772000
2187.000000	11.846900
2186.000000	11.904200
2185.000000	11.977500
2184.000000	12.049100
2183.000000	12.085700
2182.000000	12.129200
2181.000000	12.176200
2180.000000	12.231800
2179.000000	12.279200
2178.000000	12.297800
2177.000000	12.330100
2176.000000	12.358200
2175.000000	12.402600
2174.000000	12.447300
2173.000000	12.472300
2172.000000	12.494800
2171.000000	12.523300
2170.000000	12.573800
2169.000000	12.597300
2168.000000	12.627700
2167.000000	12.677800
2166.000000	12.736600
2165.000000	12.779500
2164.000000	12.816900
2163.000000	12.856300
2162.000000	12.900200
2161.000000	12.934900
2160.000000	12.991600
2159.000000	13.049300
2158.000000	13.088400
2157.000000	13.138400
2156.000000	13.203500
2155.000000	13.258900
2154.000000	13.296300
2153.000000	13.366200
2152.000000	13.422000
2151.000000	13.490200
2150.000000	13.554100
2149.000000	13.586100
2148.000000	13.665600
2147.000000	13.724600
2146.000000	13.759100
2145.000000	13.818600
2144.000000	13.871600
2143.000000	13.921400
2142.000000	13.966700
2141.000000	14.007700
2140.000000	14.063300
2139.000000	14.111000
2138.000000	14.146100
2137.000000	14.180500
2136.000000	14.222300
2135.000000	14.251700
2134.000000	14.278200
2133.000000	14.300400
2132.000000	14.314600
2131.000000	14.338000
2130.000000	14.355800
2129.000000	14.361300
2128.000000	14.376100
2127.000000	14.380600
2126.000000	14.379000
2125.000000	14.366100
2124.000000	14.340600
2123.000000	14.319600
2122.000000	14.305600
2121.000000	14.296800
2120.000000	14.280500
2119.000000	14.252100
2118.000000	14.219100
2117.000000	14.200500
2116.000000	14.177100
2115.000000	14.149300
2114.000000	14.121800
2113.000000	14.099500
2112.000000	14.073400
2111.000000	14.045600
2110.000000	14.015600
2109.000000	13.985400
2108.000000	13.970200
2107.000000	13.945100
2106.000000	13.914000
2105.000000	13.889500
2104.000000	13.862800
2103.000000	13.841900
2102.000000	13.817700
2101.000000	13.787300
2100.000000	13.746700
2099.000000	13.714700
2098.000000	13.697600
2097.000000	13.673400
2096.000000	13.638400
2095.000000	13.607500
2094.000000	13.583500
2093.000000	13.558100
2092.000000	13.539000
2091.000000	13.530600
2090.000000	13.513900
2089.000000	13.485100
2088.000000	13.459800
2087.000000	13.455500
2086.000000	13.442400
2085.000000	13.400300
2084.000000	13.369800
2083.000000	13.345600
2082.000000	13.328600
2081.000000	13.303400
2080.000000	13.283600
2079.000000	13.263500
2078.000000	13.228700
2077.000000	13.189400
2076.000000	13.170500
2075.000000	13.140500
2074.000000	13.104900
2073.000000	13.078700
2072.000000	13.050200
2071.000000	13.018600
2070.000000	12.978200
2069.000000	12.947500
2068.000000	12.935900
2067.000000	12.894600
2066.000000	12.851900
2065.000000	12.833000
2064.000000	12.796500
2063.000000	12.773700
2062.000000	12.764800
2061.000000	12.757400
2060.000000	12.759400
2059.000000	12.755100
2058.000000	12.753200
2057.000000	12.764000
2056.000000	12.792200
2055.000000	12.826100
2054.000000	12.859700
2053.000000	12.898700
2052.000000	12.962400
2051.000000	13.036600
2050.000000	13.108200
2049.000000	13.178000
2048.000000	13.289400
2047.000000	13.375800
2046.000000	13.477800
2045.000000	13.604000
2044.000000	13.727400
2043.000000	13.859200
2042.000000	13.967700
2041.000000	14.105300
2040.000000	14.222900
2039.000000	14.346800
2038.000000	14.457400
2037.000000	14.583300
2036.000000	14.681200
2035.000000	14.795400
2034.000000	14.912900
2033.000000	15.002700
2032.000000	15.083700
2031.000000	15.181100
2030.000000	15.267500
2029.000000	15.344200
2028.000000	15.426500
2027.000000	15.498100
2026.000000	15.572700
2025.000000	15.629300
2024.000000	15.720200
2023.000000	15.767300
2022.000000	15.814500
2021.000000	15.883500
2020.000000	15.942700
2019.000000	15.988700
2018.000000	16.049000
2017.000000	16.079200
2016.000000	16.131600
2015.000000	16.181500
2014.000000	16.201800
2013.000000	16.230600
2012.000000	16.265900
2011.000000	16.289800
2010.000000	16.314800
2009.000000	16.324600
2008.000000	16.320700
2007.000000	16.323200
2006.000000	16.312200
2005.000000	16.324100
2004.000000	16.327000
2003.000000	16.309300
2002.000000	16.303200
2001.000000	16.266600
2000.000000	16.251200
1999.000000	16.234000
1998.000000	16.199000
1997.000000	16.156400
1996.000000	16.127500
1995.000000	16.080300
1994.000000	16.045600
1993.000000	15.982800
1992.000000	15.939500
1991.000000	15.890100
1990.000000	15.825700
1989.000000	15.771700
1988.000000	15.714100
1987.000000	15.643700
1986.000000	15.583800
1985.000000	15.503700
1984.000000	15.436600
1983.000000	15.378900
1982.000000	15.320800
1981.000000	15.239100
1980.000000	15.177300
1979.000000	15.123000
1978.000000	15.041100
1977.000000	14.954000
1976.000000	14.881700
1975.000000	14.820500
1974.000000	14.746600
1973.000000	14.685000
1972.000000	14.633300
1971.000000	14.574800
1970.000000	14.497700
1969.000000	14.435000
1968.000000	14.386800
1967.000000	14.316100
1966.000000	14.272700
1965.000000	14.215200
1964.000000	14.152200
1963.000000	14.097700
1962.000000	14.033400
1961.000000	13.977400
1960.000000	13.908800
1959.000000	13.864000
1958.000000	13.792800
1957.000000	13.751200
1956.000000	13.707500
1955.000000	13.627200
1954.000000	13.579200
1953.000000	13.529300
1952.000000	13.473800
1951.000000	13.415700
1950.000000	13.378300
1949.000000	13.342600
1948.000000	13.306500
1947.000000	13.263900
1946.000000	13.213000
1945.000000	13.196000
1944.000000	13.182700
1943.000000	13.155100
1942.000000	13.178800
1941.000000	13.143600
1940.000000	13.148800
1939.000000	13.149200
1938.000000	13.152900
1937.000000	13.158000
1936.000000	13.184800
1935.000000	13.214500
1934.000000	13.254600
1933.000000	13.299400
1932.000000	13.338200
1931.000000	13.411600
1930.000000	13.500900
1929.000000	13.564200
1928.000000	13.663800
1927.000000	13.733800
1926.000000	13.824200
1925.000000	13.953800
1924.000000	14.057000
1923.000000	14.168200
1922.000000	14.333500
1921.000000	14.468100
1920.000000	14.632100
1919.000000	14.769000
1918.000000	14.943900
1917.000000	15.089300
1916.000000	15.225200
1915.000000	15.428200
1914.000000	15.641200
1913.000000	15.856800
1912.000000	16.062500
1911.000000	16.266400
1910.000000	16.448400
1909.000000	16.640400
1908.000000	16.862100
1907.000000	17.104900
1906.000000	17.374100
1905.000000	17.669600
1904.000000	17.937500
1903.000000	18.177700
1902.000000	18.421000
1901.000000	18.677200
1900.000000	18.951500
1899.000000	19.249900
1898.000000	19.535800
1897.000000	19.826800
1896.000000	20.067900
1895.000000	20.311600
1894.000000	20.586500
1893.000000	20.890900
1892.000000	21.206700
1891.000000	21.531000
1890.000000	21.834200
1889.000000	22.121700
1888.000000	22.445600
1887.000000	22.773800
1886.000000	23.138800
1885.000000	23.572600
1884.000000	24.063900
1883.000000	24.546200
1882.000000	25.020600
1881.000000	25.530100
1880.000000	26.011300
1879.000000	26.496100
1878.000000	26.961200
1877.000000	27.413600
1876.000000	27.819900
1875.000000	28.234600
1874.000000	28.603200
1873.000000	28.943700
1872.000000	29.238900
1871.000000	29.490300
1870.000000	29.696800
1869.000000	29.883300
1868.000000	29.997800
1867.000000	30.089800
1866.000000	30.169800
1865.000000	30.244000
1864.000000	30.308900
1863.000000	30.378700
1862.000000	30.457300
1861.000000	30.518600
1860.000000	30.552400
1859.000000	30.573900
1858.000000	30.590600
1857.000000	30.588300
1856.000000	30.575300
1855.000000	30.553400
1854.000000	30.494600
1853.000000	30.419700
1852.000000	30.361400
1851.000000	30.329400
1850.000000	30.316500
1849.000000	30.294900
1848.000000	30.211100
1847.000000	30.090800
1846.000000	29.974400
1845.000000	29.893800
1844.000000	29.844400
1843.000000	29.831500
1842.000000	29.825300
1841.000000	29.781200
1840.000000	29.718500
1839.000000	29.664400
1838.000000	29.602900
1837.000000	29.531000
1836.000000	29.441100
1835.000000	29.336300
1834.000000	29.237600
1833.000000	29.145900
1832.000000	29.061700
1831.000000	28.982800
1830.000000	28.893600
1829.000000	28.795400
1828.000000	28.696400
1827.000000	28.608300
1826.000000	28.515200
1825.000000	28.435300
1824.000000	28.391800
1823.000000	28.382100
1822.000000	28.384100
1821.000000	28.364200
1820.000000	28.321400
1819.000000	28.267900
1818.000000	28.230500
1817.000000	28.222600
1816.000000	28.220900
1815.000000	28.204600
1814.000000	28.177400
1813.000000	28.176600
1812.000000	28.176800
1811.000000	28.134800
1810.000000	28.082500
1809.000000	28.037600
1808.000000	28.001600
1807.000000	27.968500
1806.000000	27.918800
1805.000000	27.849200
1804.000000	27.802400
1803.000000	27.778700
1802.000000	27.727200
1801.000000	27.659500
1800.000000	27.600600
1799.000000	27.540400
1798.000000	27.499400
1797.000000	27.449800
1796.000000	27.396200
1795.000000	27.343100
1794.000000	27.290500
1793.000000	27.237300
1792.000000	27.177400
1791.000000	27.117100
1790.000000	27.047500
1789.000000	26.987500
1788.000000	26.919200
1787.000000	26.856600
1786.000000	26.787900
1785.000000	26.694200
1784.000000	26.604300
1783.000000	26.504700
1782.000000	26.426400
1781.000000	26.318500
1780.000000	26.219000
1779.000000	26.121100
1778.000000	26.017200
1777.000000	25.906200
1776.000000	25.771900
1775.000000	25.628200
1774.000000	25.483000
1773.000000	25.324300
1772.000000	25.154100
1771.000000	24.998400
1770.000000	24.851100
1769.000000	24.689900
1768.000000	24.534800
1767.000000	24.414900
1766.000000	24.316800
1765.000000	24.231000
1764.000000	24.172400
1763.000000	24.146500
1762.000000	24.158000
1761.000000	24.188900
1760.000000	24.247700
1759.000000	24.312000
1758.000000	24.382300
1757.000000	24.437000
1756.000000	24.485900
1755.000000	24.498200
1754.000000	24.518500
1753.000000	24.510400
1752.000000	24.472500
1751.000000	24.410200
1750.000000	24.339800
1749.000000	24.249600
1748.000000	24.163900
1747.000000	24.051800
1746.000000	23.892400
1745.000000	23.741000
1744.000000	23.526800
1743.000000	23.299100
1742.000000	23.050800
1741.000000	22.804800
1740.000000	22.540100
1739.000000	22.252500
1738.000000	22.000500
1737.000000	21.793400
1736.000000	21.636700
1735.000000	21.517400
1734.000000	21.484200
1733.000000	21.480300
1732.000000	21.535100
1731.000000	21.614400
1730.000000	21.713600
1729.000000	21.847000
1728.000000	21.968400
1727.000000	22.100100
1726.000000	22.188600
1725.000000	22.247800
1724.000000	22.324200
1723.000000	22.358400
1722.000000	22.364300
1721.000000	22.403000
1720.000000	22.416500
1719.000000	22.422600
1718.000000	22.482600
1717.000000	22.531000
1716.000000	22.589200
1715.000000	22.666100
1714.000000	22.726800
1713.000000	22.821900
1712.000000	22.857500
1711.000000	22.885400
1710.000000	22.895900
1709.000000	22.910600
1708.000000	22.871100
1707.000000	22.836300
1706.000000	22.772300
1705.000000	22.704600
1704.000000	22.657000
1703.000000	22.541400
1702.000000	22.424200
1701.000000	22.283800
1700.000000	22.088800
1699.000000	21.908800
1698.000000	21.739100
1697.000000	21.613400
1696.000000	21.529000
1695.000000	21.523500
1694.000000	21.604700
1693.000000	21.726400
1692.000000	21.905800
1691.000000	22.096400
1690.000000	22.277600
1689.000000	22.409400
1688.000000	22.467800
1687.000000	22.499300
1686.000000	22.509300
1685.000000	22.549900
1684.000000	22.673000
1683.000000	22.931200
1682.000000	23.353100
1681.000000	23.832400
1680.000000	24.465200
1679.000000	25.111700
1678.000000	25.731500
1677.000000	26.324200
1676.000000	26.874800
1675.000000	27.337800
1674.000000	27.755200
1673.000000	28.091400
1672.000000	28.394300
1671.000000	28.662100
1670.000000	28.887400
1669.000000	29.107600
1668.000000	29.291700
1667.000000	29.438500
1666.000000	29.574700
1665.000000	29.682500
1664.000000	29.786500
1663.000000	29.878700
1662.000000	29.981500
1661.000000	30.033700
1660.000000	30.105900
1659.000000	30.159100
1658.000000	30.199800
1657.000000	30.246100
1656.000000	30.238000
1655.000000	30.232800
1654.000000	30.253300
1653.000000	30.244100
1652.000000	30.229700
1651.000000	30.201800
1650.000000	30.164100
1649.000000	30.148800
1648.000000	30.090900
1647.000000	30.046000
1646.000000	29.986800
1645.000000	29.931500
1644.000000	29.878900
1643.000000	29.803900
1642.000000	29.743400
1641.000000	29.675100
1640.000000	29.606900
1639.000000	29.540000
1638.000000	29.450700
1637.000000	29.394100
1636.000000	29.317200
1635.000000	29.219300
1634.000000	29.141600
1633.000000	29.048300
1632.000000	28.962700
1631.000000	28.877300
1630.000000	28.778100
1629.000000	28.681600
1628.000000	28.598900
1627.000000	28.484900
1626.000000	28.391500
1625.000000	28.302600
1624.000000	28.201900
1623.000000	28.100400
1622.000000	28.011600
1621.000000	27.901400
1620.000000	27.813700
1619.000000	27.734600
1618.000000	27.643400
1617.000000	27.555900
1616.000000	27.450800
1615.000000	27.364900
1614.000000	27.278500
1613.000000	27.188800
