PE UV       SUBTECH     SPECTRUM    ASCII       PEDS        4.00        
   -1
CICIMAUCR0009-1 fail.Sample.ASC
24/03/08
13:57:38.00
24/03/08
13:57:38.00
Vinicio Soto Monge
C. kalinini
250,000000
1
Lambda 1050
1050L1511233
PerkinElmer UV WinLab 6.3.2.0749 / 2.02.05 Lambda 900 UV/VIS/NIR, Aug  7 2015 09:38:08

0
0
3350/servo 860,8/2
0
0
UV/VIS
1
1
1
DoubleDePol,CommonBeamDepol,RBeamAtt,SBeamAtt,60mm sphere, WB InGaAs Detector
0
0
0
0
Program
Program
3350/servo 860,8/2
3350/0,2 860,8/0,2
3350/0,2 860,8/0,2
0
15.00
 
 
 
0
 
860,8
319,2
860,8
Front
100
on
S:100 R:100
0
0
0
0
 
0
 
 
 
0
 
 
0
0
0
0
0
 
 
 
 
0
0


0
0
#HDR
-1
-1
#GR
nm
%R
1.0
0.0
2500,000000
-1,000000
2251
8
24,370700
1,836500
#DATA
2500.000000	2.270500
2499.000000	2.371700
2498.000000	2.249400
2497.000000	2.307300
2496.000000	2.217700
2495.000000	2.312100
2494.000000	2.172100
2493.000000	2.225300
2492.000000	2.138000
2491.000000	2.278300
2490.000000	2.256300
2489.000000	2.164800
2488.000000	2.241400
2487.000000	2.187600
2486.000000	2.154500
2485.000000	2.187200
2484.000000	2.155200
2483.000000	2.142000
2482.000000	2.163300
2481.000000	2.187500
2480.000000	2.133400
2479.000000	2.142100
2478.000000	2.189100
2477.000000	2.161100
2476.000000	2.186200
2475.000000	2.168200
2474.000000	2.191400
2473.000000	2.195300
2472.000000	2.191500
2471.000000	2.217700
2470.000000	2.190600
2469.000000	2.169900
2468.000000	2.205500
2467.000000	2.221000
2466.000000	2.218500
2465.000000	2.224100
2464.000000	2.228400
2463.000000	2.250600
2462.000000	2.252400
2461.000000	2.250400
2460.000000	2.258900
2459.000000	2.258500
2458.000000	2.299600
2457.000000	2.288600
2456.000000	2.303500
2455.000000	2.332900
2454.000000	2.323300
2453.000000	2.357100
2452.000000	2.357300
2451.000000	2.368300
2450.000000	2.396700
2449.000000	2.419000
2448.000000	2.413200
2447.000000	2.430900
2446.000000	2.462300
2445.000000	2.475400
2444.000000	2.511200
2443.000000	2.506100
2442.000000	2.528000
2441.000000	2.549500
2440.000000	2.573800
2439.000000	2.583700
2438.000000	2.613400
2437.000000	2.627100
2436.000000	2.639700
2435.000000	2.672900
2434.000000	2.694800
2433.000000	2.695300
2432.000000	2.720600
2431.000000	2.725000
2430.000000	2.737700
2429.000000	2.756200
2428.000000	2.777500
2427.000000	2.784700
2426.000000	2.786200
2425.000000	2.809100
2424.000000	2.827800
2423.000000	2.863700
2422.000000	2.882600
2421.000000	2.908000
2420.000000	2.913800
2419.000000	2.931000
2418.000000	2.917700
2417.000000	2.946000
2416.000000	2.952000
2415.000000	2.960900
2414.000000	2.971500
2413.000000	2.969700
2412.000000	2.987400
2411.000000	2.997100
2410.000000	3.002600
2409.000000	3.004500
2408.000000	3.019100
2407.000000	3.016400
2406.000000	3.038200
2405.000000	3.066200
2404.000000	3.066000
2403.000000	3.067200
2402.000000	3.073600
2401.000000	3.072100
2400.000000	3.072500
2399.000000	3.085500
2398.000000	3.090500
2397.000000	3.096200
2396.000000	3.100500
2395.000000	3.118400
2394.000000	3.120800
2393.000000	3.137500
2392.000000	3.141400
2391.000000	3.138000
2390.000000	3.135000
2389.000000	3.139600
2388.000000	3.154100
2387.000000	3.160800
2386.000000	3.152800
2385.000000	3.152400
2384.000000	3.160000
2383.000000	3.154300
2382.000000	3.161300
2381.000000	3.160900
2380.000000	3.167100
2379.000000	3.155300
2378.000000	3.136000
2377.000000	3.140100
2376.000000	3.149200
2375.000000	3.150700
2374.000000	3.150200
2373.000000	3.140600
2372.000000	3.131000
2371.000000	3.118800
2370.000000	3.102500
2369.000000	3.102300
2368.000000	3.094500
2367.000000	3.097300
2366.000000	3.099100
2365.000000	3.084400
2364.000000	3.080900
2363.000000	3.070600
2362.000000	3.053200
2361.000000	3.037900
2360.000000	3.022700
2359.000000	3.007700
2358.000000	3.007600
2357.000000	2.994600
2356.000000	2.965100
2355.000000	2.953100
2354.000000	2.963600
2353.000000	2.949900
2352.000000	2.923200
2351.000000	2.923000
2350.000000	2.921800
2349.000000	2.925600
2348.000000	2.941100
2347.000000	2.933600
2346.000000	2.925700
2345.000000	2.936200
2344.000000	2.943100
2343.000000	2.959400
2342.000000	2.965300
2341.000000	2.968200
2340.000000	2.969200
2339.000000	2.965100
2338.000000	2.957800
2337.000000	2.973500
2336.000000	2.975800
2335.000000	2.969700
2334.000000	2.962600
2333.000000	2.959200
2332.000000	2.968100
2331.000000	2.954500
2330.000000	2.942800
2329.000000	2.942500
2328.000000	2.923900
2327.000000	2.917900
2326.000000	2.913200
2325.000000	2.874800
2324.000000	2.854000
2323.000000	2.833100
2322.000000	2.825400
2321.000000	2.810600
2320.000000	2.791600
2319.000000	2.774600
2318.000000	2.759600
2317.000000	2.746200
2316.000000	2.726200
2315.000000	2.700600
2314.000000	2.659000
2313.000000	2.648500
2312.000000	2.633600
2311.000000	2.605200
2310.000000	2.585400
2309.000000	2.556800
2308.000000	2.556600
2307.000000	2.525600
2306.000000	2.520200
2305.000000	2.520000
2304.000000	2.485400
2303.000000	2.486400
2302.000000	2.498300
2301.000000	2.514600
2300.000000	2.519000
2299.000000	2.528900
2298.000000	2.531400
2297.000000	2.537700
2296.000000	2.553000
2295.000000	2.569900
2294.000000	2.576500
2293.000000	2.586300
2292.000000	2.597300
2291.000000	2.607900
2290.000000	2.591800
2289.000000	2.600100
2288.000000	2.578500
2287.000000	2.593100
2286.000000	2.584800
2285.000000	2.593400
2284.000000	2.587300
2283.000000	2.563700
2282.000000	2.545400
2281.000000	2.549300
2280.000000	2.530900
2279.000000	2.506300
2278.000000	2.494100
2277.000000	2.500500
2276.000000	2.453100
2275.000000	2.449200
2274.000000	2.432900
2273.000000	2.446200
2272.000000	2.404900
2271.000000	2.426200
2270.000000	2.402200
2269.000000	2.388500
2268.000000	2.417000
2267.000000	2.403800
2266.000000	2.399000
2265.000000	2.418000
2264.000000	2.409400
2263.000000	2.430400
2262.000000	2.458000
2261.000000	2.476500
2260.000000	2.501700
2259.000000	2.513600
2258.000000	2.527900
2257.000000	2.580400
2256.000000	2.598900
2255.000000	2.618300
2254.000000	2.665000
2253.000000	2.708200
2252.000000	2.731500
2251.000000	2.777000
2250.000000	2.786900
2249.000000	2.841100
2248.000000	2.867900
2247.000000	2.885500
2246.000000	2.919400
2245.000000	2.939300
2244.000000	2.991100
2243.000000	3.009100
2242.000000	3.028900
2241.000000	3.054600
2240.000000	3.037500
2239.000000	3.057500
2238.000000	3.109000
2237.000000	3.106500
2236.000000	3.118200
2235.000000	3.133000
2234.000000	3.132500
2233.000000	3.137200
2232.000000	3.144700
2231.000000	3.142700
2230.000000	3.142600
2229.000000	3.134500
2228.000000	3.140900
2227.000000	3.107500
2226.000000	3.129200
2225.000000	3.083600
2224.000000	3.078200
2223.000000	3.066500
2222.000000	3.062100
2221.000000	3.039300
2220.000000	3.019600
2219.000000	3.001000
2218.000000	2.989500
2217.000000	2.965600
2216.000000	2.937900
2215.000000	2.929700
2214.000000	2.901200
2213.000000	2.888400
2212.000000	2.879800
2211.000000	2.881800
2210.000000	2.883500
2209.000000	2.874900
2208.000000	2.871900
2207.000000	2.901400
2206.000000	2.903100
2205.000000	2.945400
2204.000000	2.969500
2203.000000	3.006100
2202.000000	3.036700
2201.000000	3.063500
2200.000000	3.107500
2199.000000	3.157200
2198.000000	3.182000
2197.000000	3.234000
2196.000000	3.299500
2195.000000	3.335600
2194.000000	3.367200
2193.000000	3.412300
2192.000000	3.450800
2191.000000	3.489000
2190.000000	3.511700
2189.000000	3.543300
2188.000000	3.567300
2187.000000	3.615800
2186.000000	3.638600
2185.000000	3.623000
2184.000000	3.638700
2183.000000	3.661400
2182.000000	3.669900
2181.000000	3.688100
2180.000000	3.698200
2179.000000	3.705700
2178.000000	3.704600
2177.000000	3.713400
2176.000000	3.748600
2175.000000	3.731900
2174.000000	3.734500
2173.000000	3.727900
2172.000000	3.749500
2171.000000	3.755700
2170.000000	3.753500
2169.000000	3.775400
2168.000000	3.783500
2167.000000	3.774200
2166.000000	3.787700
2165.000000	3.784700
2164.000000	3.791800
2163.000000	3.797000
2162.000000	3.810100
2161.000000	3.840200
2160.000000	3.843400
2159.000000	3.835000
2158.000000	3.827000
2157.000000	3.841700
2156.000000	3.848000
2155.000000	3.856200
2154.000000	3.868000
2153.000000	3.883400
2152.000000	3.901600
2151.000000	3.913000
2150.000000	3.923500
2149.000000	3.937600
2148.000000	3.964700
2147.000000	3.973500
2146.000000	3.979000
2145.000000	3.994400
2144.000000	4.001800
2143.000000	4.013300
2142.000000	4.025500
2141.000000	4.020900
2140.000000	4.033500
2139.000000	4.044800
2138.000000	4.059400
2137.000000	4.063400
2136.000000	4.065000
2135.000000	4.072400
2134.000000	4.079800
2133.000000	4.086800
2132.000000	4.089200
2131.000000	4.094400
2130.000000	4.104400
2129.000000	4.092900
2128.000000	4.101800
2127.000000	4.109100
2126.000000	4.101900
2125.000000	4.091900
2124.000000	4.097800
2123.000000	4.103000
2122.000000	4.103100
2121.000000	4.100800
2120.000000	4.094200
2119.000000	4.100000
2118.000000	4.083700
2117.000000	4.083700
2116.000000	4.096400
2115.000000	4.089000
2114.000000	4.069600
2113.000000	4.074900
2112.000000	4.065200
2111.000000	4.059600
2110.000000	4.060800
2109.000000	4.053000
2108.000000	4.051500
2107.000000	4.045300
2106.000000	4.051900
2105.000000	4.051900
2104.000000	4.043300
2103.000000	4.037100
2102.000000	4.026300
2101.000000	4.011500
2100.000000	4.014300
2099.000000	4.012400
2098.000000	4.006800
2097.000000	4.011600
2096.000000	4.001900
2095.000000	3.996300
2094.000000	3.990000
2093.000000	3.986800
2092.000000	3.993100
2091.000000	4.000000
2090.000000	4.006000
2089.000000	4.007600
2088.000000	3.995100
2087.000000	3.974900
2086.000000	3.984900
2085.000000	4.002800
2084.000000	3.996400
2083.000000	3.995200
2082.000000	3.998200
2081.000000	3.998300
2080.000000	3.990400
2079.000000	3.987300
2078.000000	3.979800
2077.000000	3.968700
2076.000000	3.970100
2075.000000	3.963400
2074.000000	3.946800
2073.000000	3.958900
2072.000000	3.968500
2071.000000	3.947100
2070.000000	3.929500
2069.000000	3.913500
2068.000000	3.904200
2067.000000	3.895000
2066.000000	3.895700
2065.000000	3.901500
2064.000000	3.888500
2063.000000	3.862500
2062.000000	3.861600
2061.000000	3.873700
2060.000000	3.852400
2059.000000	3.837300
2058.000000	3.854700
2057.000000	3.853300
2056.000000	3.836500
2055.000000	3.849100
2054.000000	3.874800
2053.000000	3.880000
2052.000000	3.884400
2051.000000	3.887700
2050.000000	3.909700
2049.000000	3.924500
2048.000000	3.948000
2047.000000	3.984900
2046.000000	3.993800
2045.000000	4.010200
2044.000000	4.057000
2043.000000	4.099000
2042.000000	4.116800
2041.000000	4.157900
2040.000000	4.180400
2039.000000	4.216900
2038.000000	4.242000
2037.000000	4.268600
2036.000000	4.284500
2035.000000	4.298800
2034.000000	4.338200
2033.000000	4.372700
2032.000000	4.375800
2031.000000	4.405300
2030.000000	4.431000
2029.000000	4.440900
2028.000000	4.464800
2027.000000	4.498800
2026.000000	4.524700
2025.000000	4.519300
2024.000000	4.533300
2023.000000	4.553700
2022.000000	4.552100
2021.000000	4.563400
2020.000000	4.592100
2019.000000	4.594100
2018.000000	4.604200
2017.000000	4.605500
2016.000000	4.612400
2015.000000	4.623500
2014.000000	4.637200
2013.000000	4.597700
2012.000000	4.607800
2011.000000	4.628900
2010.000000	4.635700
2009.000000	4.621400
2008.000000	4.618200
2007.000000	4.616400
2006.000000	4.617500
2005.000000	4.592800
2004.000000	4.579400
2003.000000	4.596100
2002.000000	4.586400
2001.000000	4.586500
2000.000000	4.563800
1999.000000	4.551400
1998.000000	4.528100
1997.000000	4.525300
1996.000000	4.502200
1995.000000	4.474300
1994.000000	4.457300
1993.000000	4.444600
1992.000000	4.434100
1991.000000	4.415700
1990.000000	4.382400
1989.000000	4.353000
1988.000000	4.346500
1987.000000	4.318200
1986.000000	4.303200
1985.000000	4.296300
1984.000000	4.262400
1983.000000	4.236600
1982.000000	4.227200
1981.000000	4.194600
1980.000000	4.176100
1979.000000	4.132500
1978.000000	4.126700
1977.000000	4.088800
1976.000000	4.061500
1975.000000	4.066600
1974.000000	4.028100
1973.000000	4.010000
1972.000000	4.006900
1971.000000	3.980800
1970.000000	3.945300
1969.000000	3.933000
1968.000000	3.909500
1967.000000	3.893600
1966.000000	3.870600
1965.000000	3.856500
1964.000000	3.834700
1963.000000	3.787600
1962.000000	3.775600
1961.000000	3.760200
1960.000000	3.741500
1959.000000	3.704100
1958.000000	3.708700
1957.000000	3.686400
1956.000000	3.666100
1955.000000	3.639600
1954.000000	3.633200
1953.000000	3.614000
1952.000000	3.607800
1951.000000	3.566200
1950.000000	3.536000
1949.000000	3.532400
1948.000000	3.514800
1947.000000	3.484800
1946.000000	3.503600
1945.000000	3.484900
1944.000000	3.471000
1943.000000	3.475600
1942.000000	3.449100
1941.000000	3.449400
1940.000000	3.478100
1939.000000	3.434300
1938.000000	3.429000
1937.000000	3.429200
1936.000000	3.429900
1935.000000	3.430400
1934.000000	3.438600
1933.000000	3.435600
1932.000000	3.468600
1931.000000	3.485600
1930.000000	3.512400
1929.000000	3.510400
1928.000000	3.506800
1927.000000	3.532600
1926.000000	3.549200
1925.000000	3.581400
1924.000000	3.603800
1923.000000	3.628800
1922.000000	3.644200
1921.000000	3.695400
1920.000000	3.709000
1919.000000	3.734900
1918.000000	3.771100
1917.000000	3.811600
1916.000000	3.881000
1915.000000	3.940300
1914.000000	3.993800
1913.000000	4.011300
1912.000000	4.039700
1911.000000	4.068500
1910.000000	4.123400
1909.000000	4.199500
1908.000000	4.272100
1907.000000	4.335600
1906.000000	4.410100
1905.000000	4.444100
1904.000000	4.491700
1903.000000	4.552900
1902.000000	4.639900
1901.000000	4.735300
1900.000000	4.794900
1899.000000	4.821100
1898.000000	4.897700
1897.000000	4.984700
1896.000000	5.059600
1895.000000	5.176500
1894.000000	5.266200
1893.000000	5.375500
1892.000000	5.455600
1891.000000	5.545500
1890.000000	5.603400
1889.000000	5.697800
1888.000000	5.803700
1887.000000	5.924900
1886.000000	6.057800
1885.000000	6.171000
1884.000000	6.271600
1883.000000	6.407800
1882.000000	6.575500
1881.000000	6.734000
1880.000000	6.895400
1879.000000	7.066200
1878.000000	7.234300
1877.000000	7.392000
1876.000000	7.555200
1875.000000	7.682800
1874.000000	7.797300
1873.000000	7.896400
1872.000000	7.977100
1871.000000	8.027800
1870.000000	8.068600
1869.000000	8.126900
1868.000000	8.188400
1867.000000	8.236300
1866.000000	8.316500
1865.000000	8.382200
1864.000000	8.460900
1863.000000	8.550700
1862.000000	8.613700
1861.000000	8.637500
1860.000000	8.637600
1859.000000	8.640500
1858.000000	8.629000
1857.000000	8.647700
1856.000000	8.675400
1855.000000	8.680200
1854.000000	8.658600
1853.000000	8.632000
1852.000000	8.611300
1851.000000	8.636300
1850.000000	8.691400
1849.000000	8.694700
1848.000000	8.616300
1847.000000	8.501100
1846.000000	8.436200
1845.000000	8.464700
1844.000000	8.533500
1843.000000	8.586400
1842.000000	8.569100
1841.000000	8.499000
1840.000000	8.454900
1839.000000	8.434000
1838.000000	8.429500
1837.000000	8.401100
1836.000000	8.353300
1835.000000	8.299100
1834.000000	8.273700
1833.000000	8.281200
1832.000000	8.274300
1831.000000	8.271700
1830.000000	8.233200
1829.000000	8.183600
1828.000000	8.149100
1827.000000	8.098500
1826.000000	8.054100
1825.000000	8.036400
1824.000000	8.053500
1823.000000	8.078000
1822.000000	8.082900
1821.000000	8.040900
1820.000000	7.962000
1819.000000	7.920300
1818.000000	7.930200
1817.000000	7.954200
1816.000000	7.950800
1815.000000	7.930100
1814.000000	7.917000
1813.000000	7.926000
1812.000000	7.917200
1811.000000	7.887200
1810.000000	7.866300
1809.000000	7.845000
1808.000000	7.843900
1807.000000	7.821800
1806.000000	7.789300
1805.000000	7.776600
1804.000000	7.766000
1803.000000	7.753100
1802.000000	7.722900
1801.000000	7.685600
1800.000000	7.658600
1799.000000	7.641300
1798.000000	7.627200
1797.000000	7.609700
1796.000000	7.589800
1795.000000	7.580000
1794.000000	7.558200
1793.000000	7.538500
1792.000000	7.503200
1791.000000	7.485100
1790.000000	7.463000
1789.000000	7.443700
1788.000000	7.444500
1787.000000	7.424900
1786.000000	7.388400
1785.000000	7.369800
1784.000000	7.339000
1783.000000	7.314600
1782.000000	7.287500
1781.000000	7.263400
1780.000000	7.230500
1779.000000	7.200800
1778.000000	7.178200
1777.000000	7.158100
1776.000000	7.117000
1775.000000	7.074700
1774.000000	7.044300
1773.000000	6.995600
1772.000000	6.972900
1771.000000	6.945800
1770.000000	6.901300
1769.000000	6.847700
1768.000000	6.838400
1767.000000	6.793000
1766.000000	6.754900
1765.000000	6.756000
1764.000000	6.742000
1763.000000	6.731500
1762.000000	6.748900
1761.000000	6.744200
1760.000000	6.787000
1759.000000	6.787400
1758.000000	6.804200
1757.000000	6.856500
1756.000000	6.887000
1755.000000	6.887300
1754.000000	6.897400
1753.000000	6.922600
1752.000000	6.932800
1751.000000	6.923900
1750.000000	6.915500
1749.000000	6.898100
1748.000000	6.890700
1747.000000	6.872200
1746.000000	6.820600
1745.000000	6.798900
1744.000000	6.767700
1743.000000	6.717500
1742.000000	6.652200
1741.000000	6.594600
1740.000000	6.548900
1739.000000	6.468900
1738.000000	6.413200
1737.000000	6.339800
1736.000000	6.291800
1735.000000	6.272000
1734.000000	6.255700
1733.000000	6.249400
1732.000000	6.253100
1731.000000	6.279000
1730.000000	6.306800
1729.000000	6.335500
1728.000000	6.353100
1727.000000	6.401500
1726.000000	6.406700
1725.000000	6.427600
1724.000000	6.435200
1723.000000	6.464200
1722.000000	6.472400
1721.000000	6.470100
1720.000000	6.481100
1719.000000	6.510000
1718.000000	6.528700
1717.000000	6.545000
1716.000000	6.563200
1715.000000	6.599500
1714.000000	6.612100
1713.000000	6.638100
1712.000000	6.663600
1711.000000	6.668300
1710.000000	6.666700
1709.000000	6.686400
1708.000000	6.686100
1707.000000	6.659800
1706.000000	6.647500
1705.000000	6.679200
1704.000000	6.618500
1703.000000	6.602900
1702.000000	6.564300
1701.000000	6.531100
1700.000000	6.482700
1699.000000	6.426900
1698.000000	6.380200
1697.000000	6.331500
1696.000000	6.323000
1695.000000	6.306400
1694.000000	6.291800
1693.000000	6.311300
1692.000000	6.380100
1691.000000	6.388100
1690.000000	6.422300
1689.000000	6.452400
1688.000000	6.462600
1687.000000	6.466600
1686.000000	6.481600
1685.000000	6.476900
1684.000000	6.521300
1683.000000	6.544900
1682.000000	6.626800
1681.000000	6.757100
1680.000000	6.917700
1679.000000	7.092600
1678.000000	7.243100
1677.000000	7.404200
1676.000000	7.577500
1675.000000	7.710000
1674.000000	7.810800
1673.000000	7.904900
1672.000000	7.990300
1671.000000	8.070300
1670.000000	8.137400
1669.000000	8.207500
1668.000000	8.248900
1667.000000	8.309500
1666.000000	8.353000
1665.000000	8.406700
1664.000000	8.448200
1663.000000	8.475300
1662.000000	8.494200
1661.000000	8.518300
1660.000000	8.499900
1659.000000	8.534500
1658.000000	8.567200
1657.000000	8.563600
1656.000000	8.577600
1655.000000	8.583300
1654.000000	8.579600
1653.000000	8.586200
1652.000000	8.571300
1651.000000	8.561000
1650.000000	8.556200
1649.000000	8.553800
1648.000000	8.554800
1647.000000	8.530000
1646.000000	8.514900
1645.000000	8.501100
1644.000000	8.500600
1643.000000	8.469500
1642.000000	8.464300
1641.000000	8.449000
1640.000000	8.432800
1639.000000	8.421600
1638.000000	8.390500
1637.000000	8.383300
1636.000000	8.376800
1635.000000	8.352700
1634.000000	8.327200
1633.000000	8.288500
1632.000000	8.281900
1631.000000	8.260700
1630.000000	8.231600
1629.000000	8.216400
1628.000000	8.190100
1627.000000	8.165000
1626.000000	8.156900
1625.000000	8.113500
1624.000000	8.069600
1623.000000	8.072100
1622.000000	8.075100
1621.000000	8.048900
1620.000000	8.030400
1619.000000	8.006400
1618.000000	7.974900
1617.000000	7.956800
1616.000000	7.951300
1615.000000	7.937000
1614.000000	7.920000
1613.000000	7.865800
1612.000000	7.851500
1611.000000	7.851100
1610.000000	7.838300
1609.000000	7.803100
1608.000000	7.784100
1607.000000	7.771400
1606.000000	7.740200
1605.000000	7.707600
1604.000000	7.684900
1603.000000	7.666700
1602.000000	7.646300
1601.000000	7.630700
1600.000000	7.596800
1599.000000	7.580700
1598.000000	7.566100
1597.000000	7.542600
1596.000000	7.518800
1595.000000	7.493000
1594.000000	7.466600
1593.000000	7.454000
1592.000000	7.430000
1591.000000	7.412400
1590.000000	7.396100
1589.000000	7.358500
1588.000000	7.347600
1587.000000	7.349000
1586.000000	7.326900
1585.000000	7.303500
1584.000000	7.304100
1583.000000	7.302100
