PE UV       SUBTECH     SPECTRUM    ASCII       PEDS        4.00        
   -1
CICIMAUCR0014-1.Sample.ASC
24/04/04
10:38:24.00
24/04/04
10:38:24.00
Vinicio Soto Monge
C. cupreomarginata
250,000000
1
Lambda 1050
1050L1511233
PerkinElmer UV WinLab 6.3.2.0749 / 2.02.05 Lambda 900 UV/VIS/NIR, Aug  7 2015 09:38:08

0
0
3350/servo 860,8/2
0
0
UV/VIS
1
1
1
DoubleDePol,CommonBeamDepol,RBeamAtt,SBeamAtt,60mm sphere, WB InGaAs Detector
0
0
0
0
Program
Program
3350/servo 860,8/2
3350/0,2 860,8/0,2
3350/0,2 860,8/0,2
0
15.00
 
 
 
0
 
860,8
319,2
860,8
Front
100
on
S:100 R:100
0
0
0
0
 
0
 
 
 
0
 
 
0
0
0
0
0
 
 
 
 
0
0


0
0
#HDR
-1
-1
#GR
nm
%R
1.0
0.0
2500,000000
-1,000000
2251
8
68,620100
4,694900
#DATA
2500.000000	12.808200
2499.000000	12.689300
2498.000000	12.842400
2497.000000	12.805800
2496.000000	12.802100
2495.000000	12.897300
2494.000000	12.893000
2493.000000	12.867700
2492.000000	12.831600
2491.000000	12.867000
2490.000000	12.952300
2489.000000	12.868500
2488.000000	12.865100
2487.000000	12.938700
2486.000000	12.931500
2485.000000	12.933000
2484.000000	12.892200
2483.000000	12.969400
2482.000000	12.959800
2481.000000	12.991800
2480.000000	13.035600
2479.000000	13.047400
2478.000000	13.095900
2477.000000	13.130700
2476.000000	13.209500
2475.000000	13.206000
2474.000000	13.243000
2473.000000	13.282200
2472.000000	13.314000
2471.000000	13.351300
2470.000000	13.398500
2469.000000	13.470800
2468.000000	13.494000
2467.000000	13.546400
2466.000000	13.622900
2465.000000	13.635600
2464.000000	13.737500
2463.000000	13.833900
2462.000000	13.889900
2461.000000	13.962900
2460.000000	14.049300
2459.000000	14.139800
2458.000000	14.226400
2457.000000	14.334400
2456.000000	14.441200
2455.000000	14.566400
2454.000000	14.644300
2453.000000	14.737600
2452.000000	14.881000
2451.000000	14.991000
2450.000000	15.122400
2449.000000	15.227400
2448.000000	15.349900
2447.000000	15.490600
2446.000000	15.606500
2445.000000	15.738900
2444.000000	15.859100
2443.000000	15.986900
2442.000000	16.102200
2441.000000	16.241400
2440.000000	16.368200
2439.000000	16.499500
2438.000000	16.622300
2437.000000	16.747500
2436.000000	16.856100
2435.000000	16.969500
2434.000000	17.082200
2433.000000	17.218400
2432.000000	17.315100
2431.000000	17.420900
2430.000000	17.530900
2429.000000	17.635200
2428.000000	17.739000
2427.000000	17.824300
2426.000000	17.910900
2425.000000	18.024700
2424.000000	18.147200
2423.000000	18.243000
2422.000000	18.336500
2421.000000	18.422300
2420.000000	18.482900
2419.000000	18.540800
2418.000000	18.636600
2417.000000	18.710100
2416.000000	18.788200
2415.000000	18.855000
2414.000000	18.911500
2413.000000	18.981500
2412.000000	19.047400
2411.000000	19.107800
2410.000000	19.156100
2409.000000	19.215100
2408.000000	19.265500
2407.000000	19.318100
2406.000000	19.373000
2405.000000	19.405400
2404.000000	19.447500
2403.000000	19.491100
2402.000000	19.534000
2401.000000	19.557500
2400.000000	19.601400
2399.000000	19.657400
2398.000000	19.678500
2397.000000	19.717700
2396.000000	19.757000
2395.000000	19.794600
2394.000000	19.822900
2393.000000	19.831900
2392.000000	19.851100
2391.000000	19.873900
2390.000000	19.877400
2389.000000	19.891600
2388.000000	19.899600
2387.000000	19.908800
2386.000000	19.912300
2385.000000	19.892100
2384.000000	19.885200
2383.000000	19.880500
2382.000000	19.869400
2381.000000	19.861200
2380.000000	19.838600
2379.000000	19.815900
2378.000000	19.795300
2377.000000	19.766500
2376.000000	19.723800
2375.000000	19.686700
2374.000000	19.654900
2373.000000	19.631200
2372.000000	19.594400
2371.000000	19.560400
2370.000000	19.523100
2369.000000	19.460100
2368.000000	19.411100
2367.000000	19.361600
2366.000000	19.323300
2365.000000	19.279100
2364.000000	19.226400
2363.000000	19.183600
2362.000000	19.123500
2361.000000	19.057300
2360.000000	19.004200
2359.000000	18.957600
2358.000000	18.912600
2357.000000	18.868000
2356.000000	18.830600
2355.000000	18.784600
2354.000000	18.753800
2353.000000	18.731700
2352.000000	18.696800
2351.000000	18.687400
2350.000000	18.681500
2349.000000	18.672800
2348.000000	18.666300
2347.000000	18.674500
2346.000000	18.690200
2345.000000	18.698100
2344.000000	18.698100
2343.000000	18.703400
2342.000000	18.709700
2341.000000	18.694500
2340.000000	18.691200
2339.000000	18.682800
2338.000000	18.671100
2337.000000	18.659700
2336.000000	18.635700
2335.000000	18.594100
2334.000000	18.563100
2333.000000	18.525700
2332.000000	18.485200
2331.000000	18.436800
2330.000000	18.406700
2329.000000	18.368500
2328.000000	18.304100
2327.000000	18.241000
2326.000000	18.183900
2325.000000	18.112700
2324.000000	18.041500
2323.000000	17.973300
2322.000000	17.884100
2321.000000	17.800700
2320.000000	17.684100
2319.000000	17.576800
2318.000000	17.478700
2317.000000	17.377100
2316.000000	17.252400
2315.000000	17.130900
2314.000000	17.011000
2313.000000	16.906200
2312.000000	16.796700
2311.000000	16.697200
2310.000000	16.586400
2309.000000	16.486900
2308.000000	16.415900
2307.000000	16.375100
2306.000000	16.325400
2305.000000	16.295500
2304.000000	16.276000
2303.000000	16.258200
2302.000000	16.262400
2301.000000	16.268800
2300.000000	16.296400
2299.000000	16.328200
2298.000000	16.341600
2297.000000	16.357300
2296.000000	16.393400
2295.000000	16.397200
2294.000000	16.408500
2293.000000	16.391900
2292.000000	16.394600
2291.000000	16.391100
2290.000000	16.371500
2289.000000	16.330600
2288.000000	16.294200
2287.000000	16.254500
2286.000000	16.210500
2285.000000	16.147700
2284.000000	16.105900
2283.000000	16.035700
2282.000000	15.980500
2281.000000	15.905300
2280.000000	15.822900
2279.000000	15.747600
2278.000000	15.679000
2277.000000	15.612200
2276.000000	15.540900
2275.000000	15.472100
2274.000000	15.416600
2273.000000	15.351000
2272.000000	15.307100
2271.000000	15.291100
2270.000000	15.267500
2269.000000	15.252500
2268.000000	15.259300
2267.000000	15.276100
2266.000000	15.286100
2265.000000	15.349900
2264.000000	15.432700
2263.000000	15.514000
2262.000000	15.587000
2261.000000	15.717300
2260.000000	15.843000
2259.000000	15.976200
2258.000000	16.110800
2257.000000	16.248000
2256.000000	16.384600
2255.000000	16.550400
2254.000000	16.693600
2253.000000	16.824200
2252.000000	17.001400
2251.000000	17.134600
2250.000000	17.247700
2249.000000	17.375800
2248.000000	17.491500
2247.000000	17.584500
2246.000000	17.674000
2245.000000	17.789800
2244.000000	17.879400
2243.000000	17.965000
2242.000000	18.004900
2241.000000	18.081700
2240.000000	18.120000
2239.000000	18.169100
2238.000000	18.190900
2237.000000	18.214200
2236.000000	18.232700
2235.000000	18.244300
2234.000000	18.217900
2233.000000	18.181800
2232.000000	18.162600
2231.000000	18.105700
2230.000000	18.031300
2229.000000	17.949800
2228.000000	17.879600
2227.000000	17.784100
2226.000000	17.666900
2225.000000	17.575600
2224.000000	17.439600
2223.000000	17.299100
2222.000000	17.166900
2221.000000	17.027900
2220.000000	16.875300
2219.000000	16.741400
2218.000000	16.613700
2217.000000	16.477500
2216.000000	16.372700
2215.000000	16.250700
2214.000000	16.156400
2213.000000	16.090200
2212.000000	16.047700
2211.000000	16.017600
2210.000000	16.014400
2209.000000	16.040800
2208.000000	16.100800
2207.000000	16.185500
2206.000000	16.311300
2205.000000	16.464600
2204.000000	16.621000
2203.000000	16.815300
2202.000000	17.032200
2201.000000	17.264200
2200.000000	17.508500
2199.000000	17.772400
2198.000000	18.010300
2197.000000	18.257700
2196.000000	18.535000
2195.000000	18.773300
2194.000000	19.001600
2193.000000	19.240700
2192.000000	19.416400
2191.000000	19.605000
2190.000000	19.783000
2189.000000	19.943400
2188.000000	20.082800
2187.000000	20.219800
2186.000000	20.326300
2185.000000	20.440800
2184.000000	20.527000
2183.000000	20.598500
2182.000000	20.690300
2181.000000	20.753400
2180.000000	20.831100
2179.000000	20.874900
2178.000000	20.920400
2177.000000	20.965400
2176.000000	21.015800
2175.000000	21.061800
2174.000000	21.134300
2173.000000	21.187800
2172.000000	21.235800
2171.000000	21.299800
2170.000000	21.343400
2169.000000	21.428800
2168.000000	21.492700
2167.000000	21.550600
2166.000000	21.612700
2165.000000	21.682100
2164.000000	21.746800
2163.000000	21.834800
2162.000000	21.917700
2161.000000	21.988600
2160.000000	22.081700
2159.000000	22.174400
2158.000000	22.264400
2157.000000	22.375800
2156.000000	22.493600
2155.000000	22.606800
2154.000000	22.716400
2153.000000	22.839000
2152.000000	22.971600
2151.000000	23.088200
2150.000000	23.193100
2149.000000	23.315200
2148.000000	23.429900
2147.000000	23.556600
2146.000000	23.687600
2145.000000	23.829500
2144.000000	23.945600
2143.000000	24.056400
2142.000000	24.165100
2141.000000	24.289100
2140.000000	24.397900
2139.000000	24.510700
2138.000000	24.614700
2137.000000	24.693600
2136.000000	24.789500
2135.000000	24.889700
2134.000000	24.969700
2133.000000	25.042600
2132.000000	25.115500
2131.000000	25.192500
2130.000000	25.265500
2129.000000	25.330100
2128.000000	25.378400
2127.000000	25.432900
2126.000000	25.493600
2125.000000	25.524000
2124.000000	25.548700
2123.000000	25.594100
2122.000000	25.630400
2121.000000	25.644400
2120.000000	25.656000
2119.000000	25.674500
2118.000000	25.704500
2117.000000	25.712900
2116.000000	25.724500
2115.000000	25.718300
2114.000000	25.729600
2113.000000	25.736300
2112.000000	25.712700
2111.000000	25.708000
2110.000000	25.721700
2109.000000	25.720900
2108.000000	25.704800
2107.000000	25.681400
2106.000000	25.667400
2105.000000	25.661400
2104.000000	25.654300
2103.000000	25.639200
2102.000000	25.623300
2101.000000	25.608100
2100.000000	25.594100
2099.000000	25.585400
2098.000000	25.590000
2097.000000	25.589200
2096.000000	25.570200
2095.000000	25.563300
2094.000000	25.566800
2093.000000	25.571300
2092.000000	25.576700
2091.000000	25.571500
2090.000000	25.557600
2089.000000	25.564600
2088.000000	25.562500
2087.000000	25.543300
2086.000000	25.531600
2085.000000	25.518400
2084.000000	25.484200
2083.000000	25.454200
2082.000000	25.425600
2081.000000	25.392300
2080.000000	25.349400
2079.000000	25.299900
2078.000000	25.244900
2077.000000	25.181800
2076.000000	25.117500
2075.000000	25.036700
2074.000000	24.963000
2073.000000	24.892700
2072.000000	24.803200
2071.000000	24.718300
2070.000000	24.641600
2069.000000	24.552400
2068.000000	24.452600
2067.000000	24.359800
2066.000000	24.263100
2065.000000	24.181400
2064.000000	24.107800
2063.000000	24.022900
2062.000000	23.940000
2061.000000	23.874700
2060.000000	23.829900
2059.000000	23.781700
2058.000000	23.758300
2057.000000	23.743900
2056.000000	23.730800
2055.000000	23.753700
2054.000000	23.788200
2053.000000	23.843600
2052.000000	23.933400
2051.000000	24.033100
2050.000000	24.142300
2049.000000	24.277000
2048.000000	24.414100
2047.000000	24.579200
2046.000000	24.750200
2045.000000	24.938400
2044.000000	25.127300
2043.000000	25.303100
2042.000000	25.489800
2041.000000	25.684300
2040.000000	25.877400
2039.000000	26.065300
2038.000000	26.237000
2037.000000	26.400800
2036.000000	26.571000
2035.000000	26.732300
2034.000000	26.882000
2033.000000	27.022900
2032.000000	27.163200
2031.000000	27.293300
2030.000000	27.399400
2029.000000	27.509400
2028.000000	27.637300
2027.000000	27.756800
2026.000000	27.856400
2025.000000	27.942400
2024.000000	28.026800
2023.000000	28.111800
2022.000000	28.205200
2021.000000	28.294300
2020.000000	28.354100
2019.000000	28.414800
2018.000000	28.475600
2017.000000	28.534500
2016.000000	28.587900
2015.000000	28.632900
2014.000000	28.671900
2013.000000	28.701000
2012.000000	28.729500
2011.000000	28.741200
2010.000000	28.765500
2009.000000	28.785700
2008.000000	28.787800
2007.000000	28.793400
2006.000000	28.774600
2005.000000	28.771200
2004.000000	28.751400
2003.000000	28.734300
2002.000000	28.704300
2001.000000	28.656700
2000.000000	28.608600
1999.000000	28.594000
1998.000000	28.528400
1997.000000	28.485400
1996.000000	28.437000
1995.000000	28.358900
1994.000000	28.293600
1993.000000	28.214300
1992.000000	28.143600
1991.000000	28.075400
1990.000000	27.998600
1989.000000	27.908800
1988.000000	27.832100
1987.000000	27.730900
1986.000000	27.634700
1985.000000	27.561500
1984.000000	27.491300
1983.000000	27.383900
1982.000000	27.291000
1981.000000	27.199100
1980.000000	27.100700
1979.000000	27.016400
1978.000000	26.923200
1977.000000	26.840600
1976.000000	26.758400
1975.000000	26.662100
1974.000000	26.573200
1973.000000	26.504100
1972.000000	26.438800
1971.000000	26.326500
1970.000000	26.267900
1969.000000	26.168800
1968.000000	26.103700
1967.000000	26.007500
1966.000000	25.933300
1965.000000	25.879000
1964.000000	25.791500
1963.000000	25.722400
1962.000000	25.640100
1961.000000	25.543600
1960.000000	25.487700
1959.000000	25.365000
1958.000000	25.320800
1957.000000	25.216000
1956.000000	25.132600
1955.000000	25.039000
1954.000000	24.954400
1953.000000	24.888600
1952.000000	24.803400
1951.000000	24.737200
1950.000000	24.668200
1949.000000	24.596100
1948.000000	24.551200
1947.000000	24.498600
1946.000000	24.423700
1945.000000	24.382000
1944.000000	24.343200
1943.000000	24.292200
1942.000000	24.291700
1941.000000	24.267700
1940.000000	24.269200
1939.000000	24.276200
1938.000000	24.260700
1937.000000	24.277200
1936.000000	24.289800
1935.000000	24.298600
1934.000000	24.352600
1933.000000	24.415100
1932.000000	24.505000
1931.000000	24.588500
1930.000000	24.665000
1929.000000	24.785900
1928.000000	24.891300
1927.000000	25.010200
1926.000000	25.139900
1925.000000	25.292900
1924.000000	25.456300
1923.000000	25.602500
1922.000000	25.793600
1921.000000	26.004900
1920.000000	26.207500
1919.000000	26.397400
1918.000000	26.622700
1917.000000	26.839300
1916.000000	27.074000
1915.000000	27.347400
1914.000000	27.653400
1913.000000	27.933000
1912.000000	28.217900
1911.000000	28.495700
1910.000000	28.789500
1909.000000	29.078000
1908.000000	29.418800
1907.000000	29.789100
1906.000000	30.189500
1905.000000	30.595300
1904.000000	30.991200
1903.000000	31.355200
1902.000000	31.709400
1901.000000	32.123300
1900.000000	32.552500
1899.000000	32.943800
1898.000000	33.358800
1897.000000	33.781600
1896.000000	34.145000
1895.000000	34.540700
1894.000000	34.964200
1893.000000	35.410300
1892.000000	35.884400
1891.000000	36.321000
1890.000000	36.747700
1889.000000	37.151800
1888.000000	37.544900
1887.000000	37.936700
1886.000000	38.349500
1885.000000	38.800000
1884.000000	39.228600
1883.000000	39.615200
1882.000000	39.968400
1881.000000	40.349700
1880.000000	40.687700
1879.000000	41.022700
1878.000000	41.346000
1877.000000	41.656700
1876.000000	41.952200
1875.000000	42.223100
1874.000000	42.477200
1873.000000	42.714000
1872.000000	42.918600
1871.000000	43.065900
1870.000000	43.168600
1869.000000	43.282200
1868.000000	43.338900
1867.000000	43.371800
1866.000000	43.421000
1865.000000	43.472400
1864.000000	43.541200
1863.000000	43.639000
1862.000000	43.734900
1861.000000	43.812900
1860.000000	43.873800
1859.000000	43.888000
1858.000000	43.907000
1857.000000	43.921000
1856.000000	43.933300
1855.000000	43.939800
1854.000000	43.904800
1853.000000	43.853000
1852.000000	43.860500
1851.000000	43.918600
1850.000000	44.004200
1849.000000	44.018800
1848.000000	43.931500
1847.000000	43.811000
1846.000000	43.718100
1845.000000	43.692800
1844.000000	43.714800
1843.000000	43.750400
1842.000000	43.737100
1841.000000	43.696500
1840.000000	43.653100
1839.000000	43.598900
1838.000000	43.555800
1837.000000	43.490100
1836.000000	43.393500
1835.000000	43.290400
1834.000000	43.215200
1833.000000	43.175600
1832.000000	43.138700
1831.000000	43.097100
1830.000000	43.046400
1829.000000	42.973200
1828.000000	42.891600
1827.000000	42.833000
1826.000000	42.780800
1825.000000	42.737600
1824.000000	42.739300
1823.000000	42.798500
1822.000000	42.828000
1821.000000	42.799900
1820.000000	42.749100
1819.000000	42.696300
1818.000000	42.666400
1817.000000	42.669800
1816.000000	42.674100
1815.000000	42.648800
1814.000000	42.637900
1813.000000	42.632000
1812.000000	42.618900
1811.000000	42.562800
1810.000000	42.503200
1809.000000	42.480800
1808.000000	42.457400
1807.000000	42.428900
1806.000000	42.384200
1805.000000	42.333500
1804.000000	42.304100
1803.000000	42.289800
1802.000000	42.277500
1801.000000	42.237600
1800.000000	42.164300
1799.000000	42.118000
1798.000000	42.090400
1797.000000	42.064300
1796.000000	42.052700
1795.000000	42.013500
1794.000000	41.966800
1793.000000	41.928000
1792.000000	41.898500
1791.000000	41.869600
1790.000000	41.832100
1789.000000	41.802000
1788.000000	41.796500
1787.000000	41.763000
1786.000000	41.726400
1785.000000	41.698800
1784.000000	41.638900
1783.000000	41.594700
1782.000000	41.559700
1781.000000	41.508600
1780.000000	41.452600
1779.000000	41.380100
1778.000000	41.304000
1777.000000	41.234700
1776.000000	41.128200
1775.000000	41.042200
1774.000000	40.966600
1773.000000	40.893400
1772.000000	40.789200
1771.000000	40.673500
1770.000000	40.587600
1769.000000	40.480000
1768.000000	40.408800
1767.000000	40.336900
1766.000000	40.267000
1765.000000	40.193500
1764.000000	40.160100
1763.000000	40.145900
1762.000000	40.134800
1761.000000	40.130000
1760.000000	40.139300
1759.000000	40.130200
1758.000000	40.137000
1757.000000	40.131900
1756.000000	40.121400
1755.000000	40.098400
1754.000000	40.075700
1753.000000	40.036900
1752.000000	39.999500
1751.000000	39.950900
1750.000000	39.901500
1749.000000	39.828600
1748.000000	39.730200
1747.000000	39.636300
1746.000000	39.517200
1745.000000	39.399200
1744.000000	39.251800
1743.000000	39.105000
1742.000000	38.951000
1741.000000	38.796100
1740.000000	38.625000
1739.000000	38.478600
1738.000000	38.352000
1737.000000	38.245100
1736.000000	38.164900
1735.000000	38.097100
1734.000000	38.085400
1733.000000	38.077800
1732.000000	38.076200
1731.000000	38.071100
1730.000000	38.102500
1729.000000	38.131300
1728.000000	38.162600
1727.000000	38.178700
1726.000000	38.184500
1725.000000	38.221600
1724.000000	38.234800
1723.000000	38.272200
1722.000000	38.330200
1721.000000	38.416300
1720.000000	38.525400
1719.000000	38.639500
1718.000000	38.766500
1717.000000	38.917100
1716.000000	39.049300
1715.000000	39.189100
1714.000000	39.313700
1713.000000	39.425900
1712.000000	39.510900
1711.000000	39.580600
1710.000000	39.630000
1709.000000	39.666400
1708.000000	39.683100
1707.000000	39.704200
1706.000000	39.683800
1705.000000	39.662300
1704.000000	39.629100
1703.000000	39.546800
1702.000000	39.477400
1701.000000	39.386800
1700.000000	39.268900
1699.000000	39.192500
1698.000000	39.095200
1697.000000	39.035400
1696.000000	39.024200
1695.000000	39.023500
1694.000000	39.019000
1693.000000	39.039700
1692.000000	39.071600
1691.000000	39.111600
1690.000000	39.152400
1689.000000	39.186300
1688.000000	39.245000
1687.000000	39.316200
1686.000000	39.422700
1685.000000	39.589400
1684.000000	39.787500
1683.000000	40.064800
1682.000000	40.398200
1681.000000	40.746800
1680.000000	41.100800
1679.000000	41.479100
1678.000000	41.818800
1677.000000	42.156600
1676.000000	42.464200
1675.000000	42.742900
1674.000000	42.988800
1673.000000	43.229600
1672.000000	43.457100
1671.000000	43.680300
1670.000000	43.861600
1669.000000	44.066400
1668.000000	44.228900
1667.000000	44.388100
1666.000000	44.518900
1665.000000	44.647700
1664.000000	44.766700
1663.000000	44.885600
1662.000000	44.995400
1661.000000	45.099800
1660.000000	45.161400
1659.000000	45.244000
1658.000000	45.301500
1657.000000	45.351200
1656.000000	45.402600
1655.000000	45.401100
1654.000000	45.437300
1653.000000	45.444700
1652.000000	45.461500
1651.000000	45.458900
1650.000000	45.440000
1649.000000	45.426300
1648.000000	45.409700
1647.000000	45.383800
1646.000000	45.356300
1645.000000	45.320600
1644.000000	45.284300
1643.000000	45.256100
1642.000000	45.220500
1641.000000	45.204600
1640.000000	45.185400
1639.000000	45.146100
1638.000000	45.120000
1637.000000	45.078300
1636.000000	45.037000
1635.000000	45.005100
1634.000000	44.958000
1633.000000	44.899100
1632.000000	44.844600
1631.000000	44.800200
1630.000000	44.735900
1629.000000	44.671700
1628.000000	44.632100
1627.000000	44.569800
1626.000000	44.506400
1625.000000	44.432800
