PE UV       SUBTECH     SPECTRUM    ASCII       PEDS        4.00        
   -1
CICIMAUCR0012-3.Sample.ASC
24/04/04
15:58:33.00
24/04/04
15:58:33.00
Vinicio Soto Monge
C. cupreomarginata
250,000000
1
Lambda 1050
1050L1511233
PerkinElmer UV WinLab 6.3.2.0749 / 2.02.05 Lambda 900 UV/VIS/NIR, Aug  7 2015 09:38:08

0
0
3350/servo 860,8/2
0
0
UV/VIS
1
1
1
DoubleDePol,CommonBeamDepol,RBeamAtt,SBeamAtt,60mm sphere, WB InGaAs Detector
0
0
0
0
Program
Program
3350/servo 860,8/2
3350/0,2 860,8/0,2
3350/0,2 860,8/0,2
0
15.00
 
 
 
0
 
860,8
319,2
860,8
Front
100
on
S:100 R:100
0
0
0
0
 
0
 
 
 
0
 
 
0
0
0
0
0
 
 
 
 
0
0


0
0
#HDR
-1
-1
#GR
nm
%R
1.0
0.0
2500,000000
-1,000000
2251
8
59,015000
5,370900
#DATA
2500.000000	7.544200
2499.000000	7.529700
2498.000000	7.497400
2497.000000	7.481500
2496.000000	7.418600
2495.000000	7.485800
2494.000000	7.391400
2493.000000	7.473700
2492.000000	7.396800
2491.000000	7.483300
2490.000000	7.428700
2489.000000	7.435200
2488.000000	7.440700
2487.000000	7.454900
2486.000000	7.464200
2485.000000	7.431100
2484.000000	7.499000
2483.000000	7.450900
2482.000000	7.418900
2481.000000	7.461500
2480.000000	7.539900
2479.000000	7.528000
2478.000000	7.536200
2477.000000	7.532800
2476.000000	7.513100
2475.000000	7.549400
2474.000000	7.563400
2473.000000	7.567800
2472.000000	7.597100
2471.000000	7.592600
2470.000000	7.612000
2469.000000	7.614900
2468.000000	7.654400
2467.000000	7.667600
2466.000000	7.671800
2465.000000	7.711500
2464.000000	7.731200
2463.000000	7.786000
2462.000000	7.807700
2461.000000	7.851000
2460.000000	7.896900
2459.000000	7.970600
2458.000000	7.990000
2457.000000	8.064000
2456.000000	8.118700
2455.000000	8.223000
2454.000000	8.241300
2453.000000	8.320800
2452.000000	8.367600
2451.000000	8.471900
2450.000000	8.535400
2449.000000	8.595200
2448.000000	8.669200
2447.000000	8.779300
2446.000000	8.819400
2445.000000	8.916000
2444.000000	9.006700
2443.000000	9.072800
2442.000000	9.142300
2441.000000	9.216100
2440.000000	9.286900
2439.000000	9.358000
2438.000000	9.428200
2437.000000	9.503700
2436.000000	9.565100
2435.000000	9.628100
2434.000000	9.694100
2433.000000	9.762300
2432.000000	9.821300
2431.000000	9.893500
2430.000000	9.945900
2429.000000	9.999300
2428.000000	10.063900
2427.000000	10.105600
2426.000000	10.160800
2425.000000	10.198300
2424.000000	10.251400
2423.000000	10.320800
2422.000000	10.345300
2421.000000	10.404500
2420.000000	10.495400
2419.000000	10.545300
2418.000000	10.593700
2417.000000	10.637000
2416.000000	10.662300
2415.000000	10.690300
2414.000000	10.731500
2413.000000	10.783300
2412.000000	10.822900
2411.000000	10.845600
2410.000000	10.893100
2409.000000	10.927200
2408.000000	10.961800
2407.000000	10.994100
2406.000000	11.021000
2405.000000	11.054400
2404.000000	11.091500
2403.000000	11.131300
2402.000000	11.171200
2401.000000	11.195800
2400.000000	11.223800
2399.000000	11.261000
2398.000000	11.296800
2397.000000	11.310200
2396.000000	11.334900
2395.000000	11.367100
2394.000000	11.403200
2393.000000	11.431700
2392.000000	11.455800
2391.000000	11.489600
2390.000000	11.496600
2389.000000	11.515400
2388.000000	11.525300
2387.000000	11.535800
2386.000000	11.556400
2385.000000	11.570100
2384.000000	11.558800
2383.000000	11.550900
2382.000000	11.550400
2381.000000	11.546600
2380.000000	11.538900
2379.000000	11.518200
2378.000000	11.505800
2377.000000	11.508000
2376.000000	11.490400
2375.000000	11.473000
2374.000000	11.450300
2373.000000	11.422000
2372.000000	11.400300
2371.000000	11.368300
2370.000000	11.334400
2369.000000	11.300500
2368.000000	11.242800
2367.000000	11.192500
2366.000000	11.161500
2365.000000	11.113000
2364.000000	11.061700
2363.000000	10.999600
2362.000000	10.949100
2361.000000	10.898700
2360.000000	10.836100
2359.000000	10.777300
2358.000000	10.721400
2357.000000	10.673000
2356.000000	10.629500
2355.000000	10.581200
2354.000000	10.540700
2353.000000	10.520400
2352.000000	10.528100
2351.000000	10.531000
2350.000000	10.525200
2349.000000	10.530300
2348.000000	10.542400
2347.000000	10.573700
2346.000000	10.609600
2345.000000	10.639200
2344.000000	10.682200
2343.000000	10.705000
2342.000000	10.725300
2341.000000	10.759100
2340.000000	10.770400
2339.000000	10.781000
2338.000000	10.778700
2337.000000	10.767800
2336.000000	10.767400
2335.000000	10.755200
2334.000000	10.735300
2333.000000	10.711100
2332.000000	10.664000
2331.000000	10.640600
2330.000000	10.585300
2329.000000	10.514100
2328.000000	10.467100
2327.000000	10.416900
2326.000000	10.336300
2325.000000	10.254100
2324.000000	10.189900
2323.000000	10.115200
2322.000000	10.033500
2321.000000	9.934600
2320.000000	9.850000
2319.000000	9.733500
2318.000000	9.639100
2317.000000	9.524200
2316.000000	9.428400
2315.000000	9.317700
2314.000000	9.216200
2313.000000	9.116700
2312.000000	9.008800
2311.000000	8.921000
2310.000000	8.837900
2309.000000	8.777500
2308.000000	8.713200
2307.000000	8.671700
2306.000000	8.637500
2305.000000	8.635600
2304.000000	8.641500
2303.000000	8.647700
2302.000000	8.686900
2301.000000	8.725500
2300.000000	8.765000
2299.000000	8.814400
2298.000000	8.871200
2297.000000	8.911700
2296.000000	8.965300
2295.000000	8.999900
2294.000000	9.038300
2293.000000	9.070400
2292.000000	9.115500
2291.000000	9.115200
2290.000000	9.122100
2289.000000	9.102400
2288.000000	9.092700
2287.000000	9.063000
2286.000000	8.999700
2285.000000	8.962800
2284.000000	8.914600
2283.000000	8.853900
2282.000000	8.807400
2281.000000	8.736800
2280.000000	8.665000
2279.000000	8.598800
2278.000000	8.531000
2277.000000	8.490700
2276.000000	8.416800
2275.000000	8.370100
2274.000000	8.319500
2273.000000	8.267600
2272.000000	8.229400
2271.000000	8.200200
2270.000000	8.186000
2269.000000	8.185700
2268.000000	8.188300
2267.000000	8.210700
2266.000000	8.237000
2265.000000	8.294800
2264.000000	8.398000
2263.000000	8.451500
2262.000000	8.546700
2261.000000	8.648200
2260.000000	8.778400
2259.000000	8.891800
2258.000000	9.046600
2257.000000	9.173600
2256.000000	9.319100
2255.000000	9.503100
2254.000000	9.635200
2253.000000	9.780000
2252.000000	9.926100
2251.000000	10.071500
2250.000000	10.174500
2249.000000	10.286200
2248.000000	10.421100
2247.000000	10.516900
2246.000000	10.643000
2245.000000	10.730200
2244.000000	10.792400
2243.000000	10.888100
2242.000000	10.931500
2241.000000	11.045900
2240.000000	11.089900
2239.000000	11.132300
2238.000000	11.201800
2237.000000	11.227500
2236.000000	11.281600
2235.000000	11.308200
2234.000000	11.307900
2233.000000	11.361800
2232.000000	11.317000
2231.000000	11.353200
2230.000000	11.325600
2229.000000	11.293100
2228.000000	11.280400
2227.000000	11.238000
2226.000000	11.188800
2225.000000	11.136800
2224.000000	11.077500
2223.000000	11.013400
2222.000000	10.961700
2221.000000	10.886600
2220.000000	10.804400
2219.000000	10.711800
2218.000000	10.645900
2217.000000	10.569000
2216.000000	10.481200
2215.000000	10.452200
2214.000000	10.379700
2213.000000	10.344400
2212.000000	10.332800
2211.000000	10.312900
2210.000000	10.274000
2209.000000	10.330700
2208.000000	10.369500
2207.000000	10.420600
2206.000000	10.488500
2205.000000	10.581500
2204.000000	10.691700
2203.000000	10.818500
2202.000000	10.940700
2201.000000	11.101100
2200.000000	11.249100
2199.000000	11.417600
2198.000000	11.566500
2197.000000	11.771400
2196.000000	11.910700
2195.000000	12.068900
2194.000000	12.234800
2193.000000	12.393600
2192.000000	12.539000
2191.000000	12.663300
2190.000000	12.769800
2189.000000	12.896900
2188.000000	12.979700
2187.000000	13.065700
2186.000000	13.147600
2185.000000	13.235900
2184.000000	13.274800
2183.000000	13.333200
2182.000000	13.395600
2181.000000	13.448900
2180.000000	13.480600
2179.000000	13.518900
2178.000000	13.548300
2177.000000	13.584400
2176.000000	13.600700
2175.000000	13.642600
2174.000000	13.703700
2173.000000	13.721300
2172.000000	13.756900
2171.000000	13.788100
2170.000000	13.831200
2169.000000	13.863200
2168.000000	13.906900
2167.000000	13.946300
2166.000000	13.957100
2165.000000	14.018500
2164.000000	14.087300
2163.000000	14.113100
2162.000000	14.152000
2161.000000	14.198100
2160.000000	14.241200
2159.000000	14.299000
2158.000000	14.354200
2157.000000	14.424900
2156.000000	14.491400
2155.000000	14.560400
2154.000000	14.621800
2153.000000	14.687700
2152.000000	14.747200
2151.000000	14.822800
2150.000000	14.874400
2149.000000	14.936000
2148.000000	15.009500
2147.000000	15.082200
2146.000000	15.137900
2145.000000	15.194800
2144.000000	15.273900
2143.000000	15.343000
2142.000000	15.392100
2141.000000	15.446500
2140.000000	15.506900
2139.000000	15.565300
2138.000000	15.625800
2137.000000	15.652500
2136.000000	15.699300
2135.000000	15.754300
2134.000000	15.784000
2133.000000	15.825900
2132.000000	15.867800
2131.000000	15.879400
2130.000000	15.903600
2129.000000	15.943500
2128.000000	15.957700
2127.000000	15.957600
2126.000000	15.972000
2125.000000	15.990400
2124.000000	15.993400
2123.000000	15.997200
2122.000000	15.997300
2121.000000	15.995300
2120.000000	15.990600
2119.000000	15.990300
2118.000000	15.978000
2117.000000	15.975800
2116.000000	15.978700
2115.000000	15.970500
2114.000000	15.942100
2113.000000	15.913400
2112.000000	15.901500
2111.000000	15.884900
2110.000000	15.869000
2109.000000	15.856700
2108.000000	15.827900
2107.000000	15.813600
2106.000000	15.801700
2105.000000	15.791000
2104.000000	15.770800
2103.000000	15.739800
2102.000000	15.718600
2101.000000	15.696700
2100.000000	15.689000
2099.000000	15.670000
2098.000000	15.639600
2097.000000	15.628700
2096.000000	15.615300
2095.000000	15.591800
2094.000000	15.579400
2093.000000	15.579200
2092.000000	15.563800
2091.000000	15.542100
2090.000000	15.530300
2089.000000	15.519000
2088.000000	15.506400
2087.000000	15.504000
2086.000000	15.501100
2085.000000	15.485700
2084.000000	15.456300
2083.000000	15.435900
2082.000000	15.422600
2081.000000	15.414700
2080.000000	15.387000
2079.000000	15.360400
2078.000000	15.337700
2077.000000	15.292100
2076.000000	15.259200
2075.000000	15.230600
2074.000000	15.196500
2073.000000	15.168000
2072.000000	15.133300
2071.000000	15.103400
2070.000000	15.059600
2069.000000	15.007000
2068.000000	14.973400
2067.000000	14.929000
2066.000000	14.893300
2065.000000	14.857200
2064.000000	14.803100
2063.000000	14.791200
2062.000000	14.753700
2061.000000	14.729500
2060.000000	14.700800
2059.000000	14.691000
2058.000000	14.678300
2057.000000	14.680700
2056.000000	14.694200
2055.000000	14.706700
2054.000000	14.725100
2053.000000	14.756600
2052.000000	14.817400
2051.000000	14.872200
2050.000000	14.962200
2049.000000	15.052800
2048.000000	15.147100
2047.000000	15.241600
2046.000000	15.362000
2045.000000	15.464200
2044.000000	15.586700
2043.000000	15.710900
2042.000000	15.841900
2041.000000	15.951100
2040.000000	16.081700
2039.000000	16.212600
2038.000000	16.320700
2037.000000	16.429400
2036.000000	16.536300
2035.000000	16.649800
2034.000000	16.754700
2033.000000	16.856100
2032.000000	16.944600
2031.000000	17.036600
2030.000000	17.126900
2029.000000	17.208800
2028.000000	17.304900
2027.000000	17.375300
2026.000000	17.435600
2025.000000	17.507300
2024.000000	17.568600
2023.000000	17.611900
2022.000000	17.662700
2021.000000	17.738000
2020.000000	17.789900
2019.000000	17.838400
2018.000000	17.892100
2017.000000	17.941400
2016.000000	17.969500
2015.000000	18.016400
2014.000000	18.040300
2013.000000	18.088400
2012.000000	18.119600
2011.000000	18.125700
2010.000000	18.130100
2009.000000	18.153600
2008.000000	18.153900
2007.000000	18.165400
2006.000000	18.155600
2005.000000	18.141200
2004.000000	18.145800
2003.000000	18.123700
2002.000000	18.098500
2001.000000	18.079100
2000.000000	18.045000
1999.000000	18.014000
1998.000000	17.982700
1997.000000	17.938300
1996.000000	17.898200
1995.000000	17.868700
1994.000000	17.803700
1993.000000	17.758600
1992.000000	17.695100
1991.000000	17.647400
1990.000000	17.589400
1989.000000	17.512300
1988.000000	17.449200
1987.000000	17.392100
1986.000000	17.316400
1985.000000	17.244000
1984.000000	17.182500
1983.000000	17.101700
1982.000000	17.016100
1981.000000	16.961100
1980.000000	16.869200
1979.000000	16.816400
1978.000000	16.734600
1977.000000	16.657800
1976.000000	16.576300
1975.000000	16.496600
1974.000000	16.436500
1973.000000	16.368800
1972.000000	16.294600
1971.000000	16.211000
1970.000000	16.146300
1969.000000	16.086400
1968.000000	16.026000
1967.000000	15.970900
1966.000000	15.906200
1965.000000	15.820900
1964.000000	15.758900
1963.000000	15.686900
1962.000000	15.630600
1961.000000	15.537300
1960.000000	15.500000
1959.000000	15.435300
1958.000000	15.354500
1957.000000	15.284900
1956.000000	15.212900
1955.000000	15.172800
1954.000000	15.084600
1953.000000	15.021100
1952.000000	14.954700
1951.000000	14.924900
1950.000000	14.845700
1949.000000	14.799500
1948.000000	14.756500
1947.000000	14.699300
1946.000000	14.641100
1945.000000	14.613500
1944.000000	14.583000
1943.000000	14.537200
1942.000000	14.521100
1941.000000	14.518600
1940.000000	14.482900
1939.000000	14.502600
1938.000000	14.500500
1937.000000	14.500300
1936.000000	14.505500
1935.000000	14.530300
1934.000000	14.542500
1933.000000	14.571400
1932.000000	14.652200
1931.000000	14.696400
1930.000000	14.758400
1929.000000	14.826300
1928.000000	14.903500
1927.000000	14.988900
1926.000000	15.059700
1925.000000	15.180500
1924.000000	15.288900
1923.000000	15.393400
1922.000000	15.523500
1921.000000	15.677100
1920.000000	15.842800
1919.000000	15.958100
1918.000000	16.111700
1917.000000	16.293700
1916.000000	16.440600
1915.000000	16.600400
1914.000000	16.815900
1913.000000	17.047800
1912.000000	17.228700
1911.000000	17.417800
1910.000000	17.642500
1909.000000	17.813100
1908.000000	18.025400
1907.000000	18.260100
1906.000000	18.515300
1905.000000	18.781600
1904.000000	19.028700
1903.000000	19.266300
1902.000000	19.520600
1901.000000	19.771200
1900.000000	20.030200
1899.000000	20.343700
1898.000000	20.598500
1897.000000	20.876700
1896.000000	21.132500
1895.000000	21.373100
1894.000000	21.629800
1893.000000	21.895400
1892.000000	22.180900
1891.000000	22.492400
1890.000000	22.758100
1889.000000	23.017300
1888.000000	23.332800
1887.000000	23.618500
1886.000000	23.934300
1885.000000	24.290000
1884.000000	24.677300
1883.000000	25.072000
1882.000000	25.454300
1881.000000	25.883300
1880.000000	26.294300
1879.000000	26.685300
1878.000000	27.065200
1877.000000	27.425500
1876.000000	27.771500
1875.000000	28.089200
1874.000000	28.369400
1873.000000	28.624300
1872.000000	28.863200
1871.000000	29.084300
1870.000000	29.234300
1869.000000	29.367000
1868.000000	29.511600
1867.000000	29.604500
1866.000000	29.671200
1865.000000	29.742700
1864.000000	29.803200
1863.000000	29.871600
1862.000000	29.935600
1861.000000	29.980800
1860.000000	30.019100
1859.000000	30.045200
1858.000000	30.038000
1857.000000	30.040300
1856.000000	30.028500
1855.000000	30.010000
1854.000000	29.978600
1853.000000	29.932500
1852.000000	29.876200
1851.000000	29.846200
1850.000000	29.835400
1849.000000	29.836300
1848.000000	29.779500
1847.000000	29.679800
1846.000000	29.566100
1845.000000	29.498700
1844.000000	29.486200
1843.000000	29.498400
1842.000000	29.494500
1841.000000	29.460800
1840.000000	29.425700
1839.000000	29.391000
1838.000000	29.340000
1837.000000	29.273400
1836.000000	29.212500
1835.000000	29.138000
1834.000000	29.047800
1833.000000	28.968500
1832.000000	28.917000
1831.000000	28.868300
1830.000000	28.796800
1829.000000	28.732500
1828.000000	28.643600
1827.000000	28.558800
1826.000000	28.500600
1825.000000	28.444900
1824.000000	28.397600
1823.000000	28.395600
1822.000000	28.429600
1821.000000	28.407600
1820.000000	28.348600
1819.000000	28.303500
1818.000000	28.276000
1817.000000	28.278600
1816.000000	28.283700
1815.000000	28.270800
1814.000000	28.251900
1813.000000	28.249500
1812.000000	28.240500
1811.000000	28.207400
1810.000000	28.169300
1809.000000	28.131200
1808.000000	28.118400
1807.000000	28.092700
1806.000000	28.032400
1805.000000	27.980900
1804.000000	27.933800
1803.000000	27.906700
1802.000000	27.880500
1801.000000	27.831600
1800.000000	27.772700
1799.000000	27.733500
1798.000000	27.690000
1797.000000	27.655000
1796.000000	27.618000
1795.000000	27.575300
1794.000000	27.520800
1793.000000	27.468100
1792.000000	27.412100
1791.000000	27.369600
1790.000000	27.325100
1789.000000	27.269900
1788.000000	27.231400
1787.000000	27.168800
1786.000000	27.096200
1785.000000	27.040400
1784.000000	26.958600
1783.000000	26.889100
1782.000000	26.814800
1781.000000	26.738900
1780.000000	26.676600
1779.000000	26.598900
1778.000000	26.504100
1777.000000	26.424700
1776.000000	26.318300
1775.000000	26.203700
1774.000000	26.085600
1773.000000	25.977600
1772.000000	25.852800
1771.000000	25.738500
1770.000000	25.627700
1769.000000	25.509800
1768.000000	25.389600
1767.000000	25.282700
1766.000000	25.192300
1765.000000	25.105500
1764.000000	25.043100
1763.000000	25.033900
1762.000000	25.031700
1761.000000	25.061400
1760.000000	25.107300
1759.000000	25.137600
1758.000000	25.186000
1757.000000	25.247100
1756.000000	25.278700
1755.000000	25.288600
1754.000000	25.307100
1753.000000	25.282700
1752.000000	25.260100
1751.000000	25.230900
1750.000000	25.189800
1749.000000	25.120700
1748.000000	25.039500
1747.000000	24.940400
1746.000000	24.834700
1745.000000	24.716500
1744.000000	24.565600
1743.000000	24.404700
1742.000000	24.208000
1741.000000	23.996200
1740.000000	23.784200
1739.000000	23.577500
1738.000000	23.390800
1737.000000	23.216400
1736.000000	23.083200
1735.000000	22.996300
1734.000000	22.950200
1733.000000	22.910500
1732.000000	22.945400
1731.000000	22.987400
1730.000000	23.061600
1729.000000	23.163300
1728.000000	23.240100
1727.000000	23.319500
1726.000000	23.405900
1725.000000	23.463300
1724.000000	23.499500
1723.000000	23.536500
1722.000000	23.549200
1721.000000	23.591600
1720.000000	23.601300
1719.000000	23.649200
1718.000000	23.657300
1717.000000	23.730400
1716.000000	23.794100
1715.000000	23.879000
1714.000000	23.936800
1713.000000	23.989000
1712.000000	24.037500
1711.000000	24.067300
1710.000000	24.102600
1709.000000	24.104600
1708.000000	24.096700
1707.000000	24.074600
1706.000000	24.059300
1705.000000	24.020200
1704.000000	23.956800
1703.000000	23.901600
1702.000000	23.815500
1701.000000	23.681100
1700.000000	23.573000
1699.000000	23.394600
1698.000000	23.273100
1697.000000	23.151400
1696.000000	23.076300
1695.000000	23.062000
1694.000000	23.080900
1693.000000	23.162000
1692.000000	23.268600
1691.000000	23.398600
1690.000000	23.502000
1689.000000	23.614900
1688.000000	23.686900
1687.000000	23.718600
1686.000000	23.735300
1685.000000	23.750400
1684.000000	23.846600
1683.000000	23.990800
1682.000000	24.260800
1681.000000	24.641600
1680.000000	25.102600
1679.000000	25.583200
1678.000000	26.054900
1677.000000	26.534000
1676.000000	26.962700
1675.000000	27.292200
1674.000000	27.612100
1673.000000	27.888300
1672.000000	28.140100
1671.000000	28.345100
1670.000000	28.542800
1669.000000	28.709000
1668.000000	28.892100
1667.000000	28.996500
1666.000000	29.105000
1665.000000	29.202000
1664.000000	29.311600
1663.000000	29.407700
1662.000000	29.457000
1661.000000	29.524900
1660.000000	29.574200
1659.000000	29.622800
1658.000000	29.648900
1657.000000	29.664100
1656.000000	29.716500
1655.000000	29.690300
1654.000000	29.705900
1653.000000	29.709600
1652.000000	29.704900
1651.000000	29.687500
1650.000000	29.658700
1649.000000	29.614500
1648.000000	29.584200
1647.000000	29.548200
1646.000000	29.500400
1645.000000	29.462300
1644.000000	29.413700
1643.000000	29.361000
1642.000000	29.310900
1641.000000	29.264500
1640.000000	29.220700
1639.000000	29.175500
1638.000000	29.139300
1637.000000	29.093500
1636.000000	29.026400
1635.000000	28.958000
1634.000000	28.884300
1633.000000	28.822800
1632.000000	28.772900
1631.000000	28.723300
1630.000000	28.636200
1629.000000	28.559700
1628.000000	28.501300
1627.000000	28.431400
1626.000000	28.333000
1625.000000	28.271700
1624.000000	28.211300
1623.000000	28.132200
1622.000000	28.074600
1621.000000	28.016300
1620.000000	27.952400
1619.000000	27.864200
1618.000000	27.809400
