PE UV       SUBTECH     SPECTRUM    ASCII       PEDS        4.00        
   -1
CICIMAUCR0071-1.ASC
24/04/03
15:28:35.00
24/04/03
15:28:35.00
Vinicio Soto Monge
C. resplendens
250,000000
1
Lambda 1050
1050L1511233
PerkinElmer UV WinLab 6.3.2.0749 / 2.02.05 Lambda 900 UV/VIS/NIR, Aug  7 2015 09:38:08

0
0
3350/servo 860,8/2
0
0
UV/VIS
1
1
1
DoubleDePol,CommonBeamDepol,RBeamAtt,SBeamAtt,60mm sphere, WB InGaAs Detector
0
0
0
0
Program
Program
3350/servo 860,8/2
3350/0,2 860,8/0,2
3350/0,2 860,8/0,2
0
15.00
 
 
 
0
 
860,8
319,2
860,8
Front
100
on
S:100 R:100
0
0
0
0
 
0
 
 
 
0
 
 
0
0
0
0
0
 
 
 
 
0
0


0
0
#HDR
-1
-1
#GR
nm
%R
1.0
0.0
2500,000000
-1,000000
2251
8
72,736100
5,101300
#DATA
2500.000000	8.107500
2499.000000	7.884900
2498.000000	8.054600
2497.000000	7.951000
2496.000000	8.033100
2495.000000	8.090500
2494.000000	8.108200
2493.000000	7.994500
2492.000000	8.003800
2491.000000	8.025600
2490.000000	8.049200
2489.000000	8.089600
2488.000000	8.072400
2487.000000	8.045000
2486.000000	8.051200
2485.000000	8.068100
2484.000000	8.088600
2483.000000	8.093400
2482.000000	8.059900
2481.000000	8.133700
2480.000000	8.142400
2479.000000	8.151400
2478.000000	8.184700
2477.000000	8.168600
2476.000000	8.225100
2475.000000	8.234400
2474.000000	8.204400
2473.000000	8.296000
2472.000000	8.280700
2471.000000	8.315200
2470.000000	8.387800
2469.000000	8.407500
2468.000000	8.416700
2467.000000	8.459200
2466.000000	8.495600
2465.000000	8.524100
2464.000000	8.514100
2463.000000	8.581500
2462.000000	8.583900
2461.000000	8.650500
2460.000000	8.707700
2459.000000	8.739800
2458.000000	8.772200
2457.000000	8.829700
2456.000000	8.881400
2455.000000	8.930500
2454.000000	8.992800
2453.000000	9.022000
2452.000000	9.060900
2451.000000	9.172200
2450.000000	9.219400
2449.000000	9.244600
2448.000000	9.319300
2447.000000	9.396800
2446.000000	9.457300
2445.000000	9.538400
2444.000000	9.621600
2443.000000	9.658200
2442.000000	9.734500
2441.000000	9.810100
2440.000000	9.878100
2439.000000	9.944800
2438.000000	10.030200
2437.000000	10.083100
2436.000000	10.132100
2435.000000	10.211200
2434.000000	10.279000
2433.000000	10.364100
2432.000000	10.421900
2431.000000	10.502000
2430.000000	10.566000
2429.000000	10.620800
2428.000000	10.693800
2427.000000	10.753200
2426.000000	10.796700
2425.000000	10.874600
2424.000000	10.949500
2423.000000	11.015500
2422.000000	11.077700
2421.000000	11.120200
2420.000000	11.151600
2419.000000	11.160000
2418.000000	11.163800
2417.000000	11.184400
2416.000000	11.206800
2415.000000	11.249600
2414.000000	11.307800
2413.000000	11.340100
2412.000000	11.362100
2411.000000	11.401700
2410.000000	11.439800
2409.000000	11.470900
2408.000000	11.496300
2407.000000	11.524200
2406.000000	11.548000
2405.000000	11.545300
2404.000000	11.561900
2403.000000	11.603600
2402.000000	11.637800
2401.000000	11.650200
2400.000000	11.639500
2399.000000	11.665900
2398.000000	11.696100
2397.000000	11.726400
2396.000000	11.747100
2395.000000	11.734600
2394.000000	11.753400
2393.000000	11.776000
2392.000000	11.790900
2391.000000	11.812300
2390.000000	11.821000
2389.000000	11.826500
2388.000000	11.853400
2387.000000	11.865500
2386.000000	11.856200
2385.000000	11.864500
2384.000000	11.877500
2383.000000	11.879300
2382.000000	11.867000
2381.000000	11.867600
2380.000000	11.871000
2379.000000	11.869200
2378.000000	11.870900
2377.000000	11.871600
2376.000000	11.861700
2375.000000	11.856700
2374.000000	11.859500
2373.000000	11.852200
2372.000000	11.855900
2371.000000	11.848200
2370.000000	11.846700
2369.000000	11.839700
2368.000000	11.818300
2367.000000	11.817800
2366.000000	11.821900
2365.000000	11.818200
2364.000000	11.817900
2363.000000	11.817900
2362.000000	11.812500
2361.000000	11.802700
2360.000000	11.788200
2359.000000	11.784500
2358.000000	11.769900
2357.000000	11.735800
2356.000000	11.730000
2355.000000	11.739100
2354.000000	11.719100
2353.000000	11.691000
2352.000000	11.678600
2351.000000	11.660100
2350.000000	11.635600
2349.000000	11.618100
2348.000000	11.607300
2347.000000	11.585200
2346.000000	11.579900
2345.000000	11.566400
2344.000000	11.536600
2343.000000	11.524800
2342.000000	11.506600
2341.000000	11.490000
2340.000000	11.481300
2339.000000	11.471600
2338.000000	11.461800
2337.000000	11.440100
2336.000000	11.414600
2335.000000	11.399600
2334.000000	11.399300
2333.000000	11.395600
2332.000000	11.404200
2331.000000	11.380600
2330.000000	11.363000
2329.000000	11.366600
2328.000000	11.361600
2327.000000	11.335100
2326.000000	11.319400
2325.000000	11.327200
2324.000000	11.311400
2323.000000	11.296800
2322.000000	11.301500
2321.000000	11.277100
2320.000000	11.260100
2319.000000	11.223500
2318.000000	11.195000
2317.000000	11.175500
2316.000000	11.145800
2315.000000	11.093200
2314.000000	11.052400
2313.000000	11.005300
2312.000000	10.970200
2311.000000	10.944200
2310.000000	10.903900
2309.000000	10.851800
2308.000000	10.810700
2307.000000	10.768800
2306.000000	10.733200
2305.000000	10.707900
2304.000000	10.668300
2303.000000	10.620500
2302.000000	10.606200
2301.000000	10.584300
2300.000000	10.551500
2299.000000	10.521100
2298.000000	10.501800
2297.000000	10.462200
2296.000000	10.441800
2295.000000	10.412500
2294.000000	10.404000
2293.000000	10.382500
2292.000000	10.362400
2291.000000	10.342300
2290.000000	10.325800
2289.000000	10.296600
2288.000000	10.280300
2287.000000	10.275800
2286.000000	10.261800
2285.000000	10.241100
2284.000000	10.226000
2283.000000	10.226500
2282.000000	10.174300
2281.000000	10.172400
2280.000000	10.152600
2279.000000	10.112400
2278.000000	10.090100
2277.000000	10.077900
2276.000000	10.044400
2275.000000	10.001600
2274.000000	9.985300
2273.000000	9.946300
2272.000000	9.923400
2271.000000	9.895200
2270.000000	9.840100
2269.000000	9.835800
2268.000000	9.821000
2267.000000	9.787500
2266.000000	9.746100
2265.000000	9.761200
2264.000000	9.742000
2263.000000	9.752300
2262.000000	9.751300
2261.000000	9.767600
2260.000000	9.792000
2259.000000	9.807000
2258.000000	9.813800
2257.000000	9.846300
2256.000000	9.889200
2255.000000	9.914100
2254.000000	9.968900
2253.000000	10.009700
2252.000000	10.041000
2251.000000	10.109500
2250.000000	10.146900
2249.000000	10.203500
2248.000000	10.228000
2247.000000	10.280600
2246.000000	10.333600
2245.000000	10.355000
2244.000000	10.396900
2243.000000	10.422700
2242.000000	10.471700
2241.000000	10.495200
2240.000000	10.524700
2239.000000	10.536400
2238.000000	10.548700
2237.000000	10.569700
2236.000000	10.574000
2235.000000	10.569000
2234.000000	10.558900
2233.000000	10.539000
2232.000000	10.516300
2231.000000	10.498200
2230.000000	10.442200
2229.000000	10.384800
2228.000000	10.343000
2227.000000	10.273000
2226.000000	10.213000
2225.000000	10.170700
2224.000000	10.110100
2223.000000	10.013200
2222.000000	9.918200
2221.000000	9.822200
2220.000000	9.751400
2219.000000	9.680300
2218.000000	9.585300
2217.000000	9.524800
2216.000000	9.443800
2215.000000	9.405000
2214.000000	9.338100
2213.000000	9.300000
2212.000000	9.244600
2211.000000	9.242500
2210.000000	9.230900
2209.000000	9.240300
2208.000000	9.240900
2207.000000	9.308900
2206.000000	9.374100
2205.000000	9.457000
2204.000000	9.542300
2203.000000	9.657500
2202.000000	9.763400
2201.000000	9.879000
2200.000000	10.031600
2199.000000	10.164300
2198.000000	10.290200
2197.000000	10.442300
2196.000000	10.575700
2195.000000	10.703500
2194.000000	10.860100
2193.000000	10.975600
2192.000000	11.101300
2191.000000	11.196900
2190.000000	11.277500
2189.000000	11.376100
2188.000000	11.477000
2187.000000	11.547300
2186.000000	11.610300
2185.000000	11.692900
2184.000000	11.751200
2183.000000	11.800900
2182.000000	11.841900
2181.000000	11.858400
2180.000000	11.922200
2179.000000	11.951000
2178.000000	11.968600
2177.000000	12.012800
2176.000000	12.038300
2175.000000	12.078200
2174.000000	12.111800
2173.000000	12.146100
2172.000000	12.181600
2171.000000	12.212800
2170.000000	12.241700
2169.000000	12.281600
2168.000000	12.318300
2167.000000	12.357000
2166.000000	12.391200
2165.000000	12.442000
2164.000000	12.478900
2163.000000	12.532400
2162.000000	12.591100
2161.000000	12.629300
2160.000000	12.686400
2159.000000	12.771900
2158.000000	12.829500
2157.000000	12.894500
2156.000000	12.963400
2155.000000	13.035000
2154.000000	13.085800
2153.000000	13.179200
2152.000000	13.254900
2151.000000	13.333200
2150.000000	13.410000
2149.000000	13.486800
2148.000000	13.561100
2147.000000	13.666900
2146.000000	13.734800
2145.000000	13.821100
2144.000000	13.899500
2143.000000	13.979500
2142.000000	14.056100
2141.000000	14.120500
2140.000000	14.203000
2139.000000	14.269400
2138.000000	14.329600
2137.000000	14.389500
2136.000000	14.451300
2135.000000	14.500300
2134.000000	14.558600
2133.000000	14.601200
2132.000000	14.655300
2131.000000	14.701500
2130.000000	14.738300
2129.000000	14.779900
2128.000000	14.807800
2127.000000	14.834800
2126.000000	14.874300
2125.000000	14.904700
2124.000000	14.927900
2123.000000	14.951200
2122.000000	14.966500
2121.000000	14.983500
2120.000000	14.996000
2119.000000	15.002900
2118.000000	15.015500
2117.000000	15.017500
2116.000000	15.028700
2115.000000	15.034300
2114.000000	15.021700
2113.000000	15.011800
2112.000000	15.000600
2111.000000	14.994300
2110.000000	14.982000
2109.000000	14.986100
2108.000000	14.985700
2107.000000	14.966900
2106.000000	14.950900
2105.000000	14.935300
2104.000000	14.926500
2103.000000	14.908400
2102.000000	14.891500
2101.000000	14.876800
2100.000000	14.869600
2099.000000	14.852700
2098.000000	14.841600
2097.000000	14.837900
2096.000000	14.818200
2095.000000	14.794100
2094.000000	14.794500
2093.000000	14.796400
2092.000000	14.796200
2091.000000	14.790100
2090.000000	14.783700
2089.000000	14.777900
2088.000000	14.779500
2087.000000	14.778100
2086.000000	14.753600
2085.000000	14.734900
2084.000000	14.728200
2083.000000	14.704000
2082.000000	14.672800
2081.000000	14.640500
2080.000000	14.605100
2079.000000	14.568400
2078.000000	14.526200
2077.000000	14.479200
2076.000000	14.431800
2075.000000	14.362500
2074.000000	14.299400
2073.000000	14.235400
2072.000000	14.176700
2071.000000	14.110300
2070.000000	14.036700
2069.000000	13.957900
2068.000000	13.878000
2067.000000	13.807100
2066.000000	13.710600
2065.000000	13.635300
2064.000000	13.551100
2063.000000	13.470300
2062.000000	13.392000
2061.000000	13.326100
2060.000000	13.261800
2059.000000	13.199200
2058.000000	13.152500
2057.000000	13.101800
2056.000000	13.050100
2055.000000	13.021200
2054.000000	13.004100
2053.000000	12.994600
2052.000000	13.004200
2051.000000	13.033900
2050.000000	13.050400
2049.000000	13.078100
2048.000000	13.125700
2047.000000	13.177300
2046.000000	13.246800
2045.000000	13.310700
2044.000000	13.391700
2043.000000	13.455500
2042.000000	13.539400
2041.000000	13.617500
2040.000000	13.677100
2039.000000	13.738900
2038.000000	13.816800
2037.000000	13.886500
2036.000000	13.935500
2035.000000	13.987600
2034.000000	14.046800
2033.000000	14.103100
2032.000000	14.137800
2031.000000	14.182300
2030.000000	14.213600
2029.000000	14.247900
2028.000000	14.287400
2027.000000	14.327800
2026.000000	14.347800
2025.000000	14.386000
2024.000000	14.394400
2023.000000	14.406400
2022.000000	14.435800
2021.000000	14.449300
2020.000000	14.453200
2019.000000	14.473300
2018.000000	14.481000
2017.000000	14.458200
2016.000000	14.460000
2015.000000	14.468100
2014.000000	14.474000
2013.000000	14.447800
2012.000000	14.425200
2011.000000	14.397800
2010.000000	14.389800
2009.000000	14.372800
2008.000000	14.340300
2007.000000	14.312600
2006.000000	14.275900
2005.000000	14.250700
2004.000000	14.214900
2003.000000	14.159900
2002.000000	14.131100
2001.000000	14.074900
2000.000000	14.029600
1999.000000	13.962300
1998.000000	13.932300
1997.000000	13.854100
1996.000000	13.821600
1995.000000	13.768600
1994.000000	13.698900
1993.000000	13.633700
1992.000000	13.582100
1991.000000	13.513300
1990.000000	13.455900
1989.000000	13.407900
1988.000000	13.352300
1987.000000	13.280400
1986.000000	13.198300
1985.000000	13.153800
1984.000000	13.092900
1983.000000	13.000900
1982.000000	12.917900
1981.000000	12.880400
1980.000000	12.790600
1979.000000	12.737000
1978.000000	12.655600
1977.000000	12.607700
1976.000000	12.554300
1975.000000	12.479200
1974.000000	12.411600
1973.000000	12.348000
1972.000000	12.293800
1971.000000	12.239800
1970.000000	12.152200
1969.000000	12.121500
1968.000000	12.062300
1967.000000	12.001300
1966.000000	11.948700
1965.000000	11.890000
1964.000000	11.818700
1963.000000	11.750000
1962.000000	11.718100
1961.000000	11.665100
1960.000000	11.588200
1959.000000	11.534400
1958.000000	11.494800
1957.000000	11.439800
1956.000000	11.375000
1955.000000	11.292000
1954.000000	11.250700
1953.000000	11.196700
1952.000000	11.147700
1951.000000	11.092900
1950.000000	11.043900
1949.000000	11.013900
1948.000000	10.960500
1947.000000	10.912900
1946.000000	10.880700
1945.000000	10.844200
1944.000000	10.802100
1943.000000	10.763600
1942.000000	10.733800
1941.000000	10.715400
1940.000000	10.668100
1939.000000	10.683500
1938.000000	10.685400
1937.000000	10.665700
1936.000000	10.647500
1935.000000	10.638800
1934.000000	10.626400
1933.000000	10.657300
1932.000000	10.674600
1931.000000	10.705300
1930.000000	10.711300
1929.000000	10.754100
1928.000000	10.786000
1927.000000	10.847800
1926.000000	10.891400
1925.000000	10.941200
1924.000000	11.020800
1923.000000	11.069800
1922.000000	11.137200
1921.000000	11.262900
1920.000000	11.366800
1919.000000	11.470900
1918.000000	11.590900
1917.000000	11.672600
1916.000000	11.765700
1915.000000	11.885300
1914.000000	12.057700
1913.000000	12.246600
1912.000000	12.444000
1911.000000	12.640200
1910.000000	12.800400
1909.000000	12.931700
1908.000000	13.123500
1907.000000	13.359900
1906.000000	13.635100
1905.000000	13.980100
1904.000000	14.291700
1903.000000	14.567200
1902.000000	14.862400
1901.000000	15.178000
1900.000000	15.571500
1899.000000	15.972900
1898.000000	16.379500
1897.000000	16.785600
1896.000000	17.149600
1895.000000	17.488000
1894.000000	17.886800
1893.000000	18.326800
1892.000000	18.824200
1891.000000	19.327600
1890.000000	19.807100
1889.000000	20.239200
1888.000000	20.694700
1887.000000	21.102500
1886.000000	21.526700
1885.000000	21.960500
1884.000000	22.435200
1883.000000	22.851800
1882.000000	23.236000
1881.000000	23.624100
1880.000000	23.959500
1879.000000	24.286500
1878.000000	24.619300
1877.000000	24.952600
1876.000000	25.276500
1875.000000	25.607700
1874.000000	25.919400
1873.000000	26.229400
1872.000000	26.525000
1871.000000	26.791100
1870.000000	27.035300
1869.000000	27.267000
1868.000000	27.481700
1867.000000	27.643500
1866.000000	27.759300
1865.000000	27.877600
1864.000000	27.996300
1863.000000	28.111300
1862.000000	28.249200
1861.000000	28.384300
1860.000000	28.523900
1859.000000	28.650500
1858.000000	28.767500
1857.000000	28.851000
1856.000000	28.911000
1855.000000	28.990400
1854.000000	29.070200
1853.000000	29.118000
1852.000000	29.163500
1851.000000	29.206700
1850.000000	29.251600
1849.000000	29.312300
1848.000000	29.378300
1847.000000	29.430700
1846.000000	29.420000
1845.000000	29.381500
1844.000000	29.344200
1843.000000	29.348000
1842.000000	29.395700
1841.000000	29.434400
1840.000000	29.435000
1839.000000	29.414800
1838.000000	29.390300
1837.000000	29.373200
1836.000000	29.354600
1835.000000	29.333100
1834.000000	29.294700
1833.000000	29.250900
1832.000000	29.219100
1831.000000	29.217700
1830.000000	29.219800
1829.000000	29.193500
1828.000000	29.166600
1827.000000	29.163300
1826.000000	29.162200
1825.000000	29.143400
1824.000000	29.116400
1823.000000	29.113800
1822.000000	29.131400
1821.000000	29.167000
1820.000000	29.177400
1819.000000	29.140200
1818.000000	29.126900
1817.000000	29.119100
1816.000000	29.117700
1815.000000	29.112300
1814.000000	29.096300
1813.000000	29.075000
1812.000000	29.061500
1811.000000	29.058500
1810.000000	29.022900
1809.000000	28.985600
1808.000000	28.964400
1807.000000	28.955000
1806.000000	28.927900
1805.000000	28.882200
1804.000000	28.859500
1803.000000	28.851800
1802.000000	28.836100
1801.000000	28.805900
1800.000000	28.767600
1799.000000	28.722200
1798.000000	28.698700
1797.000000	28.681000
1796.000000	28.658400
1795.000000	28.629100
1794.000000	28.591500
1793.000000	28.575800
1792.000000	28.562000
1791.000000	28.545700
1790.000000	28.531600
1789.000000	28.522300
1788.000000	28.513800
1787.000000	28.512300
1786.000000	28.515400
1785.000000	28.510700
1784.000000	28.493200
1783.000000	28.478100
1782.000000	28.443800
1781.000000	28.434100
1780.000000	28.408500
1779.000000	28.398700
1778.000000	28.363400
1777.000000	28.327400
1776.000000	28.281600
1775.000000	28.246300
1774.000000	28.195100
1773.000000	28.152700
1772.000000	28.122900
1771.000000	28.093700
1770.000000	28.048200
1769.000000	28.018500
1768.000000	27.962300
1767.000000	27.927800
1766.000000	27.891300
1765.000000	27.846800
1764.000000	27.818500
1763.000000	27.802800
1762.000000	27.792300
1761.000000	27.777700
1760.000000	27.770500
1759.000000	27.786400
1758.000000	27.770100
1757.000000	27.785400
1756.000000	27.798200
1755.000000	27.796300
1754.000000	27.812500
1753.000000	27.806800
1752.000000	27.807500
1751.000000	27.804400
1750.000000	27.789700
1749.000000	27.762400
1748.000000	27.729900
1747.000000	27.703200
1746.000000	27.663900
1745.000000	27.615700
1744.000000	27.559700
1743.000000	27.485600
1742.000000	27.393000
1741.000000	27.329300
1740.000000	27.260400
1739.000000	27.174700
1738.000000	27.109100
1737.000000	27.050900
1736.000000	26.975400
1735.000000	26.930400
1734.000000	26.842300
1733.000000	26.800000
1732.000000	26.721700
1731.000000	26.668500
1730.000000	26.632500
1729.000000	26.561600
1728.000000	26.530800
1727.000000	26.495800
1726.000000	26.473700
1725.000000	26.451100
1724.000000	26.462300
1723.000000	26.496200
1722.000000	26.555600
1721.000000	26.651500
1720.000000	26.781300
1719.000000	26.927600
1718.000000	27.109800
1717.000000	27.306100
1716.000000	27.502400
1715.000000	27.671200
1714.000000	27.864000
1713.000000	28.020300
1712.000000	28.154400
1711.000000	28.283900
1710.000000	28.417600
1709.000000	28.553300
1708.000000	28.649100
1707.000000	28.741600
1706.000000	28.822400
1705.000000	28.904800
1704.000000	28.950300
1703.000000	29.016800
1702.000000	29.072700
1701.000000	29.092900
1700.000000	29.168000
1699.000000	29.177300
1698.000000	29.190500
1697.000000	29.213900
1696.000000	29.205400
1695.000000	29.202700
1694.000000	29.156800
1693.000000	29.093900
1692.000000	29.050200
1691.000000	29.005400
1690.000000	28.947200
1689.000000	28.932900
1688.000000	28.926100
1687.000000	28.978000
1686.000000	29.050500
1685.000000	29.161300
1684.000000	29.295400
1683.000000	29.477900
1682.000000	29.637500
1681.000000	29.829800
1680.000000	30.029900
1679.000000	30.190400
1678.000000	30.333600
1677.000000	30.485100
1676.000000	30.621300
1675.000000	30.754300
1674.000000	30.883600
1673.000000	31.008900
1672.000000	31.141600
1671.000000	31.276300
1670.000000	31.409700
1669.000000	31.533400
1668.000000	31.666000
1667.000000	31.808000
1666.000000	31.899600
1665.000000	32.030700
1664.000000	32.135800
1663.000000	32.249200
1662.000000	32.357700
1661.000000	32.458400
1660.000000	32.547800
1659.000000	32.631800
1658.000000	32.700900
1657.000000	32.760100
1656.000000	32.798300
1655.000000	32.833400
1654.000000	32.863800
1653.000000	32.898000
1652.000000	32.902800
1651.000000	32.910700
1650.000000	32.914800
1649.000000	32.902800
1648.000000	32.896300
1647.000000	32.890200
1646.000000	32.862800
1645.000000	32.842300
1644.000000	32.817200
1643.000000	32.795200
1642.000000	32.779800
1641.000000	32.741000
1640.000000	32.720800
1639.000000	32.677400
1638.000000	32.656400
1637.000000	32.632300
1636.000000	32.589400
1635.000000	32.552200
1634.000000	32.522100
1633.000000	32.487200
1632.000000	32.448300
1631.000000	32.399000
1630.000000	32.338400
1629.000000	32.296900
1628.000000	32.249300
1627.000000	32.177900
1626.000000	32.129600
1625.000000	32.067200
1624.000000	32.031900
1623.000000	31.972300
1622.000000	31.919400
1621.000000	31.874000
1620.000000	31.827400
1619.000000	31.765800
