PE UV       SUBTECH     SPECTRUM    ASCII       PEDS        4.00        
   -1
CICIMAUCR0015-1.Sample.ASC
24/03/08
11:15:04.00
24/03/08
11:15:04.00
Vinicio Soto Monge
C. resplendens
250,000000
1
Lambda 1050
1050L1511233
PerkinElmer UV WinLab 6.3.2.0749 / 2.02.05 Lambda 900 UV/VIS/NIR, Aug  7 2015 09:38:08

0
0
3350/servo 860,8/2
0
0
UV/VIS
1
1
1
DoubleDePol,CommonBeamDepol,RBeamAtt,SBeamAtt,60mm sphere, WB InGaAs Detector
0
0
0
0
Program
Program
3350/servo 860,8/2
3350/0,2 860,8/0,2
3350/0,2 860,8/0,2
0
15.00
 
 
 
0
 
860,8
319,2
860,8
Front
100
on
S:100 R:100
0
0
0
0
 
0
 
 
 
0
 
 
0
0
0
0
0
 
 
 
 
0
0


0
0
#HDR
-1
-1
#GR
nm
%R
1.0
0.0
2500,000000
-1,000000
2251
8
23,608200
1,584400
#DATA
2500.000000	2.253300
2499.000000	2.133300
2498.000000	2.114200
2497.000000	2.099800
2496.000000	2.160600
2495.000000	2.068200
2494.000000	2.044400
2493.000000	2.034000
2492.000000	2.029900
2491.000000	2.080100
2490.000000	1.923400
2489.000000	1.987400
2488.000000	2.026500
2487.000000	2.056700
2486.000000	2.029500
2485.000000	1.983800
2484.000000	2.014400
2483.000000	1.972900
2482.000000	1.968200
2481.000000	1.981400
2480.000000	2.009400
2479.000000	1.953300
2478.000000	1.974000
2477.000000	1.959900
2476.000000	1.982400
2475.000000	1.935500
2474.000000	1.988000
2473.000000	1.979300
2472.000000	1.956500
2471.000000	1.964900
2470.000000	1.959000
2469.000000	1.978700
2468.000000	2.010400
2467.000000	1.933600
2466.000000	1.964100
2465.000000	1.964100
2464.000000	1.976600
2463.000000	1.990800
2462.000000	1.988800
2461.000000	1.985400
2460.000000	1.976600
2459.000000	1.995700
2458.000000	1.969600
2457.000000	2.010300
2456.000000	2.001600
2455.000000	2.015500
2454.000000	2.019300
2453.000000	2.044200
2452.000000	2.044500
2451.000000	2.053200
2450.000000	2.035600
2449.000000	2.059300
2448.000000	2.077100
2447.000000	2.096500
2446.000000	2.123700
2445.000000	2.122000
2444.000000	2.146700
2443.000000	2.150200
2442.000000	2.155700
2441.000000	2.155400
2440.000000	2.179600
2439.000000	2.201000
2438.000000	2.214100
2437.000000	2.203600
2436.000000	2.212900
2435.000000	2.227200
2434.000000	2.233500
2433.000000	2.246300
2432.000000	2.271000
2431.000000	2.271800
2430.000000	2.280500
2429.000000	2.302900
2428.000000	2.307100
2427.000000	2.337300
2426.000000	2.334200
2425.000000	2.348600
2424.000000	2.373400
2423.000000	2.405200
2422.000000	2.402700
2421.000000	2.403700
2420.000000	2.425900
2419.000000	2.442200
2418.000000	2.446000
2417.000000	2.451800
2416.000000	2.450800
2415.000000	2.458400
2414.000000	2.472100
2413.000000	2.473100
2412.000000	2.489200
2411.000000	2.506700
2410.000000	2.513600
2409.000000	2.511800
2408.000000	2.514000
2407.000000	2.528600
2406.000000	2.532700
2405.000000	2.538100
2404.000000	2.548200
2403.000000	2.551500
2402.000000	2.572500
2401.000000	2.571900
2400.000000	2.565200
2399.000000	2.569700
2398.000000	2.578700
2397.000000	2.606400
2396.000000	2.620700
2395.000000	2.615900
2394.000000	2.614000
2393.000000	2.616100
2392.000000	2.626800
2391.000000	2.626100
2390.000000	2.635100
2389.000000	2.640500
2388.000000	2.641900
2387.000000	2.655200
2386.000000	2.670400
2385.000000	2.668400
2384.000000	2.657900
2383.000000	2.663800
2382.000000	2.666800
2381.000000	2.657200
2380.000000	2.669600
2379.000000	2.687500
2378.000000	2.673900
2377.000000	2.666200
2376.000000	2.670800
2375.000000	2.671600
2374.000000	2.678300
2373.000000	2.670800
2372.000000	2.663800
2371.000000	2.656700
2370.000000	2.646100
2369.000000	2.647200
2368.000000	2.652100
2367.000000	2.647600
2366.000000	2.644100
2365.000000	2.646900
2364.000000	2.651300
2363.000000	2.632500
2362.000000	2.614300
2361.000000	2.614500
2360.000000	2.602800
2359.000000	2.593800
2358.000000	2.588500
2357.000000	2.577100
2356.000000	2.560800
2355.000000	2.551200
2354.000000	2.541800
2353.000000	2.547400
2352.000000	2.545500
2351.000000	2.533500
2350.000000	2.537200
2349.000000	2.540300
2348.000000	2.546200
2347.000000	2.560000
2346.000000	2.570000
2345.000000	2.571800
2344.000000	2.583400
2343.000000	2.590500
2342.000000	2.608200
2341.000000	2.613400
2340.000000	2.623000
2339.000000	2.625900
2338.000000	2.634900
2337.000000	2.651100
2336.000000	2.642200
2335.000000	2.643100
2334.000000	2.641700
2333.000000	2.646400
2332.000000	2.657300
2331.000000	2.638900
2330.000000	2.641400
2329.000000	2.631800
2328.000000	2.613300
2327.000000	2.618000
2326.000000	2.596600
2325.000000	2.579500
2324.000000	2.569100
2323.000000	2.535000
2322.000000	2.530800
2321.000000	2.533700
2320.000000	2.515500
2319.000000	2.506600
2318.000000	2.485400
2317.000000	2.451800
2316.000000	2.425500
2315.000000	2.432600
2314.000000	2.420500
2313.000000	2.401900
2312.000000	2.383800
2311.000000	2.356300
2310.000000	2.342300
2309.000000	2.336500
2308.000000	2.333900
2307.000000	2.331000
2306.000000	2.324200
2305.000000	2.326800
2304.000000	2.331200
2303.000000	2.334000
2302.000000	2.328700
2301.000000	2.332100
2300.000000	2.340100
2299.000000	2.338900
2298.000000	2.364600
2297.000000	2.350300
2296.000000	2.357400
2295.000000	2.378200
2294.000000	2.379300
2293.000000	2.391600
2292.000000	2.412000
2291.000000	2.409300
2290.000000	2.417300
2289.000000	2.398900
2288.000000	2.396000
2287.000000	2.396000
2286.000000	2.411100
2285.000000	2.397400
2284.000000	2.380800
2283.000000	2.392700
2282.000000	2.377400
2281.000000	2.367600
2280.000000	2.381500
2279.000000	2.362500
2278.000000	2.350900
2277.000000	2.347800
2276.000000	2.318400
2275.000000	2.329100
2274.000000	2.339300
2273.000000	2.327900
2272.000000	2.324800
2271.000000	2.311700
2270.000000	2.302000
2269.000000	2.306200
2268.000000	2.311300
2267.000000	2.320100
2266.000000	2.300200
2265.000000	2.311900
2264.000000	2.331100
2263.000000	2.346000
2262.000000	2.328600
2261.000000	2.351300
2260.000000	2.359200
2259.000000	2.393600
2258.000000	2.418900
2257.000000	2.440300
2256.000000	2.433400
2255.000000	2.478000
2254.000000	2.482900
2253.000000	2.528900
2252.000000	2.544000
2251.000000	2.566600
2250.000000	2.590100
2249.000000	2.611000
2248.000000	2.643500
2247.000000	2.658900
2246.000000	2.676900
2245.000000	2.696600
2244.000000	2.719500
2243.000000	2.738000
2242.000000	2.752000
2241.000000	2.737300
2240.000000	2.788900
2239.000000	2.794700
2238.000000	2.803800
2237.000000	2.814800
2236.000000	2.823100
2235.000000	2.816000
2234.000000	2.853800
2233.000000	2.843700
2232.000000	2.839500
2231.000000	2.857400
2230.000000	2.849500
2229.000000	2.837600
2228.000000	2.840800
2227.000000	2.815600
2226.000000	2.814300
2225.000000	2.792900
2224.000000	2.772600
2223.000000	2.753700
2222.000000	2.736600
2221.000000	2.734400
2220.000000	2.723000
2219.000000	2.682000
2218.000000	2.680600
2217.000000	2.670100
2216.000000	2.629300
2215.000000	2.646100
2214.000000	2.625500
2213.000000	2.609200
2212.000000	2.603000
2211.000000	2.612700
2210.000000	2.622300
2209.000000	2.622100
2208.000000	2.630100
2207.000000	2.651400
2206.000000	2.681400
2205.000000	2.680100
2204.000000	2.709700
2203.000000	2.762500
2202.000000	2.787500
2201.000000	2.800800
2200.000000	2.846000
2199.000000	2.914000
2198.000000	2.939600
2197.000000	2.982400
2196.000000	3.024100
2195.000000	3.056900
2194.000000	3.097700
2193.000000	3.132200
2192.000000	3.173500
2191.000000	3.197000
2190.000000	3.221500
2189.000000	3.233200
2188.000000	3.259000
2187.000000	3.291100
2186.000000	3.291200
2185.000000	3.318000
2184.000000	3.318700
2183.000000	3.338800
2182.000000	3.366600
2181.000000	3.376900
2180.000000	3.384100
2179.000000	3.396600
2178.000000	3.408900
2177.000000	3.400200
2176.000000	3.402700
2175.000000	3.415000
2174.000000	3.428900
2173.000000	3.438400
2172.000000	3.463900
2171.000000	3.461900
2170.000000	3.468700
2169.000000	3.482300
2168.000000	3.487200
2167.000000	3.488600
2166.000000	3.512700
2165.000000	3.527300
2164.000000	3.538900
2163.000000	3.552200
2162.000000	3.558200
2161.000000	3.575000
2160.000000	3.579800
2159.000000	3.592000
2158.000000	3.606900
2157.000000	3.616500
2156.000000	3.643300
2155.000000	3.651900
2154.000000	3.655100
2153.000000	3.674800
2152.000000	3.680800
2151.000000	3.712100
2150.000000	3.721100
2149.000000	3.745800
2148.000000	3.736000
2147.000000	3.759300
2146.000000	3.766400
2145.000000	3.794400
2144.000000	3.814000
2143.000000	3.820500
2142.000000	3.827700
2141.000000	3.850400
2140.000000	3.850400
2139.000000	3.853900
2138.000000	3.876400
2137.000000	3.893300
2136.000000	3.905900
2135.000000	3.919600
2134.000000	3.916000
2133.000000	3.913500
2132.000000	3.945800
2131.000000	3.947300
2130.000000	3.945800
2129.000000	3.950700
2128.000000	3.961200
2127.000000	3.958600
2126.000000	3.950300
2125.000000	3.953400
2124.000000	3.956200
2123.000000	3.957700
2122.000000	3.964600
2121.000000	3.956200
2120.000000	3.951400
2119.000000	3.961500
2118.000000	3.979800
2117.000000	3.977800
2116.000000	3.959400
2115.000000	3.958200
2114.000000	3.951100
2113.000000	3.957700
2112.000000	3.949900
2111.000000	3.941100
2110.000000	3.941000
2109.000000	3.948000
2108.000000	3.929500
2107.000000	3.916400
2106.000000	3.911400
2105.000000	3.921300
2104.000000	3.935800
2103.000000	3.921600
2102.000000	3.913800
2101.000000	3.909200
2100.000000	3.911200
2099.000000	3.912600
2098.000000	3.900800
2097.000000	3.887800
2096.000000	3.881200
2095.000000	3.893400
2094.000000	3.907800
2093.000000	3.901500
2092.000000	3.879500
2091.000000	3.875500
2090.000000	3.882600
2089.000000	3.885400
2088.000000	3.890400
2087.000000	3.882300
2086.000000	3.875300
2085.000000	3.869300
2084.000000	3.870400
2083.000000	3.863600
2082.000000	3.863300
2081.000000	3.875400
2080.000000	3.857500
2079.000000	3.850100
2078.000000	3.859700
2077.000000	3.851000
2076.000000	3.845900
2075.000000	3.832100
2074.000000	3.820800
2073.000000	3.814700
2072.000000	3.813300
2071.000000	3.799500
2070.000000	3.789900
2069.000000	3.783200
2068.000000	3.768200
2067.000000	3.750700
2066.000000	3.752700
2065.000000	3.749900
2064.000000	3.727200
2063.000000	3.711900
2062.000000	3.705200
2061.000000	3.677800
2060.000000	3.667300
2059.000000	3.660100
2058.000000	3.655500
2057.000000	3.652100
2056.000000	3.647200
2055.000000	3.638300
2054.000000	3.629300
2053.000000	3.650100
2052.000000	3.670900
2051.000000	3.650500
2050.000000	3.657100
2049.000000	3.678800
2048.000000	3.693200
2047.000000	3.725800
2046.000000	3.754600
2045.000000	3.784500
2044.000000	3.810300
2043.000000	3.843100
2042.000000	3.876300
2041.000000	3.911900
2040.000000	3.951600
2039.000000	3.979600
2038.000000	4.014400
2037.000000	4.057400
2036.000000	4.084700
2035.000000	4.106000
2034.000000	4.140000
2033.000000	4.154000
2032.000000	4.191000
2031.000000	4.201400
2030.000000	4.223300
2029.000000	4.253000
2028.000000	4.291400
2027.000000	4.287900
2026.000000	4.319200
2025.000000	4.328500
2024.000000	4.364100
2023.000000	4.375200
2022.000000	4.391700
2021.000000	4.400300
2020.000000	4.416800
2019.000000	4.430300
2018.000000	4.451200
2017.000000	4.467700
2016.000000	4.487800
2015.000000	4.507900
2014.000000	4.499400
2013.000000	4.527800
2012.000000	4.526900
2011.000000	4.527300
2010.000000	4.551400
2009.000000	4.558400
2008.000000	4.559600
2007.000000	4.576200
2006.000000	4.590400
2005.000000	4.591000
2004.000000	4.582200
2003.000000	4.577300
2002.000000	4.582700
2001.000000	4.581600
2000.000000	4.579300
1999.000000	4.577200
1998.000000	4.568000
1997.000000	4.554400
1996.000000	4.546000
1995.000000	4.544500
1994.000000	4.551100
1993.000000	4.523400
1992.000000	4.514900
1991.000000	4.495800
1990.000000	4.467800
1989.000000	4.458500
1988.000000	4.464400
1987.000000	4.439800
1986.000000	4.427300
1985.000000	4.403600
1984.000000	4.392900
1983.000000	4.379600
1982.000000	4.364500
1981.000000	4.350300
1980.000000	4.316500
1979.000000	4.303200
1978.000000	4.274500
1977.000000	4.286900
1976.000000	4.273300
1975.000000	4.239700
1974.000000	4.235500
1973.000000	4.218200
1972.000000	4.209600
1971.000000	4.174700
1970.000000	4.184000
1969.000000	4.169500
1968.000000	4.141000
1967.000000	4.156400
1966.000000	4.132000
1965.000000	4.105100
1964.000000	4.078300
1963.000000	4.082800
1962.000000	4.082500
1961.000000	4.076300
1960.000000	4.056000
1959.000000	4.031700
1958.000000	4.016600
1957.000000	4.011300
1956.000000	4.005000
1955.000000	3.964400
1954.000000	3.968700
1953.000000	3.944300
1952.000000	3.942700
1951.000000	3.943000
1950.000000	3.934700
1949.000000	3.899900
1948.000000	3.904400
1947.000000	3.895600
1946.000000	3.883000
1945.000000	3.891700
1944.000000	3.901900
1943.000000	3.879900
1942.000000	3.877900
1941.000000	3.878400
1940.000000	3.895400
1939.000000	3.880200
1938.000000	3.881100
1937.000000	3.883000
1936.000000	3.875800
1935.000000	3.902100
1934.000000	3.904900
1933.000000	3.901300
1932.000000	3.916500
1931.000000	3.941900
1930.000000	3.960100
1929.000000	3.977000
1928.000000	4.003200
1927.000000	4.014400
1926.000000	4.042100
1925.000000	4.056900
1924.000000	4.108000
1923.000000	4.151400
1922.000000	4.173500
1921.000000	4.186300
1920.000000	4.208400
1919.000000	4.236700
1918.000000	4.278300
1917.000000	4.313700
1916.000000	4.375900
1915.000000	4.426000
1914.000000	4.467200
1913.000000	4.501900
1912.000000	4.542900
1911.000000	4.574000
1910.000000	4.611500
1909.000000	4.700100
1908.000000	4.774300
1907.000000	4.830700
1906.000000	4.889500
1905.000000	4.921900
1904.000000	4.981800
1903.000000	5.050700
1902.000000	5.127900
1901.000000	5.191100
1900.000000	5.249100
1899.000000	5.288400
1898.000000	5.353400
1897.000000	5.412200
1896.000000	5.505200
1895.000000	5.591600
1894.000000	5.672500
1893.000000	5.757100
1892.000000	5.825200
1891.000000	5.869000
1890.000000	5.946500
1889.000000	6.028500
1888.000000	6.113300
1887.000000	6.214200
1886.000000	6.347000
1885.000000	6.453000
1884.000000	6.582900
1883.000000	6.722500
1882.000000	6.862700
1881.000000	7.025200
1880.000000	7.217100
1879.000000	7.367100
1878.000000	7.517200
1877.000000	7.677500
1876.000000	7.802600
1875.000000	7.931500
1874.000000	8.037000
1873.000000	8.127900
1872.000000	8.196800
1871.000000	8.239300
1870.000000	8.274400
1869.000000	8.297000
1868.000000	8.324700
1867.000000	8.341000
1866.000000	8.375600
1865.000000	8.416900
1864.000000	8.469600
1863.000000	8.514800
1862.000000	8.546200
1861.000000	8.552100
1860.000000	8.537800
1859.000000	8.511100
1858.000000	8.476200
1857.000000	8.468600
1856.000000	8.466500
1855.000000	8.433400
1854.000000	8.404700
1853.000000	8.356400
1852.000000	8.342800
1851.000000	8.372200
1850.000000	8.382300
1849.000000	8.329500
1848.000000	8.226300
1847.000000	8.136400
1846.000000	8.100900
1845.000000	8.122000
1844.000000	8.164500
1843.000000	8.173500
1842.000000	8.126700
1841.000000	8.067500
1840.000000	8.038800
1839.000000	8.039900
1838.000000	8.025200
1837.000000	7.960500
1836.000000	7.894000
1835.000000	7.857000
1834.000000	7.849200
1833.000000	7.849600
1832.000000	7.840000
1831.000000	7.799300
1830.000000	7.749100
1829.000000	7.709800
1828.000000	7.663900
1827.000000	7.617300
1826.000000	7.583500
1825.000000	7.571400
1824.000000	7.602700
1823.000000	7.638600
1822.000000	7.608100
1821.000000	7.541100
1820.000000	7.499600
1819.000000	7.483200
1818.000000	7.491100
1817.000000	7.507200
1816.000000	7.505300
1815.000000	7.498000
1814.000000	7.506100
1813.000000	7.510600
1812.000000	7.490100
1811.000000	7.461900
1810.000000	7.431800
1809.000000	7.440600
1808.000000	7.440500
1807.000000	7.415700
1806.000000	7.391000
1805.000000	7.370800
1804.000000	7.354100
1803.000000	7.346200
1802.000000	7.314800
1801.000000	7.280700
1800.000000	7.266400
1799.000000	7.253900
1798.000000	7.226000
1797.000000	7.221700
1796.000000	7.212300
1795.000000	7.197800
1794.000000	7.173900
1793.000000	7.164100
1792.000000	7.148800
1791.000000	7.108200
1790.000000	7.077400
1789.000000	7.047800
1788.000000	7.035600
1787.000000	7.003800
1786.000000	6.969200
1785.000000	6.948700
1784.000000	6.911500
1783.000000	6.883200
1782.000000	6.857700
1781.000000	6.820100
1780.000000	6.782000
1779.000000	6.756500
1778.000000	6.704000
1777.000000	6.673800
1776.000000	6.615200
1775.000000	6.576500
1774.000000	6.523300
1773.000000	6.459400
1772.000000	6.413200
1771.000000	6.364500
1770.000000	6.305000
1769.000000	6.263800
1768.000000	6.211700
1767.000000	6.162800
1766.000000	6.128900
1765.000000	6.088600
1764.000000	6.080900
1763.000000	6.086200
1762.000000	6.076000
1761.000000	6.113100
1760.000000	6.115700
1759.000000	6.151100
1758.000000	6.189400
1757.000000	6.200000
1756.000000	6.200700
1755.000000	6.220100
1754.000000	6.245000
1753.000000	6.222200
1752.000000	6.203100
1751.000000	6.211900
1750.000000	6.192300
1749.000000	6.159400
1748.000000	6.116800
1747.000000	6.082900
1746.000000	6.033800
1745.000000	5.972200
1744.000000	5.913300
1743.000000	5.837000
1742.000000	5.773300
1741.000000	5.686400
1740.000000	5.630500
1739.000000	5.542400
1738.000000	5.456400
1737.000000	5.410300
1736.000000	5.343300
1735.000000	5.309600
1734.000000	5.313000
1733.000000	5.284000
1732.000000	5.302100
1731.000000	5.315200
1730.000000	5.357600
1729.000000	5.407800
1728.000000	5.420600
1727.000000	5.457100
1726.000000	5.467800
1725.000000	5.509800
1724.000000	5.514800
1723.000000	5.530300
1722.000000	5.546200
1721.000000	5.533000
1720.000000	5.570100
1719.000000	5.559300
1718.000000	5.575500
1717.000000	5.602900
1716.000000	5.625700
1715.000000	5.653100
1714.000000	5.658000
1713.000000	5.703300
1712.000000	5.706000
1711.000000	5.740300
1710.000000	5.724300
1709.000000	5.756600
1708.000000	5.738900
1707.000000	5.742600
1706.000000	5.727100
1705.000000	5.724500
1704.000000	5.715600
1703.000000	5.674300
1702.000000	5.678000
1701.000000	5.609600
1700.000000	5.602700
1699.000000	5.545800
1698.000000	5.518300
1697.000000	5.485300
1696.000000	5.476900
1695.000000	5.487100
1694.000000	5.515900
1693.000000	5.571200
1692.000000	5.632300
1691.000000	5.638200
1690.000000	5.697400
1689.000000	5.737900
1688.000000	5.736100
1687.000000	5.755100
1686.000000	5.737200
1685.000000	5.761800
1684.000000	5.787900
1683.000000	5.885400
1682.000000	5.983300
1681.000000	6.151000
1680.000000	6.348100
1679.000000	6.518900
1678.000000	6.714100
1677.000000	6.871100
1676.000000	7.051800
1675.000000	7.169500
1674.000000	7.301600
1673.000000	7.415800
1672.000000	7.514800
1671.000000	7.601600
1670.000000	7.651700
1669.000000	7.717900
1668.000000	7.783100
1667.000000	7.845000
1666.000000	7.874300
1665.000000	7.916200
1664.000000	7.929000
1663.000000	7.967100
1662.000000	7.986400
1661.000000	8.007300
1660.000000	8.024100
1659.000000	8.051400
1658.000000	8.045700
1657.000000	8.052700
1656.000000	8.038200
1655.000000	8.053400
1654.000000	8.053800
1653.000000	8.041500
1652.000000	8.035500
1651.000000	8.023500
1650.000000	8.007000
1649.000000	8.014100
1648.000000	7.995000
1647.000000	7.965200
1646.000000	7.953000
1645.000000	7.935000
1644.000000	7.906300
1643.000000	7.874700
1642.000000	7.850300
1641.000000	7.840200
1640.000000	7.789300
1639.000000	7.772000
1638.000000	7.745900
1637.000000	7.724100
1636.000000	7.700400
1635.000000	7.678600
1634.000000	7.652200
1633.000000	7.624600
1632.000000	7.588700
1631.000000	7.574600
1630.000000	7.527100
1629.000000	7.485700
1628.000000	7.461500
1627.000000	7.435500
1626.000000	7.393600
1625.000000	7.373900
1624.000000	7.342200
1623.000000	7.300900
1622.000000	7.280100
1621.000000	7.243200
1620.000000	7.226400
1619.000000	7.188500
1618.000000	7.168400
1617.000000	7.111100
1616.000000	7.076800
1615.000000	7.056000
1614.000000	7.039100
1613.000000	7.020400
1612.000000	7.004200
1611.000000	6.972000
1610.000000	6.934100
1609.000000	6.904200
1608.000000	6.884500
1607.000000	6.876900
1606.000000	6.831600
1605.000000	6.793800
1604.000000	6.777500
1603.000000	6.755800
1602.000000	6.739500
1601.000000	6.716600
1600.000000	6.685000
1599.000000	6.667200
1598.000000	6.644700
1597.000000	6.622100
1596.000000	6.599700
1595.000000	6.572400
1594.000000	6.550600
1593.000000	6.550500
1592.000000	6.529100
1591.000000	6.513200
1590.000000	6.509900
1589.000000	6.492100
1588.000000	6.475500
1587.000000	6.459000
1586.000000	6.446000
1585.000000	6.447900
1584.000000	6.443500
1583.000000	6.426900
