PE UV       SUBTECH     SPECTRUM    ASCII       PEDS        4.00        
   -1
CICIMAUCR0070-1.ASC
24/04/03
14:43:34.00
24/04/03
14:43:34.00
Vinicio Soto Monge
C. resplendens
250,000000
1
Lambda 1050
1050L1511233
PerkinElmer UV WinLab 6.3.2.0749 / 2.02.05 Lambda 900 UV/VIS/NIR, Aug  7 2015 09:38:08

0
0
3350/servo 860,8/2
0
0
UV/VIS
1
1
1
DoubleDePol,CommonBeamDepol,RBeamAtt,SBeamAtt,60mm sphere, WB InGaAs Detector
0
0
0
0
Program
Program
3350/servo 860,8/2
3350/0,2 860,8/0,2
3350/0,2 860,8/0,2
0
15.00
 
 
 
0
 
860,8
319,2
860,8
Front
100
on
S:100 R:100
0
0
0
0
 
0
 
 
 
0
 
 
0
0
0
0
0
 
 
 
 
0
0


0
0
#HDR
-1
-1
#GR
nm
%R
1.0
0.0
2500,000000
-1,000000
2251
8
71,428400
5,238700
#DATA
2500.000000	14.655200
2499.000000	14.586100
2498.000000	14.622700
2497.000000	14.726000
2496.000000	14.755600
2495.000000	14.707500
2494.000000	14.814000
2493.000000	14.854200
2492.000000	14.801500
2491.000000	14.831900
2490.000000	14.834000
2489.000000	14.852200
2488.000000	14.804600
2487.000000	14.901300
2486.000000	14.949100
2485.000000	14.907900
2484.000000	14.983600
2483.000000	15.061000
2482.000000	15.096600
2481.000000	15.136800
2480.000000	15.179700
2479.000000	15.163900
2478.000000	15.253100
2477.000000	15.276000
2476.000000	15.403900
2475.000000	15.424000
2474.000000	15.448000
2473.000000	15.501800
2472.000000	15.619800
2471.000000	15.647200
2470.000000	15.731200
2469.000000	15.788800
2468.000000	15.800600
2467.000000	15.889800
2466.000000	15.949100
2465.000000	16.051200
2464.000000	16.107000
2463.000000	16.212100
2462.000000	16.278500
2461.000000	16.349400
2460.000000	16.453100
2459.000000	16.550900
2458.000000	16.645300
2457.000000	16.713500
2456.000000	16.843300
2455.000000	16.922200
2454.000000	17.032500
2453.000000	17.178500
2452.000000	17.264000
2451.000000	17.387900
2450.000000	17.498300
2449.000000	17.619800
2448.000000	17.760500
2447.000000	17.868500
2446.000000	17.967700
2445.000000	18.119300
2444.000000	18.248900
2443.000000	18.378300
2442.000000	18.500900
2441.000000	18.626200
2440.000000	18.743000
2439.000000	18.879600
2438.000000	19.032600
2437.000000	19.146000
2436.000000	19.271200
2435.000000	19.408100
2434.000000	19.537000
2433.000000	19.653000
2432.000000	19.788200
2431.000000	19.907100
2430.000000	20.028000
2429.000000	20.143200
2428.000000	20.247900
2427.000000	20.366700
2426.000000	20.481500
2425.000000	20.595100
2424.000000	20.708200
2423.000000	20.815800
2422.000000	20.916600
2421.000000	21.033000
2420.000000	21.150200
2419.000000	21.243300
2418.000000	21.342700
2417.000000	21.438200
2416.000000	21.523100
2415.000000	21.599200
2414.000000	21.699900
2413.000000	21.772300
2412.000000	21.840800
2411.000000	21.925100
2410.000000	22.004000
2409.000000	22.070200
2408.000000	22.137900
2407.000000	22.197100
2406.000000	22.260200
2405.000000	22.322700
2404.000000	22.365000
2403.000000	22.415100
2402.000000	22.474200
2401.000000	22.541000
2400.000000	22.595600
2399.000000	22.644900
2398.000000	22.668600
2397.000000	22.705800
2396.000000	22.771100
2395.000000	22.809500
2394.000000	22.840900
2393.000000	22.867700
2392.000000	22.898500
2391.000000	22.934200
2390.000000	22.967300
2389.000000	22.984500
2388.000000	22.999400
2387.000000	23.017700
2386.000000	23.039500
2385.000000	23.054900
2384.000000	23.073800
2383.000000	23.086300
2382.000000	23.080200
2381.000000	23.082600
2380.000000	23.082400
2379.000000	23.084000
2378.000000	23.081500
2377.000000	23.066800
2376.000000	23.068700
2375.000000	23.070300
2374.000000	23.060700
2373.000000	23.055500
2372.000000	23.047500
2371.000000	23.037900
2370.000000	23.036200
2369.000000	23.045200
2368.000000	23.043100
2367.000000	23.047800
2366.000000	23.054000
2365.000000	23.046200
2364.000000	23.046500
2363.000000	23.055600
2362.000000	23.047300
2361.000000	23.048400
2360.000000	23.051700
2359.000000	23.045800
2358.000000	23.044300
2357.000000	23.037500
2356.000000	23.036500
2355.000000	23.018100
2354.000000	22.994000
2353.000000	22.973700
2352.000000	22.962600
2351.000000	22.946600
2350.000000	22.910300
2349.000000	22.896100
2348.000000	22.885700
2347.000000	22.868400
2346.000000	22.838400
2345.000000	22.816000
2344.000000	22.809300
2343.000000	22.787800
2342.000000	22.755500
2341.000000	22.751200
2340.000000	22.749600
2339.000000	22.729000
2338.000000	22.709900
2337.000000	22.706300
2336.000000	22.694100
2335.000000	22.677500
2334.000000	22.674300
2333.000000	22.669200
2332.000000	22.673200
2331.000000	22.672300
2330.000000	22.667300
2329.000000	22.671100
2328.000000	22.682400
2327.000000	22.683700
2326.000000	22.697000
2325.000000	22.678700
2324.000000	22.700100
2323.000000	22.711300
2322.000000	22.704600
2321.000000	22.690300
2320.000000	22.674700
2319.000000	22.654800
2318.000000	22.618500
2317.000000	22.576900
2316.000000	22.532100
2315.000000	22.507600
2314.000000	22.450300
2313.000000	22.398000
2312.000000	22.339400
2311.000000	22.275500
2310.000000	22.209300
2309.000000	22.149200
2308.000000	22.098200
2307.000000	22.027800
2306.000000	21.970600
2305.000000	21.897600
2304.000000	21.832600
2303.000000	21.778800
2302.000000	21.724100
2301.000000	21.672600
2300.000000	21.607200
2299.000000	21.557800
2298.000000	21.517200
2297.000000	21.469600
2296.000000	21.416600
2295.000000	21.378300
2294.000000	21.317500
2293.000000	21.282100
2292.000000	21.252200
2291.000000	21.209800
2290.000000	21.179400
2289.000000	21.146400
2288.000000	21.110300
2287.000000	21.057100
2286.000000	21.042300
2285.000000	20.997600
2284.000000	20.987100
2283.000000	20.929400
2282.000000	20.905100
2281.000000	20.869100
2280.000000	20.854300
2279.000000	20.808800
2278.000000	20.768000
2277.000000	20.734400
2276.000000	20.669000
2275.000000	20.629000
2274.000000	20.592300
2273.000000	20.540400
2272.000000	20.470000
2271.000000	20.417200
2270.000000	20.365300
2269.000000	20.315900
2268.000000	20.287200
2267.000000	20.257600
2266.000000	20.219200
2265.000000	20.168100
2264.000000	20.164700
2263.000000	20.156100
2262.000000	20.139100
2261.000000	20.145000
2260.000000	20.159700
2259.000000	20.180600
2258.000000	20.234700
2257.000000	20.273500
2256.000000	20.290200
2255.000000	20.365400
2254.000000	20.414600
2253.000000	20.461100
2252.000000	20.530500
2251.000000	20.576800
2250.000000	20.635400
2249.000000	20.718800
2248.000000	20.779800
2247.000000	20.849600
2246.000000	20.894300
2245.000000	20.949200
2244.000000	20.995800
2243.000000	21.053500
2242.000000	21.070300
2241.000000	21.111100
2240.000000	21.118100
2239.000000	21.132900
2238.000000	21.160800
2237.000000	21.154800
2236.000000	21.147300
2235.000000	21.119900
2234.000000	21.079400
2233.000000	21.033000
2232.000000	20.975500
2231.000000	20.911800
2230.000000	20.826900
2229.000000	20.721200
2228.000000	20.630600
2227.000000	20.527200
2226.000000	20.386600
2225.000000	20.265300
2224.000000	20.102800
2223.000000	19.970500
2222.000000	19.798300
2221.000000	19.639100
2220.000000	19.479600
2219.000000	19.305400
2218.000000	19.150500
2217.000000	18.996700
2216.000000	18.857600
2215.000000	18.733100
2214.000000	18.617900
2213.000000	18.538800
2212.000000	18.475500
2211.000000	18.438300
2210.000000	18.420500
2209.000000	18.451700
2208.000000	18.483400
2207.000000	18.571000
2206.000000	18.684300
2205.000000	18.853600
2204.000000	19.018300
2203.000000	19.211600
2202.000000	19.444900
2201.000000	19.720700
2200.000000	19.972900
2199.000000	20.243800
2198.000000	20.537500
2197.000000	20.835200
2196.000000	21.087400
2195.000000	21.381300
2194.000000	21.661900
2193.000000	21.897700
2192.000000	22.111800
2191.000000	22.333300
2190.000000	22.543300
2189.000000	22.727500
2188.000000	22.894100
2187.000000	23.054900
2186.000000	23.187700
2185.000000	23.311900
2184.000000	23.412200
2183.000000	23.511400
2182.000000	23.604100
2181.000000	23.685200
2180.000000	23.744300
2179.000000	23.818300
2178.000000	23.862700
2177.000000	23.912800
2176.000000	23.986400
2175.000000	24.035900
2174.000000	24.058700
2173.000000	24.129200
2172.000000	24.192200
2171.000000	24.250200
2170.000000	24.304100
2169.000000	24.355900
2168.000000	24.410300
2167.000000	24.480200
2166.000000	24.546800
2165.000000	24.618100
2164.000000	24.692900
2163.000000	24.765000
2162.000000	24.840400
2161.000000	24.926900
2160.000000	25.019300
2159.000000	25.121700
2158.000000	25.212700
2157.000000	25.320600
2156.000000	25.452300
2155.000000	25.561900
2154.000000	25.675600
2153.000000	25.804400
2152.000000	25.928600
2151.000000	26.050500
2150.000000	26.199800
2149.000000	26.336500
2148.000000	26.454500
2147.000000	26.603000
2146.000000	26.740100
2145.000000	26.867600
2144.000000	26.986000
2143.000000	27.106300
2142.000000	27.224000
2141.000000	27.357100
2140.000000	27.463900
2139.000000	27.564500
2138.000000	27.679100
2137.000000	27.792400
2136.000000	27.900300
2135.000000	27.985100
2134.000000	28.071600
2133.000000	28.166300
2132.000000	28.254600
2131.000000	28.332900
2130.000000	28.414600
2129.000000	28.485700
2128.000000	28.549600
2127.000000	28.608500
2126.000000	28.665500
2125.000000	28.718100
2124.000000	28.776000
2123.000000	28.801800
2122.000000	28.845400
2121.000000	28.881900
2120.000000	28.917600
2119.000000	28.962200
2118.000000	28.983100
2117.000000	29.008000
2116.000000	29.024900
2115.000000	29.026600
2114.000000	29.039500
2113.000000	29.059600
2112.000000	29.065200
2111.000000	29.073400
2110.000000	29.073800
2109.000000	29.070300
2108.000000	29.074900
2107.000000	29.076200
2106.000000	29.066100
2105.000000	29.066900
2104.000000	29.070800
2103.000000	29.071000
2102.000000	29.065100
2101.000000	29.047600
2100.000000	29.044000
2099.000000	29.050500
2098.000000	29.034100
2097.000000	29.028200
2096.000000	29.044800
2095.000000	29.061400
2094.000000	29.073500
2093.000000	29.066100
2092.000000	29.061200
2091.000000	29.078300
2090.000000	29.092800
2089.000000	29.095000
2088.000000	29.101300
2087.000000	29.106300
2086.000000	29.096000
2085.000000	29.078700
2084.000000	29.069400
2083.000000	29.046100
2082.000000	29.017800
2081.000000	28.981100
2080.000000	28.932800
2079.000000	28.881700
2078.000000	28.830900
2077.000000	28.769200
2076.000000	28.692100
2075.000000	28.624600
2074.000000	28.547800
2073.000000	28.459200
2072.000000	28.354400
2071.000000	28.264600
2070.000000	28.148300
2069.000000	28.044900
2068.000000	27.948800
2067.000000	27.829900
2066.000000	27.705600
2065.000000	27.586300
2064.000000	27.464500
2063.000000	27.360200
2062.000000	27.264900
2061.000000	27.166700
2060.000000	27.076800
2059.000000	26.991300
2058.000000	26.908500
2057.000000	26.839600
2056.000000	26.799800
2055.000000	26.770200
2054.000000	26.751600
2053.000000	26.757700
2052.000000	26.784800
2051.000000	26.809200
2050.000000	26.866000
2049.000000	26.946700
2048.000000	27.033800
2047.000000	27.150800
2046.000000	27.263800
2045.000000	27.393000
2044.000000	27.508200
2043.000000	27.625500
2042.000000	27.771800
2041.000000	27.889800
2040.000000	28.013800
2039.000000	28.145700
2038.000000	28.264000
2037.000000	28.369200
2036.000000	28.490400
2035.000000	28.581700
2034.000000	28.686300
2033.000000	28.781500
2032.000000	28.877800
2031.000000	28.937600
2030.000000	29.033500
2029.000000	29.099800
2028.000000	29.175700
2027.000000	29.227300
2026.000000	29.285500
2025.000000	29.338100
2024.000000	29.384700
2023.000000	29.411700
2022.000000	29.464600
2021.000000	29.511500
2020.000000	29.531700
2019.000000	29.538500
2018.000000	29.559100
2017.000000	29.580900
2016.000000	29.586800
2015.000000	29.579800
2014.000000	29.572600
2013.000000	29.566500
2012.000000	29.563900
2011.000000	29.536100
2010.000000	29.515400
2009.000000	29.500700
2008.000000	29.470300
2007.000000	29.425600
2006.000000	29.374900
2005.000000	29.325700
2004.000000	29.287700
2003.000000	29.220500
2002.000000	29.130800
2001.000000	29.060600
2000.000000	29.014400
1999.000000	28.924300
1998.000000	28.842100
1997.000000	28.781000
1996.000000	28.674600
1995.000000	28.574300
1994.000000	28.491000
1993.000000	28.391300
1992.000000	28.305100
1991.000000	28.193700
1990.000000	28.096300
1989.000000	27.979600
1988.000000	27.894400
1987.000000	27.768200
1986.000000	27.654300
1985.000000	27.569200
1984.000000	27.446300
1983.000000	27.309900
1982.000000	27.236000
1981.000000	27.106500
1980.000000	26.996500
1979.000000	26.888600
1978.000000	26.784900
1977.000000	26.660900
1976.000000	26.545800
1975.000000	26.437700
1974.000000	26.340700
1973.000000	26.234300
1972.000000	26.132600
1971.000000	26.044300
1970.000000	25.910300
1969.000000	25.830400
1968.000000	25.718000
1967.000000	25.620900
1966.000000	25.512200
1965.000000	25.431700
1964.000000	25.319500
1963.000000	25.195600
1962.000000	25.105000
1961.000000	25.004800
1960.000000	24.896700
1959.000000	24.802300
1958.000000	24.707200
1957.000000	24.609500
1956.000000	24.510600
1955.000000	24.398800
1954.000000	24.324800
1953.000000	24.220500
1952.000000	24.119100
1951.000000	24.026700
1950.000000	23.935600
1949.000000	23.860200
1948.000000	23.787300
1947.000000	23.694300
1946.000000	23.652900
1945.000000	23.572800
1944.000000	23.512600
1943.000000	23.446500
1942.000000	23.416200
1941.000000	23.404300
1940.000000	23.353000
1939.000000	23.321100
1938.000000	23.293400
1937.000000	23.282200
1936.000000	23.269100
1935.000000	23.278900
1934.000000	23.303100
1933.000000	23.342100
1932.000000	23.367000
1931.000000	23.449400
1930.000000	23.508400
1929.000000	23.582700
1928.000000	23.658300
1927.000000	23.769800
1926.000000	23.858700
1925.000000	23.967800
1924.000000	24.124300
1923.000000	24.259500
1922.000000	24.411800
1921.000000	24.607200
1920.000000	24.798800
1919.000000	24.978300
1918.000000	25.192100
1917.000000	25.395900
1916.000000	25.643000
1915.000000	25.889400
1914.000000	26.190600
1913.000000	26.487100
1912.000000	26.785100
1911.000000	27.086100
1910.000000	27.420400
1909.000000	27.738400
1908.000000	28.103100
1907.000000	28.505700
1906.000000	28.956800
1905.000000	29.428100
1904.000000	29.884200
1903.000000	30.322900
1902.000000	30.817200
1901.000000	31.287700
1900.000000	31.819000
1899.000000	32.371400
1898.000000	32.934400
1897.000000	33.449500
1896.000000	33.957000
1895.000000	34.462400
1894.000000	35.009700
1893.000000	35.574700
1892.000000	36.166600
1891.000000	36.728900
1890.000000	37.254500
1889.000000	37.770300
1888.000000	38.294300
1887.000000	38.761400
1886.000000	39.231800
1885.000000	39.702000
1884.000000	40.165500
1883.000000	40.571800
1882.000000	40.948200
1881.000000	41.336500
1880.000000	41.658500
1879.000000	42.014600
1878.000000	42.358200
1877.000000	42.685500
1876.000000	42.987300
1875.000000	43.295000
1874.000000	43.572000
1873.000000	43.838100
1872.000000	44.083300
1871.000000	44.278200
1870.000000	44.416200
1869.000000	44.579500
1868.000000	44.727300
1867.000000	44.802400
1866.000000	44.884200
1865.000000	44.983400
1864.000000	45.071300
1863.000000	45.176900
1862.000000	45.296900
1861.000000	45.419900
1860.000000	45.535400
1859.000000	45.613800
1858.000000	45.674200
1857.000000	45.738700
1856.000000	45.794300
1855.000000	45.843400
1854.000000	45.879700
1853.000000	45.872600
1852.000000	45.903600
1851.000000	45.979200
1850.000000	46.061100
1849.000000	46.150900
1848.000000	46.160800
1847.000000	46.112000
1846.000000	46.062600
1845.000000	46.044000
1844.000000	46.050500
1843.000000	46.095800
1842.000000	46.141200
1841.000000	46.142900
1840.000000	46.123800
1839.000000	46.100600
1838.000000	46.080300
1837.000000	46.055900
1836.000000	46.010800
1835.000000	45.950900
1834.000000	45.889500
1833.000000	45.847900
1832.000000	45.847000
1831.000000	45.836700
1830.000000	45.799600
1829.000000	45.783700
1828.000000	45.740800
1827.000000	45.706900
1826.000000	45.691300
1825.000000	45.654500
1824.000000	45.656700
1823.000000	45.694100
1822.000000	45.751300
1821.000000	45.771800
1820.000000	45.740500
1819.000000	45.684800
1818.000000	45.657300
1817.000000	45.662300
1816.000000	45.664100
1815.000000	45.647600
1814.000000	45.641000
1813.000000	45.645100
1812.000000	45.629500
1811.000000	45.596300
1810.000000	45.556000
1809.000000	45.546100
1808.000000	45.552100
1807.000000	45.547700
1806.000000	45.508200
1805.000000	45.472700
1804.000000	45.459700
1803.000000	45.462500
1802.000000	45.461000
1801.000000	45.443700
1800.000000	45.386700
1799.000000	45.351700
1798.000000	45.347000
1797.000000	45.332800
1796.000000	45.321300
1795.000000	45.318300
1794.000000	45.307600
1793.000000	45.282500
1792.000000	45.262900
1791.000000	45.246300
1790.000000	45.246400
1789.000000	45.255600
1788.000000	45.263900
1787.000000	45.270300
1786.000000	45.266800
1785.000000	45.286000
1784.000000	45.274000
1783.000000	45.269200
1782.000000	45.267500
1781.000000	45.272800
1780.000000	45.273300
1779.000000	45.254500
1778.000000	45.232700
1777.000000	45.215400
1776.000000	45.195000
1775.000000	45.170500
1774.000000	45.147200
1773.000000	45.118500
1772.000000	45.105800
1771.000000	45.081400
1770.000000	45.054900
1769.000000	45.023900
1768.000000	45.005600
1767.000000	44.981400
1766.000000	44.966400
1765.000000	44.944000
1764.000000	44.935300
1763.000000	44.932200
1762.000000	44.937200
1761.000000	44.927400
1760.000000	44.930700
1759.000000	44.937900
1758.000000	44.945800
1757.000000	44.953300
1756.000000	44.948400
1755.000000	44.948600
1754.000000	44.952700
1753.000000	44.958200
1752.000000	44.958200
1751.000000	44.936800
1750.000000	44.938600
1749.000000	44.932900
1748.000000	44.885500
1747.000000	44.852800
1746.000000	44.825800
1745.000000	44.780800
1744.000000	44.741400
1743.000000	44.688100
1742.000000	44.612200
1741.000000	44.578200
1740.000000	44.513900
1739.000000	44.451200
1738.000000	44.412000
1737.000000	44.366800
1736.000000	44.309600
1735.000000	44.276000
1734.000000	44.234800
1733.000000	44.211900
1732.000000	44.195000
1731.000000	44.148200
1730.000000	44.122200
1729.000000	44.084500
1728.000000	44.043100
1727.000000	44.014500
1726.000000	43.991900
1725.000000	43.980100
1724.000000	43.983100
1723.000000	44.011900
1722.000000	44.075000
1721.000000	44.179000
1720.000000	44.324600
1719.000000	44.487500
1718.000000	44.659200
1717.000000	44.837400
1716.000000	45.010200
1715.000000	45.169200
1714.000000	45.329700
1713.000000	45.492200
1712.000000	45.621600
1711.000000	45.739000
1710.000000	45.831500
1709.000000	45.940700
1708.000000	46.021100
1707.000000	46.096300
1706.000000	46.156800
1705.000000	46.189600
1704.000000	46.233900
1703.000000	46.255400
1702.000000	46.277500
1701.000000	46.282400
1700.000000	46.295000
1699.000000	46.289900
1698.000000	46.284600
1697.000000	46.276200
1696.000000	46.254200
1695.000000	46.239900
1694.000000	46.188200
1693.000000	46.128500
1692.000000	46.077000
1691.000000	46.008100
1690.000000	45.952900
1689.000000	45.943700
1688.000000	45.938600
1687.000000	45.972100
1686.000000	46.068300
1685.000000	46.149900
1684.000000	46.299200
1683.000000	46.454500
1682.000000	46.612000
1681.000000	46.769100
1680.000000	46.921100
1679.000000	47.089600
1678.000000	47.232400
1677.000000	47.375900
1676.000000	47.500200
1675.000000	47.637400
1674.000000	47.762300
1673.000000	47.886900
1672.000000	47.995700
1671.000000	48.133900
1670.000000	48.251400
1669.000000	48.373600
1668.000000	48.510000
1667.000000	48.593400
1666.000000	48.703100
1665.000000	48.807300
1664.000000	48.895400
1663.000000	48.987100
1662.000000	49.069200
1661.000000	49.164600
1660.000000	49.240300
1659.000000	49.296000
1658.000000	49.364300
1657.000000	49.406600
1656.000000	49.459200
1655.000000	49.494000
1654.000000	49.526400
1653.000000	49.555200
1652.000000	49.575700
1651.000000	49.586800
1650.000000	49.590300
1649.000000	49.597100
1648.000000	49.594800
1647.000000	49.588300
1646.000000	49.574800
1645.000000	49.554700
1644.000000	49.551400
1643.000000	49.542400
1642.000000	49.527800
1641.000000	49.538400
1640.000000	49.538000
1639.000000	49.513600
1638.000000	49.498700
1637.000000	49.479800
1636.000000	49.468600
1635.000000	49.443300
1634.000000	49.442300
1633.000000	49.410600
1632.000000	49.388200
1631.000000	49.372600
1630.000000	49.335800
1629.000000	49.315400
1628.000000	49.286700
1627.000000	49.258700
1626.000000	49.224100
1625.000000	49.184100
1624.000000	49.154000
