PE UV       SUBTECH     SPECTRUM    ASCII       PEDS        4.00        
   -1
CICIMAUCR0044-1.ASC
24/04/03
11:33:37.00
24/04/03
11:33:37.00
Vinicio Soto Monge
C optima #8 17
250,000000
1
Lambda 1050
1050L1511233
PerkinElmer UV WinLab 6.3.2.0749 / 2.02.05 Lambda 900 UV/VIS/NIR, Aug  7 2015 09:38:08

0
0
3350/servo 860,8/2
0
0
UV/VIS
1
1
1
DoubleDePol,CommonBeamDepol,RBeamAtt,SBeamAtt,60mm sphere, WB InGaAs Detector
0
0
0
0
Program
Program
3350/servo 860,8/2
3350/0,2 860,8/0,2
3350/0,2 860,8/0,2
0
15.00
 
 
 
0
 
860,8
319,2
860,8
Front
100
on
S:100 R:100
0
0
0
0
 
0
 
 
 
0
 
 
0
0
0
0
0
 
 
 
 
0
0


0
0
#HDR
-1
-1
#GR
nm
%R
1.0
0.0
2000,000000
-1,000000
1751
8
60,646000
5,166000
#DATA
2000.000000	26.144100
1999.000000	26.061000
1998.000000	25.979600
1997.000000	25.915200
1996.000000	25.835400
1995.000000	25.747400
1994.000000	25.647200
1993.000000	25.558800
1992.000000	25.457200
1991.000000	25.347300
1990.000000	25.252900
1989.000000	25.130400
1988.000000	25.031300
1987.000000	24.924600
1986.000000	24.814000
1985.000000	24.682000
1984.000000	24.571300
1983.000000	24.469200
1982.000000	24.355500
1981.000000	24.238900
1980.000000	24.113500
1979.000000	23.981900
1978.000000	23.885700
1977.000000	23.750700
1976.000000	23.640300
1975.000000	23.515300
1974.000000	23.393500
1973.000000	23.286700
1972.000000	23.169000
1971.000000	23.047800
1970.000000	22.964800
1969.000000	22.854800
1968.000000	22.740300
1967.000000	22.623500
1966.000000	22.522800
1965.000000	22.412800
1964.000000	22.291800
1963.000000	22.182000
1962.000000	22.055700
1961.000000	21.959300
1960.000000	21.833900
1959.000000	21.715300
1958.000000	21.620500
1957.000000	21.517100
1956.000000	21.407700
1955.000000	21.311100
1954.000000	21.218100
1953.000000	21.094800
1952.000000	20.993000
1951.000000	20.891700
1950.000000	20.815400
1949.000000	20.733900
1948.000000	20.644000
1947.000000	20.542000
1946.000000	20.447400
1945.000000	20.383200
1944.000000	20.315900
1943.000000	20.250600
1942.000000	20.185900
1941.000000	20.145900
1940.000000	20.102200
1939.000000	20.041100
1938.000000	20.011400
1937.000000	19.984200
1936.000000	19.973200
1935.000000	19.953800
1934.000000	19.973700
1933.000000	19.993700
1932.000000	20.037100
1931.000000	20.078700
1930.000000	20.118400
1929.000000	20.181100
1928.000000	20.253500
1927.000000	20.316900
1926.000000	20.426100
1925.000000	20.555300
1924.000000	20.656000
1923.000000	20.780700
1922.000000	20.934900
1921.000000	21.083100
1920.000000	21.243000
1919.000000	21.416000
1918.000000	21.625500
1917.000000	21.832200
1916.000000	22.047700
1915.000000	22.295600
1914.000000	22.578900
1913.000000	22.867000
1912.000000	23.138000
1911.000000	23.429800
1910.000000	23.749700
1909.000000	24.085500
1908.000000	24.448400
1907.000000	24.843900
1906.000000	25.310000
1905.000000	25.763300
1904.000000	26.192200
1903.000000	26.658000
1902.000000	27.137300
1901.000000	27.648700
1900.000000	28.177600
1899.000000	28.693200
1898.000000	29.239400
1897.000000	29.776600
1896.000000	30.267400
1895.000000	30.793000
1894.000000	31.327100
1893.000000	31.868400
1892.000000	32.418100
1891.000000	32.918100
1890.000000	33.400500
1889.000000	33.888600
1888.000000	34.334200
1887.000000	34.756900
1886.000000	35.161400
1885.000000	35.567100
1884.000000	35.934200
1883.000000	36.275800
1882.000000	36.626600
1881.000000	36.949900
1880.000000	37.258800
1879.000000	37.584300
1878.000000	37.873200
1877.000000	38.132300
1876.000000	38.376800
1875.000000	38.615200
1874.000000	38.823500
1873.000000	38.995600
1872.000000	39.141100
1871.000000	39.229600
1870.000000	39.303400
1869.000000	39.393100
1868.000000	39.448100
1867.000000	39.511000
1866.000000	39.579700
1865.000000	39.654400
1864.000000	39.756900
1863.000000	39.865000
1862.000000	39.954800
1861.000000	40.020000
1860.000000	40.038800
1859.000000	40.039100
1858.000000	40.069600
1857.000000	40.099100
1856.000000	40.128100
1855.000000	40.138300
1854.000000	40.096200
1853.000000	40.058600
1852.000000	40.087100
1851.000000	40.164300
1850.000000	40.247900
1849.000000	40.194700
1848.000000	40.036000
1847.000000	39.893900
1846.000000	39.832600
1845.000000	39.853800
1844.000000	39.917700
1843.000000	39.945800
1842.000000	39.871300
1841.000000	39.803700
1840.000000	39.754200
1839.000000	39.718100
1838.000000	39.671400
1837.000000	39.587900
1836.000000	39.504000
1835.000000	39.444000
1834.000000	39.408900
1833.000000	39.402400
1832.000000	39.402200
1831.000000	39.356400
1830.000000	39.313900
1829.000000	39.269500
1828.000000	39.226900
1827.000000	39.183300
1826.000000	39.123300
1825.000000	39.105800
1824.000000	39.153400
1823.000000	39.244100
1822.000000	39.229700
1821.000000	39.169700
1820.000000	39.104800
1819.000000	39.066800
1818.000000	39.090500
1817.000000	39.125400
1816.000000	39.105100
1815.000000	39.081800
1814.000000	39.082500
1813.000000	39.075500
1812.000000	39.057100
1811.000000	39.009100
1810.000000	38.966200
1809.000000	38.951500
1808.000000	38.940900
1807.000000	38.912700
1806.000000	38.864700
1805.000000	38.818200
1804.000000	38.784600
1803.000000	38.776600
1802.000000	38.762000
1801.000000	38.697800
1800.000000	38.636000
1799.000000	38.605500
1798.000000	38.587200
1797.000000	38.588700
1796.000000	38.575100
1795.000000	38.540000
1794.000000	38.509900
1793.000000	38.489500
1792.000000	38.458800
1791.000000	38.425800
1790.000000	38.391500
1789.000000	38.355700
1788.000000	38.330800
1787.000000	38.292800
1786.000000	38.220600
1785.000000	38.138000
1784.000000	38.061700
1783.000000	37.976300
1782.000000	37.885900
1781.000000	37.833800
1780.000000	37.747400
1779.000000	37.682000
1778.000000	37.598000
1777.000000	37.508100
1776.000000	37.408800
1775.000000	37.321300
1774.000000	37.218500
1773.000000	37.105500
1772.000000	36.965000
1771.000000	36.785500
1770.000000	36.590400
1769.000000	36.371800
1768.000000	36.139800
1767.000000	35.933800
1766.000000	35.802000
1765.000000	35.743000
1764.000000	35.773900
1763.000000	35.829300
1762.000000	35.907500
1761.000000	35.980300
1760.000000	36.059800
1759.000000	36.136100
1758.000000	36.187600
1757.000000	36.231200
1756.000000	36.316700
1755.000000	36.378800
1754.000000	36.439600
1753.000000	36.493200
1752.000000	36.527400
1751.000000	36.529500
1750.000000	36.535800
1749.000000	36.493500
1748.000000	36.397600
1747.000000	36.283300
1746.000000	36.161200
1745.000000	36.034000
1744.000000	35.910100
1743.000000	35.770300
1742.000000	35.608800
1741.000000	35.453700
1740.000000	35.259500
1739.000000	35.028700
1738.000000	34.800600
1737.000000	34.520600
1736.000000	34.213400
1735.000000	33.891700
1734.000000	33.588500
1733.000000	33.295000
1732.000000	33.114900
1731.000000	33.041700
1730.000000	33.057700
1729.000000	33.121600
1728.000000	33.188300
1727.000000	33.237900
1726.000000	33.260200
1725.000000	33.289000
1724.000000	33.342500
1723.000000	33.434800
1722.000000	33.551200
1721.000000	33.760600
1720.000000	33.943900
1719.000000	34.190500
1718.000000	34.440300
1717.000000	34.700700
1716.000000	34.962400
1715.000000	35.219900
1714.000000	35.456400
1713.000000	35.706000
1712.000000	35.959400
1711.000000	36.179000
1710.000000	36.436100
1709.000000	36.665900
1708.000000	36.908500
1707.000000	37.136200
1706.000000	37.355900
1705.000000	37.563000
1704.000000	37.752400
1703.000000	37.917300
1702.000000	38.060400
1701.000000	38.171700
1700.000000	38.287300
1699.000000	38.395500
1698.000000	38.481800
1697.000000	38.596900
1696.000000	38.692900
1695.000000	38.772400
1694.000000	38.832400
1693.000000	38.895300
1692.000000	38.976400
1691.000000	39.031200
1690.000000	39.126800
1689.000000	39.248800
1688.000000	39.391500
1687.000000	39.562600
1686.000000	39.790400
1685.000000	39.989400
1684.000000	40.239100
1683.000000	40.521400
1682.000000	40.765600
1681.000000	41.000000
1680.000000	41.253900
1679.000000	41.454100
1678.000000	41.667400
1677.000000	41.846200
1676.000000	41.998100
1675.000000	42.152700
1674.000000	42.326000
1673.000000	42.509300
1672.000000	42.701300
1671.000000	42.902500
1670.000000	43.098000
1669.000000	43.312100
1668.000000	43.527800
1667.000000	43.676700
1666.000000	43.851300
1665.000000	44.039000
1664.000000	44.230900
1663.000000	44.421700
1662.000000	44.567600
1661.000000	44.717000
1660.000000	44.842900
1659.000000	44.966300
1658.000000	45.081800
1657.000000	45.179700
1656.000000	45.272100
1655.000000	45.329900
1654.000000	45.380900
1653.000000	45.430500
1652.000000	45.459500
1651.000000	45.480700
1650.000000	45.486500
1649.000000	45.494700
1648.000000	45.490700
1647.000000	45.483300
1646.000000	45.470100
1645.000000	45.467000
1644.000000	45.463600
1643.000000	45.418800
1642.000000	45.380700
1641.000000	45.348000
1640.000000	45.329200
1639.000000	45.305000
1638.000000	45.291100
1637.000000	45.293000
1636.000000	45.293100
1635.000000	45.307500
1634.000000	45.337500
1633.000000	45.351100
1632.000000	45.359300
1631.000000	45.373900
1630.000000	45.376300
1629.000000	45.380500
1628.000000	45.386100
1627.000000	45.380300
1626.000000	45.360000
1625.000000	45.342200
1624.000000	45.331700
1623.000000	45.327200
1622.000000	45.303000
1621.000000	45.280800
1620.000000	45.255600
1619.000000	45.233700
1618.000000	45.197200
1617.000000	45.166400
1616.000000	45.133900
1615.000000	45.097300
1614.000000	45.060800
1613.000000	45.024300
1612.000000	44.990400
1611.000000	44.935200
1610.000000	44.887700
1609.000000	44.842900
1608.000000	44.789600
1607.000000	44.734100
1606.000000	44.668500
1605.000000	44.595300
1604.000000	44.531700
1603.000000	44.475000
1602.000000	44.409200
1601.000000	44.358000
1600.000000	44.300600
1599.000000	44.241000
1598.000000	44.183000
1597.000000	44.118400
1596.000000	44.073100
1595.000000	44.027800
1594.000000	43.977400
1593.000000	43.937100
1592.000000	43.900000
1591.000000	43.853200
1590.000000	43.803500
1589.000000	43.753100
1588.000000	43.721500
1587.000000	43.678200
1586.000000	43.631000
1585.000000	43.603700
1584.000000	43.562800
1583.000000	43.526900
1582.000000	43.494600
1581.000000	43.458800
1580.000000	43.427600
1579.000000	43.411800
1578.000000	43.393800
1577.000000	43.370100
1576.000000	43.351500
1575.000000	43.336000
1574.000000	43.330300
1573.000000	43.341000
1572.000000	43.341300
1571.000000	43.329100
1570.000000	43.328400
1569.000000	43.338100
1568.000000	43.357300
1567.000000	43.373800
1566.000000	43.379700
1565.000000	43.378500
1564.000000	43.384300
1563.000000	43.384600
1562.000000	43.381200
1561.000000	43.372200
1560.000000	43.344400
1559.000000	43.301500
1558.000000	43.274400
1557.000000	43.242600
1556.000000	43.208500
1555.000000	43.154200
1554.000000	43.097900
1553.000000	43.038400
1552.000000	42.989800
1551.000000	42.921600
1550.000000	42.838400
1549.000000	42.762300
1548.000000	42.675100
1547.000000	42.604500
1546.000000	42.525300
1545.000000	42.458900
1544.000000	42.406000
1543.000000	42.360400
1542.000000	42.323800
1541.000000	42.259100
1540.000000	42.243200
1539.000000	42.218200
1538.000000	42.176400
1537.000000	42.133600
1536.000000	42.102400
1535.000000	42.055900
1534.000000	41.994500
1533.000000	41.951200
1532.000000	41.895100
1531.000000	41.828700
1530.000000	41.775500
1529.000000	41.711700
1528.000000	41.662400
1527.000000	41.596800
1526.000000	41.533600
1525.000000	41.475400
1524.000000	41.395500
1523.000000	41.325100
1522.000000	41.248700
1521.000000	41.197800
1520.000000	41.112600
1519.000000	41.031600
1518.000000	40.967600
1517.000000	40.898000
1516.000000	40.813800
1515.000000	40.726100
1514.000000	40.647600
1513.000000	40.559900
1512.000000	40.470000
1511.000000	40.362600
1510.000000	40.282800
1509.000000	40.185500
1508.000000	40.107300
1507.000000	40.007300
1506.000000	39.910100
1505.000000	39.820600
1504.000000	39.749100
1503.000000	39.657400
1502.000000	39.589300
1501.000000	39.517900
1500.000000	39.446100
1499.000000	39.387000
1498.000000	39.337800
1497.000000	39.282900
1496.000000	39.244000
1495.000000	39.199500
1494.000000	39.157600
1493.000000	39.123900
1492.000000	39.109200
1491.000000	39.073300
1490.000000	39.043100
1489.000000	39.031700
1488.000000	39.007700
1487.000000	38.969900
1486.000000	38.948100
1485.000000	38.905500
1484.000000	38.886200
1483.000000	38.903400
1482.000000	38.881200
1481.000000	38.854600
1480.000000	38.861400
1479.000000	38.864100
1478.000000	38.865800
1477.000000	38.859000
1476.000000	38.883700
1475.000000	38.923600
1474.000000	38.971100
1473.000000	39.024300
1472.000000	39.059800
1471.000000	39.090900
1470.000000	39.099400
1469.000000	39.136300
1468.000000	39.211100
1467.000000	39.285500
1466.000000	39.301200
1465.000000	39.370000
1464.000000	39.420600
1463.000000	39.448800
1462.000000	39.529200
1461.000000	39.587200
1460.000000	39.631500
1459.000000	39.689600
1458.000000	39.764000
1457.000000	39.843000
1456.000000	39.883100
1455.000000	39.921100
1454.000000	39.989200
1453.000000	40.061100
1452.000000	40.124700
1451.000000	40.150900
1450.000000	40.150100
1449.000000	40.178000
1448.000000	40.274200
1447.000000	40.355000
1446.000000	40.401400
1445.000000	40.402900
1444.000000	40.446400
1443.000000	40.499300
1442.000000	40.540000
1441.000000	40.572000
1440.000000	40.632800
1439.000000	40.700300
1438.000000	40.748400
1437.000000	40.804200
1436.000000	40.880000
1435.000000	40.993200
1434.000000	41.078100
1433.000000	41.166000
1432.000000	41.241400
1431.000000	41.305300
1430.000000	41.393100
1429.000000	41.492400
1428.000000	41.579200
1427.000000	41.673600
1426.000000	41.804300
1425.000000	41.926500
1424.000000	42.044600
1423.000000	42.140300
1422.000000	42.249700
1421.000000	42.460400
1420.000000	42.605000
1419.000000	42.676200
1418.000000	42.743400
1417.000000	42.881100
1416.000000	43.115300
1415.000000	43.326200
1414.000000	43.435700
1413.000000	43.638400
1412.000000	43.873900
1411.000000	44.165000
1410.000000	44.386900
1409.000000	44.563200
1408.000000	44.771200
1407.000000	44.984900
1406.000000	45.188600
1405.000000	45.316700
1404.000000	45.430100
1403.000000	45.700000
1402.000000	45.951900
1401.000000	45.965600
1400.000000	45.859300
1399.000000	45.862200
1398.000000	45.976000
1397.000000	46.026300
1396.000000	45.849700
1395.000000	45.529600
1394.000000	45.229500
1393.000000	44.829400
1392.000000	44.631600
1391.000000	45.052500
1390.000000	45.644100
1389.000000	45.950800
1388.000000	45.970700
1387.000000	46.065000
1386.000000	46.207900
1385.000000	46.400400
1384.000000	46.546800
1383.000000	46.725400
1382.000000	46.910100
1381.000000	47.187100
1380.000000	47.534700
1379.000000	48.006400
1378.000000	48.500800
1377.000000	49.034000
1376.000000	49.572600
1375.000000	50.085100
1374.000000	50.641600
1373.000000	51.132200
1372.000000	51.523500
1371.000000	51.804600
1370.000000	52.083000
1369.000000	52.334400
1368.000000	52.464300
1367.000000	52.616200
1366.000000	52.791700
1365.000000	52.887200
1364.000000	53.010400
1363.000000	53.172300
1362.000000	53.159700
1361.000000	53.098800
1360.000000	53.120300
1359.000000	53.242300
1358.000000	53.327600
1357.000000	53.429500
1356.000000	53.517100
1355.000000	53.544900
1354.000000	53.574700
1353.000000	53.670500
1352.000000	53.816600
1351.000000	53.927300
1350.000000	54.064600
1349.000000	54.214400
1348.000000	54.311200
1347.000000	54.400100
1346.000000	54.519800
1345.000000	54.655100
1344.000000	54.751700
1343.000000	54.855800
1342.000000	54.972200
1341.000000	55.066600
1340.000000	55.158900
1339.000000	55.245900
1338.000000	55.325600
1337.000000	55.398800
1336.000000	55.463400
1335.000000	55.537000
1334.000000	55.619300
1333.000000	55.682400
1332.000000	55.743800
1331.000000	55.801300
1330.000000	55.858100
1329.000000	55.905200
1328.000000	55.946200
1327.000000	55.985000
1326.000000	56.021600
1325.000000	56.053300
1324.000000	56.083600
1323.000000	56.117300
1322.000000	56.139600
1321.000000	56.157900
1320.000000	56.175100
1319.000000	56.196600
1318.000000	56.220400
1317.000000	56.237500
1316.000000	56.248100
1315.000000	56.264800
1314.000000	56.273800
1313.000000	56.274700
1312.000000	56.288800
1311.000000	56.298200
1310.000000	56.308900
1309.000000	56.306400
1308.000000	56.307200
1307.000000	56.326100
1306.000000	56.336100
1305.000000	56.331700
1304.000000	56.322100
1303.000000	56.326000
1302.000000	56.331100
1301.000000	56.330900
1300.000000	56.324900
1299.000000	56.325300
1298.000000	56.318700
1297.000000	56.319700
1296.000000	56.329700
1295.000000	56.330600
1294.000000	56.328400
1293.000000	56.322600
1292.000000	56.313000
1291.000000	56.313600
1290.000000	56.307600
1289.000000	56.298000
1288.000000	56.281900
1287.000000	56.265300
1286.000000	56.265900
1285.000000	56.243000
1284.000000	56.233200
1283.000000	56.216800
1282.000000	56.190700
1281.000000	56.174000
1280.000000	56.162000
1279.000000	56.133100
1278.000000	56.099800
1277.000000	56.082700
1276.000000	56.058800
1275.000000	56.050100
1274.000000	56.037800
1273.000000	56.019900
1272.000000	55.993300
1271.000000	55.967600
1270.000000	55.944700
1269.000000	55.929100
1268.000000	55.907500
1267.000000	55.875100
1266.000000	55.842800
1265.000000	55.807600
1264.000000	55.775800
1263.000000	55.758000
1262.000000	55.736300
1261.000000	55.688500
1260.000000	55.666000
1259.000000	55.649100
1258.000000	55.610700
1257.000000	55.597700
1256.000000	55.554400
1255.000000	55.517600
1254.000000	55.503200
1253.000000	55.470900
1252.000000	55.451400
1251.000000	55.404900
1250.000000	55.357500
1249.000000	55.329100
1248.000000	55.314400
1247.000000	55.269500
1246.000000	55.228600
1245.000000	55.168900
1244.000000	55.131100
1243.000000	55.077700
1242.000000	55.020600
1241.000000	54.989800
1240.000000	54.958600
1239.000000	54.911000
1238.000000	54.861500
1237.000000	54.823000
1236.000000	54.766800
1235.000000	54.711500
1234.000000	54.662600
1233.000000	54.590800
1232.000000	54.497500
1231.000000	54.429400
1230.000000	54.332000
1229.000000	54.236700
1228.000000	54.125900
1227.000000	54.023100
1226.000000	53.904000
1225.000000	53.760600
1224.000000	53.623100
1223.000000	53.492400
1222.000000	53.346400
1221.000000	53.219600
1220.000000	53.117000
1219.000000	53.013200
1218.000000	52.933500
1217.000000	52.880500
1216.000000	52.841200
1215.000000	52.805800
1214.000000	52.789900
1213.000000	52.770400
1212.000000	52.791800
1211.000000	52.792300
1210.000000	52.829100
1209.000000	52.855700
1208.000000	52.871300
1207.000000	52.902300
1206.000000	52.932900
1205.000000	52.966500
1204.000000	52.982300
1203.000000	53.021900
1202.000000	53.035400
1201.000000	53.056200
1200.000000	53.069800
1199.000000	53.100600
1198.000000	53.104500
1197.000000	53.122300
1196.000000	53.133400
1195.000000	53.130100
1194.000000	53.154100
1193.000000	53.164900
1192.000000	53.136600
1191.000000	53.141500
1190.000000	53.134800
1189.000000	53.125200
1188.000000	53.110700
1187.000000	53.052700
1186.000000	53.104400
1185.000000	53.171000
1184.000000	53.255200
1183.000000	53.317100
1182.000000	53.407700
1181.000000	53.473000
1180.000000	53.553200
1179.000000	53.635600
1178.000000	53.727000
1177.000000	53.776300
1176.000000	53.845100
1175.000000	53.906500
1174.000000	53.967200
1173.000000	54.010200
1172.000000	54.066200
1171.000000	54.098600
1170.000000	54.150200
1169.000000	54.192000
1168.000000	54.279700
1167.000000	54.348500
1166.000000	54.457700
1165.000000	54.541200
1164.000000	54.647000
1163.000000	54.730300
1162.000000	54.843600
1161.000000	54.924300
1160.000000	54.987200
1159.000000	55.063900
1158.000000	55.130300
1157.000000	55.198000
1156.000000	55.270600
1155.000000	55.332400
1154.000000	55.407500
1153.000000	55.443000
1152.000000	55.494000
1151.000000	55.536100
1150.000000	55.572500
1149.000000	55.625000
1148.000000	55.675200
1147.000000	55.740900
1146.000000	55.729400
1145.000000	55.774200
1144.000000	55.816000
1143.000000	55.866700
1142.000000	55.915500
1141.000000	55.971200
1140.000000	56.013500
1139.000000	56.073100
1138.000000	56.137800
1137.000000	56.223900
1136.000000	56.281500
1135.000000	56.315600
1134.000000	56.312700
1133.000000	56.352500
1132.000000	56.427300
1131.000000	56.488500
1130.000000	56.530400
1129.000000	56.550400
1128.000000	56.571200
1127.000000	56.604500
1126.000000	56.619000
1125.000000	56.637500
1124.000000	56.656300
