PE UV       SUBTECH     SPECTRUM    ASCII       PEDS        4.00        
   -1
CICIMAUCR0001-3.Sample.ASC
24/04/04
15:45:00.00
24/04/04
15:45:00.00
Vinicio Soto Monge
C. kalinini
250,000000
1
Lambda 1050
1050L1511233
PerkinElmer UV WinLab 6.3.2.0749 / 2.02.05 Lambda 900 UV/VIS/NIR, Aug  7 2015 09:38:08

0
0
3350/servo 860,8/2
0
0
UV/VIS
1
1
1
DoubleDePol,CommonBeamDepol,RBeamAtt,SBeamAtt,60mm sphere, WB InGaAs Detector
0
0
0
0
Program
Program
3350/servo 860,8/2
3350/0,2 860,8/0,2
3350/0,2 860,8/0,2
0
15.00
 
 
 
0
 
860,8
319,2
860,8
Front
100
on
S:100 R:100
0
0
0
0
 
0
 
 
 
0
 
 
0
0
0
0
0
 
 
 
 
0
0


0
0
#HDR
-1
-1
#GR
nm
%R
1.0
0.0
2500,000000
-1,000000
2251
8
73,921900
4,917300
#DATA
2500.000000	8.556100
2499.000000	8.439000
2498.000000	8.475100
2497.000000	8.537000
2496.000000	8.504700
2495.000000	8.571800
2494.000000	8.477300
2493.000000	8.566700
2492.000000	8.593700
2491.000000	8.574200
2490.000000	8.582600
2489.000000	8.608700
2488.000000	8.526600
2487.000000	8.626500
2486.000000	8.643000
2485.000000	8.616500
2484.000000	8.626300
2483.000000	8.688000
2482.000000	8.694200
2481.000000	8.698100
2480.000000	8.769300
2479.000000	8.747000
2478.000000	8.814900
2477.000000	8.774700
2476.000000	8.861300
2475.000000	8.869600
2474.000000	8.907400
2473.000000	8.923300
2472.000000	8.986400
2471.000000	9.000300
2470.000000	8.996500
2469.000000	9.087800
2468.000000	9.057600
2467.000000	9.170300
2466.000000	9.197500
2465.000000	9.191500
2464.000000	9.266800
2463.000000	9.317100
2462.000000	9.363400
2461.000000	9.409200
2460.000000	9.459100
2459.000000	9.478800
2458.000000	9.560700
2457.000000	9.624900
2456.000000	9.650500
2455.000000	9.721900
2454.000000	9.812400
2453.000000	9.866000
2452.000000	9.939100
2451.000000	9.981500
2450.000000	10.057000
2449.000000	10.128800
2448.000000	10.201100
2447.000000	10.271900
2446.000000	10.338100
2445.000000	10.432300
2444.000000	10.496700
2443.000000	10.565200
2442.000000	10.666400
2441.000000	10.731500
2440.000000	10.796000
2439.000000	10.883900
2438.000000	10.951900
2437.000000	11.045000
2436.000000	11.113600
2435.000000	11.192800
2434.000000	11.273900
2433.000000	11.350300
2432.000000	11.420300
2431.000000	11.498500
2430.000000	11.566900
2429.000000	11.652600
2428.000000	11.724700
2427.000000	11.791600
2426.000000	11.856400
2425.000000	11.924000
2424.000000	11.996400
2423.000000	12.067200
2422.000000	12.118600
2421.000000	12.182500
2420.000000	12.255900
2419.000000	12.318600
2418.000000	12.396200
2417.000000	12.451700
2416.000000	12.502200
2415.000000	12.561000
2414.000000	12.611600
2413.000000	12.676000
2412.000000	12.710500
2411.000000	12.752300
2410.000000	12.804200
2409.000000	12.856800
2408.000000	12.902100
2407.000000	12.943100
2406.000000	12.952600
2405.000000	12.992100
2404.000000	13.048500
2403.000000	13.091500
2402.000000	13.110400
2401.000000	13.139700
2400.000000	13.169700
2399.000000	13.191000
2398.000000	13.212300
2397.000000	13.245000
2396.000000	13.266700
2395.000000	13.291200
2394.000000	13.310000
2393.000000	13.335000
2392.000000	13.358900
2391.000000	13.372500
2390.000000	13.381800
2389.000000	13.397600
2388.000000	13.415300
2387.000000	13.426900
2386.000000	13.427300
2385.000000	13.421000
2384.000000	13.430500
2383.000000	13.435300
2382.000000	13.440900
2381.000000	13.450500
2380.000000	13.430900
2379.000000	13.418800
2378.000000	13.413200
2377.000000	13.413900
2376.000000	13.403300
2375.000000	13.395500
2374.000000	13.382300
2373.000000	13.369800
2372.000000	13.373600
2371.000000	13.366200
2370.000000	13.357500
2369.000000	13.361500
2368.000000	13.365100
2367.000000	13.345000
2366.000000	13.328100
2365.000000	13.337000
2364.000000	13.337400
2363.000000	13.325900
2362.000000	13.325700
2361.000000	13.315700
2360.000000	13.307500
2359.000000	13.306800
2358.000000	13.301800
2357.000000	13.290400
2356.000000	13.280800
2355.000000	13.269800
2354.000000	13.248600
2353.000000	13.236800
2352.000000	13.236300
2351.000000	13.230300
2350.000000	13.210900
2349.000000	13.197700
2348.000000	13.175500
2347.000000	13.150700
2346.000000	13.150400
2345.000000	13.136700
2344.000000	13.129000
2343.000000	13.120600
2342.000000	13.108500
2341.000000	13.108600
2340.000000	13.097300
2339.000000	13.085200
2338.000000	13.071400
2337.000000	13.067100
2336.000000	13.059200
2335.000000	13.060700
2334.000000	13.060700
2333.000000	13.052900
2332.000000	13.051100
2331.000000	13.056300
2330.000000	13.075200
2329.000000	13.077500
2328.000000	13.081600
2327.000000	13.092900
2326.000000	13.100900
2325.000000	13.107600
2324.000000	13.110900
2323.000000	13.109900
2322.000000	13.113500
2321.000000	13.114400
2320.000000	13.104000
2319.000000	13.101000
2318.000000	13.090200
2317.000000	13.070200
2316.000000	13.051100
2315.000000	13.027200
2314.000000	13.015500
2313.000000	12.974100
2312.000000	12.944300
2311.000000	12.900700
2310.000000	12.852500
2309.000000	12.827700
2308.000000	12.791300
2307.000000	12.754500
2306.000000	12.718600
2305.000000	12.686000
2304.000000	12.646000
2303.000000	12.614700
2302.000000	12.576000
2301.000000	12.539800
2300.000000	12.507800
2299.000000	12.475600
2298.000000	12.442000
2297.000000	12.433600
2296.000000	12.413800
2295.000000	12.415000
2294.000000	12.385000
2293.000000	12.360600
2292.000000	12.347400
2291.000000	12.316100
2290.000000	12.320200
2289.000000	12.298300
2288.000000	12.303900
2287.000000	12.283300
2286.000000	12.275100
2285.000000	12.278900
2284.000000	12.264900
2283.000000	12.255800
2282.000000	12.232000
2281.000000	12.216700
2280.000000	12.213700
2279.000000	12.191700
2278.000000	12.178500
2277.000000	12.161100
2276.000000	12.134900
2275.000000	12.120700
2274.000000	12.089700
2273.000000	12.062500
2272.000000	12.046300
2271.000000	12.020000
2270.000000	11.987600
2269.000000	11.963100
2268.000000	11.967900
2267.000000	11.939100
2266.000000	11.926800
2265.000000	11.907800
2264.000000	11.898800
2263.000000	11.891300
2262.000000	11.909500
2261.000000	11.932900
2260.000000	11.951200
2259.000000	11.975800
2258.000000	11.985500
2257.000000	12.057100
2256.000000	12.090500
2255.000000	12.139300
2254.000000	12.192600
2253.000000	12.235000
2252.000000	12.299500
2251.000000	12.355900
2250.000000	12.426600
2249.000000	12.470400
2248.000000	12.534900
2247.000000	12.580800
2246.000000	12.637100
2245.000000	12.676300
2244.000000	12.731200
2243.000000	12.777700
2242.000000	12.819200
2241.000000	12.844500
2240.000000	12.884100
2239.000000	12.881100
2238.000000	12.899000
2237.000000	12.925300
2236.000000	12.923300
2235.000000	12.908300
2234.000000	12.891800
2233.000000	12.877900
2232.000000	12.836000
2231.000000	12.803800
2230.000000	12.728300
2229.000000	12.692400
2228.000000	12.623800
2227.000000	12.574100
2226.000000	12.459100
2225.000000	12.389600
2224.000000	12.308500
2223.000000	12.206700
2222.000000	12.107400
2221.000000	11.988700
2220.000000	11.886300
2219.000000	11.765300
2218.000000	11.664400
2217.000000	11.575300
2216.000000	11.462300
2215.000000	11.398200
2214.000000	11.294300
2213.000000	11.218000
2212.000000	11.192900
2211.000000	11.155100
2210.000000	11.131000
2209.000000	11.116800
2208.000000	11.132500
2207.000000	11.163300
2206.000000	11.242400
2205.000000	11.317500
2204.000000	11.435600
2203.000000	11.550100
2202.000000	11.650500
2201.000000	11.808000
2200.000000	11.953600
2199.000000	12.110700
2198.000000	12.281700
2197.000000	12.436700
2196.000000	12.606700
2195.000000	12.771500
2194.000000	12.906200
2193.000000	13.076900
2192.000000	13.206300
2191.000000	13.352600
2190.000000	13.460100
2189.000000	13.568100
2188.000000	13.653200
2187.000000	13.756600
2186.000000	13.832500
2185.000000	13.887400
2184.000000	13.964300
2183.000000	13.996100
2182.000000	14.041400
2181.000000	14.089700
2180.000000	14.125300
2179.000000	14.150200
2178.000000	14.195800
2177.000000	14.209300
2176.000000	14.249300
2175.000000	14.275300
2174.000000	14.307900
2173.000000	14.321500
2172.000000	14.363600
2171.000000	14.398800
2170.000000	14.415000
2169.000000	14.453800
2168.000000	14.483600
2167.000000	14.534300
2166.000000	14.560300
2165.000000	14.601000
2164.000000	14.639600
2163.000000	14.685400
2162.000000	14.734500
2161.000000	14.791200
2160.000000	14.831100
2159.000000	14.921700
2158.000000	14.989100
2157.000000	15.036800
2156.000000	15.104900
2155.000000	15.199900
2154.000000	15.271200
2153.000000	15.355900
2152.000000	15.437900
2151.000000	15.524900
2150.000000	15.619100
2149.000000	15.704400
2148.000000	15.805300
2147.000000	15.910000
2146.000000	15.992400
2145.000000	16.065100
2144.000000	16.162700
2143.000000	16.270200
2142.000000	16.358800
2141.000000	16.419000
2140.000000	16.495900
2139.000000	16.596500
2138.000000	16.682700
2137.000000	16.755900
2136.000000	16.839900
2135.000000	16.922700
2134.000000	16.986500
2133.000000	17.063100
2132.000000	17.131800
2131.000000	17.191300
2130.000000	17.250700
2129.000000	17.295800
2128.000000	17.336800
2127.000000	17.396700
2126.000000	17.445700
2125.000000	17.483700
2124.000000	17.524800
2123.000000	17.566300
2122.000000	17.601700
2121.000000	17.643100
2120.000000	17.670600
2119.000000	17.704000
2118.000000	17.731700
2117.000000	17.745800
2116.000000	17.766700
2115.000000	17.796200
2114.000000	17.808600
2113.000000	17.821800
2112.000000	17.840300
2111.000000	17.857000
2110.000000	17.869500
2109.000000	17.863800
2108.000000	17.858900
2107.000000	17.871900
2106.000000	17.891800
2105.000000	17.902300
2104.000000	17.905700
2103.000000	17.909400
2102.000000	17.914000
2101.000000	17.911000
2100.000000	17.911200
2099.000000	17.915800
2098.000000	17.914500
2097.000000	17.918000
2096.000000	17.933700
2095.000000	17.949400
2094.000000	17.954000
2093.000000	17.956100
2092.000000	17.962700
2091.000000	17.968700
2090.000000	17.974500
2089.000000	17.995900
2088.000000	18.002700
2087.000000	17.988800
2086.000000	17.969500
2085.000000	17.960800
2084.000000	17.967600
2083.000000	17.961800
2082.000000	17.941000
2081.000000	17.905800
2080.000000	17.869500
2079.000000	17.832500
2078.000000	17.796100
2077.000000	17.733300
2076.000000	17.682700
2075.000000	17.643900
2074.000000	17.578100
2073.000000	17.501600
2072.000000	17.414200
2071.000000	17.345100
2070.000000	17.264800
2069.000000	17.184500
2068.000000	17.104500
2067.000000	17.015400
2066.000000	16.934600
2065.000000	16.855200
2064.000000	16.768500
2063.000000	16.675300
2062.000000	16.589800
2061.000000	16.515100
2060.000000	16.449800
2059.000000	16.404300
2058.000000	16.343800
2057.000000	16.284100
2056.000000	16.258000
2055.000000	16.229900
2054.000000	16.220800
2053.000000	16.216500
2052.000000	16.239300
2051.000000	16.269200
2050.000000	16.313400
2049.000000	16.358100
2048.000000	16.427300
2047.000000	16.493000
2046.000000	16.580500
2045.000000	16.665500
2044.000000	16.756400
2043.000000	16.847200
2042.000000	16.946500
2041.000000	17.029300
2040.000000	17.116300
2039.000000	17.209300
2038.000000	17.295300
2037.000000	17.368900
2036.000000	17.444200
2035.000000	17.529300
2034.000000	17.583200
2033.000000	17.630500
2032.000000	17.696500
2031.000000	17.756300
2030.000000	17.810700
2029.000000	17.852900
2028.000000	17.893600
2027.000000	17.917300
2026.000000	17.953200
2025.000000	17.991000
2024.000000	18.024500
2023.000000	18.041100
2022.000000	18.054300
2021.000000	18.063400
2020.000000	18.075200
2019.000000	18.080900
2018.000000	18.088700
2017.000000	18.093000
2016.000000	18.077200
2015.000000	18.083900
2014.000000	18.045600
2013.000000	18.051900
2012.000000	18.021900
2011.000000	17.979200
2010.000000	17.954200
2009.000000	17.940800
2008.000000	17.888100
2007.000000	17.856500
2006.000000	17.805800
2005.000000	17.755100
2004.000000	17.692800
2003.000000	17.629100
2002.000000	17.558600
2001.000000	17.494300
2000.000000	17.441300
1999.000000	17.353600
1998.000000	17.285800
1997.000000	17.225100
1996.000000	17.146000
1995.000000	17.050300
1994.000000	16.974200
1993.000000	16.895600
1992.000000	16.803300
1991.000000	16.725800
1990.000000	16.618300
1989.000000	16.550800
1988.000000	16.444700
1987.000000	16.347200
1986.000000	16.268300
1985.000000	16.187800
1984.000000	16.074700
1983.000000	15.993900
1982.000000	15.902000
1981.000000	15.810000
1980.000000	15.733100
1979.000000	15.647500
1978.000000	15.563800
1977.000000	15.466700
1976.000000	15.375700
1975.000000	15.323800
1974.000000	15.222500
1973.000000	15.135100
1972.000000	15.062800
1971.000000	14.984100
1970.000000	14.915800
1969.000000	14.836600
1968.000000	14.764400
1967.000000	14.692600
1966.000000	14.614800
1965.000000	14.549300
1964.000000	14.477100
1963.000000	14.387400
1962.000000	14.351400
1961.000000	14.253100
1960.000000	14.192400
1959.000000	14.123600
1958.000000	14.068600
1957.000000	13.987600
1956.000000	13.912200
1955.000000	13.847200
1954.000000	13.783700
1953.000000	13.713400
1952.000000	13.661000
1951.000000	13.599700
1950.000000	13.538100
1949.000000	13.496100
1948.000000	13.432300
1947.000000	13.392500
1946.000000	13.348300
1945.000000	13.319300
1944.000000	13.267600
1943.000000	13.221900
1942.000000	13.212300
1941.000000	13.205800
1940.000000	13.199100
1939.000000	13.167900
1938.000000	13.177600
1937.000000	13.155600
1936.000000	13.148400
1935.000000	13.158600
1934.000000	13.199900
1933.000000	13.219400
1932.000000	13.242500
1931.000000	13.293300
1930.000000	13.339300
1929.000000	13.398700
1928.000000	13.454100
1927.000000	13.512100
1926.000000	13.590700
1925.000000	13.687400
1924.000000	13.787200
1923.000000	13.888600
1922.000000	14.019200
1921.000000	14.136100
1920.000000	14.265000
1919.000000	14.392700
1918.000000	14.551000
1917.000000	14.705800
1916.000000	14.860100
1915.000000	15.029800
1914.000000	15.237800
1913.000000	15.475800
1912.000000	15.706900
1911.000000	15.934600
1910.000000	16.173900
1909.000000	16.412900
1908.000000	16.667100
1907.000000	16.966600
1906.000000	17.309000
1905.000000	17.672600
1904.000000	18.037100
1903.000000	18.391000
1902.000000	18.770800
1901.000000	19.161700
1900.000000	19.624900
1899.000000	20.102000
1898.000000	20.552600
1897.000000	21.044300
1896.000000	21.483800
1895.000000	21.924500
1894.000000	22.424200
1893.000000	22.924400
1892.000000	23.457900
1891.000000	24.047700
1890.000000	24.565500
1889.000000	25.055000
1888.000000	25.603900
1887.000000	26.087800
1886.000000	26.562700
1885.000000	27.067600
1884.000000	27.576500
1883.000000	28.018600
1882.000000	28.436600
1881.000000	28.852200
1880.000000	29.254200
1879.000000	29.640200
1878.000000	30.022300
1877.000000	30.373200
1876.000000	30.720200
1875.000000	31.039900
1874.000000	31.344600
1873.000000	31.654100
1872.000000	31.920800
1871.000000	32.148900
1870.000000	32.329200
1869.000000	32.493300
1868.000000	32.670400
1867.000000	32.822100
1866.000000	32.930000
1865.000000	33.054900
1864.000000	33.200300
1863.000000	33.335400
1862.000000	33.469100
1861.000000	33.609100
1860.000000	33.707300
1859.000000	33.784800
1858.000000	33.856000
1857.000000	33.923500
1856.000000	33.988000
1855.000000	34.049300
1854.000000	34.095000
1853.000000	34.093400
1852.000000	34.108500
1851.000000	34.177200
1850.000000	34.270400
1849.000000	34.334300
1848.000000	34.312600
1847.000000	34.257900
1846.000000	34.176500
1845.000000	34.139200
1844.000000	34.191900
1843.000000	34.239900
1842.000000	34.270900
1841.000000	34.239800
1840.000000	34.184600
1839.000000	34.144500
1838.000000	34.111900
1837.000000	34.064000
1836.000000	33.986800
1835.000000	33.916500
1834.000000	33.865800
1833.000000	33.850700
1832.000000	33.831000
1831.000000	33.816300
1830.000000	33.781300
1829.000000	33.731000
1828.000000	33.688300
1827.000000	33.655600
1826.000000	33.624000
1825.000000	33.573800
1824.000000	33.554200
1823.000000	33.612600
1822.000000	33.654900
1821.000000	33.633400
1820.000000	33.588800
1819.000000	33.539900
1818.000000	33.516100
1817.000000	33.517800
1816.000000	33.533400
1815.000000	33.517800
1814.000000	33.491600
1813.000000	33.490000
1812.000000	33.474900
1811.000000	33.434500
1810.000000	33.392100
1809.000000	33.360500
1808.000000	33.347200
1807.000000	33.344300
1806.000000	33.318900
1805.000000	33.291500
1804.000000	33.265100
1803.000000	33.256200
1802.000000	33.247600
1801.000000	33.230400
1800.000000	33.202600
1799.000000	33.164400
1798.000000	33.131100
1797.000000	33.124800
1796.000000	33.124100
1795.000000	33.098300
1794.000000	33.084700
1793.000000	33.070900
1792.000000	33.045800
1791.000000	33.039900
1790.000000	33.040000
1789.000000	33.045900
1788.000000	33.038600
1787.000000	33.043300
1786.000000	33.067800
1785.000000	33.057100
1784.000000	33.064300
1783.000000	33.065300
1782.000000	33.059600
1781.000000	33.064700
1780.000000	33.045600
1779.000000	33.043300
1778.000000	33.025000
1777.000000	32.987400
1776.000000	32.964200
1775.000000	32.944400
1774.000000	32.902900
1773.000000	32.885800
1772.000000	32.862600
1771.000000	32.825100
1770.000000	32.810400
1769.000000	32.772000
1768.000000	32.740700
1767.000000	32.708700
1766.000000	32.688000
1765.000000	32.646700
1764.000000	32.631100
1763.000000	32.631300
1762.000000	32.609200
1761.000000	32.593700
1760.000000	32.588900
1759.000000	32.575700
1758.000000	32.571100
1757.000000	32.561200
1756.000000	32.550500
1755.000000	32.552100
1754.000000	32.535100
1753.000000	32.544100
1752.000000	32.534300
1751.000000	32.516000
1750.000000	32.484000
1749.000000	32.466100
1748.000000	32.429000
1747.000000	32.375900
1746.000000	32.323900
1745.000000	32.258200
1744.000000	32.190400
1743.000000	32.146200
1742.000000	32.081100
1741.000000	32.020400
1740.000000	31.931300
1739.000000	31.875900
1738.000000	31.810300
1737.000000	31.750900
1736.000000	31.713400
1735.000000	31.659200
1734.000000	31.623600
1733.000000	31.573200
1732.000000	31.542000
1731.000000	31.494800
1730.000000	31.443200
1729.000000	31.420300
1728.000000	31.378000
1727.000000	31.342100
1726.000000	31.318300
1725.000000	31.298900
1724.000000	31.292700
1723.000000	31.297300
1722.000000	31.350600
1721.000000	31.435700
1720.000000	31.559000
1719.000000	31.725500
1718.000000	31.881500
1717.000000	32.058700
1716.000000	32.214200
1715.000000	32.404100
1714.000000	32.578600
1713.000000	32.728500
1712.000000	32.852100
1711.000000	32.978900
1710.000000	33.089300
1709.000000	33.191900
1708.000000	33.307300
1707.000000	33.333300
1706.000000	33.426500
1705.000000	33.453500
1704.000000	33.485300
1703.000000	33.501600
1702.000000	33.524500
1701.000000	33.512700
1700.000000	33.521900
1699.000000	33.529500
1698.000000	33.520200
1697.000000	33.513600
1696.000000	33.476200
1695.000000	33.453100
1694.000000	33.408300
1693.000000	33.357000
1692.000000	33.292400
1691.000000	33.210000
1690.000000	33.172300
1689.000000	33.137700
1688.000000	33.147500
1687.000000	33.202700
1686.000000	33.302400
1685.000000	33.417600
1684.000000	33.571200
1683.000000	33.757200
1682.000000	33.953700
1681.000000	34.140500
1680.000000	34.346600
1679.000000	34.553900
1678.000000	34.732600
1677.000000	34.898100
1676.000000	35.071400
1675.000000	35.232600
1674.000000	35.398000
1673.000000	35.558500
1672.000000	35.724700
1671.000000	35.891300
1670.000000	36.056900
1669.000000	36.226300
1668.000000	36.386300
1667.000000	36.544700
1666.000000	36.674000
1665.000000	36.804600
1664.000000	36.939000
1663.000000	37.072700
1662.000000	37.197500
1661.000000	37.292400
1660.000000	37.419400
1659.000000	37.490700
1658.000000	37.594200
1657.000000	37.660300
1656.000000	37.728900
1655.000000	37.772400
1654.000000	37.821600
1653.000000	37.841400
1652.000000	37.878000
1651.000000	37.915200
1650.000000	37.923800
1649.000000	37.922300
1648.000000	37.919800
1647.000000	37.903100
1646.000000	37.911300
1645.000000	37.890000
1644.000000	37.877900
1643.000000	37.874200
1642.000000	37.858500
1641.000000	37.839400
1640.000000	37.821700
1639.000000	37.815800
1638.000000	37.795300
1637.000000	37.771000
1636.000000	37.749600
1635.000000	37.724000
1634.000000	37.682600
1633.000000	37.655900
1632.000000	37.620300
1631.000000	37.572800
1630.000000	37.534200
1629.000000	37.498500
1628.000000	37.442800
1627.000000	37.390000
1626.000000	37.340300
1625.000000	37.294300
1624.000000	37.249900
1623.000000	37.203400
1622.000000	37.159600
