PE UV       SUBTECH     SPECTRUM    ASCII       PEDS        4.00        
   -1
CICIMAUCR0012-2.Sample.ASC
24/04/04
15:16:23.00
24/04/04
15:16:23.00
Vinicio Soto Monge
C. cupreomarginata
250,000000
1
Lambda 1050
1050L1511233
PerkinElmer UV WinLab 6.3.2.0749 / 2.02.05 Lambda 900 UV/VIS/NIR, Aug  7 2015 09:38:08

0
0
3350/servo 860,8/2
0
0
UV/VIS
1
1
1
DoubleDePol,CommonBeamDepol,RBeamAtt,SBeamAtt,60mm sphere, WB InGaAs Detector
0
0
0
0
Program
Program
3350/servo 860,8/2
3350/0,2 860,8/0,2
3350/0,2 860,8/0,2
0
15.00
 
 
 
0
 
860,8
319,2
860,8
Front
100
on
S:100 R:100
0
0
0
0
 
0
 
 
 
0
 
 
0
0
0
0
0
 
 
 
 
0
0


0
0
#HDR
-1
-1
#GR
nm
%R
1.0
0.0
2500,000000
-1,000000
2251
8
58,712100
5,302800
#DATA
2500.000000	7.176000
2499.000000	7.201900
2498.000000	7.156900
2497.000000	7.206000
2496.000000	7.095900
2495.000000	7.209900
2494.000000	7.197200
2493.000000	7.242800
2492.000000	7.164300
2491.000000	7.121200
2490.000000	7.197900
2489.000000	7.168000
2488.000000	7.186000
2487.000000	7.238000
2486.000000	7.105000
2485.000000	7.198200
2484.000000	7.110800
2483.000000	7.117700
2482.000000	7.181300
2481.000000	7.199300
2480.000000	7.210500
2479.000000	7.193800
2478.000000	7.225900
2477.000000	7.193200
2476.000000	7.292000
2475.000000	7.288100
2474.000000	7.303300
2473.000000	7.262900
2472.000000	7.312100
2471.000000	7.350400
2470.000000	7.320800
2469.000000	7.286400
2468.000000	7.347700
2467.000000	7.395400
2466.000000	7.355300
2465.000000	7.406100
2464.000000	7.438000
2463.000000	7.472400
2462.000000	7.528300
2461.000000	7.539500
2460.000000	7.601700
2459.000000	7.644000
2458.000000	7.707400
2457.000000	7.748900
2456.000000	7.793700
2455.000000	7.847400
2454.000000	7.901600
2453.000000	7.996600
2452.000000	8.065800
2451.000000	8.118300
2450.000000	8.170600
2449.000000	8.251500
2448.000000	8.336500
2447.000000	8.386400
2446.000000	8.466600
2445.000000	8.553300
2444.000000	8.622600
2443.000000	8.690600
2442.000000	8.772100
2441.000000	8.837500
2440.000000	8.898400
2439.000000	8.980800
2438.000000	9.056400
2437.000000	9.097700
2436.000000	9.168400
2435.000000	9.242300
2434.000000	9.282700
2433.000000	9.365500
2432.000000	9.423700
2431.000000	9.453800
2430.000000	9.536000
2429.000000	9.579700
2428.000000	9.632600
2427.000000	9.685100
2426.000000	9.735800
2425.000000	9.771400
2424.000000	9.819100
2423.000000	9.872700
2422.000000	9.915600
2421.000000	9.961000
2420.000000	10.022400
2419.000000	10.067500
2418.000000	10.122400
2417.000000	10.173700
2416.000000	10.187400
2415.000000	10.224400
2414.000000	10.271700
2413.000000	10.303100
2412.000000	10.329400
2411.000000	10.364900
2410.000000	10.408800
2409.000000	10.432800
2408.000000	10.475600
2407.000000	10.499700
2406.000000	10.539100
2405.000000	10.558600
2404.000000	10.599600
2403.000000	10.633700
2402.000000	10.663000
2401.000000	10.703700
2400.000000	10.731100
2399.000000	10.764400
2398.000000	10.789200
2397.000000	10.816300
2396.000000	10.853400
2395.000000	10.891200
2394.000000	10.920100
2393.000000	10.939300
2392.000000	10.960600
2391.000000	10.982300
2390.000000	11.011400
2389.000000	11.031500
2388.000000	11.043500
2387.000000	11.053100
2386.000000	11.056000
2385.000000	11.065700
2384.000000	11.074900
2383.000000	11.079700
2382.000000	11.065800
2381.000000	11.061400
2380.000000	11.059600
2379.000000	11.044800
2378.000000	11.031900
2377.000000	11.012700
2376.000000	10.998100
2375.000000	10.991100
2374.000000	10.973600
2373.000000	10.941300
2372.000000	10.912000
2371.000000	10.875800
2370.000000	10.858400
2369.000000	10.842900
2368.000000	10.795900
2367.000000	10.749800
2366.000000	10.705400
2365.000000	10.657200
2364.000000	10.603800
2363.000000	10.543700
2362.000000	10.491400
2361.000000	10.448900
2360.000000	10.390200
2359.000000	10.325800
2358.000000	10.268800
2357.000000	10.229500
2356.000000	10.189400
2355.000000	10.147400
2354.000000	10.127800
2353.000000	10.102700
2352.000000	10.081300
2351.000000	10.082700
2350.000000	10.082200
2349.000000	10.099200
2348.000000	10.133900
2347.000000	10.155100
2346.000000	10.167500
2345.000000	10.210100
2344.000000	10.242300
2343.000000	10.271700
2342.000000	10.299200
2341.000000	10.325900
2340.000000	10.341500
2339.000000	10.347000
2338.000000	10.351800
2337.000000	10.357200
2336.000000	10.346700
2335.000000	10.325200
2334.000000	10.304400
2333.000000	10.285600
2332.000000	10.235700
2331.000000	10.196300
2330.000000	10.142400
2329.000000	10.085800
2328.000000	10.034700
2327.000000	9.970000
2326.000000	9.907900
2325.000000	9.840000
2324.000000	9.769600
2323.000000	9.690300
2322.000000	9.590300
2321.000000	9.500700
2320.000000	9.406200
2319.000000	9.301700
2318.000000	9.217100
2317.000000	9.113100
2316.000000	9.011900
2315.000000	8.910100
2314.000000	8.808600
2313.000000	8.714000
2312.000000	8.626600
2311.000000	8.548500
2310.000000	8.448400
2309.000000	8.399400
2308.000000	8.352900
2307.000000	8.304800
2306.000000	8.280900
2305.000000	8.271900
2304.000000	8.273300
2303.000000	8.296200
2302.000000	8.331700
2301.000000	8.349300
2300.000000	8.395000
2299.000000	8.441400
2298.000000	8.496400
2297.000000	8.537100
2296.000000	8.587300
2295.000000	8.636300
2294.000000	8.671900
2293.000000	8.690900
2292.000000	8.712800
2291.000000	8.730700
2290.000000	8.725700
2289.000000	8.709300
2288.000000	8.690000
2287.000000	8.666000
2286.000000	8.626800
2285.000000	8.588100
2284.000000	8.535600
2283.000000	8.475100
2282.000000	8.411200
2281.000000	8.362100
2280.000000	8.295800
2279.000000	8.247100
2278.000000	8.162000
2277.000000	8.098400
2276.000000	8.036500
2275.000000	7.979300
2274.000000	7.932700
2273.000000	7.900000
2272.000000	7.872900
2271.000000	7.820200
2270.000000	7.808900
2269.000000	7.809100
2268.000000	7.837800
2267.000000	7.857000
2266.000000	7.890300
2265.000000	7.925200
2264.000000	7.998500
2263.000000	8.070700
2262.000000	8.153900
2261.000000	8.244300
2260.000000	8.372100
2259.000000	8.487900
2258.000000	8.630400
2257.000000	8.765900
2256.000000	8.894300
2255.000000	9.081700
2254.000000	9.190300
2253.000000	9.307500
2252.000000	9.470400
2251.000000	9.574300
2250.000000	9.714700
2249.000000	9.822900
2248.000000	9.918300
2247.000000	10.049400
2246.000000	10.148500
2245.000000	10.244600
2244.000000	10.314800
2243.000000	10.387200
2242.000000	10.475000
2241.000000	10.528700
2240.000000	10.607400
2239.000000	10.657900
2238.000000	10.680800
2237.000000	10.737100
2236.000000	10.783700
2235.000000	10.807000
2234.000000	10.824300
2233.000000	10.846700
2232.000000	10.851300
2231.000000	10.844700
2230.000000	10.837800
2229.000000	10.858200
2228.000000	10.811100
2227.000000	10.778300
2226.000000	10.762600
2225.000000	10.690400
2224.000000	10.637500
2223.000000	10.549800
2222.000000	10.514600
2221.000000	10.427200
2220.000000	10.357800
2219.000000	10.287600
2218.000000	10.205900
2217.000000	10.131100
2216.000000	10.081000
2215.000000	10.040300
2214.000000	9.989100
2213.000000	9.952400
2212.000000	9.921400
2211.000000	9.923000
2210.000000	9.908700
2209.000000	9.910000
2208.000000	9.954400
2207.000000	10.008000
2206.000000	10.067000
2205.000000	10.164700
2204.000000	10.257600
2203.000000	10.382000
2202.000000	10.517200
2201.000000	10.655100
2200.000000	10.800300
2199.000000	10.950800
2198.000000	11.131600
2197.000000	11.301200
2196.000000	11.435100
2195.000000	11.603800
2194.000000	11.749600
2193.000000	11.890900
2192.000000	12.009900
2191.000000	12.155200
2190.000000	12.257800
2189.000000	12.345400
2188.000000	12.450300
2187.000000	12.551500
2186.000000	12.620600
2185.000000	12.692300
2184.000000	12.746000
2183.000000	12.790400
2182.000000	12.833800
2181.000000	12.886500
2180.000000	12.922700
2179.000000	12.950300
2178.000000	12.994100
2177.000000	12.999500
2176.000000	13.034100
2175.000000	13.076200
2174.000000	13.126900
2173.000000	13.135000
2172.000000	13.180200
2171.000000	13.218100
2170.000000	13.239500
2169.000000	13.275400
2168.000000	13.315700
2167.000000	13.355400
2166.000000	13.389300
2165.000000	13.423300
2164.000000	13.470200
2163.000000	13.512800
2162.000000	13.541300
2161.000000	13.592100
2160.000000	13.654200
2159.000000	13.709100
2158.000000	13.756600
2157.000000	13.788900
2156.000000	13.849200
2155.000000	13.896800
2154.000000	13.952600
2153.000000	14.021900
2152.000000	14.082800
2151.000000	14.150700
2150.000000	14.219400
2149.000000	14.269300
2148.000000	14.320500
2147.000000	14.386700
2146.000000	14.440500
2145.000000	14.490300
2144.000000	14.553700
2143.000000	14.607000
2142.000000	14.642800
2141.000000	14.698500
2140.000000	14.752100
2139.000000	14.798300
2138.000000	14.836300
2137.000000	14.877900
2136.000000	14.915200
2135.000000	14.956600
2134.000000	14.974100
2133.000000	15.012200
2132.000000	15.042300
2131.000000	15.059500
2130.000000	15.094500
2129.000000	15.122800
2128.000000	15.128400
2127.000000	15.133400
2126.000000	15.139500
2125.000000	15.141600
2124.000000	15.140000
2123.000000	15.134600
2122.000000	15.141500
2121.000000	15.130700
2120.000000	15.113900
2119.000000	15.105400
2118.000000	15.097100
2117.000000	15.094900
2116.000000	15.075900
2115.000000	15.042900
2114.000000	15.031900
2113.000000	15.019200
2112.000000	14.982200
2111.000000	14.957400
2110.000000	14.937500
2109.000000	14.922100
2108.000000	14.896200
2107.000000	14.877600
2106.000000	14.866700
2105.000000	14.851500
2104.000000	14.822500
2103.000000	14.798200
2102.000000	14.783700
2101.000000	14.760300
2100.000000	14.726400
2099.000000	14.691600
2098.000000	14.664500
2097.000000	14.668500
2096.000000	14.664000
2095.000000	14.643000
2094.000000	14.628800
2093.000000	14.608800
2092.000000	14.586300
2091.000000	14.572600
2090.000000	14.573400
2089.000000	14.562200
2088.000000	14.546800
2087.000000	14.536900
2086.000000	14.523000
2085.000000	14.498000
2084.000000	14.479800
2083.000000	14.464900
2082.000000	14.445200
2081.000000	14.437200
2080.000000	14.411100
2079.000000	14.384900
2078.000000	14.371500
2077.000000	14.342100
2076.000000	14.301100
2075.000000	14.268800
2074.000000	14.232700
2073.000000	14.213500
2072.000000	14.193300
2071.000000	14.159100
2070.000000	14.133900
2069.000000	14.096400
2068.000000	14.062000
2067.000000	14.041700
2066.000000	14.005400
2065.000000	13.983500
2064.000000	13.953200
2063.000000	13.901900
2062.000000	13.901700
2061.000000	13.889800
2060.000000	13.867800
2059.000000	13.855400
2058.000000	13.858900
2057.000000	13.864400
2056.000000	13.878400
2055.000000	13.903300
2054.000000	13.923000
2053.000000	13.974900
2052.000000	14.031800
2051.000000	14.084900
2050.000000	14.164600
2049.000000	14.239100
2048.000000	14.325500
2047.000000	14.422700
2046.000000	14.502900
2045.000000	14.627100
2044.000000	14.766700
2043.000000	14.877800
2042.000000	14.985500
2041.000000	15.099000
2040.000000	15.209600
2039.000000	15.331200
2038.000000	15.452600
2037.000000	15.558800
2036.000000	15.650800
2035.000000	15.741300
2034.000000	15.848000
2033.000000	15.956700
2032.000000	16.052200
2031.000000	16.137000
2030.000000	16.231600
2029.000000	16.292800
2028.000000	16.362200
2027.000000	16.430200
2026.000000	16.504600
2025.000000	16.573800
2024.000000	16.638400
2023.000000	16.679300
2022.000000	16.732400
2021.000000	16.798600
2020.000000	16.857100
2019.000000	16.903300
2018.000000	16.953600
2017.000000	17.006200
2016.000000	17.028700
2015.000000	17.050100
2014.000000	17.096100
2013.000000	17.121800
2012.000000	17.136000
2011.000000	17.165600
2010.000000	17.181500
2009.000000	17.175900
2008.000000	17.183500
2007.000000	17.186900
2006.000000	17.163200
2005.000000	17.151300
2004.000000	17.151700
2003.000000	17.119800
2002.000000	17.104800
2001.000000	17.102800
2000.000000	17.081700
1999.000000	17.029500
1998.000000	16.980400
1997.000000	16.972300
1996.000000	16.908700
1995.000000	16.854500
1994.000000	16.822100
1993.000000	16.749000
1992.000000	16.701200
1991.000000	16.644500
1990.000000	16.582300
1989.000000	16.530400
1988.000000	16.457300
1987.000000	16.385000
1986.000000	16.309100
1985.000000	16.236900
1984.000000	16.179600
1983.000000	16.102200
1982.000000	16.031400
1981.000000	15.956200
1980.000000	15.894700
1979.000000	15.805900
1978.000000	15.735000
1977.000000	15.642100
1976.000000	15.574000
1975.000000	15.499800
1974.000000	15.422500
1973.000000	15.339400
1972.000000	15.283500
1971.000000	15.181800
1970.000000	15.114200
1969.000000	15.072300
1968.000000	15.010200
1967.000000	14.922000
1966.000000	14.860500
1965.000000	14.801900
1964.000000	14.722300
1963.000000	14.649700
1962.000000	14.577500
1961.000000	14.504700
1960.000000	14.435400
1959.000000	14.364500
1958.000000	14.320800
1957.000000	14.242600
1956.000000	14.192000
1955.000000	14.088200
1954.000000	14.046100
1953.000000	13.969500
1952.000000	13.906900
1951.000000	13.850400
1950.000000	13.785700
1949.000000	13.742900
1948.000000	13.676900
1947.000000	13.649700
1946.000000	13.595000
1945.000000	13.539000
1944.000000	13.499000
1943.000000	13.465700
1942.000000	13.460700
1941.000000	13.426200
1940.000000	13.423200
1939.000000	13.418100
1938.000000	13.399900
1937.000000	13.415900
1936.000000	13.414600
1935.000000	13.431300
1934.000000	13.476500
1933.000000	13.497300
1932.000000	13.523000
1931.000000	13.584000
1930.000000	13.626900
1929.000000	13.716900
1928.000000	13.786300
1927.000000	13.865600
1926.000000	13.960500
1925.000000	14.068300
1924.000000	14.173600
1923.000000	14.275800
1922.000000	14.396800
1921.000000	14.543000
1920.000000	14.705300
1919.000000	14.830000
1918.000000	14.955900
1917.000000	15.137900
1916.000000	15.287400
1915.000000	15.449500
1914.000000	15.652000
1913.000000	15.870900
1912.000000	16.082200
1911.000000	16.255600
1910.000000	16.468600
1909.000000	16.637500
1908.000000	16.847000
1907.000000	17.074100
1906.000000	17.346500
1905.000000	17.591900
1904.000000	17.848400
1903.000000	18.085500
1902.000000	18.333300
1901.000000	18.579900
1900.000000	18.856500
1899.000000	19.133500
1898.000000	19.399800
1897.000000	19.687600
1896.000000	19.957600
1895.000000	20.199100
1894.000000	20.451000
1893.000000	20.745900
1892.000000	21.046500
1891.000000	21.342900
1890.000000	21.636600
1889.000000	21.888100
1888.000000	22.206000
1887.000000	22.515900
1886.000000	22.844200
1885.000000	23.197400
1884.000000	23.614600
1883.000000	24.017100
1882.000000	24.428100
1881.000000	24.878300
1880.000000	25.294900
1879.000000	25.704500
1878.000000	26.094600
1877.000000	26.477000
1876.000000	26.835500
1875.000000	27.161000
1874.000000	27.473200
1873.000000	27.740300
1872.000000	27.994500
1871.000000	28.200000
1870.000000	28.334400
1869.000000	28.476400
1868.000000	28.597300
1867.000000	28.681200
1866.000000	28.762000
1865.000000	28.836300
1864.000000	28.898800
1863.000000	28.963300
1862.000000	29.028400
1861.000000	29.075900
1860.000000	29.117500
1859.000000	29.129100
1858.000000	29.102600
1857.000000	29.091100
1856.000000	29.078900
1855.000000	29.049500
1854.000000	29.009900
1853.000000	28.944000
1852.000000	28.875800
1851.000000	28.862600
1850.000000	28.874200
1849.000000	28.867600
1848.000000	28.790600
1847.000000	28.656700
1846.000000	28.539100
1845.000000	28.479600
1844.000000	28.471900
1843.000000	28.500600
1842.000000	28.499700
1841.000000	28.452700
1840.000000	28.385800
1839.000000	28.325600
1838.000000	28.296500
1837.000000	28.249000
1836.000000	28.165300
1835.000000	28.074600
1834.000000	27.997500
1833.000000	27.938900
1832.000000	27.886800
1831.000000	27.838100
1830.000000	27.760100
1829.000000	27.685000
1828.000000	27.611200
1827.000000	27.536700
1826.000000	27.460700
1825.000000	27.389700
1824.000000	27.350800
1823.000000	27.364200
1822.000000	27.408400
1821.000000	27.382000
1820.000000	27.302600
1819.000000	27.262600
1818.000000	27.246700
1817.000000	27.242400
1816.000000	27.252700
1815.000000	27.270000
1814.000000	27.245400
1813.000000	27.233100
1812.000000	27.239600
1811.000000	27.202800
1810.000000	27.151700
1809.000000	27.127300
1808.000000	27.111700
1807.000000	27.092500
1806.000000	27.045700
1805.000000	26.978500
1804.000000	26.926700
1803.000000	26.910800
1802.000000	26.897700
1801.000000	26.848100
1800.000000	26.788500
1799.000000	26.738400
1798.000000	26.704200
1797.000000	26.669600
1796.000000	26.637500
1795.000000	26.604800
1794.000000	26.550000
1793.000000	26.497400
1792.000000	26.457800
1791.000000	26.409300
1790.000000	26.358000
1789.000000	26.312400
1788.000000	26.246900
1787.000000	26.187700
1786.000000	26.136600
1785.000000	26.063300
1784.000000	25.994500
1783.000000	25.913400
1782.000000	25.834700
1781.000000	25.777600
1780.000000	25.702700
1779.000000	25.617200
1778.000000	25.559300
1777.000000	25.461100
1776.000000	25.361500
1775.000000	25.252000
1774.000000	25.122400
1773.000000	25.012700
1772.000000	24.886700
1771.000000	24.760300
1770.000000	24.633000
1769.000000	24.505300
1768.000000	24.395400
1767.000000	24.292500
1766.000000	24.185000
1765.000000	24.120300
1764.000000	24.073300
1763.000000	24.043200
1762.000000	24.062600
1761.000000	24.090600
1760.000000	24.110800
1759.000000	24.174800
1758.000000	24.234200
1757.000000	24.295400
1756.000000	24.320900
1755.000000	24.353400
1754.000000	24.363800
1753.000000	24.357400
1752.000000	24.350100
1751.000000	24.319800
1750.000000	24.260900
1749.000000	24.200400
1748.000000	24.112400
1747.000000	24.033500
1746.000000	23.914000
1745.000000	23.779700
1744.000000	23.642500
1743.000000	23.459900
1742.000000	23.265000
1741.000000	23.053500
1740.000000	22.840100
1739.000000	22.625200
1738.000000	22.405700
1737.000000	22.219500
1736.000000	22.099200
1735.000000	21.996300
1734.000000	21.953700
1733.000000	21.910000
1732.000000	21.962600
1731.000000	22.023100
1730.000000	22.069900
1729.000000	22.194500
1728.000000	22.307300
1727.000000	22.381800
1726.000000	22.475900
1725.000000	22.519000
1724.000000	22.570900
1723.000000	22.608100
1722.000000	22.617900
1721.000000	22.638700
1720.000000	22.645200
1719.000000	22.666000
1718.000000	22.694800
1717.000000	22.740400
1716.000000	22.789900
1715.000000	22.845500
1714.000000	22.919200
1713.000000	22.977500
1712.000000	23.035500
1711.000000	23.056300
1710.000000	23.087000
1709.000000	23.067700
1708.000000	23.049600
1707.000000	23.047600
1706.000000	23.013900
1705.000000	22.962600
1704.000000	22.892600
1703.000000	22.827100
1702.000000	22.733200
1701.000000	22.602500
1700.000000	22.460800
1699.000000	22.293200
1698.000000	22.162800
1697.000000	22.036200
1696.000000	21.957600
1695.000000	21.935200
1694.000000	21.951500
1693.000000	22.023300
1692.000000	22.149200
1691.000000	22.283300
1690.000000	22.417100
1689.000000	22.524600
1688.000000	22.579400
1687.000000	22.614100
1686.000000	22.612400
1685.000000	22.615500
1684.000000	22.694600
1683.000000	22.848200
1682.000000	23.113400
1681.000000	23.500500
1680.000000	23.988800
1679.000000	24.461100
1678.000000	24.962100
1677.000000	25.452700
1676.000000	25.850400
1675.000000	26.248600
1674.000000	26.561500
1673.000000	26.852100
1672.000000	27.113600
1671.000000	27.313900
1670.000000	27.505000
1669.000000	27.676700
1668.000000	27.824500
1667.000000	27.930800
1666.000000	28.023100
1665.000000	28.139600
1664.000000	28.217300
1663.000000	28.295500
1662.000000	28.371400
1661.000000	28.407500
1660.000000	28.432100
1659.000000	28.465700
1658.000000	28.516600
1657.000000	28.548500
1656.000000	28.549500
1655.000000	28.544600
1654.000000	28.556300
1653.000000	28.544200
1652.000000	28.518500
1651.000000	28.510700
1650.000000	28.468900
1649.000000	28.430600
1648.000000	28.387900
1647.000000	28.367100
1646.000000	28.318000
1645.000000	28.262000
1644.000000	28.206200
1643.000000	28.164800
1642.000000	28.118500
1641.000000	28.069000
1640.000000	28.013900
1639.000000	27.951800
1638.000000	27.900600
1637.000000	27.823200
1636.000000	27.778100
1635.000000	27.714100
1634.000000	27.648900
1633.000000	27.572200
1632.000000	27.520200
1631.000000	27.436300
1630.000000	27.360500
1629.000000	27.293100
1628.000000	27.211100
1627.000000	27.137700
1626.000000	27.082700
1625.000000	27.014600
1624.000000	26.923100
1623.000000	26.858300
1622.000000	26.794500
1621.000000	26.715700
1620.000000	26.651100
1619.000000	26.580200
1618.000000	26.516700
1617.000000	26.447200
