PE UV       SUBTECH     SPECTRUM    ASCII       PEDS        4.00        
   -1
CICIMAUCR0108-2.Sample.ASC
24/04/04
14:07:06.00
24/04/04
14:07:06.00
Vinicio Soto Monge
C. resplendens
250,000000
1
Lambda 1050
1050L1511233
PerkinElmer UV WinLab 6.3.2.0749 / 2.02.05 Lambda 900 UV/VIS/NIR, Aug  7 2015 09:38:08

0
0
3350/servo 860,8/2
0
0
UV/VIS
1
1
1
DoubleDePol,CommonBeamDepol,RBeamAtt,SBeamAtt,60mm sphere, WB InGaAs Detector
0
0
0
0
Program
Program
3350/servo 860,8/2
3350/0,2 860,8/0,2
3350/0,2 860,8/0,2
0
15.00
 
 
 
0
 
860,8
319,2
860,8
Front
100
on
S:100 R:100
0
0
0
0
 
0
 
 
 
0
 
 
0
0
0
0
0
 
 
 
 
0
0


0
0
#HDR
-1
-1
#GR
nm
%R
1.0
0.0
2500,000000
-1,000000
2251
8
68,305600
5,100600
#DATA
2500.000000	5.401100
2499.000000	5.417800
2498.000000	5.345800
2497.000000	5.257500
2496.000000	5.313700
2495.000000	5.353800
2494.000000	5.258200
2493.000000	5.317600
2492.000000	5.273200
2491.000000	5.308300
2490.000000	5.236400
2489.000000	5.215200
2488.000000	5.296500
2487.000000	5.284700
2486.000000	5.310100
2485.000000	5.256800
2484.000000	5.277600
2483.000000	5.215500
2482.000000	5.246900
2481.000000	5.272800
2480.000000	5.265200
2479.000000	5.212300
2478.000000	5.231800
2477.000000	5.222700
2476.000000	5.248500
2475.000000	5.251000
2474.000000	5.219200
2473.000000	5.234500
2472.000000	5.254500
2471.000000	5.246300
2470.000000	5.241300
2469.000000	5.245900
2468.000000	5.237900
2467.000000	5.256300
2466.000000	5.286500
2465.000000	5.268300
2464.000000	5.275400
2463.000000	5.310200
2462.000000	5.314700
2461.000000	5.360400
2460.000000	5.382600
2459.000000	5.387800
2458.000000	5.412700
2457.000000	5.425000
2456.000000	5.439600
2455.000000	5.460100
2454.000000	5.493200
2453.000000	5.512000
2452.000000	5.535600
2451.000000	5.580800
2450.000000	5.573000
2449.000000	5.595000
2448.000000	5.616000
2447.000000	5.674600
2446.000000	5.718700
2445.000000	5.758400
2444.000000	5.764400
2443.000000	5.797700
2442.000000	5.832700
2441.000000	5.841800
2440.000000	5.873400
2439.000000	5.909000
2438.000000	5.945400
2437.000000	5.952800
2436.000000	5.971800
2435.000000	5.995100
2434.000000	6.016900
2433.000000	6.039900
2432.000000	6.052400
2431.000000	6.074900
2430.000000	6.105400
2429.000000	6.112200
2428.000000	6.130300
2427.000000	6.155600
2426.000000	6.170800
2425.000000	6.170500
2424.000000	6.203600
2423.000000	6.228300
2422.000000	6.227700
2421.000000	6.252200
2420.000000	6.251800
2419.000000	6.265800
2418.000000	6.288900
2417.000000	6.308300
2416.000000	6.314500
2415.000000	6.330000
2414.000000	6.345100
2413.000000	6.344600
2412.000000	6.360000
2411.000000	6.381200
2410.000000	6.400700
2409.000000	6.410400
2408.000000	6.422700
2407.000000	6.429800
2406.000000	6.441200
2405.000000	6.441000
2404.000000	6.464500
2403.000000	6.492100
2402.000000	6.492900
2401.000000	6.518500
2400.000000	6.544600
2399.000000	6.551800
2398.000000	6.565300
2397.000000	6.577600
2396.000000	6.582600
2395.000000	6.579200
2394.000000	6.597100
2393.000000	6.611700
2392.000000	6.629200
2391.000000	6.630800
2390.000000	6.634400
2389.000000	6.639800
2388.000000	6.638300
2387.000000	6.661800
2386.000000	6.668400
2385.000000	6.661600
2384.000000	6.664800
2383.000000	6.675800
2382.000000	6.673500
2381.000000	6.658100
2380.000000	6.648200
2379.000000	6.653400
2378.000000	6.648800
2377.000000	6.649300
2376.000000	6.651600
2375.000000	6.634000
2374.000000	6.611000
2373.000000	6.596500
2372.000000	6.592700
2371.000000	6.581400
2370.000000	6.560700
2369.000000	6.539100
2368.000000	6.517500
2367.000000	6.499700
2366.000000	6.474800
2365.000000	6.442700
2364.000000	6.399200
2363.000000	6.356100
2362.000000	6.319600
2361.000000	6.290500
2360.000000	6.265800
2359.000000	6.224300
2358.000000	6.189100
2357.000000	6.174900
2356.000000	6.162700
2355.000000	6.141200
2354.000000	6.127300
2353.000000	6.116300
2352.000000	6.108400
2351.000000	6.125000
2350.000000	6.141400
2349.000000	6.155900
2348.000000	6.181200
2347.000000	6.198600
2346.000000	6.231000
2345.000000	6.254500
2344.000000	6.264300
2343.000000	6.296300
2342.000000	6.326900
2341.000000	6.343000
2340.000000	6.359800
2339.000000	6.355200
2338.000000	6.352100
2337.000000	6.351200
2336.000000	6.345300
2335.000000	6.338500
2334.000000	6.332300
2333.000000	6.311200
2332.000000	6.278100
2331.000000	6.261400
2330.000000	6.236300
2329.000000	6.194900
2328.000000	6.156900
2327.000000	6.112600
2326.000000	6.065000
2325.000000	6.029800
2324.000000	5.979800
2323.000000	5.921700
2322.000000	5.853600
2321.000000	5.787000
2320.000000	5.723500
2319.000000	5.660000
2318.000000	5.596400
2317.000000	5.516200
2316.000000	5.453000
2315.000000	5.398000
2314.000000	5.345800
2313.000000	5.283100
2312.000000	5.249000
2311.000000	5.207200
2310.000000	5.160100
2309.000000	5.128100
2308.000000	5.114500
2307.000000	5.100600
2306.000000	5.104800
2305.000000	5.122600
2304.000000	5.130300
2303.000000	5.144700
2302.000000	5.172100
2301.000000	5.188000
2300.000000	5.204300
2299.000000	5.237400
2298.000000	5.264600
2297.000000	5.279400
2296.000000	5.321200
2295.000000	5.328500
2294.000000	5.351000
2293.000000	5.345800
2292.000000	5.364400
2291.000000	5.368200
2290.000000	5.356600
2289.000000	5.352400
2288.000000	5.351800
2287.000000	5.340600
2286.000000	5.312100
2285.000000	5.309400
2284.000000	5.293900
2283.000000	5.261900
2282.000000	5.250700
2281.000000	5.235500
2280.000000	5.204900
2279.000000	5.181900
2278.000000	5.170500
2277.000000	5.163400
2276.000000	5.140200
2275.000000	5.120200
2274.000000	5.114700
2273.000000	5.117700
2272.000000	5.137900
2271.000000	5.125300
2270.000000	5.108300
2269.000000	5.145200
2268.000000	5.167400
2267.000000	5.183600
2266.000000	5.208500
2265.000000	5.230200
2264.000000	5.286600
2263.000000	5.332200
2262.000000	5.370800
2261.000000	5.428400
2260.000000	5.486200
2259.000000	5.548100
2258.000000	5.596800
2257.000000	5.677100
2256.000000	5.755700
2255.000000	5.824900
2254.000000	5.894800
2253.000000	5.940800
2252.000000	5.996100
2251.000000	6.057700
2250.000000	6.129000
2249.000000	6.162800
2248.000000	6.256000
2247.000000	6.271100
2246.000000	6.329900
2245.000000	6.379600
2244.000000	6.422800
2243.000000	6.464900
2242.000000	6.507800
2241.000000	6.516000
2240.000000	6.562900
2239.000000	6.601200
2238.000000	6.615200
2237.000000	6.650200
2236.000000	6.668400
2235.000000	6.680700
2234.000000	6.685800
2233.000000	6.676100
2232.000000	6.699100
2231.000000	6.696000
2230.000000	6.702200
2229.000000	6.695900
2228.000000	6.703100
2227.000000	6.635100
2226.000000	6.637100
2225.000000	6.597600
2224.000000	6.576400
2223.000000	6.545700
2222.000000	6.508600
2221.000000	6.473800
2220.000000	6.447000
2219.000000	6.406200
2218.000000	6.370000
2217.000000	6.321400
2216.000000	6.281100
2215.000000	6.275400
2214.000000	6.255800
2213.000000	6.245800
2212.000000	6.252900
2211.000000	6.235600
2210.000000	6.259600
2209.000000	6.288500
2208.000000	6.311000
2207.000000	6.371700
2206.000000	6.413200
2205.000000	6.494700
2204.000000	6.571800
2203.000000	6.648500
2202.000000	6.728300
2201.000000	6.840100
2200.000000	6.929300
2199.000000	7.039000
2198.000000	7.168900
2197.000000	7.257100
2196.000000	7.362400
2195.000000	7.482200
2194.000000	7.568800
2193.000000	7.656200
2192.000000	7.737100
2191.000000	7.830300
2190.000000	7.899600
2189.000000	7.963800
2188.000000	8.006900
2187.000000	8.067300
2186.000000	8.127500
2185.000000	8.170100
2184.000000	8.205200
2183.000000	8.252700
2182.000000	8.284900
2181.000000	8.311900
2180.000000	8.352600
2179.000000	8.376000
2178.000000	8.408200
2177.000000	8.426000
2176.000000	8.467900
2175.000000	8.482900
2174.000000	8.509600
2173.000000	8.528900
2172.000000	8.551300
2171.000000	8.586400
2170.000000	8.609300
2169.000000	8.644700
2168.000000	8.666100
2167.000000	8.683900
2166.000000	8.730900
2165.000000	8.769300
2164.000000	8.790000
2163.000000	8.831900
2162.000000	8.869300
2161.000000	8.898400
2160.000000	8.911700
2159.000000	8.949800
2158.000000	8.990700
2157.000000	9.020800
2156.000000	9.056300
2155.000000	9.097900
2154.000000	9.126100
2153.000000	9.161400
2152.000000	9.195700
2151.000000	9.216000
2150.000000	9.256300
2149.000000	9.287500
2148.000000	9.334700
2147.000000	9.362100
2146.000000	9.380400
2145.000000	9.413400
2144.000000	9.443500
2143.000000	9.465100
2142.000000	9.482000
2141.000000	9.502300
2140.000000	9.521400
2139.000000	9.566200
2138.000000	9.601600
2137.000000	9.602100
2136.000000	9.614600
2135.000000	9.625300
2134.000000	9.649500
2133.000000	9.668300
2132.000000	9.670500
2131.000000	9.678100
2130.000000	9.685600
2129.000000	9.688600
2128.000000	9.699500
2127.000000	9.709500
2126.000000	9.706800
2125.000000	9.712000
2124.000000	9.725700
2123.000000	9.708900
2122.000000	9.701800
2121.000000	9.699700
2120.000000	9.692400
2119.000000	9.687600
2118.000000	9.689100
2117.000000	9.676500
2116.000000	9.648100
2115.000000	9.636700
2114.000000	9.626000
2113.000000	9.613700
2112.000000	9.613100
2111.000000	9.598800
2110.000000	9.590500
2109.000000	9.588500
2108.000000	9.571100
2107.000000	9.558800
2106.000000	9.560100
2105.000000	9.555500
2104.000000	9.534800
2103.000000	9.508100
2102.000000	9.496300
2101.000000	9.496000
2100.000000	9.487900
2099.000000	9.483000
2098.000000	9.476400
2097.000000	9.479200
2096.000000	9.467300
2095.000000	9.456100
2094.000000	9.463400
2093.000000	9.458200
2092.000000	9.465700
2091.000000	9.453100
2090.000000	9.442900
2089.000000	9.450000
2088.000000	9.443300
2087.000000	9.425400
2086.000000	9.422600
2085.000000	9.422800
2084.000000	9.416200
2083.000000	9.410600
2082.000000	9.403700
2081.000000	9.401600
2080.000000	9.389100
2079.000000	9.379500
2078.000000	9.377900
2077.000000	9.364900
2076.000000	9.351700
2075.000000	9.342900
2074.000000	9.333100
2073.000000	9.321500
2072.000000	9.302100
2071.000000	9.282400
2070.000000	9.267600
2069.000000	9.256000
2068.000000	9.251000
2067.000000	9.223800
2066.000000	9.187800
2065.000000	9.165100
2064.000000	9.154800
2063.000000	9.131600
2062.000000	9.104100
2061.000000	9.098200
2060.000000	9.079800
2059.000000	9.051400
2058.000000	9.029500
2057.000000	9.025100
2056.000000	9.004700
2055.000000	9.018700
2054.000000	9.004100
2053.000000	9.022200
2052.000000	9.032500
2051.000000	9.049600
2050.000000	9.081600
2049.000000	9.127600
2048.000000	9.163800
2047.000000	9.216500
2046.000000	9.276500
2045.000000	9.339900
2044.000000	9.427100
2043.000000	9.513700
2042.000000	9.601800
2041.000000	9.687200
2040.000000	9.775800
2039.000000	9.860400
2038.000000	9.953500
2037.000000	10.047500
2036.000000	10.111500
2035.000000	10.213400
2034.000000	10.278400
2033.000000	10.349100
2032.000000	10.424000
2031.000000	10.492100
2030.000000	10.568400
2029.000000	10.624000
2028.000000	10.680800
2027.000000	10.747400
2026.000000	10.784200
2025.000000	10.831000
2024.000000	10.874800
2023.000000	10.929500
2022.000000	10.989600
2021.000000	11.043700
2020.000000	11.094600
2019.000000	11.129300
2018.000000	11.161600
2017.000000	11.220000
2016.000000	11.257500
2015.000000	11.288200
2014.000000	11.337300
2013.000000	11.365700
2012.000000	11.395200
2011.000000	11.443700
2010.000000	11.434800
2009.000000	11.482400
2008.000000	11.518100
2007.000000	11.566300
2006.000000	11.603200
2005.000000	11.604100
2004.000000	11.631100
2003.000000	11.654400
2002.000000	11.681600
2001.000000	11.684000
2000.000000	11.702800
1999.000000	11.720400
1998.000000	11.731500
1997.000000	11.731300
1996.000000	11.730000
1995.000000	11.737500
1994.000000	11.723300
1993.000000	11.721700
1992.000000	11.702900
1991.000000	11.693600
1990.000000	11.674200
1989.000000	11.670900
1988.000000	11.655200
1987.000000	11.630100
1986.000000	11.619500
1985.000000	11.592300
1984.000000	11.578800
1983.000000	11.551900
1982.000000	11.526300
1981.000000	11.488500
1980.000000	11.455700
1979.000000	11.432900
1978.000000	11.418200
1977.000000	11.378500
1976.000000	11.340900
1975.000000	11.311300
1974.000000	11.295300
1973.000000	11.236200
1972.000000	11.230700
1971.000000	11.182200
1970.000000	11.171300
1969.000000	11.143500
1968.000000	11.124100
1967.000000	11.084200
1966.000000	11.040600
1965.000000	11.024300
1964.000000	10.990500
1963.000000	10.968700
1962.000000	10.917500
1961.000000	10.870500
1960.000000	10.844700
1959.000000	10.845700
1958.000000	10.801800
1957.000000	10.781100
1956.000000	10.743900
1955.000000	10.698400
1954.000000	10.679600
1953.000000	10.650700
1952.000000	10.634600
1951.000000	10.606800
1950.000000	10.575100
1949.000000	10.536400
1948.000000	10.539800
1947.000000	10.500100
1946.000000	10.496300
1945.000000	10.482800
1944.000000	10.458000
1943.000000	10.454000
1942.000000	10.430800
1941.000000	10.441300
1940.000000	10.432900
1939.000000	10.463500
1938.000000	10.446300
1937.000000	10.469800
1936.000000	10.485600
1935.000000	10.494500
1934.000000	10.504300
1933.000000	10.553700
1932.000000	10.552800
1931.000000	10.579000
1930.000000	10.617800
1929.000000	10.659100
1928.000000	10.722600
1927.000000	10.768700
1926.000000	10.829900
1925.000000	10.885500
1924.000000	10.922600
1923.000000	10.955600
1922.000000	11.034000
1921.000000	11.151300
1920.000000	11.225300
1919.000000	11.309700
1918.000000	11.371900
1917.000000	11.457500
1916.000000	11.519300
1915.000000	11.565500
1914.000000	11.679500
1913.000000	11.821000
1912.000000	11.947100
1911.000000	12.038800
1910.000000	12.131400
1909.000000	12.166100
1908.000000	12.231200
1907.000000	12.347600
1906.000000	12.457800
1905.000000	12.591200
1904.000000	12.756200
1903.000000	12.852400
1902.000000	12.927400
1901.000000	13.020900
1900.000000	13.168900
1899.000000	13.316000
1898.000000	13.432200
1897.000000	13.542800
1896.000000	13.621900
1895.000000	13.695400
1894.000000	13.777600
1893.000000	13.881300
1892.000000	14.005000
1891.000000	14.129100
1890.000000	14.250800
1889.000000	14.360100
1888.000000	14.502200
1887.000000	14.589500
1886.000000	14.743900
1885.000000	14.927800
1884.000000	15.114800
1883.000000	15.324600
1882.000000	15.534500
1881.000000	15.767500
1880.000000	15.985100
1879.000000	16.172200
1878.000000	16.386600
1877.000000	16.601000
1876.000000	16.776700
1875.000000	16.951900
1874.000000	17.087800
1873.000000	17.255900
1872.000000	17.421200
1871.000000	17.552800
1870.000000	17.674300
1869.000000	17.770300
1868.000000	17.846300
1867.000000	17.879400
1866.000000	17.868800
1865.000000	17.859200
1864.000000	17.850400
1863.000000	17.834800
1862.000000	17.833400
1861.000000	17.842700
1860.000000	17.839100
1859.000000	17.841500
1858.000000	17.835800
1857.000000	17.805800
1856.000000	17.770300
1855.000000	17.721100
1854.000000	17.692900
1853.000000	17.638100
1852.000000	17.572700
1851.000000	17.502100
1850.000000	17.430700
1849.000000	17.383900
1848.000000	17.359600
1847.000000	17.348900
1846.000000	17.310200
1845.000000	17.220300
1844.000000	17.130300
1843.000000	17.094700
1842.000000	17.078000
1841.000000	17.073200
1840.000000	17.056100
1839.000000	17.021200
1838.000000	16.973400
1837.000000	16.940500
1836.000000	16.911300
1835.000000	16.869300
1834.000000	16.807700
1833.000000	16.722700
1832.000000	16.648500
1831.000000	16.604400
1830.000000	16.569600
1829.000000	16.518700
1828.000000	16.448700
1827.000000	16.390200
1826.000000	16.345400
1825.000000	16.289200
1824.000000	16.237300
1823.000000	16.200400
1822.000000	16.177800
1821.000000	16.179400
1820.000000	16.199700
1819.000000	16.179400
1818.000000	16.133700
1817.000000	16.090900
1816.000000	16.091000
1815.000000	16.090600
1814.000000	16.077800
1813.000000	16.066600
1812.000000	16.048900
1811.000000	16.049000
1810.000000	16.002700
1809.000000	15.954800
1808.000000	15.921000
1807.000000	15.904200
1806.000000	15.885000
1805.000000	15.840000
1804.000000	15.798700
1803.000000	15.755000
1802.000000	15.719600
1801.000000	15.695000
1800.000000	15.666600
1799.000000	15.631400
1798.000000	15.597300
1797.000000	15.561600
1796.000000	15.539200
1795.000000	15.496300
1794.000000	15.458800
1793.000000	15.436100
1792.000000	15.398300
1791.000000	15.354900
1790.000000	15.326400
1789.000000	15.274600
1788.000000	15.216500
1787.000000	15.174200
1786.000000	15.139800
1785.000000	15.088800
1784.000000	15.031700
1783.000000	14.961300
1782.000000	14.888000
1781.000000	14.815800
1780.000000	14.759900
1779.000000	14.704800
1778.000000	14.632800
1777.000000	14.555700
1776.000000	14.473700
1775.000000	14.387800
1774.000000	14.294300
1773.000000	14.196800
1772.000000	14.099700
1771.000000	14.007100
1770.000000	13.875100
1769.000000	13.760500
1768.000000	13.661100
1767.000000	13.568300
1766.000000	13.483300
1765.000000	13.414000
1764.000000	13.370900
1763.000000	13.333800
1762.000000	13.351400
1761.000000	13.383700
1760.000000	13.411000
1759.000000	13.454200
1758.000000	13.507200
1757.000000	13.549000
1756.000000	13.559900
1755.000000	13.584100
1754.000000	13.625100
1753.000000	13.631700
1752.000000	13.644500
1751.000000	13.629200
1750.000000	13.611600
1749.000000	13.569900
1748.000000	13.540000
1747.000000	13.505300
1746.000000	13.434900
1745.000000	13.348300
1744.000000	13.260600
1743.000000	13.138600
1742.000000	13.023500
1741.000000	12.860400
1740.000000	12.721900
1739.000000	12.595400
1738.000000	12.431900
1737.000000	12.289600
1736.000000	12.169600
1735.000000	12.079400
1734.000000	11.991700
1733.000000	11.961700
1732.000000	11.965400
1731.000000	11.995000
1730.000000	12.049300
1729.000000	12.119100
1728.000000	12.183500
1727.000000	12.284400
1726.000000	12.350700
1725.000000	12.415100
1724.000000	12.472900
1723.000000	12.519100
1722.000000	12.554900
1721.000000	12.573900
1720.000000	12.603200
1719.000000	12.642700
1718.000000	12.649900
1717.000000	12.708400
1716.000000	12.756400
1715.000000	12.801700
1714.000000	12.866000
1713.000000	12.920100
1712.000000	12.971400
1711.000000	13.013800
1710.000000	13.042200
1709.000000	13.094400
1708.000000	13.105300
1707.000000	13.109800
1706.000000	13.134000
1705.000000	13.176500
1704.000000	13.172900
1703.000000	13.176300
1702.000000	13.172500
1701.000000	13.135500
1700.000000	13.095100
1699.000000	13.068500
1698.000000	13.030700
1697.000000	13.016000
1696.000000	13.007200
1695.000000	13.025900
1694.000000	13.069900
1693.000000	13.171300
1692.000000	13.257800
1691.000000	13.346300
1690.000000	13.474100
1689.000000	13.518500
1688.000000	13.570000
1687.000000	13.600400
1686.000000	13.601100
1685.000000	13.653900
1684.000000	13.670800
1683.000000	13.762500
1682.000000	13.917200
1681.000000	14.148700
1680.000000	14.418200
1679.000000	14.727000
1678.000000	15.003200
1677.000000	15.301000
1676.000000	15.553800
1675.000000	15.790000
1674.000000	15.984900
1673.000000	16.163100
1672.000000	16.304900
1671.000000	16.449200
1670.000000	16.555600
1669.000000	16.643000
1668.000000	16.707100
1667.000000	16.774500
1666.000000	16.828100
1665.000000	16.859700
1664.000000	16.912200
1663.000000	16.954900
1662.000000	16.980000
1661.000000	17.011100
1660.000000	17.032700
1659.000000	17.033600
1658.000000	17.044800
1657.000000	17.050400
1656.000000	17.064700
1655.000000	17.049600
1654.000000	17.062800
1653.000000	17.044000
1652.000000	17.046400
1651.000000	17.005200
1650.000000	17.004400
1649.000000	16.986600
1648.000000	16.935800
1647.000000	16.899000
1646.000000	16.869500
1645.000000	16.838400
1644.000000	16.796600
1643.000000	16.748500
1642.000000	16.733700
1641.000000	16.696900
1640.000000	16.647100
1639.000000	16.621200
1638.000000	16.571900
1637.000000	16.520800
1636.000000	16.485200
1635.000000	16.422900
1634.000000	16.373700
1633.000000	16.331900
1632.000000	16.293500
1631.000000	16.254000
1630.000000	16.194700
1629.000000	16.143600
1628.000000	16.095100
1627.000000	16.062700
1626.000000	16.003900
1625.000000	15.954200
1624.000000	15.911900
1623.000000	15.867300
1622.000000	15.817900
1621.000000	15.771600
1620.000000	15.728200
1619.000000	15.690200
1618.000000	15.643700
1617.000000	15.596800
1616.000000	15.540900
1615.000000	15.504100
1614.000000	15.466700
1613.000000	15.428400
1612.000000	15.395800
1611.000000	15.361000
1610.000000	15.320800
1609.000000	15.287400
1608.000000	15.261800
1607.000000	15.228100
1606.000000	15.182500
1605.000000	15.154300
1604.000000	15.131300
1603.000000	15.093200
