PE UV       SUBTECH     SPECTRUM    ASCII       PEDS        4.00        
   -1
CICIMAUCR0006-1.Sample.ASC
24/03/08
11:34:28.00
24/03/08
11:34:28.00
Vinicio Soto Monge
C. kalinini
250,000000
1
Lambda 1050
1050L1511233
PerkinElmer UV WinLab 6.3.2.0749 / 2.02.05 Lambda 900 UV/VIS/NIR, Aug  7 2015 09:38:08

0
0
3350/servo 860,8/2
0
0
UV/VIS
1
1
1
DoubleDePol,CommonBeamDepol,RBeamAtt,SBeamAtt,60mm sphere, WB InGaAs Detector
0
0
0
0
Program
Program
3350/servo 860,8/2
3350/0,2 860,8/0,2
3350/0,2 860,8/0,2
0
15.00
 
 
 
0
 
860,8
319,2
860,8
Front
100
on
S:100 R:100
0
0
0
0
 
0
 
 
 
0
 
 
0
0
0
0
0
 
 
 
 
0
0


0
0
#HDR
-1
-1
#GR
nm
%R
1.0
0.0
2500,000000
-1,000000
2251
8
34,259900
1,836500
#DATA
2500.000000	2.121500
2499.000000	2.108000
2498.000000	1.906100
2497.000000	2.029000
2496.000000	1.871300
2495.000000	1.957000
2494.000000	1.941200
2493.000000	1.900500
2492.000000	1.868200
2491.000000	1.836500
2490.000000	1.906500
2489.000000	1.924200
2488.000000	1.923100
2487.000000	1.853800
2486.000000	1.865800
2485.000000	1.938100
2484.000000	1.901200
2483.000000	1.848300
2482.000000	1.863500
2481.000000	1.906000
2480.000000	1.878000
2479.000000	1.880000
2478.000000	1.841300
2477.000000	1.871900
2476.000000	1.875400
2475.000000	1.845700
2474.000000	1.876500
2473.000000	1.857400
2472.000000	1.846200
2471.000000	1.928500
2470.000000	1.902000
2469.000000	1.870700
2468.000000	1.857500
2467.000000	1.874600
2466.000000	1.873000
2465.000000	1.883800
2464.000000	1.897100
2463.000000	1.924100
2462.000000	1.931600
2461.000000	1.923200
2460.000000	1.907900
2459.000000	1.911900
2458.000000	1.934500
2457.000000	1.926000
2456.000000	1.959000
2455.000000	1.975100
2454.000000	1.971700
2453.000000	1.978900
2452.000000	2.015500
2451.000000	2.030300
2450.000000	2.050400
2449.000000	2.055200
2448.000000	2.066600
2447.000000	2.100300
2446.000000	2.102200
2445.000000	2.110800
2444.000000	2.140700
2443.000000	2.143900
2442.000000	2.182900
2441.000000	2.182200
2440.000000	2.190400
2439.000000	2.219900
2438.000000	2.224400
2437.000000	2.228100
2436.000000	2.248300
2435.000000	2.263200
2434.000000	2.277300
2433.000000	2.299800
2432.000000	2.297900
2431.000000	2.312800
2430.000000	2.338100
2429.000000	2.348800
2428.000000	2.348000
2427.000000	2.369100
2426.000000	2.382100
2425.000000	2.417100
2424.000000	2.429700
2423.000000	2.463100
2422.000000	2.490600
2421.000000	2.505900
2420.000000	2.536300
2419.000000	2.550400
2418.000000	2.557200
2417.000000	2.563900
2416.000000	2.567800
2415.000000	2.606400
2414.000000	2.628700
2413.000000	2.630900
2412.000000	2.642700
2411.000000	2.665600
2410.000000	2.695400
2409.000000	2.692100
2408.000000	2.706300
2407.000000	2.732200
2406.000000	2.728400
2405.000000	2.748300
2404.000000	2.777800
2403.000000	2.777000
2402.000000	2.774700
2401.000000	2.805600
2400.000000	2.836800
2399.000000	2.844000
2398.000000	2.853400
2397.000000	2.870000
2396.000000	2.880700
2395.000000	2.895000
2394.000000	2.901000
2393.000000	2.918100
2392.000000	2.938600
2391.000000	2.960300
2390.000000	2.972900
2389.000000	2.978100
2388.000000	2.985300
2387.000000	2.982500
2386.000000	2.997000
2385.000000	3.008500
2384.000000	3.024800
2383.000000	3.022800
2382.000000	3.023800
2381.000000	3.033900
2380.000000	3.037900
2379.000000	3.042800
2378.000000	3.046900
2377.000000	3.048800
2376.000000	3.045500
2375.000000	3.040400
2374.000000	3.050900
2373.000000	3.065000
2372.000000	3.052600
2371.000000	3.058300
2370.000000	3.063200
2369.000000	3.046000
2368.000000	3.034500
2367.000000	3.025800
2366.000000	3.039300
2365.000000	3.046300
2364.000000	3.031500
2363.000000	3.025800
2362.000000	3.017500
2361.000000	3.010100
2360.000000	2.984000
2359.000000	2.974500
2358.000000	2.980700
2357.000000	2.962900
2356.000000	2.949800
2355.000000	2.951000
2354.000000	2.947700
2353.000000	2.934600
2352.000000	2.936300
2351.000000	2.955800
2350.000000	2.964500
2349.000000	2.961300
2348.000000	2.981000
2347.000000	3.002200
2346.000000	3.006900
2345.000000	3.015200
2344.000000	3.032800
2343.000000	3.071600
2342.000000	3.075600
2341.000000	3.079800
2340.000000	3.085700
2339.000000	3.081300
2338.000000	3.094800
2337.000000	3.113400
2336.000000	3.117200
2335.000000	3.113100
2334.000000	3.123000
2333.000000	3.125400
2332.000000	3.125900
2331.000000	3.120500
2330.000000	3.103300
2329.000000	3.095000
2328.000000	3.087000
2327.000000	3.073600
2326.000000	3.064500
2325.000000	3.028900
2324.000000	3.027700
2323.000000	3.012000
2322.000000	2.975000
2321.000000	2.961200
2320.000000	2.933400
2319.000000	2.922100
2318.000000	2.902900
2317.000000	2.863900
2316.000000	2.831100
2315.000000	2.806900
2314.000000	2.770300
2313.000000	2.731900
2312.000000	2.717700
2311.000000	2.704400
2310.000000	2.697000
2309.000000	2.670500
2308.000000	2.667600
2307.000000	2.647600
2306.000000	2.637800
2305.000000	2.636600
2304.000000	2.643200
2303.000000	2.641500
2302.000000	2.663300
2301.000000	2.666400
2300.000000	2.687300
2299.000000	2.703500
2298.000000	2.714600
2297.000000	2.737400
2296.000000	2.756100
2295.000000	2.749000
2294.000000	2.774500
2293.000000	2.795200
2292.000000	2.809600
2291.000000	2.813100
2290.000000	2.825500
2289.000000	2.820100
2288.000000	2.810600
2287.000000	2.799200
2286.000000	2.810100
2285.000000	2.797900
2284.000000	2.776600
2283.000000	2.742200
2282.000000	2.736700
2281.000000	2.717600
2280.000000	2.703000
2279.000000	2.692100
2278.000000	2.646800
2277.000000	2.654600
2276.000000	2.636800
2275.000000	2.617600
2274.000000	2.594200
2273.000000	2.589400
2272.000000	2.588800
2271.000000	2.571600
2270.000000	2.584600
2269.000000	2.565300
2268.000000	2.572200
2267.000000	2.585400
2266.000000	2.599000
2265.000000	2.632100
2264.000000	2.643700
2263.000000	2.657800
2262.000000	2.679700
2261.000000	2.719100
2260.000000	2.756300
2259.000000	2.806800
2258.000000	2.832100
2257.000000	2.899700
2256.000000	2.943900
2255.000000	2.971800
2254.000000	3.016800
2253.000000	3.054400
2252.000000	3.112100
2251.000000	3.134400
2250.000000	3.168400
2249.000000	3.195300
2248.000000	3.242200
2247.000000	3.282400
2246.000000	3.322300
2245.000000	3.354200
2244.000000	3.362300
2243.000000	3.376500
2242.000000	3.422300
2241.000000	3.424800
2240.000000	3.440100
2239.000000	3.496100
2238.000000	3.514600
2237.000000	3.501900
2236.000000	3.510300
2235.000000	3.539400
2234.000000	3.535200
2233.000000	3.548300
2232.000000	3.562900
2231.000000	3.567200
2230.000000	3.564300
2229.000000	3.536200
2228.000000	3.538100
2227.000000	3.531000
2226.000000	3.531100
2225.000000	3.521800
2224.000000	3.510900
2223.000000	3.490800
2222.000000	3.467300
2221.000000	3.465100
2220.000000	3.425600
2219.000000	3.397600
2218.000000	3.407800
2217.000000	3.392700
2216.000000	3.367400
2215.000000	3.344900
2214.000000	3.329300
2213.000000	3.328200
2212.000000	3.324600
2211.000000	3.307000
2210.000000	3.310000
2209.000000	3.328300
2208.000000	3.371500
2207.000000	3.381200
2206.000000	3.403700
2205.000000	3.408100
2204.000000	3.477700
2203.000000	3.522500
2202.000000	3.575700
2201.000000	3.627400
2200.000000	3.661300
2199.000000	3.727000
2198.000000	3.777200
2197.000000	3.841000
2196.000000	3.893500
2195.000000	3.949100
2194.000000	4.011200
2193.000000	4.045500
2192.000000	4.094200
2191.000000	4.151600
2190.000000	4.190800
2189.000000	4.206200
2188.000000	4.211200
2187.000000	4.262200
2186.000000	4.287200
2185.000000	4.319900
2184.000000	4.333900
2183.000000	4.341100
2182.000000	4.346800
2181.000000	4.356300
2180.000000	4.359200
2179.000000	4.384000
2178.000000	4.386100
2177.000000	4.402500
2176.000000	4.391200
2175.000000	4.418700
2174.000000	4.415700
2173.000000	4.403600
2172.000000	4.419000
2171.000000	4.425600
2170.000000	4.432800
2169.000000	4.446400
2168.000000	4.472200
2167.000000	4.475600
2166.000000	4.487500
2165.000000	4.497600
2164.000000	4.486200
2163.000000	4.480400
2162.000000	4.480900
2161.000000	4.490400
2160.000000	4.485800
2159.000000	4.507600
2158.000000	4.509400
2157.000000	4.506800
2156.000000	4.517300
2155.000000	4.508700
2154.000000	4.528100
2153.000000	4.552300
2152.000000	4.565900
2151.000000	4.572100
2150.000000	4.580100
2149.000000	4.582000
2148.000000	4.593600
2147.000000	4.618600
2146.000000	4.617300
2145.000000	4.617600
2144.000000	4.632700
2143.000000	4.646900
2142.000000	4.649400
2141.000000	4.667100
2140.000000	4.685900
2139.000000	4.682700
2138.000000	4.693200
2137.000000	4.683000
2136.000000	4.686900
2135.000000	4.705100
2134.000000	4.713900
2133.000000	4.723000
2132.000000	4.727200
2131.000000	4.728700
2130.000000	4.719300
2129.000000	4.723500
2128.000000	4.736000
2127.000000	4.742100
2126.000000	4.752500
2125.000000	4.753600
2124.000000	4.751300
2123.000000	4.747400
2122.000000	4.753200
2121.000000	4.754300
2120.000000	4.757000
2119.000000	4.755800
2118.000000	4.746400
2117.000000	4.722900
2116.000000	4.718000
2115.000000	4.738500
2114.000000	4.732600
2113.000000	4.717000
2112.000000	4.727000
2111.000000	4.736800
2110.000000	4.725400
2109.000000	4.708200
2108.000000	4.706700
2107.000000	4.715900
2106.000000	4.725100
2105.000000	4.724500
2104.000000	4.706600
2103.000000	4.695400
2102.000000	4.698300
2101.000000	4.700300
2100.000000	4.702000
2099.000000	4.700000
2098.000000	4.691200
2097.000000	4.692200
2096.000000	4.692000
2095.000000	4.687100
2094.000000	4.684600
2093.000000	4.681000
2092.000000	4.690500
2091.000000	4.703500
2090.000000	4.700700
2089.000000	4.690100
2088.000000	4.684100
2087.000000	4.692000
2086.000000	4.682000
2085.000000	4.675600
2084.000000	4.682400
2083.000000	4.689500
2082.000000	4.692600
2081.000000	4.684100
2080.000000	4.685200
2079.000000	4.679800
2078.000000	4.671400
2077.000000	4.674300
2076.000000	4.690700
2075.000000	4.687900
2074.000000	4.671700
2073.000000	4.667700
2072.000000	4.666400
2071.000000	4.655900
2070.000000	4.662100
2069.000000	4.655700
2068.000000	4.648000
2067.000000	4.660000
2066.000000	4.646100
2065.000000	4.642200
2064.000000	4.634800
2063.000000	4.643700
2062.000000	4.652500
2061.000000	4.652100
2060.000000	4.645100
2059.000000	4.648700
2058.000000	4.663900
2057.000000	4.654800
2056.000000	4.676800
2055.000000	4.688400
2054.000000	4.696900
2053.000000	4.707300
2052.000000	4.737100
2051.000000	4.758400
2050.000000	4.778500
2049.000000	4.788100
2048.000000	4.824300
2047.000000	4.836900
2046.000000	4.880600
2045.000000	4.899500
2044.000000	4.936900
2043.000000	4.979000
2042.000000	5.004000
2041.000000	5.029300
2040.000000	5.067700
2039.000000	5.096000
2038.000000	5.121900
2037.000000	5.153800
2036.000000	5.170400
2035.000000	5.184900
2034.000000	5.210300
2033.000000	5.230300
2032.000000	5.245600
2031.000000	5.282700
2030.000000	5.302500
2029.000000	5.317800
2028.000000	5.337500
2027.000000	5.377000
2026.000000	5.377300
2025.000000	5.366500
2024.000000	5.388000
2023.000000	5.406400
2022.000000	5.408100
2021.000000	5.429500
2020.000000	5.454300
2019.000000	5.456100
2018.000000	5.446200
2017.000000	5.465500
2016.000000	5.477400
2015.000000	5.481900
2014.000000	5.477400
2013.000000	5.481100
2012.000000	5.476300
2011.000000	5.492900
2010.000000	5.489900
2009.000000	5.489400
2008.000000	5.497000
2007.000000	5.477400
2006.000000	5.471800
2005.000000	5.461000
2004.000000	5.441400
2003.000000	5.445900
2002.000000	5.440600
2001.000000	5.410100
2000.000000	5.385600
1999.000000	5.401800
1998.000000	5.385900
1997.000000	5.373700
1996.000000	5.367700
1995.000000	5.352300
1994.000000	5.328800
1993.000000	5.308400
1992.000000	5.285300
1991.000000	5.285600
1990.000000	5.238600
1989.000000	5.219000
1988.000000	5.205900
1987.000000	5.179200
1986.000000	5.176700
1985.000000	5.144000
1984.000000	5.104800
1983.000000	5.096100
1982.000000	5.058600
1981.000000	5.056900
1980.000000	5.014700
1979.000000	4.994100
1978.000000	4.971300
1977.000000	4.935600
1976.000000	4.919000
1975.000000	4.886200
1974.000000	4.849100
1973.000000	4.844600
1972.000000	4.839100
1971.000000	4.811700
1970.000000	4.770600
1969.000000	4.752200
1968.000000	4.731900
1967.000000	4.716200
1966.000000	4.690900
1965.000000	4.657800
1964.000000	4.630900
1963.000000	4.611900
1962.000000	4.586800
1961.000000	4.556600
1960.000000	4.553400
1959.000000	4.527000
1958.000000	4.502700
1957.000000	4.494800
1956.000000	4.448900
1955.000000	4.424700
1954.000000	4.416300
1953.000000	4.387800
1952.000000	4.396400
1951.000000	4.351700
1950.000000	4.335400
1949.000000	4.337900
1948.000000	4.306000
1947.000000	4.291700
1946.000000	4.269800
1945.000000	4.266200
1944.000000	4.255700
1943.000000	4.237600
1942.000000	4.219900
1941.000000	4.220900
1940.000000	4.213600
1939.000000	4.203600
1938.000000	4.198200
1937.000000	4.207400
1936.000000	4.234700
1935.000000	4.222500
1934.000000	4.224100
1933.000000	4.220100
1932.000000	4.268400
1931.000000	4.285400
1930.000000	4.280800
1929.000000	4.312600
1928.000000	4.329000
1927.000000	4.344800
1926.000000	4.360800
1925.000000	4.387200
1924.000000	4.425700
1923.000000	4.459900
1922.000000	4.493400
1921.000000	4.519600
1920.000000	4.566700
1919.000000	4.623200
1918.000000	4.663900
1917.000000	4.703100
1916.000000	4.745700
1915.000000	4.797800
1914.000000	4.859300
1913.000000	4.903000
1912.000000	4.953200
1911.000000	5.028100
1910.000000	5.070600
1909.000000	5.136400
1908.000000	5.211200
1907.000000	5.288200
1906.000000	5.360900
1905.000000	5.431300
1904.000000	5.483600
1903.000000	5.568800
1902.000000	5.657400
1901.000000	5.736300
1900.000000	5.802800
1899.000000	5.867900
1898.000000	5.957900
1897.000000	6.048300
1896.000000	6.128500
1895.000000	6.236700
1894.000000	6.328100
1893.000000	6.435000
1892.000000	6.519700
1891.000000	6.606800
1890.000000	6.698100
1889.000000	6.810100
1888.000000	6.920200
1887.000000	7.044100
1886.000000	7.170100
1885.000000	7.303800
1884.000000	7.445100
1883.000000	7.589400
1882.000000	7.741200
1881.000000	7.920900
1880.000000	8.089100
1879.000000	8.235100
1878.000000	8.391600
1877.000000	8.545300
1876.000000	8.667600
1875.000000	8.781300
1874.000000	8.899500
1873.000000	8.989200
1872.000000	9.077500
1871.000000	9.153500
1870.000000	9.214000
1869.000000	9.277000
1868.000000	9.362900
1867.000000	9.452800
1866.000000	9.511300
1865.000000	9.565500
1864.000000	9.641700
1863.000000	9.723500
1862.000000	9.773100
1861.000000	9.788100
1860.000000	9.790600
1859.000000	9.787000
1858.000000	9.795400
1857.000000	9.827800
1856.000000	9.864000
1855.000000	9.876300
1854.000000	9.857000
1853.000000	9.832800
1852.000000	9.839800
1851.000000	9.878600
1850.000000	9.909600
1849.000000	9.888200
1848.000000	9.820300
1847.000000	9.734700
1846.000000	9.711500
1845.000000	9.748700
1844.000000	9.793100
1843.000000	9.821200
1842.000000	9.804100
1841.000000	9.743500
1840.000000	9.707900
1839.000000	9.698100
1838.000000	9.678700
1837.000000	9.652800
1836.000000	9.629200
1835.000000	9.608200
1834.000000	9.600800
1833.000000	9.588200
1832.000000	9.588700
1831.000000	9.581200
1830.000000	9.540600
1829.000000	9.501600
1828.000000	9.462800
1827.000000	9.423200
1826.000000	9.394300
1825.000000	9.379500
1824.000000	9.385700
1823.000000	9.424400
1822.000000	9.423200
1821.000000	9.356400
1820.000000	9.292300
1819.000000	9.269500
1818.000000	9.275300
1817.000000	9.286700
1816.000000	9.279800
1815.000000	9.258300
1814.000000	9.262300
1813.000000	9.266400
1812.000000	9.252000
1811.000000	9.230100
1810.000000	9.222900
1809.000000	9.229400
1808.000000	9.213600
1807.000000	9.179000
1806.000000	9.153400
1805.000000	9.126400
1804.000000	9.109500
1803.000000	9.097100
1802.000000	9.068900
1801.000000	9.046300
1800.000000	9.024600
1799.000000	9.004700
1798.000000	9.001100
1797.000000	8.993500
1796.000000	8.967300
1795.000000	8.952400
1794.000000	8.944000
1793.000000	8.918300
1792.000000	8.907600
1791.000000	8.885500
1790.000000	8.859200
1789.000000	8.833200
1788.000000	8.827700
1787.000000	8.818900
1786.000000	8.792100
1785.000000	8.748800
1784.000000	8.730900
1783.000000	8.725100
1782.000000	8.688400
1781.000000	8.672500
1780.000000	8.666200
1779.000000	8.640700
1778.000000	8.613700
1777.000000	8.565200
1776.000000	8.536600
1775.000000	8.504000
1774.000000	8.481800
1773.000000	8.456400
1772.000000	8.425900
1771.000000	8.392100
1770.000000	8.354200
1769.000000	8.324200
1768.000000	8.310400
1767.000000	8.265900
1766.000000	8.245700
1765.000000	8.235500
1764.000000	8.229500
1763.000000	8.239600
1762.000000	8.242900
1761.000000	8.253500
1760.000000	8.299500
1759.000000	8.342200
1758.000000	8.342400
1757.000000	8.376000
1756.000000	8.416200
1755.000000	8.457100
1754.000000	8.470500
1753.000000	8.463200
1752.000000	8.489200
1751.000000	8.476600
1750.000000	8.496000
1749.000000	8.496200
1748.000000	8.466300
1747.000000	8.454000
1746.000000	8.421500
1745.000000	8.371200
1744.000000	8.342900
1743.000000	8.308300
1742.000000	8.275000
1741.000000	8.201600
1740.000000	8.130800
1739.000000	8.077800
1738.000000	8.011200
1737.000000	7.958900
1736.000000	7.921300
1735.000000	7.883800
1734.000000	7.859600
1733.000000	7.869300
1732.000000	7.887200
1731.000000	7.917100
1730.000000	7.932500
1729.000000	7.996000
1728.000000	8.011600
1727.000000	8.074300
1726.000000	8.102200
1725.000000	8.104900
1724.000000	8.132800
1723.000000	8.164700
1722.000000	8.165900
1721.000000	8.170400
1720.000000	8.193700
1719.000000	8.201800
1718.000000	8.198800
1717.000000	8.212100
1716.000000	8.237800
1715.000000	8.260800
1714.000000	8.289200
1713.000000	8.292200
1712.000000	8.319100
1711.000000	8.301600
1710.000000	8.305300
1709.000000	8.318700
1708.000000	8.292900
1707.000000	8.294200
1706.000000	8.279700
1705.000000	8.270900
1704.000000	8.252900
1703.000000	8.201300
1702.000000	8.171100
1701.000000	8.125100
1700.000000	8.083000
1699.000000	8.033000
1698.000000	7.957200
1697.000000	7.897200
1696.000000	7.886400
1695.000000	7.896300
1694.000000	7.893600
1693.000000	7.919700
1692.000000	7.971100
1691.000000	7.999500
1690.000000	8.046400
1689.000000	8.090500
1688.000000	8.121500
1687.000000	8.122900
1686.000000	8.108800
1685.000000	8.114400
1684.000000	8.149000
1683.000000	8.191500
1682.000000	8.298000
1681.000000	8.413000
1680.000000	8.574500
1679.000000	8.736700
1678.000000	8.901700
1677.000000	9.069700
1676.000000	9.196100
1675.000000	9.311200
1674.000000	9.413500
1673.000000	9.524900
1672.000000	9.597700
1671.000000	9.674500
1670.000000	9.724500
1669.000000	9.773600
1668.000000	9.826600
1667.000000	9.879500
1666.000000	9.898000
1665.000000	9.937300
1664.000000	9.951700
1663.000000	9.967500
1662.000000	9.988200
1661.000000	10.020700
1660.000000	10.028800
1659.000000	10.024600
1658.000000	10.036000
1657.000000	10.042400
1656.000000	10.048600
1655.000000	10.051700
1654.000000	10.048800
1653.000000	10.039700
1652.000000	10.048700
1651.000000	10.040900
1650.000000	10.042800
1649.000000	10.028000
1648.000000	10.005100
1647.000000	10.002800
1646.000000	10.009500
1645.000000	9.982700
1644.000000	9.968500
1643.000000	9.955200
1642.000000	9.941600
1641.000000	9.920800
1640.000000	9.914100
1639.000000	9.915700
1638.000000	9.908700
1637.000000	9.893900
1636.000000	9.872000
1635.000000	9.866500
1634.000000	9.844600
1633.000000	9.819800
1632.000000	9.807200
1631.000000	9.794500
1630.000000	9.784000
1629.000000	9.776000
1628.000000	9.762900
1627.000000	9.745900
1626.000000	9.724400
1625.000000	9.700500
1624.000000	9.703600
1623.000000	9.688300
1622.000000	9.671800
1621.000000	9.654400
1620.000000	9.630400
1619.000000	9.607600
1618.000000	9.592500
1617.000000	9.578500
1616.000000	9.560100
1615.000000	9.539300
1614.000000	9.521800
1613.000000	9.514500
1612.000000	9.500100
1611.000000	9.490500
1610.000000	9.481100
1609.000000	9.467200
1608.000000	9.438200
1607.000000	9.426900
1606.000000	9.415100
1605.000000	9.394800
1604.000000	9.366800
1603.000000	9.341400
1602.000000	9.325700
1601.000000	9.320400
1600.000000	9.298800
1599.000000	9.279500
1598.000000	9.261600
1597.000000	9.239800
1596.000000	9.213100
1595.000000	9.182700
1594.000000	9.160600
1593.000000	9.150600
1592.000000	9.137500
1591.000000	9.115900
1590.000000	9.110100
1589.000000	9.094300
1588.000000	9.060600
1587.000000	9.044500
1586.000000	9.041600
1585.000000	9.020100
1584.000000	8.995200
1583.000000	8.988600
