PE UV       SUBTECH     SPECTRUM    ASCII       PEDS        4.00        
   -1
CICIMAUCR0013-2.Sample.ASC
24/04/04
13:54:25.00
24/04/04
13:54:25.00
Vinicio Soto Monge
C. resplendens
250,000000
1
Lambda 1050
1050L1511233
PerkinElmer UV WinLab 6.3.2.0749 / 2.02.05 Lambda 900 UV/VIS/NIR, Aug  7 2015 09:38:08

0
0
3350/servo 860,8/2
0
0
UV/VIS
1
1
1
DoubleDePol,CommonBeamDepol,RBeamAtt,SBeamAtt,60mm sphere, WB InGaAs Detector
0
0
0
0
Program
Program
3350/servo 860,8/2
3350/0,2 860,8/0,2
3350/0,2 860,8/0,2
0
15.00
 
 
 
0
 
860,8
319,2
860,8
Front
100
on
S:100 R:100
0
0
0
0
 
0
 
 
 
0
 
 
0
0
0
0
0
 
 
 
 
0
0


0
0
#HDR
-1
-1
#GR
nm
%R
1.0
0.0
2500,000000
-1,000000
2251
8
70,639000
5,101100
#DATA
2500.000000	6.625300
2499.000000	6.514200
2498.000000	6.604500
2497.000000	6.554900
2496.000000	6.492800
2495.000000	6.401300
2494.000000	6.470700
2493.000000	6.446900
2492.000000	6.398500
2491.000000	6.431800
2490.000000	6.367300
2489.000000	6.433700
2488.000000	6.422600
2487.000000	6.419100
2486.000000	6.431100
2485.000000	6.370200
2484.000000	6.440900
2483.000000	6.434300
2482.000000	6.429600
2481.000000	6.476000
2480.000000	6.415800
2479.000000	6.420400
2478.000000	6.398800
2477.000000	6.427300
2476.000000	6.429200
2475.000000	6.448100
2474.000000	6.451500
2473.000000	6.449000
2472.000000	6.473900
2471.000000	6.468300
2470.000000	6.453100
2469.000000	6.467100
2468.000000	6.504200
2467.000000	6.490300
2466.000000	6.502100
2465.000000	6.528700
2464.000000	6.554200
2463.000000	6.595400
2462.000000	6.629000
2461.000000	6.656200
2460.000000	6.689800
2459.000000	6.722200
2458.000000	6.760800
2457.000000	6.810500
2456.000000	6.870900
2455.000000	6.924400
2454.000000	6.959000
2453.000000	7.004400
2452.000000	7.053800
2451.000000	7.108800
2450.000000	7.180100
2449.000000	7.248400
2448.000000	7.321700
2447.000000	7.364800
2446.000000	7.426900
2445.000000	7.473900
2444.000000	7.553000
2443.000000	7.620500
2442.000000	7.674900
2441.000000	7.731800
2440.000000	7.783800
2439.000000	7.850900
2438.000000	7.909500
2437.000000	7.954300
2436.000000	8.026700
2435.000000	8.091300
2434.000000	8.112800
2433.000000	8.161500
2432.000000	8.217900
2431.000000	8.266900
2430.000000	8.312100
2429.000000	8.336200
2428.000000	8.366200
2427.000000	8.417400
2426.000000	8.453500
2425.000000	8.479900
2424.000000	8.508900
2423.000000	8.548000
2422.000000	8.579600
2421.000000	8.609000
2420.000000	8.638700
2419.000000	8.712400
2418.000000	8.751500
2417.000000	8.769400
2416.000000	8.805100
2415.000000	8.825100
2414.000000	8.859300
2413.000000	8.875900
2412.000000	8.896600
2411.000000	8.940300
2410.000000	8.964600
2409.000000	8.977700
2408.000000	9.010900
2407.000000	9.040600
2406.000000	9.062800
2405.000000	9.092100
2404.000000	9.138600
2403.000000	9.154500
2402.000000	9.175400
2401.000000	9.194400
2400.000000	9.229400
2399.000000	9.269700
2398.000000	9.276200
2397.000000	9.296100
2396.000000	9.333300
2395.000000	9.374200
2394.000000	9.387500
2393.000000	9.399600
2392.000000	9.425100
2391.000000	9.438100
2390.000000	9.457500
2389.000000	9.489100
2388.000000	9.497100
2387.000000	9.504500
2386.000000	9.520500
2385.000000	9.521800
2384.000000	9.513500
2383.000000	9.531500
2382.000000	9.525500
2381.000000	9.512900
2380.000000	9.506000
2379.000000	9.509400
2378.000000	9.497900
2377.000000	9.470500
2376.000000	9.452400
2375.000000	9.432900
2374.000000	9.417700
2373.000000	9.399600
2372.000000	9.384900
2371.000000	9.357700
2370.000000	9.322800
2369.000000	9.278600
2368.000000	9.241700
2367.000000	9.210100
2366.000000	9.148700
2365.000000	9.086900
2364.000000	9.041000
2363.000000	8.991100
2362.000000	8.938600
2361.000000	8.877700
2360.000000	8.830500
2359.000000	8.780900
2358.000000	8.709500
2357.000000	8.673800
2356.000000	8.649000
2355.000000	8.619700
2354.000000	8.585300
2353.000000	8.558400
2352.000000	8.554200
2351.000000	8.557700
2350.000000	8.570300
2349.000000	8.592100
2348.000000	8.613200
2347.000000	8.646400
2346.000000	8.696500
2345.000000	8.726700
2344.000000	8.768400
2343.000000	8.802700
2342.000000	8.817300
2341.000000	8.856000
2340.000000	8.881100
2339.000000	8.868400
2338.000000	8.876900
2337.000000	8.885300
2336.000000	8.876000
2335.000000	8.863000
2334.000000	8.830300
2333.000000	8.806900
2332.000000	8.774100
2331.000000	8.743300
2330.000000	8.686300
2329.000000	8.615900
2328.000000	8.548000
2327.000000	8.501000
2326.000000	8.449300
2325.000000	8.376100
2324.000000	8.296000
2323.000000	8.208300
2322.000000	8.127300
2321.000000	8.032400
2320.000000	7.943600
2319.000000	7.837100
2318.000000	7.741900
2317.000000	7.650800
2316.000000	7.548500
2315.000000	7.435900
2314.000000	7.347700
2313.000000	7.259600
2312.000000	7.171600
2311.000000	7.094900
2310.000000	7.023200
2309.000000	6.974700
2308.000000	6.940800
2307.000000	6.912700
2306.000000	6.902900
2305.000000	6.902300
2304.000000	6.914500
2303.000000	6.945200
2302.000000	6.977700
2301.000000	7.021700
2300.000000	7.089100
2299.000000	7.133500
2298.000000	7.186500
2297.000000	7.237900
2296.000000	7.294100
2295.000000	7.332000
2294.000000	7.379600
2293.000000	7.404900
2292.000000	7.412000
2291.000000	7.411500
2290.000000	7.421800
2289.000000	7.402900
2288.000000	7.389600
2287.000000	7.364200
2286.000000	7.317800
2285.000000	7.278900
2284.000000	7.232700
2283.000000	7.167700
2282.000000	7.095300
2281.000000	7.057500
2280.000000	6.998000
2279.000000	6.924300
2278.000000	6.877600
2277.000000	6.832200
2276.000000	6.777600
2275.000000	6.745900
2274.000000	6.681500
2273.000000	6.645600
2272.000000	6.609100
2271.000000	6.605300
2270.000000	6.613900
2269.000000	6.622800
2268.000000	6.601600
2267.000000	6.630700
2266.000000	6.666200
2265.000000	6.739700
2264.000000	6.801600
2263.000000	6.862500
2262.000000	6.967300
2261.000000	7.067300
2260.000000	7.162400
2259.000000	7.274000
2258.000000	7.395300
2257.000000	7.545800
2256.000000	7.661600
2255.000000	7.801700
2254.000000	7.920800
2253.000000	8.064800
2252.000000	8.171800
2251.000000	8.272800
2250.000000	8.389600
2249.000000	8.517800
2248.000000	8.595300
2247.000000	8.687600
2246.000000	8.768400
2245.000000	8.834600
2244.000000	8.928700
2243.000000	8.969500
2242.000000	9.031600
2241.000000	9.076800
2240.000000	9.124100
2239.000000	9.191800
2238.000000	9.245200
2237.000000	9.276300
2236.000000	9.301500
2235.000000	9.327700
2234.000000	9.361400
2233.000000	9.374600
2232.000000	9.384100
2231.000000	9.388400
2230.000000	9.373100
2229.000000	9.370200
2228.000000	9.336800
2227.000000	9.322300
2226.000000	9.294600
2225.000000	9.279400
2224.000000	9.198200
2223.000000	9.160400
2222.000000	9.101500
2221.000000	9.038700
2220.000000	8.995300
2219.000000	8.908700
2218.000000	8.862000
2217.000000	8.818200
2216.000000	8.778400
2215.000000	8.727800
2214.000000	8.697700
2213.000000	8.661800
2212.000000	8.633900
2211.000000	8.626800
2210.000000	8.648300
2209.000000	8.654700
2208.000000	8.696000
2207.000000	8.743000
2206.000000	8.791100
2205.000000	8.873000
2204.000000	8.969200
2203.000000	9.080600
2202.000000	9.205100
2201.000000	9.330600
2200.000000	9.461800
2199.000000	9.588800
2198.000000	9.734500
2197.000000	9.876700
2196.000000	10.042600
2195.000000	10.173800
2194.000000	10.308600
2193.000000	10.416200
2192.000000	10.556900
2191.000000	10.651800
2190.000000	10.758300
2189.000000	10.854700
2188.000000	10.922500
2187.000000	11.002700
2186.000000	11.059600
2185.000000	11.136400
2184.000000	11.187000
2183.000000	11.229300
2182.000000	11.263000
2181.000000	11.319100
2180.000000	11.342300
2179.000000	11.376900
2178.000000	11.415300
2177.000000	11.444600
2176.000000	11.465600
2175.000000	11.509700
2174.000000	11.541400
2173.000000	11.577400
2172.000000	11.602700
2171.000000	11.605400
2170.000000	11.654400
2169.000000	11.697000
2168.000000	11.712900
2167.000000	11.746600
2166.000000	11.786500
2165.000000	11.816100
2164.000000	11.831700
2163.000000	11.875800
2162.000000	11.906800
2161.000000	11.957800
2160.000000	11.996600
2159.000000	12.039500
2158.000000	12.099700
2157.000000	12.126600
2156.000000	12.157800
2155.000000	12.216300
2154.000000	12.253700
2153.000000	12.305300
2152.000000	12.351300
2151.000000	12.401100
2150.000000	12.432100
2149.000000	12.492200
2148.000000	12.536800
2147.000000	12.577900
2146.000000	12.626300
2145.000000	12.673300
2144.000000	12.720900
2143.000000	12.760900
2142.000000	12.789800
2141.000000	12.829400
2140.000000	12.861800
2139.000000	12.889200
2138.000000	12.935900
2137.000000	12.967400
2136.000000	12.977900
2135.000000	12.999200
2134.000000	13.045600
2133.000000	13.058600
2132.000000	13.070900
2131.000000	13.099400
2130.000000	13.123400
2129.000000	13.125200
2128.000000	13.141800
2127.000000	13.151600
2126.000000	13.150000
2125.000000	13.165400
2124.000000	13.172800
2123.000000	13.170100
2122.000000	13.145200
2121.000000	13.125800
2120.000000	13.119300
2119.000000	13.117100
2118.000000	13.106300
2117.000000	13.088500
2116.000000	13.065200
2115.000000	13.047800
2114.000000	13.033400
2113.000000	13.017600
2112.000000	13.017700
2111.000000	12.996500
2110.000000	12.973400
2109.000000	12.957100
2108.000000	12.939400
2107.000000	12.923600
2106.000000	12.899500
2105.000000	12.882000
2104.000000	12.877600
2103.000000	12.860100
2102.000000	12.834500
2101.000000	12.811300
2100.000000	12.795300
2099.000000	12.773700
2098.000000	12.753200
2097.000000	12.745700
2096.000000	12.734600
2095.000000	12.717000
2094.000000	12.704200
2093.000000	12.694200
2092.000000	12.676400
2091.000000	12.668300
2090.000000	12.662500
2089.000000	12.643600
2088.000000	12.640300
2087.000000	12.635400
2086.000000	12.616900
2085.000000	12.612700
2084.000000	12.589600
2083.000000	12.577600
2082.000000	12.568400
2081.000000	12.544700
2080.000000	12.539800
2079.000000	12.523700
2078.000000	12.502200
2077.000000	12.486200
2076.000000	12.487100
2075.000000	12.461200
2074.000000	12.446800
2073.000000	12.440800
2072.000000	12.416300
2071.000000	12.392900
2070.000000	12.381400
2069.000000	12.359300
2068.000000	12.342500
2067.000000	12.323500
2066.000000	12.307900
2065.000000	12.294600
2064.000000	12.289400
2063.000000	12.279800
2062.000000	12.287300
2061.000000	12.273100
2060.000000	12.253400
2059.000000	12.249800
2058.000000	12.280700
2057.000000	12.302500
2056.000000	12.326400
2055.000000	12.347500
2054.000000	12.391300
2053.000000	12.443000
2052.000000	12.492700
2051.000000	12.560600
2050.000000	12.626300
2049.000000	12.690900
2048.000000	12.780200
2047.000000	12.872700
2046.000000	12.962200
2045.000000	13.049100
2044.000000	13.169200
2043.000000	13.288200
2042.000000	13.407400
2041.000000	13.523400
2040.000000	13.622600
2039.000000	13.734200
2038.000000	13.867200
2037.000000	13.956200
2036.000000	14.048100
2035.000000	14.149000
2034.000000	14.234200
2033.000000	14.339700
2032.000000	14.437700
2031.000000	14.504400
2030.000000	14.595800
2029.000000	14.673800
2028.000000	14.759200
2027.000000	14.828300
2026.000000	14.900700
2025.000000	14.973700
2024.000000	15.044500
2023.000000	15.092800
2022.000000	15.157400
2021.000000	15.240700
2020.000000	15.311000
2019.000000	15.355000
2018.000000	15.398600
2017.000000	15.453400
2016.000000	15.525400
2015.000000	15.570400
2014.000000	15.608900
2013.000000	15.660400
2012.000000	15.698000
2011.000000	15.718700
2010.000000	15.750500
2009.000000	15.788100
2008.000000	15.798500
2007.000000	15.810000
2006.000000	15.829400
2005.000000	15.857300
2004.000000	15.861700
2003.000000	15.864600
2002.000000	15.843000
2001.000000	15.865700
2000.000000	15.868100
1999.000000	15.845700
1998.000000	15.831200
1997.000000	15.800900
1996.000000	15.801100
1995.000000	15.781100
1994.000000	15.760100
1993.000000	15.731600
1992.000000	15.699800
1991.000000	15.671200
1990.000000	15.642100
1989.000000	15.606400
1988.000000	15.566900
1987.000000	15.503900
1986.000000	15.454100
1985.000000	15.419200
1984.000000	15.368400
1983.000000	15.346300
1982.000000	15.284000
1981.000000	15.236500
1980.000000	15.191800
1979.000000	15.155700
1978.000000	15.086500
1977.000000	15.017800
1976.000000	14.991000
1975.000000	14.931800
1974.000000	14.886200
1973.000000	14.841400
1972.000000	14.800500
1971.000000	14.747500
1970.000000	14.707600
1969.000000	14.677600
1968.000000	14.596400
1967.000000	14.570200
1966.000000	14.551400
1965.000000	14.497700
1964.000000	14.475100
1963.000000	14.420400
1962.000000	14.371600
1961.000000	14.333600
1960.000000	14.291700
1959.000000	14.248200
1958.000000	14.204100
1957.000000	14.182900
1956.000000	14.122400
1955.000000	14.082200
1954.000000	14.034600
1953.000000	13.980100
1952.000000	13.957000
1951.000000	13.928100
1950.000000	13.892100
1949.000000	13.857300
1948.000000	13.815800
1947.000000	13.804200
1946.000000	13.775100
1945.000000	13.753600
1944.000000	13.771200
1943.000000	13.744900
1942.000000	13.749200
1941.000000	13.737000
1940.000000	13.764300
1939.000000	13.775100
1938.000000	13.788900
1937.000000	13.806800
1936.000000	13.855800
1935.000000	13.858300
1934.000000	13.913200
1933.000000	13.972100
1932.000000	14.013700
1931.000000	14.084500
1930.000000	14.137900
1929.000000	14.221700
1928.000000	14.308300
1927.000000	14.411400
1926.000000	14.495200
1925.000000	14.600100
1924.000000	14.692200
1923.000000	14.794700
1922.000000	14.920900
1921.000000	15.081200
1920.000000	15.211500
1919.000000	15.329900
1918.000000	15.487000
1917.000000	15.620700
1916.000000	15.762300
1915.000000	15.930300
1914.000000	16.102700
1913.000000	16.274000
1912.000000	16.475300
1911.000000	16.636200
1910.000000	16.815100
1909.000000	16.961400
1908.000000	17.133600
1907.000000	17.345000
1906.000000	17.571800
1905.000000	17.780600
1904.000000	17.977600
1903.000000	18.169700
1902.000000	18.383800
1901.000000	18.571700
1900.000000	18.791000
1899.000000	18.999900
1898.000000	19.216100
1897.000000	19.433500
1896.000000	19.621200
1895.000000	19.783700
1894.000000	19.979500
1893.000000	20.174600
1892.000000	20.381600
1891.000000	20.593600
1890.000000	20.792100
1889.000000	20.966700
1888.000000	21.188200
1887.000000	21.417200
1886.000000	21.644200
1885.000000	21.927900
1884.000000	22.249600
1883.000000	22.579800
1882.000000	22.942100
1881.000000	23.294800
1880.000000	23.647200
1879.000000	23.974500
1878.000000	24.326300
1877.000000	24.640900
1876.000000	24.926900
1875.000000	25.203100
1874.000000	25.445000
1873.000000	25.668000
1872.000000	25.863200
1871.000000	26.038900
1870.000000	26.167500
1869.000000	26.273200
1868.000000	26.363400
1867.000000	26.411600
1866.000000	26.426900
1865.000000	26.454900
1864.000000	26.475400
1863.000000	26.486800
1862.000000	26.495600
1861.000000	26.516400
1860.000000	26.502100
1859.000000	26.470300
1858.000000	26.438500
1857.000000	26.396300
1856.000000	26.334800
1855.000000	26.279500
1854.000000	26.214000
1853.000000	26.126300
1852.000000	26.039500
1851.000000	25.974700
1850.000000	25.914100
1849.000000	25.863000
1848.000000	25.795900
1847.000000	25.698500
1846.000000	25.598000
1845.000000	25.501300
1844.000000	25.428300
1843.000000	25.394000
1842.000000	25.385100
1841.000000	25.368400
1840.000000	25.309100
1839.000000	25.249900
1838.000000	25.205700
1837.000000	25.144400
1836.000000	25.076800
1835.000000	24.992800
1834.000000	24.894300
1833.000000	24.801900
1832.000000	24.728700
1831.000000	24.654200
1830.000000	24.564800
1829.000000	24.487400
1828.000000	24.399500
1827.000000	24.309400
1826.000000	24.255400
1825.000000	24.187100
1824.000000	24.126500
1823.000000	24.105900
1822.000000	24.094700
1821.000000	24.092000
1820.000000	24.073900
1819.000000	24.025700
1818.000000	23.996000
1817.000000	24.006700
1816.000000	24.010000
1815.000000	23.997600
1814.000000	23.986800
1813.000000	23.989800
1812.000000	23.986900
1811.000000	23.966700
1810.000000	23.922300
1809.000000	23.882200
1808.000000	23.851100
1807.000000	23.824800
1806.000000	23.788200
1805.000000	23.742800
1804.000000	23.701800
1803.000000	23.669700
1802.000000	23.643100
1801.000000	23.595700
1800.000000	23.540400
1799.000000	23.486900
1798.000000	23.447400
1797.000000	23.413800
1796.000000	23.379400
1795.000000	23.346500
1794.000000	23.305900
1793.000000	23.259600
1792.000000	23.209300
1791.000000	23.164900
1790.000000	23.108000
1789.000000	23.047400
1788.000000	22.998500
1787.000000	22.945700
1786.000000	22.864500
1785.000000	22.788200
1784.000000	22.710500
1783.000000	22.635800
1782.000000	22.553600
1781.000000	22.489300
1780.000000	22.409500
1779.000000	22.331100
1778.000000	22.256900
1777.000000	22.174300
1776.000000	22.074500
1775.000000	21.949400
1774.000000	21.824300
1773.000000	21.680800
1772.000000	21.562600
1771.000000	21.426100
1770.000000	21.308700
1769.000000	21.182300
1768.000000	21.074600
1767.000000	20.964300
1766.000000	20.871200
1765.000000	20.805800
1764.000000	20.761700
1763.000000	20.742600
1762.000000	20.756100
1761.000000	20.787900
1760.000000	20.834300
1759.000000	20.895600
1758.000000	20.949500
1757.000000	21.006000
1756.000000	21.040900
1755.000000	21.044800
1754.000000	21.041300
1753.000000	21.034600
1752.000000	21.029800
1751.000000	20.982200
1750.000000	20.936500
1749.000000	20.877500
1748.000000	20.775400
1747.000000	20.669000
1746.000000	20.558700
1745.000000	20.417400
1744.000000	20.255600
1743.000000	20.065900
1742.000000	19.888300
1741.000000	19.679200
1740.000000	19.427300
1739.000000	19.225900
1738.000000	19.024100
1737.000000	18.861600
1736.000000	18.745600
1735.000000	18.633500
1734.000000	18.613100
1733.000000	18.603900
1732.000000	18.627400
1731.000000	18.699000
1730.000000	18.777400
1729.000000	18.895300
1728.000000	18.986800
1727.000000	19.085300
1726.000000	19.155400
1725.000000	19.206100
1724.000000	19.275800
1723.000000	19.299200
1722.000000	19.296600
1721.000000	19.297300
1720.000000	19.292300
1719.000000	19.290000
1718.000000	19.328200
1717.000000	19.317900
1716.000000	19.349000
1715.000000	19.404300
1714.000000	19.436100
1713.000000	19.489400
1712.000000	19.531800
1711.000000	19.526500
1710.000000	19.541000
1709.000000	19.537900
1708.000000	19.552700
1707.000000	19.490900
1706.000000	19.474900
1705.000000	19.425900
1704.000000	19.367900
1703.000000	19.309400
1702.000000	19.198500
1701.000000	19.089400
1700.000000	18.962300
1699.000000	18.819000
1698.000000	18.681200
1697.000000	18.576600
1696.000000	18.515300
1695.000000	18.510600
1694.000000	18.530100
1693.000000	18.643500
1692.000000	18.794300
1691.000000	18.957200
1690.000000	19.072600
1689.000000	19.185300
1688.000000	19.249300
1687.000000	19.266500
1686.000000	19.253700
1685.000000	19.278900
1684.000000	19.345800
1683.000000	19.527800
1682.000000	19.798000
1681.000000	20.191200
1680.000000	20.690000
1679.000000	21.211300
1678.000000	21.741600
1677.000000	22.204100
1676.000000	22.645200
1675.000000	23.017900
1674.000000	23.350500
1673.000000	23.666600
1672.000000	23.886700
1671.000000	24.140300
1670.000000	24.313300
1669.000000	24.481500
1668.000000	24.627000
1667.000000	24.722500
1666.000000	24.834100
1665.000000	24.939600
1664.000000	25.018900
1663.000000	25.100000
1662.000000	25.175700
1661.000000	25.222200
1660.000000	25.262800
1659.000000	25.290100
1658.000000	25.322500
1657.000000	25.361000
1656.000000	25.375600
1655.000000	25.377800
1654.000000	25.371800
1653.000000	25.358300
1652.000000	25.357700
1651.000000	25.335400
1650.000000	25.322700
1649.000000	25.302900
1648.000000	25.271000
1647.000000	25.226600
1646.000000	25.176300
1645.000000	25.145300
1644.000000	25.093700
1643.000000	25.041100
1642.000000	24.982900
1641.000000	24.943500
1640.000000	24.888000
1639.000000	24.832900
1638.000000	24.774600
1637.000000	24.708300
1636.000000	24.642500
1635.000000	24.573600
1634.000000	24.506500
1633.000000	24.436100
1632.000000	24.370700
1631.000000	24.280300
1630.000000	24.216600
1629.000000	24.143500
1628.000000	24.065800
1627.000000	23.987300
1626.000000	23.905600
1625.000000	23.827100
1624.000000	23.745600
1623.000000	23.668900
1622.000000	23.588100
1621.000000	23.515600
1620.000000	23.447300
1619.000000	23.370200
1618.000000	23.281700
1617.000000	23.198600
1616.000000	23.136700
1615.000000	23.062500
1614.000000	22.986900
1613.000000	22.923000
1612.000000	22.845400
1611.000000	22.771400
