PE UV       SUBTECH     SPECTRUM    ASCII       PEDS        4.00        
   -1
CICIMAUCR0101-1.ASC
24/04/03
16:31:32.00
24/04/03
16:31:32.00
Vinicio Soto Monge
C. resplendens
250,000000
1
Lambda 1050
1050L1511233
PerkinElmer UV WinLab 6.3.2.0749 / 2.02.05 Lambda 900 UV/VIS/NIR, Aug  7 2015 09:38:08

0
0
3350/servo 860,8/2
0
0
UV/VIS
1
1
1
DoubleDePol,CommonBeamDepol,RBeamAtt,SBeamAtt,60mm sphere, WB InGaAs Detector
0
0
0
0
Program
Program
3350/servo 860,8/2
3350/0,2 860,8/0,2
3350/0,2 860,8/0,2
0
15.00
 
 
 
0
 
860,8
319,2
860,8
Front
100
on
S:100 R:100
0
0
0
0
 
0
 
 
 
0
 
 
0
0
0
0
0
 
 
 
 
0
0


0
0
#HDR
-1
-1
#GR
nm
%R
1.0
0.0
2500,000000
-1,000000
2251
8
72,895300
3,379900
#DATA
2500.000000	3.811100
2499.000000	3.690800
2498.000000	3.689000
2497.000000	3.651200
2496.000000	3.612000
2495.000000	3.677100
2494.000000	3.665300
2493.000000	3.724700
2492.000000	3.628300
2491.000000	3.624200
2490.000000	3.584700
2489.000000	3.681500
2488.000000	3.732700
2487.000000	3.661700
2486.000000	3.626100
2485.000000	3.663500
2484.000000	3.657500
2483.000000	3.644300
2482.000000	3.613200
2481.000000	3.568800
2480.000000	3.646000
2479.000000	3.631200
2478.000000	3.651900
2477.000000	3.585500
2476.000000	3.574400
2475.000000	3.637400
2474.000000	3.597900
2473.000000	3.615300
2472.000000	3.615400
2471.000000	3.620500
2470.000000	3.622300
2469.000000	3.575300
2468.000000	3.595400
2467.000000	3.589800
2466.000000	3.611700
2465.000000	3.603900
2464.000000	3.600100
2463.000000	3.634500
2462.000000	3.647900
2461.000000	3.649800
2460.000000	3.642500
2459.000000	3.655000
2458.000000	3.649400
2457.000000	3.636200
2456.000000	3.667400
2455.000000	3.656900
2454.000000	3.686200
2453.000000	3.693100
2452.000000	3.706700
2451.000000	3.686000
2450.000000	3.707400
2449.000000	3.720700
2448.000000	3.727100
2447.000000	3.737800
2446.000000	3.737400
2445.000000	3.749000
2444.000000	3.761600
2443.000000	3.774500
2442.000000	3.772300
2441.000000	3.786500
2440.000000	3.793900
2439.000000	3.793700
2438.000000	3.808100
2437.000000	3.833500
2436.000000	3.825700
2435.000000	3.834500
2434.000000	3.853500
2433.000000	3.861300
2432.000000	3.873800
2431.000000	3.901200
2430.000000	3.896300
2429.000000	3.890300
2428.000000	3.912200
2427.000000	3.925000
2426.000000	3.927200
2425.000000	3.941100
2424.000000	3.950800
2423.000000	3.950600
2422.000000	3.956100
2421.000000	3.977400
2420.000000	3.995200
2419.000000	4.007200
2418.000000	4.002700
2417.000000	4.026900
2416.000000	4.024900
2415.000000	4.031300
2414.000000	4.031200
2413.000000	4.046100
2412.000000	4.063800
2411.000000	4.080400
2410.000000	4.088800
2409.000000	4.099900
2408.000000	4.087800
2407.000000	4.076000
2406.000000	4.109500
2405.000000	4.123700
2404.000000	4.126300
2403.000000	4.144200
2402.000000	4.158400
2401.000000	4.155700
2400.000000	4.175100
2399.000000	4.171800
2398.000000	4.170400
2397.000000	4.184600
2396.000000	4.199900
2395.000000	4.211000
2394.000000	4.226300
2393.000000	4.221300
2392.000000	4.223200
2391.000000	4.227900
2390.000000	4.240600
2389.000000	4.255300
2388.000000	4.237700
2387.000000	4.235300
2386.000000	4.260300
2385.000000	4.269900
2384.000000	4.264900
2383.000000	4.268100
2382.000000	4.270900
2381.000000	4.256400
2380.000000	4.272000
2379.000000	4.286300
2378.000000	4.285300
2377.000000	4.289600
2376.000000	4.283400
2375.000000	4.276200
2374.000000	4.279300
2373.000000	4.281800
2372.000000	4.282800
2371.000000	4.287200
2370.000000	4.281800
2369.000000	4.271700
2368.000000	4.269600
2367.000000	4.270800
2366.000000	4.267800
2365.000000	4.279000
2364.000000	4.274600
2363.000000	4.261000
2362.000000	4.260900
2361.000000	4.261700
2360.000000	4.247400
2359.000000	4.236800
2358.000000	4.230700
2357.000000	4.224000
2356.000000	4.220200
2355.000000	4.225500
2354.000000	4.226000
2353.000000	4.218500
2352.000000	4.218500
2351.000000	4.236500
2350.000000	4.242800
2349.000000	4.233600
2348.000000	4.221900
2347.000000	4.228400
2346.000000	4.230700
2345.000000	4.241200
2344.000000	4.247300
2343.000000	4.234900
2342.000000	4.229100
2341.000000	4.256200
2340.000000	4.254700
2339.000000	4.241500
2338.000000	4.235800
2337.000000	4.241800
2336.000000	4.243000
2335.000000	4.228400
2334.000000	4.215900
2333.000000	4.216000
2332.000000	4.223300
2331.000000	4.211700
2330.000000	4.214500
2329.000000	4.192600
2328.000000	4.180900
2327.000000	4.182900
2326.000000	4.164600
2325.000000	4.125200
2324.000000	4.115400
2323.000000	4.120900
2322.000000	4.110600
2321.000000	4.080700
2320.000000	4.082500
2319.000000	4.071300
2318.000000	4.063400
2317.000000	4.040500
2316.000000	4.025100
2315.000000	3.997500
2314.000000	3.991300
2313.000000	3.986800
2312.000000	3.973400
2311.000000	3.951600
2310.000000	3.928600
2309.000000	3.923900
2308.000000	3.925300
2307.000000	3.896900
2306.000000	3.889500
2305.000000	3.885200
2304.000000	3.885800
2303.000000	3.879400
2302.000000	3.870100
2301.000000	3.867400
2300.000000	3.840100
2299.000000	3.855700
2298.000000	3.837800
2297.000000	3.837400
2296.000000	3.848900
2295.000000	3.837200
2294.000000	3.831800
2293.000000	3.806200
2292.000000	3.811100
2291.000000	3.787000
2290.000000	3.781200
2289.000000	3.759100
2288.000000	3.749000
2287.000000	3.737300
2286.000000	3.719900
2285.000000	3.713300
2284.000000	3.684100
2283.000000	3.672200
2282.000000	3.664600
2281.000000	3.650100
2280.000000	3.623400
2279.000000	3.604200
2278.000000	3.592600
2277.000000	3.584200
2276.000000	3.563400
2275.000000	3.546000
2274.000000	3.504200
2273.000000	3.517600
2272.000000	3.498700
2271.000000	3.465400
2270.000000	3.459100
2269.000000	3.448700
2268.000000	3.419100
2267.000000	3.428900
2266.000000	3.415700
2265.000000	3.422400
2264.000000	3.398900
2263.000000	3.408700
2262.000000	3.384200
2261.000000	3.379900
2260.000000	3.382000
2259.000000	3.380600
2258.000000	3.385500
2257.000000	3.391400
2256.000000	3.402100
2255.000000	3.428900
2254.000000	3.413900
2253.000000	3.455800
2252.000000	3.440000
2251.000000	3.467400
2250.000000	3.470900
2249.000000	3.490400
2248.000000	3.474900
2247.000000	3.495700
2246.000000	3.505900
2245.000000	3.524300
2244.000000	3.533000
2243.000000	3.561600
2242.000000	3.580700
2241.000000	3.592700
2240.000000	3.565400
2239.000000	3.612200
2238.000000	3.615300
2237.000000	3.614300
2236.000000	3.618900
2235.000000	3.643700
2234.000000	3.662900
2233.000000	3.654000
2232.000000	3.644000
2231.000000	3.656600
2230.000000	3.661900
2229.000000	3.657800
2228.000000	3.625400
2227.000000	3.633100
2226.000000	3.610600
2225.000000	3.611900
2224.000000	3.611500
2223.000000	3.598900
2222.000000	3.556600
2221.000000	3.555400
2220.000000	3.528000
2219.000000	3.531300
2218.000000	3.481700
2217.000000	3.473200
2216.000000	3.503100
2215.000000	3.480000
2214.000000	3.449800
2213.000000	3.455400
2212.000000	3.441900
2211.000000	3.448800
2210.000000	3.460400
2209.000000	3.466300
2208.000000	3.503000
2207.000000	3.521900
2206.000000	3.554200
2205.000000	3.599700
2204.000000	3.628600
2203.000000	3.682900
2202.000000	3.730100
2201.000000	3.783100
2200.000000	3.848700
2199.000000	3.907700
2198.000000	3.979100
2197.000000	4.034300
2196.000000	4.095500
2195.000000	4.162500
2194.000000	4.238600
2193.000000	4.303600
2192.000000	4.354900
2191.000000	4.395500
2190.000000	4.432800
2189.000000	4.475700
2188.000000	4.540000
2187.000000	4.568000
2186.000000	4.593800
2185.000000	4.654100
2184.000000	4.689400
2183.000000	4.715400
2182.000000	4.737900
2181.000000	4.747100
2180.000000	4.759900
2179.000000	4.789700
2178.000000	4.817400
2177.000000	4.845000
2176.000000	4.856800
2175.000000	4.851800
2174.000000	4.864200
2173.000000	4.884900
2172.000000	4.918200
2171.000000	4.936600
2170.000000	4.940600
2169.000000	4.947600
2168.000000	4.984100
2167.000000	4.995300
2166.000000	5.003500
2165.000000	5.024200
2164.000000	5.030100
2163.000000	5.055600
2162.000000	5.064200
2161.000000	5.076500
2160.000000	5.086300
2159.000000	5.107000
2158.000000	5.117500
2157.000000	5.140600
2156.000000	5.152500
2155.000000	5.162600
2154.000000	5.171400
2153.000000	5.189300
2152.000000	5.203700
2151.000000	5.226700
2150.000000	5.238900
2149.000000	5.248400
2148.000000	5.251600
2147.000000	5.267900
2146.000000	5.290600
2145.000000	5.297000
2144.000000	5.310900
2143.000000	5.323900
2142.000000	5.336100
2141.000000	5.334700
2140.000000	5.340300
2139.000000	5.340100
2138.000000	5.360500
2137.000000	5.362300
2136.000000	5.363800
2135.000000	5.376300
2134.000000	5.376500
2133.000000	5.371400
2132.000000	5.373400
2131.000000	5.366900
2130.000000	5.366000
2129.000000	5.364400
2128.000000	5.365800
2127.000000	5.358800
2126.000000	5.356400
2125.000000	5.355500
2124.000000	5.346500
2123.000000	5.351800
2122.000000	5.342500
2121.000000	5.328800
2120.000000	5.319100
2119.000000	5.326200
2118.000000	5.316900
2117.000000	5.299000
2116.000000	5.289200
2115.000000	5.291900
2114.000000	5.291500
2113.000000	5.276400
2112.000000	5.270700
2111.000000	5.254100
2110.000000	5.247200
2109.000000	5.242900
2108.000000	5.228100
2107.000000	5.213100
2106.000000	5.203200
2105.000000	5.192000
2104.000000	5.181600
2103.000000	5.176400
2102.000000	5.172500
2101.000000	5.167200
2100.000000	5.153000
2099.000000	5.142900
2098.000000	5.127000
2097.000000	5.124200
2096.000000	5.138500
2095.000000	5.135900
2094.000000	5.123500
2093.000000	5.107800
2092.000000	5.098000
2091.000000	5.101000
2090.000000	5.091500
2089.000000	5.078600
2088.000000	5.071900
2087.000000	5.060500
2086.000000	5.044000
2085.000000	5.045200
2084.000000	5.049200
2083.000000	5.039500
2082.000000	5.046300
2081.000000	5.049200
2080.000000	5.033200
2079.000000	5.031800
2078.000000	5.031100
2077.000000	5.023800
2076.000000	5.010900
2075.000000	5.012500
2074.000000	5.019700
2073.000000	5.011400
2072.000000	5.006800
2071.000000	4.988400
2070.000000	4.973200
2069.000000	4.987800
2068.000000	4.993300
2067.000000	5.001400
2066.000000	4.990700
2065.000000	4.996800
2064.000000	4.987400
2063.000000	4.993400
2062.000000	4.985800
2061.000000	4.988900
2060.000000	4.985700
2059.000000	4.992100
2058.000000	4.997500
2057.000000	4.995000
2056.000000	4.993900
2055.000000	5.013800
2054.000000	5.036600
2053.000000	5.048100
2052.000000	5.061300
2051.000000	5.070900
2050.000000	5.089200
2049.000000	5.110300
2048.000000	5.130500
2047.000000	5.157700
2046.000000	5.187400
2045.000000	5.208900
2044.000000	5.243400
2043.000000	5.270600
2042.000000	5.307100
2041.000000	5.352000
2040.000000	5.385400
2039.000000	5.405900
2038.000000	5.442700
2037.000000	5.478400
2036.000000	5.486200
2035.000000	5.511800
2034.000000	5.546400
2033.000000	5.587300
2032.000000	5.619200
2031.000000	5.645100
2030.000000	5.684200
2029.000000	5.713500
2028.000000	5.745200
2027.000000	5.775700
2026.000000	5.798000
2025.000000	5.821100
2024.000000	5.836200
2023.000000	5.867500
2022.000000	5.904400
2021.000000	5.916000
2020.000000	5.937000
2019.000000	5.958300
2018.000000	5.976100
2017.000000	6.013000
2016.000000	6.023400
2015.000000	6.053300
2014.000000	6.078300
2013.000000	6.073800
2012.000000	6.103700
2011.000000	6.127300
2010.000000	6.127500
2009.000000	6.134600
2008.000000	6.143300
2007.000000	6.175000
2006.000000	6.178000
2005.000000	6.158700
2004.000000	6.164700
2003.000000	6.171900
2002.000000	6.188100
2001.000000	6.175400
2000.000000	6.161400
1999.000000	6.157300
1998.000000	6.160100
1997.000000	6.160500
1996.000000	6.154900
1995.000000	6.139300
1994.000000	6.132400
1993.000000	6.112100
1992.000000	6.098700
1991.000000	6.095800
1990.000000	6.070600
1989.000000	6.037800
1988.000000	6.036900
1987.000000	6.020900
1986.000000	6.022800
1985.000000	6.017700
1984.000000	5.984300
1983.000000	5.973600
1982.000000	5.942100
1981.000000	5.944000
1980.000000	5.903800
1979.000000	5.887900
1978.000000	5.869300
1977.000000	5.845600
1976.000000	5.825200
1975.000000	5.801300
1974.000000	5.785800
1973.000000	5.769400
1972.000000	5.742700
1971.000000	5.737800
1970.000000	5.723700
1969.000000	5.709400
1968.000000	5.677600
1967.000000	5.629800
1966.000000	5.651800
1965.000000	5.626700
1964.000000	5.613100
1963.000000	5.571400
1962.000000	5.549000
1961.000000	5.552500
1960.000000	5.535800
1959.000000	5.504100
1958.000000	5.490600
1957.000000	5.485400
1956.000000	5.472100
1955.000000	5.439100
1954.000000	5.440900
1953.000000	5.416000
1952.000000	5.377100
1951.000000	5.377800
1950.000000	5.367700
1949.000000	5.357600
1948.000000	5.316800
1947.000000	5.329700
1946.000000	5.292200
1945.000000	5.291400
1944.000000	5.291800
1943.000000	5.264800
1942.000000	5.265600
1941.000000	5.260400
1940.000000	5.238400
1939.000000	5.244200
1938.000000	5.220800
1937.000000	5.231700
1936.000000	5.243300
1935.000000	5.230900
1934.000000	5.236400
1933.000000	5.236300
1932.000000	5.247100
1931.000000	5.280000
1930.000000	5.260300
1929.000000	5.283700
1928.000000	5.296400
1927.000000	5.313500
1926.000000	5.330500
1925.000000	5.349500
1924.000000	5.391000
1923.000000	5.393000
1922.000000	5.419700
1921.000000	5.443800
1920.000000	5.488300
1919.000000	5.499100
1918.000000	5.548200
1917.000000	5.604200
1916.000000	5.632600
1915.000000	5.667400
1914.000000	5.736000
1913.000000	5.781700
1912.000000	5.827700
1911.000000	5.867100
1910.000000	5.939900
1909.000000	5.992000
1908.000000	6.065800
1907.000000	6.141200
1906.000000	6.214200
1905.000000	6.280100
1904.000000	6.336800
1903.000000	6.423300
1902.000000	6.517200
1901.000000	6.616400
1900.000000	6.690000
1899.000000	6.767000
1898.000000	6.850700
1897.000000	6.965300
1896.000000	7.044200
1895.000000	7.141900
1894.000000	7.240300
1893.000000	7.346200
1892.000000	7.441900
1891.000000	7.549000
1890.000000	7.667700
1889.000000	7.765300
1888.000000	7.904200
1887.000000	8.042800
1886.000000	8.182900
1885.000000	8.372000
1884.000000	8.577000
1883.000000	8.816500
1882.000000	9.085100
1881.000000	9.367800
1880.000000	9.643500
1879.000000	9.893400
1878.000000	10.176700
1877.000000	10.443500
1876.000000	10.702700
1875.000000	10.927200
1874.000000	11.139300
1873.000000	11.355200
1872.000000	11.545200
1871.000000	11.717200
1870.000000	11.866400
1869.000000	12.000500
1868.000000	12.116800
1867.000000	12.213200
1866.000000	12.280000
1865.000000	12.352000
1864.000000	12.397200
1863.000000	12.434100
1862.000000	12.466700
1861.000000	12.489100
1860.000000	12.509000
1859.000000	12.503000
1858.000000	12.483700
1857.000000	12.474100
1856.000000	12.455600
1855.000000	12.438700
1854.000000	12.386400
1853.000000	12.314900
1852.000000	12.255600
1851.000000	12.216700
1850.000000	12.177900
1849.000000	12.131000
1848.000000	12.050400
1847.000000	11.984900
1846.000000	11.923200
1845.000000	11.864900
1844.000000	11.826700
1843.000000	11.795900
1842.000000	11.788700
1841.000000	11.752300
1840.000000	11.697400
1839.000000	11.654700
1838.000000	11.612700
1837.000000	11.573600
1836.000000	11.517400
1835.000000	11.461600
1834.000000	11.401500
1833.000000	11.335700
1832.000000	11.275800
1831.000000	11.221700
1830.000000	11.160800
1829.000000	11.076900
1828.000000	11.002800
1827.000000	10.943700
1826.000000	10.873300
1825.000000	10.819500
1824.000000	10.781500
1823.000000	10.758700
1822.000000	10.736800
1821.000000	10.707800
1820.000000	10.666600
1819.000000	10.636900
1818.000000	10.611800
1817.000000	10.597100
1816.000000	10.603600
1815.000000	10.592800
1814.000000	10.571500
1813.000000	10.553600
1812.000000	10.545200
1811.000000	10.531300
1810.000000	10.501700
1809.000000	10.460200
1808.000000	10.418900
1807.000000	10.389100
1806.000000	10.337300
1805.000000	10.291300
1804.000000	10.251800
1803.000000	10.206500
1802.000000	10.168600
1801.000000	10.136100
1800.000000	10.095100
1799.000000	10.050500
1798.000000	10.003700
1797.000000	9.971100
1796.000000	9.941600
1795.000000	9.906800
1794.000000	9.851000
1793.000000	9.800700
1792.000000	9.772000
1791.000000	9.716500
1790.000000	9.667400
1789.000000	9.633100
1788.000000	9.566600
1787.000000	9.519700
1786.000000	9.462700
1785.000000	9.408500
1784.000000	9.329200
1783.000000	9.286800
1782.000000	9.239100
1781.000000	9.179900
1780.000000	9.122800
1779.000000	9.064500
1778.000000	8.992000
1777.000000	8.926900
1776.000000	8.862000
1775.000000	8.787400
1774.000000	8.703900
1773.000000	8.618100
1772.000000	8.536400
1771.000000	8.463800
1770.000000	8.393400
1769.000000	8.317400
1768.000000	8.248900
1767.000000	8.203900
1766.000000	8.157100
1765.000000	8.117800
1764.000000	8.090300
1763.000000	8.090900
1762.000000	8.104000
1761.000000	8.126500
1760.000000	8.163200
1759.000000	8.201200
1758.000000	8.250200
1757.000000	8.304300
1756.000000	8.344200
1755.000000	8.359000
1754.000000	8.388500
1753.000000	8.394200
1752.000000	8.397100
1751.000000	8.377400
1750.000000	8.343200
1749.000000	8.329700
1748.000000	8.310100
1747.000000	8.274000
1746.000000	8.221700
1745.000000	8.150300
1744.000000	8.065400
1743.000000	7.962700
1742.000000	7.885500
1741.000000	7.770900
1740.000000	7.645000
1739.000000	7.539100
1738.000000	7.451900
1737.000000	7.371700
1736.000000	7.310200
1735.000000	7.276200
1734.000000	7.273900
1733.000000	7.283800
1732.000000	7.302000
1731.000000	7.355400
1730.000000	7.385500
1729.000000	7.476400
1728.000000	7.536500
1727.000000	7.588500
1726.000000	7.652900
1725.000000	7.688000
1724.000000	7.704200
1723.000000	7.724000
1722.000000	7.732100
1721.000000	7.722500
1720.000000	7.724500
1719.000000	7.738000
1718.000000	7.730000
1717.000000	7.744900
1716.000000	7.768800
1715.000000	7.779900
1714.000000	7.807800
1713.000000	7.830800
1712.000000	7.839200
1711.000000	7.853000
1710.000000	7.862800
1709.000000	7.848500
1708.000000	7.807300
1707.000000	7.810700
1706.000000	7.789900
1705.000000	7.761800
1704.000000	7.727700
1703.000000	7.674000
1702.000000	7.619300
1701.000000	7.571400
1700.000000	7.475700
1699.000000	7.381300
1698.000000	7.342200
1697.000000	7.254200
1696.000000	7.207200
1695.000000	7.217500
1694.000000	7.237200
1693.000000	7.265300
1692.000000	7.312600
1691.000000	7.419600
1690.000000	7.457000
1689.000000	7.506800
1688.000000	7.561400
1687.000000	7.523600
1686.000000	7.516700
1685.000000	7.515100
1684.000000	7.538400
1683.000000	7.610000
1682.000000	7.751700
1681.000000	7.979700
1680.000000	8.247800
1679.000000	8.572300
1678.000000	8.900200
1677.000000	9.191800
1676.000000	9.488500
1675.000000	9.739000
1674.000000	9.956600
1673.000000	10.154000
1672.000000	10.309200
1671.000000	10.485700
1670.000000	10.575300
1669.000000	10.714300
1668.000000	10.819700
1667.000000	10.906000
1666.000000	10.973700
1665.000000	11.012700
1664.000000	11.072600
1663.000000	11.120800
1662.000000	11.151000
1661.000000	11.166300
1660.000000	11.202000
1659.000000	11.203400
1658.000000	11.220500
1657.000000	11.253500
1656.000000	11.260100
1655.000000	11.262800
1654.000000	11.240500
1653.000000	11.241700
1652.000000	11.252000
1651.000000	11.239000
1650.000000	11.203300
1649.000000	11.158200
1648.000000	11.134200
1647.000000	11.104200
1646.000000	11.078700
1645.000000	11.051400
1644.000000	11.012600
1643.000000	10.987800
1642.000000	10.954700
1641.000000	10.914900
1640.000000	10.883600
1639.000000	10.839500
1638.000000	10.802700
1637.000000	10.756100
1636.000000	10.727600
1635.000000	10.673200
1634.000000	10.655600
1633.000000	10.597100
1632.000000	10.550400
1631.000000	10.517500
1630.000000	10.493100
1629.000000	10.430200
1628.000000	10.383800
1627.000000	10.359500
1626.000000	10.302100
1625.000000	10.263500
1624.000000	10.221300
1623.000000	10.172400
1622.000000	10.118100
1621.000000	10.072500
1620.000000	10.028700
1619.000000	9.990000
1618.000000	9.946000
1617.000000	9.909800
1616.000000	9.865900
1615.000000	9.829900
1614.000000	9.792900
1613.000000	9.756400
1612.000000	9.717300
1611.000000	9.664900
1610.000000	9.626600
1609.000000	9.594500
1608.000000	9.571500
1607.000000	9.539300
1606.000000	9.506400
1605.000000	9.463000
1604.000000	9.420100
1603.000000	9.378000
1602.000000	9.359100
1601.000000	9.317100
1600.000000	9.272700
1599.000000	9.228500
1598.000000	9.190700
1597.000000	9.152200
1596.000000	9.121200
1595.000000	9.094200
1594.000000	9.055700
1593.000000	9.028700
1592.000000	9.011100
1591.000000	8.985700
1590.000000	8.935700
1589.000000	8.920000
