PE UV       SUBTECH     SPECTRUM    ASCII       PEDS        4.00        
   -1
CICIMAUCR0001-2.Sample.ASC
24/04/04
14:58:11.00
24/04/04
14:58:11.00
Vinicio Soto Monge
C. kalinini
250,000000
1
Lambda 1050
1050L1511233
PerkinElmer UV WinLab 6.3.2.0749 / 2.02.05 Lambda 900 UV/VIS/NIR, Aug  7 2015 09:38:08

0
0
3350/servo 860,8/2
0
0
UV/VIS
1
1
1
DoubleDePol,CommonBeamDepol,RBeamAtt,SBeamAtt,60mm sphere, WB InGaAs Detector
0
0
0
0
Program
Program
3350/servo 860,8/2
3350/0,2 860,8/0,2
3350/0,2 860,8/0,2
0
15.00
 
 
 
0
 
860,8
319,2
860,8
Front
100
on
S:100 R:100
0
0
0
0
 
0
 
 
 
0
 
 
0
0
0
0
0
 
 
 
 
0
0


0
0
#HDR
-1
-1
#GR
nm
%R
1.0
0.0
2500,000000
-1,000000
2251
8
78,942500
5,296700
#DATA
2500.000000	9.186700
2499.000000	9.122300
2498.000000	9.092700
2497.000000	9.165500
2496.000000	9.198200
2495.000000	9.158300
2494.000000	9.161500
2493.000000	9.138200
2492.000000	9.158800
2491.000000	9.191700
2490.000000	9.202700
2489.000000	9.253300
2488.000000	9.280200
2487.000000	9.222800
2486.000000	9.274500
2485.000000	9.292400
2484.000000	9.310400
2483.000000	9.315200
2482.000000	9.338800
2481.000000	9.351100
2480.000000	9.388300
2479.000000	9.430400
2478.000000	9.429600
2477.000000	9.514300
2476.000000	9.566600
2475.000000	9.546100
2474.000000	9.529900
2473.000000	9.590000
2472.000000	9.651300
2471.000000	9.696900
2470.000000	9.748400
2469.000000	9.734700
2468.000000	9.781300
2467.000000	9.815800
2466.000000	9.895700
2465.000000	9.928200
2464.000000	9.994500
2463.000000	10.007100
2462.000000	10.050000
2461.000000	10.115300
2460.000000	10.185600
2459.000000	10.207100
2458.000000	10.287500
2457.000000	10.313000
2456.000000	10.401600
2455.000000	10.462800
2454.000000	10.514300
2453.000000	10.586000
2452.000000	10.672000
2451.000000	10.739800
2450.000000	10.818900
2449.000000	10.907100
2448.000000	10.961800
2447.000000	11.043400
2446.000000	11.166500
2445.000000	11.219900
2444.000000	11.294900
2443.000000	11.389800
2442.000000	11.475000
2441.000000	11.558500
2440.000000	11.638700
2439.000000	11.744100
2438.000000	11.820100
2437.000000	11.904900
2436.000000	11.979900
2435.000000	12.060100
2434.000000	12.136100
2433.000000	12.229000
2432.000000	12.314900
2431.000000	12.396700
2430.000000	12.470500
2429.000000	12.562400
2428.000000	12.632400
2427.000000	12.708200
2426.000000	12.793100
2425.000000	12.862900
2424.000000	12.913000
2423.000000	13.012500
2422.000000	13.072500
2421.000000	13.135500
2420.000000	13.213400
2419.000000	13.292200
2418.000000	13.366000
2417.000000	13.430100
2416.000000	13.491300
2415.000000	13.529600
2414.000000	13.567100
2413.000000	13.653200
2412.000000	13.721900
2411.000000	13.763600
2410.000000	13.812300
2409.000000	13.855200
2408.000000	13.904700
2407.000000	13.952000
2406.000000	13.985100
2405.000000	14.022100
2404.000000	14.051100
2403.000000	14.096600
2402.000000	14.143500
2401.000000	14.170800
2400.000000	14.196100
2399.000000	14.233500
2398.000000	14.273400
2397.000000	14.294900
2396.000000	14.323400
2395.000000	14.355500
2394.000000	14.370700
2393.000000	14.390700
2392.000000	14.419400
2391.000000	14.426000
2390.000000	14.441000
2389.000000	14.459500
2388.000000	14.472600
2387.000000	14.483700
2386.000000	14.493200
2385.000000	14.500700
2384.000000	14.507100
2383.000000	14.522500
2382.000000	14.531300
2381.000000	14.534900
2380.000000	14.517900
2379.000000	14.505200
2378.000000	14.512400
2377.000000	14.517900
2376.000000	14.508300
2375.000000	14.491900
2374.000000	14.479500
2373.000000	14.486200
2372.000000	14.490800
2371.000000	14.467100
2370.000000	14.462100
2369.000000	14.457300
2368.000000	14.458900
2367.000000	14.451900
2366.000000	14.458200
2365.000000	14.479600
2364.000000	14.475100
2363.000000	14.462200
2362.000000	14.456500
2361.000000	14.448400
2360.000000	14.449300
2359.000000	14.431100
2358.000000	14.422600
2357.000000	14.419000
2356.000000	14.407400
2355.000000	14.408100
2354.000000	14.398400
2353.000000	14.384100
2352.000000	14.367700
2351.000000	14.355700
2350.000000	14.345800
2349.000000	14.331400
2348.000000	14.326300
2347.000000	14.305700
2346.000000	14.278400
2345.000000	14.268600
2344.000000	14.265700
2343.000000	14.254100
2342.000000	14.235900
2341.000000	14.228900
2340.000000	14.235800
2339.000000	14.236800
2338.000000	14.219800
2337.000000	14.199600
2336.000000	14.189300
2335.000000	14.197900
2334.000000	14.204100
2333.000000	14.207800
2332.000000	14.194700
2331.000000	14.196600
2330.000000	14.196600
2329.000000	14.212300
2328.000000	14.219700
2327.000000	14.230200
2326.000000	14.238400
2325.000000	14.237300
2324.000000	14.233500
2323.000000	14.243900
2322.000000	14.250600
2321.000000	14.256200
2320.000000	14.248000
2319.000000	14.228400
2318.000000	14.226300
2317.000000	14.196100
2316.000000	14.177600
2315.000000	14.166900
2314.000000	14.135900
2313.000000	14.098700
2312.000000	14.053600
2311.000000	14.026600
2310.000000	13.974600
2309.000000	13.942600
2308.000000	13.905400
2307.000000	13.857900
2306.000000	13.818900
2305.000000	13.770400
2304.000000	13.733700
2303.000000	13.710800
2302.000000	13.679600
2301.000000	13.640200
2300.000000	13.619000
2299.000000	13.581000
2298.000000	13.554000
2297.000000	13.511000
2296.000000	13.493000
2295.000000	13.473200
2294.000000	13.457100
2293.000000	13.433700
2292.000000	13.415400
2291.000000	13.412900
2290.000000	13.388300
2289.000000	13.363400
2288.000000	13.353000
2287.000000	13.340800
2286.000000	13.334000
2285.000000	13.323200
2284.000000	13.310000
2283.000000	13.297700
2282.000000	13.296800
2281.000000	13.272400
2280.000000	13.255000
2279.000000	13.218700
2278.000000	13.217700
2277.000000	13.195300
2276.000000	13.175700
2275.000000	13.168300
2274.000000	13.138800
2273.000000	13.106400
2272.000000	13.075400
2271.000000	13.044300
2270.000000	13.013800
2269.000000	12.995300
2268.000000	12.959200
2267.000000	12.940400
2266.000000	12.942500
2265.000000	12.933400
2264.000000	12.917400
2263.000000	12.924700
2262.000000	12.933600
2261.000000	12.958500
2260.000000	12.963600
2259.000000	12.978900
2258.000000	13.046000
2257.000000	13.078200
2256.000000	13.116500
2255.000000	13.171800
2254.000000	13.226400
2253.000000	13.278900
2252.000000	13.342100
2251.000000	13.399200
2250.000000	13.456100
2249.000000	13.549600
2248.000000	13.584300
2247.000000	13.644500
2246.000000	13.713000
2245.000000	13.767600
2244.000000	13.794000
2243.000000	13.863700
2242.000000	13.903700
2241.000000	13.929100
2240.000000	13.964100
2239.000000	13.994000
2238.000000	13.981500
2237.000000	14.016200
2236.000000	14.009200
2235.000000	13.996700
2234.000000	14.001700
2233.000000	13.964500
2232.000000	13.930800
2231.000000	13.896600
2230.000000	13.855100
2229.000000	13.794200
2228.000000	13.719800
2227.000000	13.639600
2226.000000	13.577100
2225.000000	13.452000
2224.000000	13.362600
2223.000000	13.263400
2222.000000	13.158100
2221.000000	13.058200
2220.000000	12.926400
2219.000000	12.818500
2218.000000	12.703000
2217.000000	12.624600
2216.000000	12.500800
2215.000000	12.407600
2214.000000	12.344000
2213.000000	12.262100
2212.000000	12.198200
2211.000000	12.161300
2210.000000	12.141200
2209.000000	12.144100
2208.000000	12.195000
2207.000000	12.209400
2206.000000	12.289100
2205.000000	12.375100
2204.000000	12.523700
2203.000000	12.619800
2202.000000	12.789900
2201.000000	12.924900
2200.000000	13.083400
2199.000000	13.267400
2198.000000	13.471500
2197.000000	13.651500
2196.000000	13.821200
2195.000000	13.995200
2194.000000	14.183000
2193.000000	14.341100
2192.000000	14.474900
2191.000000	14.635100
2190.000000	14.769900
2189.000000	14.881700
2188.000000	14.986400
2187.000000	15.079300
2186.000000	15.180100
2185.000000	15.245400
2184.000000	15.320400
2183.000000	15.361300
2182.000000	15.429700
2181.000000	15.453700
2180.000000	15.480800
2179.000000	15.552100
2178.000000	15.575000
2177.000000	15.597000
2176.000000	15.624700
2175.000000	15.664500
2174.000000	15.688600
2173.000000	15.720400
2172.000000	15.750000
2171.000000	15.786900
2170.000000	15.798700
2169.000000	15.847100
2168.000000	15.883600
2167.000000	15.928400
2166.000000	15.955800
2165.000000	16.000300
2164.000000	16.057000
2163.000000	16.111400
2162.000000	16.138400
2161.000000	16.196700
2160.000000	16.268400
2159.000000	16.325900
2158.000000	16.400200
2157.000000	16.474900
2156.000000	16.535100
2155.000000	16.620600
2154.000000	16.698400
2153.000000	16.778000
2152.000000	16.874500
2151.000000	16.972400
2150.000000	17.071200
2149.000000	17.154500
2148.000000	17.240400
2147.000000	17.352400
2146.000000	17.451900
2145.000000	17.542000
2144.000000	17.628100
2143.000000	17.719800
2142.000000	17.808100
2141.000000	17.886600
2140.000000	17.971100
2139.000000	18.073200
2138.000000	18.148600
2137.000000	18.234300
2136.000000	18.316600
2135.000000	18.395800
2134.000000	18.466100
2133.000000	18.535000
2132.000000	18.604100
2131.000000	18.667700
2130.000000	18.730500
2129.000000	18.773100
2128.000000	18.831500
2127.000000	18.882800
2126.000000	18.939200
2125.000000	18.985200
2124.000000	19.015200
2123.000000	19.064600
2122.000000	19.103800
2121.000000	19.134300
2120.000000	19.169700
2119.000000	19.197700
2118.000000	19.212000
2117.000000	19.243300
2116.000000	19.270700
2115.000000	19.286100
2114.000000	19.300100
2113.000000	19.306200
2112.000000	19.325500
2111.000000	19.342300
2110.000000	19.351800
2109.000000	19.356500
2108.000000	19.366400
2107.000000	19.386000
2106.000000	19.372200
2105.000000	19.360700
2104.000000	19.371100
2103.000000	19.377200
2102.000000	19.379900
2101.000000	19.387600
2100.000000	19.388600
2099.000000	19.388600
2098.000000	19.398800
2097.000000	19.408400
2096.000000	19.399900
2095.000000	19.395500
2094.000000	19.410100
2093.000000	19.435400
2092.000000	19.450600
2091.000000	19.455000
2090.000000	19.457900
2089.000000	19.473800
2088.000000	19.479200
2087.000000	19.482800
2086.000000	19.481500
2085.000000	19.474000
2084.000000	19.468700
2083.000000	19.458500
2082.000000	19.424700
2081.000000	19.396600
2080.000000	19.388900
2079.000000	19.365500
2078.000000	19.305700
2077.000000	19.255900
2076.000000	19.204000
2075.000000	19.147400
2074.000000	19.095000
2073.000000	19.027200
2072.000000	18.951600
2071.000000	18.891700
2070.000000	18.796100
2069.000000	18.712400
2068.000000	18.629500
2067.000000	18.550200
2066.000000	18.467900
2065.000000	18.381500
2064.000000	18.288700
2063.000000	18.207900
2062.000000	18.127000
2061.000000	18.057400
2060.000000	17.965800
2059.000000	17.900900
2058.000000	17.858000
2057.000000	17.820200
2056.000000	17.770300
2055.000000	17.751700
2054.000000	17.749600
2053.000000	17.750500
2052.000000	17.769700
2051.000000	17.795000
2050.000000	17.843400
2049.000000	17.905300
2048.000000	17.989200
2047.000000	18.071900
2046.000000	18.142300
2045.000000	18.245300
2044.000000	18.347700
2043.000000	18.417800
2042.000000	18.525900
2041.000000	18.618900
2040.000000	18.728200
2039.000000	18.811000
2038.000000	18.903700
2037.000000	19.003000
2036.000000	19.085000
2035.000000	19.143200
2034.000000	19.211600
2033.000000	19.288600
2032.000000	19.351200
2031.000000	19.401400
2030.000000	19.453600
2029.000000	19.504200
2028.000000	19.558800
2027.000000	19.586300
2026.000000	19.627600
2025.000000	19.656700
2024.000000	19.674300
2023.000000	19.692300
2022.000000	19.729200
2021.000000	19.739500
2020.000000	19.752700
2019.000000	19.752500
2018.000000	19.749400
2017.000000	19.756800
2016.000000	19.739000
2015.000000	19.731200
2014.000000	19.717900
2013.000000	19.699000
2012.000000	19.678200
2011.000000	19.644600
2010.000000	19.599600
2009.000000	19.558800
2008.000000	19.511900
2007.000000	19.473500
2006.000000	19.418700
2005.000000	19.367500
2004.000000	19.304700
2003.000000	19.234800
2002.000000	19.156900
2001.000000	19.100900
2000.000000	19.013900
1999.000000	18.951900
1998.000000	18.870400
1997.000000	18.780800
1996.000000	18.703400
1995.000000	18.611700
1994.000000	18.510900
1993.000000	18.425300
1992.000000	18.326800
1991.000000	18.253100
1990.000000	18.150200
1989.000000	18.049200
1988.000000	17.956500
1987.000000	17.864700
1986.000000	17.766300
1985.000000	17.669700
1984.000000	17.543000
1983.000000	17.457200
1982.000000	17.345700
1981.000000	17.261700
1980.000000	17.163200
1979.000000	17.067700
1978.000000	16.947200
1977.000000	16.862700
1976.000000	16.774200
1975.000000	16.687700
1974.000000	16.577100
1973.000000	16.487700
1972.000000	16.401500
1971.000000	16.306700
1970.000000	16.216900
1969.000000	16.165100
1968.000000	16.057900
1967.000000	15.970200
1966.000000	15.909500
1965.000000	15.817900
1964.000000	15.730100
1963.000000	15.673500
1962.000000	15.572500
1961.000000	15.481200
1960.000000	15.424700
1959.000000	15.339200
1958.000000	15.245300
1957.000000	15.171900
1956.000000	15.124600
1955.000000	15.033000
1954.000000	14.932300
1953.000000	14.885000
1952.000000	14.810000
1951.000000	14.736900
1950.000000	14.677400
1949.000000	14.615200
1948.000000	14.563800
1947.000000	14.498200
1946.000000	14.440900
1945.000000	14.394800
1944.000000	14.353900
1943.000000	14.315600
1942.000000	14.301800
1941.000000	14.277800
1940.000000	14.253700
1939.000000	14.235200
1938.000000	14.208000
1937.000000	14.219900
1936.000000	14.196800
1935.000000	14.211600
1934.000000	14.234200
1933.000000	14.245800
1932.000000	14.292700
1931.000000	14.311500
1930.000000	14.365200
1929.000000	14.435900
1928.000000	14.517200
1927.000000	14.576000
1926.000000	14.643800
1925.000000	14.747400
1924.000000	14.845500
1923.000000	14.936200
1922.000000	15.071400
1921.000000	15.217000
1920.000000	15.344300
1919.000000	15.494100
1918.000000	15.659000
1917.000000	15.834600
1916.000000	16.006200
1915.000000	16.183900
1914.000000	16.413100
1913.000000	16.671000
1912.000000	16.921400
1911.000000	17.153100
1910.000000	17.411200
1909.000000	17.666700
1908.000000	17.931300
1907.000000	18.249200
1906.000000	18.616000
1905.000000	19.017700
1904.000000	19.419600
1903.000000	19.800500
1902.000000	20.221100
1901.000000	20.632500
1900.000000	21.101000
1899.000000	21.592400
1898.000000	22.100200
1897.000000	22.637800
1896.000000	23.126900
1895.000000	23.592100
1894.000000	24.102000
1893.000000	24.644100
1892.000000	25.233000
1891.000000	25.821200
1890.000000	26.390200
1889.000000	26.913400
1888.000000	27.478800
1887.000000	27.995300
1886.000000	28.507000
1885.000000	29.013500
1884.000000	29.549800
1883.000000	30.037900
1882.000000	30.497200
1881.000000	30.925600
1880.000000	31.330200
1879.000000	31.734200
1878.000000	32.111500
1877.000000	32.495000
1876.000000	32.864900
1875.000000	33.193100
1874.000000	33.516000
1873.000000	33.832200
1872.000000	34.119300
1871.000000	34.382300
1870.000000	34.586700
1869.000000	34.783400
1868.000000	34.981800
1867.000000	35.121000
1866.000000	35.241900
1865.000000	35.378700
1864.000000	35.520400
1863.000000	35.645300
1862.000000	35.784000
1861.000000	35.915200
1860.000000	36.038400
1859.000000	36.137800
1858.000000	36.212300
1857.000000	36.283300
1856.000000	36.349900
1855.000000	36.408600
1854.000000	36.446100
1853.000000	36.464300
1852.000000	36.487400
1851.000000	36.538000
1850.000000	36.621500
1849.000000	36.699300
1848.000000	36.700300
1847.000000	36.657500
1846.000000	36.582400
1845.000000	36.549600
1844.000000	36.582000
1843.000000	36.607000
1842.000000	36.650900
1841.000000	36.644500
1840.000000	36.584400
1839.000000	36.538500
1838.000000	36.513100
1837.000000	36.472700
1836.000000	36.409800
1835.000000	36.335000
1834.000000	36.262200
1833.000000	36.237300
1832.000000	36.222400
1831.000000	36.199400
1830.000000	36.183600
1829.000000	36.143800
1828.000000	36.078600
1827.000000	36.047300
1826.000000	36.024800
1825.000000	35.977100
1824.000000	35.947200
1823.000000	35.973900
1822.000000	36.024000
1821.000000	36.035900
1820.000000	36.003700
1819.000000	35.944100
1818.000000	35.910700
1817.000000	35.919900
1816.000000	35.915400
1815.000000	35.897100
1814.000000	35.879600
1813.000000	35.872800
1812.000000	35.849800
1811.000000	35.813100
1810.000000	35.778500
1809.000000	35.756100
1808.000000	35.740600
1807.000000	35.719900
1806.000000	35.685500
1805.000000	35.647000
1804.000000	35.622800
1803.000000	35.627900
1802.000000	35.628300
1801.000000	35.593000
1800.000000	35.545200
1799.000000	35.520000
1798.000000	35.502000
1797.000000	35.486600
1796.000000	35.472100
1795.000000	35.461100
1794.000000	35.444400
1793.000000	35.424600
1792.000000	35.407000
1791.000000	35.389500
1790.000000	35.381600
1789.000000	35.386100
1788.000000	35.394000
1787.000000	35.415500
1786.000000	35.414000
1785.000000	35.419100
1784.000000	35.412900
1783.000000	35.419600
1782.000000	35.419300
1781.000000	35.420900
1780.000000	35.420100
1779.000000	35.400200
1778.000000	35.372900
1777.000000	35.369600
1776.000000	35.342400
1775.000000	35.319100
1774.000000	35.297800
1773.000000	35.261300
1772.000000	35.240100
1771.000000	35.211600
1770.000000	35.191600
1769.000000	35.157600
1768.000000	35.141700
1767.000000	35.114100
1766.000000	35.095100
1765.000000	35.063200
1764.000000	35.045000
1763.000000	35.034100
1762.000000	35.031600
1761.000000	35.015500
1760.000000	35.010100
1759.000000	35.008900
1758.000000	35.023800
1757.000000	35.031600
1756.000000	35.029400
1755.000000	35.030700
1754.000000	35.044100
1753.000000	35.029200
1752.000000	35.023400
1751.000000	35.013000
1750.000000	34.989700
1749.000000	34.969900
1748.000000	34.923400
1747.000000	34.891100
1746.000000	34.847500
1745.000000	34.807700
1744.000000	34.719900
1743.000000	34.655800
1742.000000	34.604600
1741.000000	34.533800
1740.000000	34.488300
1739.000000	34.407200
1738.000000	34.345700
1737.000000	34.266800
1736.000000	34.211400
1735.000000	34.179300
1734.000000	34.131400
1733.000000	34.079300
1732.000000	34.028000
1731.000000	33.986900
1730.000000	33.948300
1729.000000	33.894300
1728.000000	33.860800
1727.000000	33.820300
1726.000000	33.793300
1725.000000	33.755600
1724.000000	33.766500
1723.000000	33.780200
1722.000000	33.846800
1721.000000	33.923600
1720.000000	34.054200
1719.000000	34.213000
1718.000000	34.379200
1717.000000	34.563100
1716.000000	34.757000
1715.000000	34.938900
1714.000000	35.110600
1713.000000	35.279600
1712.000000	35.442700
1711.000000	35.543300
1710.000000	35.667000
1709.000000	35.757800
1708.000000	35.853900
1707.000000	35.928000
1706.000000	35.992200
1705.000000	36.037200
1704.000000	36.069900
1703.000000	36.100100
1702.000000	36.094200
1701.000000	36.125400
1700.000000	36.115600
1699.000000	36.114500
1698.000000	36.109400
1697.000000	36.084000
1696.000000	36.065600
1695.000000	36.036000
1694.000000	35.997700
1693.000000	35.923300
1692.000000	35.855200
1691.000000	35.788900
1690.000000	35.733500
1689.000000	35.693900
1688.000000	35.689600
1687.000000	35.757400
1686.000000	35.830600
1685.000000	35.949400
1684.000000	36.095400
1683.000000	36.284300
1682.000000	36.475000
1681.000000	36.682800
1680.000000	36.878100
1679.000000	37.073300
1678.000000	37.274600
1677.000000	37.450700
1676.000000	37.596400
1675.000000	37.758500
1674.000000	37.910900
1673.000000	38.094700
1672.000000	38.253100
1671.000000	38.408400
1670.000000	38.583200
1669.000000	38.739400
1668.000000	38.889600
1667.000000	39.035000
1666.000000	39.161900
1665.000000	39.320500
1664.000000	39.451800
1663.000000	39.591500
1662.000000	39.702400
1661.000000	39.812100
1660.000000	39.931000
1659.000000	39.996800
1658.000000	40.093100
1657.000000	40.163400
1656.000000	40.231500
1655.000000	40.287400
1654.000000	40.326200
1653.000000	40.370900
1652.000000	40.400600
1651.000000	40.416000
1650.000000	40.420300
1649.000000	40.422100
1648.000000	40.435500
1647.000000	40.431700
1646.000000	40.421600
1645.000000	40.421100
1644.000000	40.409600
1643.000000	40.396800
1642.000000	40.385700
1641.000000	40.376400
1640.000000	40.366300
1639.000000	40.354600
1638.000000	40.342500
1637.000000	40.300700
1636.000000	40.277600
1635.000000	40.256400
1634.000000	40.225000
1633.000000	40.196000
1632.000000	40.155800
1631.000000	40.113600
1630.000000	40.073900
1629.000000	40.023200
1628.000000	39.988200
1627.000000	39.941300
1626.000000	39.892800
1625.000000	39.834000
1624.000000	39.798600
1623.000000	39.741000
