PE UV       SUBTECH     SPECTRUM    ASCII       PEDS        4.00        
   -1
CICIMAUCR0014-3.Sample.ASC
24/04/04
11:17:51.00
24/04/04
11:17:51.00
Vinicio Soto Monge
C. cupreomarginata
250,000000
1
Lambda 1050
1050L1511233
PerkinElmer UV WinLab 6.3.2.0749 / 2.02.05 Lambda 900 UV/VIS/NIR, Aug  7 2015 09:38:08

0
0
3350/servo 860,8/2
0
0
UV/VIS
1
1
1
DoubleDePol,CommonBeamDepol,RBeamAtt,SBeamAtt,60mm sphere, WB InGaAs Detector
0
0
0
0
Program
Program
3350/servo 860,8/2
3350/0,2 860,8/0,2
3350/0,2 860,8/0,2
0
15.00
 
 
 
0
 
860,8
319,2
860,8
Front
100
on
S:100 R:100
0
0
0
0
 
0
 
 
 
0
 
 
0
0
0
0
0
 
 
 
 
0
0


0
0
#HDR
-1
-1
#GR
nm
%R
1.0
0.0
2500,000000
-1,000000
2251
8
67,923300
5,031600
#DATA
2500.000000	11.586300
2499.000000	11.505600
2498.000000	11.475700
2497.000000	11.502700
2496.000000	11.529900
2495.000000	11.477600
2494.000000	11.525700
2493.000000	11.584600
2492.000000	11.506300
2491.000000	11.590600
2490.000000	11.499500
2489.000000	11.501200
2488.000000	11.503000
2487.000000	11.617900
2486.000000	11.586000
2485.000000	11.620700
2484.000000	11.655700
2483.000000	11.646200
2482.000000	11.673300
2481.000000	11.652300
2480.000000	11.713400
2479.000000	11.748600
2478.000000	11.802000
2477.000000	11.796600
2476.000000	11.845700
2475.000000	11.853400
2474.000000	11.924900
2473.000000	11.955000
2472.000000	12.014900
2471.000000	12.051900
2470.000000	12.108600
2469.000000	12.155400
2468.000000	12.145900
2467.000000	12.214200
2466.000000	12.295700
2465.000000	12.370800
2464.000000	12.417700
2463.000000	12.477600
2462.000000	12.542900
2461.000000	12.623900
2460.000000	12.709000
2459.000000	12.808300
2458.000000	12.848300
2457.000000	12.959100
2456.000000	13.067100
2455.000000	13.179700
2454.000000	13.261800
2453.000000	13.373500
2452.000000	13.479400
2451.000000	13.599400
2450.000000	13.713000
2449.000000	13.840100
2448.000000	13.958100
2447.000000	14.073500
2446.000000	14.179300
2445.000000	14.304600
2444.000000	14.422500
2443.000000	14.540500
2442.000000	14.663100
2441.000000	14.774500
2440.000000	14.898700
2439.000000	15.030600
2438.000000	15.148600
2437.000000	15.276100
2436.000000	15.391700
2435.000000	15.487300
2434.000000	15.597000
2433.000000	15.710500
2432.000000	15.812800
2431.000000	15.919400
2430.000000	16.029300
2429.000000	16.132400
2428.000000	16.220800
2427.000000	16.329000
2426.000000	16.411600
2425.000000	16.494800
2424.000000	16.598900
2423.000000	16.687200
2422.000000	16.779600
2421.000000	16.871000
2420.000000	16.952900
2419.000000	17.037000
2418.000000	17.124000
2417.000000	17.196800
2416.000000	17.267200
2415.000000	17.317800
2414.000000	17.396500
2413.000000	17.456500
2412.000000	17.519600
2411.000000	17.576500
2410.000000	17.623600
2409.000000	17.695100
2408.000000	17.747800
2407.000000	17.776900
2406.000000	17.827100
2405.000000	17.884600
2404.000000	17.934200
2403.000000	17.975000
2402.000000	18.004800
2401.000000	18.041800
2400.000000	18.090700
2399.000000	18.133400
2398.000000	18.159800
2397.000000	18.183000
2396.000000	18.207400
2395.000000	18.242600
2394.000000	18.280500
2393.000000	18.306100
2392.000000	18.321100
2391.000000	18.340100
2390.000000	18.342400
2389.000000	18.356400
2388.000000	18.364000
2387.000000	18.358900
2386.000000	18.379500
2385.000000	18.374500
2384.000000	18.358000
2383.000000	18.355000
2382.000000	18.343900
2381.000000	18.329700
2380.000000	18.318600
2379.000000	18.305600
2378.000000	18.272500
2377.000000	18.245200
2376.000000	18.225300
2375.000000	18.215500
2374.000000	18.172300
2373.000000	18.132300
2372.000000	18.101200
2371.000000	18.069500
2370.000000	18.042800
2369.000000	18.010700
2368.000000	17.970600
2367.000000	17.932600
2366.000000	17.883600
2365.000000	17.847600
2364.000000	17.825500
2363.000000	17.786500
2362.000000	17.728000
2361.000000	17.682800
2360.000000	17.641600
2359.000000	17.600200
2358.000000	17.548700
2357.000000	17.503800
2356.000000	17.483400
2355.000000	17.449900
2354.000000	17.421700
2353.000000	17.377300
2352.000000	17.360400
2351.000000	17.360000
2350.000000	17.346100
2349.000000	17.319300
2348.000000	17.307900
2347.000000	17.321600
2346.000000	17.329500
2345.000000	17.328600
2344.000000	17.326200
2343.000000	17.329500
2342.000000	17.320600
2341.000000	17.317400
2340.000000	17.310100
2339.000000	17.310500
2338.000000	17.295300
2337.000000	17.273700
2336.000000	17.267200
2335.000000	17.249100
2334.000000	17.208800
2333.000000	17.178300
2332.000000	17.162300
2331.000000	17.142200
2330.000000	17.097500
2329.000000	17.071200
2328.000000	17.039600
2327.000000	16.999300
2326.000000	16.947300
2325.000000	16.901000
2324.000000	16.850400
2323.000000	16.791100
2322.000000	16.732700
2321.000000	16.663000
2320.000000	16.604000
2319.000000	16.516200
2318.000000	16.432400
2317.000000	16.335900
2316.000000	16.239600
2315.000000	16.144300
2314.000000	16.028800
2313.000000	15.923300
2312.000000	15.823100
2311.000000	15.726100
2310.000000	15.634000
2309.000000	15.565800
2308.000000	15.497000
2307.000000	15.439200
2306.000000	15.386200
2305.000000	15.346000
2304.000000	15.333100
2303.000000	15.323400
2302.000000	15.311500
2301.000000	15.323200
2300.000000	15.339900
2299.000000	15.337800
2298.000000	15.358200
2297.000000	15.379200
2296.000000	15.389400
2295.000000	15.390600
2294.000000	15.412200
2293.000000	15.424300
2292.000000	15.394200
2291.000000	15.398000
2290.000000	15.403300
2289.000000	15.361000
2288.000000	15.345700
2287.000000	15.300300
2286.000000	15.298700
2285.000000	15.256100
2284.000000	15.204100
2283.000000	15.139800
2282.000000	15.088300
2281.000000	15.035600
2280.000000	14.973500
2279.000000	14.929700
2278.000000	14.852700
2277.000000	14.780500
2276.000000	14.730500
2275.000000	14.679500
2274.000000	14.623600
2273.000000	14.574000
2272.000000	14.541800
2271.000000	14.496200
2270.000000	14.478800
2269.000000	14.457900
2268.000000	14.457600
2267.000000	14.473000
2266.000000	14.505600
2265.000000	14.540400
2264.000000	14.615500
2263.000000	14.662900
2262.000000	14.760300
2261.000000	14.865400
2260.000000	14.967500
2259.000000	15.076600
2258.000000	15.199100
2257.000000	15.330600
2256.000000	15.460500
2255.000000	15.602700
2254.000000	15.730700
2253.000000	15.858400
2252.000000	15.997500
2251.000000	16.115100
2250.000000	16.249700
2249.000000	16.343500
2248.000000	16.463000
2247.000000	16.572100
2246.000000	16.662500
2245.000000	16.744400
2244.000000	16.835200
2243.000000	16.895200
2242.000000	16.975200
2241.000000	17.035200
2240.000000	17.072700
2239.000000	17.100200
2238.000000	17.152200
2237.000000	17.137600
2236.000000	17.166900
2235.000000	17.158600
2234.000000	17.163200
2233.000000	17.125200
2232.000000	17.089500
2231.000000	17.048400
2230.000000	16.969000
2229.000000	16.924300
2228.000000	16.837900
2227.000000	16.742100
2226.000000	16.638800
2225.000000	16.538800
2224.000000	16.431300
2223.000000	16.296000
2222.000000	16.169700
2221.000000	16.033600
2220.000000	15.893000
2219.000000	15.759300
2218.000000	15.636600
2217.000000	15.498600
2216.000000	15.368500
2215.000000	15.283300
2214.000000	15.185100
2213.000000	15.090900
2212.000000	15.066200
2211.000000	15.029900
2210.000000	15.021600
2209.000000	15.037100
2208.000000	15.082100
2207.000000	15.151800
2206.000000	15.244200
2205.000000	15.378600
2204.000000	15.555100
2203.000000	15.707200
2202.000000	15.895700
2201.000000	16.107200
2200.000000	16.324900
2199.000000	16.562200
2198.000000	16.797000
2197.000000	17.035300
2196.000000	17.280200
2195.000000	17.499600
2194.000000	17.693000
2193.000000	17.914500
2192.000000	18.103600
2191.000000	18.290000
2190.000000	18.457100
2189.000000	18.612700
2188.000000	18.751600
2187.000000	18.889400
2186.000000	19.017300
2185.000000	19.108100
2184.000000	19.187100
2183.000000	19.265300
2182.000000	19.347900
2181.000000	19.404500
2180.000000	19.457400
2179.000000	19.513100
2178.000000	19.569200
2177.000000	19.614600
2176.000000	19.659400
2175.000000	19.700000
2174.000000	19.734900
2173.000000	19.795300
2172.000000	19.853300
2171.000000	19.904500
2170.000000	19.940200
2169.000000	20.020700
2168.000000	20.079400
2167.000000	20.130300
2166.000000	20.179900
2165.000000	20.263000
2164.000000	20.323500
2163.000000	20.385600
2162.000000	20.463800
2161.000000	20.548400
2160.000000	20.623200
2159.000000	20.718300
2158.000000	20.810300
2157.000000	20.909700
2156.000000	21.004100
2155.000000	21.122300
2154.000000	21.234500
2153.000000	21.343700
2152.000000	21.457600
2151.000000	21.584100
2150.000000	21.703700
2149.000000	21.828700
2148.000000	21.935700
2147.000000	22.058000
2146.000000	22.170800
2145.000000	22.292900
2144.000000	22.403100
2143.000000	22.519200
2142.000000	22.636900
2141.000000	22.769400
2140.000000	22.876600
2139.000000	22.961800
2138.000000	23.068600
2137.000000	23.166700
2136.000000	23.263500
2135.000000	23.364900
2134.000000	23.445000
2133.000000	23.534600
2132.000000	23.615200
2131.000000	23.688600
2130.000000	23.756300
2129.000000	23.819200
2128.000000	23.881200
2127.000000	23.937600
2126.000000	23.988000
2125.000000	24.039000
2124.000000	24.082900
2123.000000	24.116500
2122.000000	24.150000
2121.000000	24.186500
2120.000000	24.216200
2119.000000	24.238200
2118.000000	24.270500
2117.000000	24.284600
2116.000000	24.291600
2115.000000	24.303700
2114.000000	24.312900
2113.000000	24.324400
2112.000000	24.323400
2111.000000	24.319200
2110.000000	24.334900
2109.000000	24.333000
2108.000000	24.318300
2107.000000	24.320200
2106.000000	24.318800
2105.000000	24.314300
2104.000000	24.304500
2103.000000	24.291800
2102.000000	24.295900
2101.000000	24.293100
2100.000000	24.279400
2099.000000	24.273400
2098.000000	24.266800
2097.000000	24.260600
2096.000000	24.259300
2095.000000	24.269500
2094.000000	24.272400
2093.000000	24.267000
2092.000000	24.270800
2091.000000	24.290100
2090.000000	24.293800
2089.000000	24.294000
2088.000000	24.293100
2087.000000	24.295400
2086.000000	24.295000
2085.000000	24.287000
2084.000000	24.261000
2083.000000	24.219700
2082.000000	24.193200
2081.000000	24.152900
2080.000000	24.107600
2079.000000	24.062000
2078.000000	24.008200
2077.000000	23.941900
2076.000000	23.866600
2075.000000	23.808600
2074.000000	23.743400
2073.000000	23.654100
2072.000000	23.570100
2071.000000	23.479500
2070.000000	23.394800
2069.000000	23.313700
2068.000000	23.208600
2067.000000	23.106900
2066.000000	23.029200
2065.000000	22.943400
2064.000000	22.842000
2063.000000	22.749600
2062.000000	22.668500
2061.000000	22.607100
2060.000000	22.549300
2059.000000	22.495700
2058.000000	22.462200
2057.000000	22.445200
2056.000000	22.438700
2055.000000	22.438600
2054.000000	22.466300
2053.000000	22.515400
2052.000000	22.571700
2051.000000	22.661800
2050.000000	22.766000
2049.000000	22.885900
2048.000000	23.025800
2047.000000	23.175300
2046.000000	23.344800
2045.000000	23.519700
2044.000000	23.687600
2043.000000	23.857300
2042.000000	24.064200
2041.000000	24.233400
2040.000000	24.409400
2039.000000	24.582400
2038.000000	24.745600
2037.000000	24.909000
2036.000000	25.070600
2035.000000	25.235600
2034.000000	25.362800
2033.000000	25.493700
2032.000000	25.627500
2031.000000	25.770300
2030.000000	25.875500
2029.000000	25.985700
2028.000000	26.081000
2027.000000	26.167000
2026.000000	26.283500
2025.000000	26.380400
2024.000000	26.462100
2023.000000	26.527300
2022.000000	26.607400
2021.000000	26.688400
2020.000000	26.758900
2019.000000	26.813900
2018.000000	26.867400
2017.000000	26.913100
2016.000000	26.973800
2015.000000	27.016100
2014.000000	27.045500
2013.000000	27.081700
2012.000000	27.090300
2011.000000	27.125200
2010.000000	27.153100
2009.000000	27.142900
2008.000000	27.142200
2007.000000	27.162400
2006.000000	27.132000
2005.000000	27.129100
2004.000000	27.108500
2003.000000	27.091600
2002.000000	27.061200
2001.000000	27.002000
2000.000000	26.961500
1999.000000	26.926600
1998.000000	26.883500
1997.000000	26.816900
1996.000000	26.762500
1995.000000	26.720200
1994.000000	26.658400
1993.000000	26.567000
1992.000000	26.489100
1991.000000	26.425500
1990.000000	26.360700
1989.000000	26.282500
1988.000000	26.180200
1987.000000	26.096500
1986.000000	26.025300
1985.000000	25.930900
1984.000000	25.820500
1983.000000	25.745700
1982.000000	25.661400
1981.000000	25.557300
1980.000000	25.476200
1979.000000	25.380900
1978.000000	25.276700
1977.000000	25.208600
1976.000000	25.112800
1975.000000	25.033700
1974.000000	24.978100
1973.000000	24.863200
1972.000000	24.794600
1971.000000	24.706400
1970.000000	24.638700
1969.000000	24.557200
1968.000000	24.462400
1967.000000	24.393300
1966.000000	24.317500
1965.000000	24.270100
1964.000000	24.161000
1963.000000	24.100400
1962.000000	24.007700
1961.000000	23.919700
1960.000000	23.851900
1959.000000	23.759400
1958.000000	23.666400
1957.000000	23.610000
1956.000000	23.512500
1955.000000	23.433000
1954.000000	23.347400
1953.000000	23.259600
1952.000000	23.152000
1951.000000	23.098100
1950.000000	23.032400
1949.000000	22.994300
1948.000000	22.935300
1947.000000	22.861200
1946.000000	22.781800
1945.000000	22.739900
1944.000000	22.680600
1943.000000	22.652100
1942.000000	22.658800
1941.000000	22.625000
1940.000000	22.584700
1939.000000	22.579400
1938.000000	22.580900
1937.000000	22.571100
1936.000000	22.594500
1935.000000	22.624500
1934.000000	22.670300
1933.000000	22.724300
1932.000000	22.783400
1931.000000	22.851700
1930.000000	22.935900
1929.000000	23.030700
1928.000000	23.135200
1927.000000	23.233600
1926.000000	23.348000
1925.000000	23.514200
1924.000000	23.642000
1923.000000	23.807200
1922.000000	23.973400
1921.000000	24.184700
1920.000000	24.349800
1919.000000	24.547400
1918.000000	24.770500
1917.000000	24.999700
1916.000000	25.233400
1915.000000	25.502400
1914.000000	25.782600
1913.000000	26.050800
1912.000000	26.325900
1911.000000	26.615400
1910.000000	26.922100
1909.000000	27.215400
1908.000000	27.530000
1907.000000	27.928200
1906.000000	28.315600
1905.000000	28.709200
1904.000000	29.105100
1903.000000	29.495700
1902.000000	29.888600
1901.000000	30.287900
1900.000000	30.751200
1899.000000	31.159600
1898.000000	31.585200
1897.000000	32.057700
1896.000000	32.483700
1895.000000	32.911400
1894.000000	33.335200
1893.000000	33.793600
1892.000000	34.293000
1891.000000	34.772700
1890.000000	35.205200
1889.000000	35.611600
1888.000000	36.079000
1887.000000	36.489400
1886.000000	36.913500
1885.000000	37.353200
1884.000000	37.776600
1883.000000	38.176800
1882.000000	38.552000
1881.000000	38.920500
1880.000000	39.250100
1879.000000	39.599400
1878.000000	39.930000
1877.000000	40.206300
1876.000000	40.480600
1875.000000	40.758600
1874.000000	41.016300
1873.000000	41.233700
1872.000000	41.436500
1871.000000	41.600500
1870.000000	41.685000
1869.000000	41.784800
1868.000000	41.889700
1867.000000	41.950000
1866.000000	42.005100
1865.000000	42.084500
1864.000000	42.180600
1863.000000	42.266900
1862.000000	42.365000
1861.000000	42.437200
1860.000000	42.494600
1859.000000	42.539100
1858.000000	42.563300
1857.000000	42.590400
1856.000000	42.618900
1855.000000	42.649400
1854.000000	42.633100
1853.000000	42.589200
1852.000000	42.597900
1851.000000	42.652600
1850.000000	42.698600
1849.000000	42.725300
1848.000000	42.689300
1847.000000	42.592800
1846.000000	42.518400
1845.000000	42.483600
1844.000000	42.484500
1843.000000	42.531200
1842.000000	42.548500
1841.000000	42.507000
1840.000000	42.453200
1839.000000	42.412000
1838.000000	42.374100
1837.000000	42.304500
1836.000000	42.229100
1835.000000	42.145800
1834.000000	42.072400
1833.000000	42.035700
1832.000000	42.022800
1831.000000	41.986900
1830.000000	41.925500
1829.000000	41.881000
1828.000000	41.813700
1827.000000	41.739500
1826.000000	41.695600
1825.000000	41.660600
1824.000000	41.666200
1823.000000	41.712100
1822.000000	41.746700
1821.000000	41.737000
1820.000000	41.685800
1819.000000	41.641200
1818.000000	41.627800
1817.000000	41.622100
1816.000000	41.620600
1815.000000	41.604500
1814.000000	41.595100
1813.000000	41.590900
1812.000000	41.579700
1811.000000	41.531100
1810.000000	41.482200
1809.000000	41.464900
1808.000000	41.443200
1807.000000	41.411700
1806.000000	41.369900
1805.000000	41.325500
1804.000000	41.300200
1803.000000	41.298000
1802.000000	41.283100
1801.000000	41.222700
1800.000000	41.163800
1799.000000	41.133800
1798.000000	41.117500
1797.000000	41.084400
1796.000000	41.061000
1795.000000	41.023300
1794.000000	40.989600
1793.000000	40.971600
1792.000000	40.936800
1791.000000	40.890200
1790.000000	40.860800
1789.000000	40.847200
1788.000000	40.838500
1787.000000	40.806300
1786.000000	40.778700
1785.000000	40.752300
1784.000000	40.712100
1783.000000	40.687400
1782.000000	40.638600
1781.000000	40.592000
1780.000000	40.551700
1779.000000	40.496100
1778.000000	40.430700
1777.000000	40.350500
1776.000000	40.272800
1775.000000	40.191800
1774.000000	40.101500
1773.000000	40.015400
1772.000000	39.930300
1771.000000	39.841000
1770.000000	39.749700
1769.000000	39.669600
1768.000000	39.595900
1767.000000	39.517200
1766.000000	39.450600
1765.000000	39.379800
1764.000000	39.345600
1763.000000	39.321300
1762.000000	39.286700
1761.000000	39.270300
1760.000000	39.252400
1759.000000	39.258100
1758.000000	39.254300
1757.000000	39.247700
1756.000000	39.229900
1755.000000	39.205000
1754.000000	39.193900
1753.000000	39.153700
1752.000000	39.115700
1751.000000	39.066400
1750.000000	38.994800
1749.000000	38.928800
1748.000000	38.849600
1747.000000	38.747500
1746.000000	38.648800
1745.000000	38.547400
1744.000000	38.413700
1743.000000	38.272800
1742.000000	38.146000
1741.000000	37.989200
1740.000000	37.843300
1739.000000	37.725400
1738.000000	37.608800
1737.000000	37.494600
1736.000000	37.423700
1735.000000	37.367400
1734.000000	37.340400
1733.000000	37.318800
1732.000000	37.314500
1731.000000	37.315600
1730.000000	37.330500
1729.000000	37.341100
1728.000000	37.334400
1727.000000	37.349400
1726.000000	37.362900
1725.000000	37.361800
1724.000000	37.380000
1723.000000	37.414900
1722.000000	37.460700
1721.000000	37.548800
1720.000000	37.649200
1719.000000	37.778000
1718.000000	37.935400
1717.000000	38.066800
1716.000000	38.230700
1715.000000	38.396200
1714.000000	38.508400
1713.000000	38.643600
1712.000000	38.715900
1711.000000	38.790200
1710.000000	38.863800
1709.000000	38.906000
1708.000000	38.944500
1707.000000	38.972200
1706.000000	38.985200
1705.000000	38.953300
1704.000000	38.939600
1703.000000	38.874200
1702.000000	38.813300
1701.000000	38.740200
1700.000000	38.676000
1699.000000	38.606000
1698.000000	38.535000
1697.000000	38.496000
1696.000000	38.458900
1695.000000	38.456200
1694.000000	38.436300
1693.000000	38.424700
1692.000000	38.447000
1691.000000	38.470600
1690.000000	38.476200
1689.000000	38.532700
1688.000000	38.567400
1687.000000	38.655800
1686.000000	38.772600
1685.000000	38.930700
1684.000000	39.133600
1683.000000	39.387700
1682.000000	39.671000
1681.000000	40.007500
1680.000000	40.335600
1679.000000	40.667400
1678.000000	40.972300
1677.000000	41.275600
1676.000000	41.555400
1675.000000	41.814600
1674.000000	42.030400
1673.000000	42.276100
1672.000000	42.489800
1671.000000	42.693800
1670.000000	42.906400
1669.000000	43.107500
1668.000000	43.291500
1667.000000	43.431200
1666.000000	43.568200
1665.000000	43.696600
1664.000000	43.817000
1663.000000	43.945100
1662.000000	44.070900
1661.000000	44.181300
1660.000000	44.281700
1659.000000	44.372200
1658.000000	44.439100
1657.000000	44.489000
1656.000000	44.536400
1655.000000	44.565400
1654.000000	44.607400
1653.000000	44.622100
1652.000000	44.626800
1651.000000	44.638600
1650.000000	44.640300
1649.000000	44.642000
1648.000000	44.620200
1647.000000	44.595800
1646.000000	44.571900
1645.000000	44.566500
1644.000000	44.543100
1643.000000	44.506500
1642.000000	44.487200
1641.000000	44.476200
1640.000000	44.456100
1639.000000	44.429600
1638.000000	44.407800
1637.000000	44.375300
1636.000000	44.346900
1635.000000	44.332300
1634.000000	44.291300
1633.000000	44.245000
1632.000000	44.197800
1631.000000	44.149200
1630.000000	44.103000
1629.000000	44.057400
1628.000000	44.009900
1627.000000	43.953400
1626.000000	43.904500
1625.000000	43.858300
