PE UV       SUBTECH     SPECTRUM    ASCII       PEDS        4.00        
   -1
CICIMAUCR0141-3.Sample.ASC
24/04/04
11:43:11.00
24/04/04
11:43:11.00
Vinicio Soto Monge
C. kalinini
250,000000
1
Lambda 1050
1050L1511233
PerkinElmer UV WinLab 6.3.2.0749 / 2.02.05 Lambda 900 UV/VIS/NIR, Aug  7 2015 09:38:08

0
0
3350/servo 860,8/2
0
0
UV/VIS
1
1
1
DoubleDePol,CommonBeamDepol,RBeamAtt,SBeamAtt,60mm sphere, WB InGaAs Detector
0
0
0
0
Program
Program
3350/servo 860,8/2
3350/0,2 860,8/0,2
3350/0,2 860,8/0,2
0
15.00
 
 
 
0
 
860,8
319,2
860,8
Front
100
on
S:100 R:100
0
0
0
0
 
0
 
 
 
0
 
 
0
0
0
0
0
 
 
 
 
0
0


0
0
#HDR
-1
-1
#GR
nm
%R
1.0
0.0
2500,000000
-1,000000
2251
8
77,545500
5,529700
#DATA
2500.000000	6.789500
2499.000000	6.640300
2498.000000	6.695000
2497.000000	6.608200
2496.000000	6.652200
2495.000000	6.575200
2494.000000	6.585100
2493.000000	6.618500
2492.000000	6.659200
2491.000000	6.568400
2490.000000	6.620800
2489.000000	6.646200
2488.000000	6.631300
2487.000000	6.603200
2486.000000	6.620000
2485.000000	6.696900
2484.000000	6.602800
2483.000000	6.639900
2482.000000	6.638800
2481.000000	6.729900
2480.000000	6.701000
2479.000000	6.680200
2478.000000	6.730500
2477.000000	6.730800
2476.000000	6.760300
2475.000000	6.752900
2474.000000	6.749000
2473.000000	6.771600
2472.000000	6.826600
2471.000000	6.833400
2470.000000	6.898800
2469.000000	6.948100
2468.000000	6.884500
2467.000000	6.925200
2466.000000	6.992400
2465.000000	6.988900
2464.000000	7.017200
2463.000000	7.085300
2462.000000	7.106600
2461.000000	7.121200
2460.000000	7.179600
2459.000000	7.238600
2458.000000	7.266100
2457.000000	7.309900
2456.000000	7.357400
2455.000000	7.400000
2454.000000	7.454700
2453.000000	7.517600
2452.000000	7.559000
2451.000000	7.603000
2450.000000	7.651100
2449.000000	7.724200
2448.000000	7.796600
2447.000000	7.831000
2446.000000	7.918600
2445.000000	7.983600
2444.000000	8.050600
2443.000000	8.118300
2442.000000	8.184500
2441.000000	8.250100
2440.000000	8.328000
2439.000000	8.383100
2438.000000	8.465100
2437.000000	8.516100
2436.000000	8.580100
2435.000000	8.664100
2434.000000	8.716100
2433.000000	8.780500
2432.000000	8.858200
2431.000000	8.923900
2430.000000	8.990000
2429.000000	9.036900
2428.000000	9.114700
2427.000000	9.174300
2426.000000	9.239800
2425.000000	9.306400
2424.000000	9.353400
2423.000000	9.400400
2422.000000	9.447800
2421.000000	9.500100
2420.000000	9.557500
2419.000000	9.608200
2418.000000	9.630100
2417.000000	9.673600
2416.000000	9.720700
2415.000000	9.779900
2414.000000	9.823400
2413.000000	9.866800
2412.000000	9.892800
2411.000000	9.912100
2410.000000	9.953900
2409.000000	9.994700
2408.000000	10.013800
2407.000000	10.042100
2406.000000	10.063200
2405.000000	10.086300
2404.000000	10.102400
2403.000000	10.133100
2402.000000	10.153300
2401.000000	10.187500
2400.000000	10.208400
2399.000000	10.221700
2398.000000	10.254700
2397.000000	10.278600
2396.000000	10.290800
2395.000000	10.298700
2394.000000	10.305000
2393.000000	10.316300
2392.000000	10.329400
2391.000000	10.342300
2390.000000	10.348300
2389.000000	10.356900
2388.000000	10.366700
2387.000000	10.378500
2386.000000	10.382900
2385.000000	10.394500
2384.000000	10.394400
2383.000000	10.384000
2382.000000	10.381200
2381.000000	10.379200
2380.000000	10.365100
2379.000000	10.364700
2378.000000	10.366300
2377.000000	10.353500
2376.000000	10.347200
2375.000000	10.348000
2374.000000	10.332400
2373.000000	10.327600
2372.000000	10.309300
2371.000000	10.293900
2370.000000	10.301200
2369.000000	10.294800
2368.000000	10.286700
2367.000000	10.286400
2366.000000	10.280400
2365.000000	10.280900
2364.000000	10.273000
2363.000000	10.270400
2362.000000	10.269300
2361.000000	10.265500
2360.000000	10.272600
2359.000000	10.256500
2358.000000	10.227200
2357.000000	10.225000
2356.000000	10.233300
2355.000000	10.214800
2354.000000	10.184400
2353.000000	10.174400
2352.000000	10.169700
2351.000000	10.162600
2350.000000	10.147800
2349.000000	10.123600
2348.000000	10.101800
2347.000000	10.089100
2346.000000	10.082700
2345.000000	10.053700
2344.000000	10.050200
2343.000000	10.039700
2342.000000	10.009900
2341.000000	10.000900
2340.000000	10.010400
2339.000000	10.007900
2338.000000	9.979100
2337.000000	9.966700
2336.000000	9.975100
2335.000000	9.960000
2334.000000	9.952200
2333.000000	9.957000
2332.000000	9.956600
2331.000000	9.943200
2330.000000	9.953800
2329.000000	9.964500
2328.000000	9.968500
2327.000000	9.976900
2326.000000	9.983400
2325.000000	9.995300
2324.000000	10.010100
2323.000000	9.987200
2322.000000	9.968200
2321.000000	9.970200
2320.000000	9.978600
2319.000000	9.960700
2318.000000	9.938900
2317.000000	9.910700
2316.000000	9.900200
2315.000000	9.872100
2314.000000	9.819500
2313.000000	9.795900
2312.000000	9.761600
2311.000000	9.724000
2310.000000	9.690200
2309.000000	9.647200
2308.000000	9.593200
2307.000000	9.562800
2306.000000	9.524100
2305.000000	9.506300
2304.000000	9.480500
2303.000000	9.441000
2302.000000	9.416400
2301.000000	9.387300
2300.000000	9.364700
2299.000000	9.337900
2298.000000	9.318100
2297.000000	9.294700
2296.000000	9.291500
2295.000000	9.270800
2294.000000	9.244400
2293.000000	9.246400
2292.000000	9.217400
2291.000000	9.216800
2290.000000	9.220800
2289.000000	9.195400
2288.000000	9.187800
2287.000000	9.187000
2286.000000	9.161300
2285.000000	9.153300
2284.000000	9.148200
2283.000000	9.123800
2282.000000	9.107800
2281.000000	9.104200
2280.000000	9.091600
2279.000000	9.066800
2278.000000	9.062300
2277.000000	9.034500
2276.000000	9.018700
2275.000000	8.991300
2274.000000	8.972000
2273.000000	8.957700
2272.000000	8.926800
2271.000000	8.906000
2270.000000	8.880300
2269.000000	8.847800
2268.000000	8.826900
2267.000000	8.846100
2266.000000	8.832600
2265.000000	8.804200
2264.000000	8.807600
2263.000000	8.807000
2262.000000	8.815900
2261.000000	8.840300
2260.000000	8.870600
2259.000000	8.873200
2258.000000	8.938200
2257.000000	8.966800
2256.000000	9.017300
2255.000000	9.053600
2254.000000	9.082900
2253.000000	9.143000
2252.000000	9.192500
2251.000000	9.245600
2250.000000	9.315700
2249.000000	9.358600
2248.000000	9.393000
2247.000000	9.464700
2246.000000	9.511500
2245.000000	9.524600
2244.000000	9.550500
2243.000000	9.624000
2242.000000	9.650500
2241.000000	9.675600
2240.000000	9.673600
2239.000000	9.698600
2238.000000	9.712500
2237.000000	9.711600
2236.000000	9.719600
2235.000000	9.710500
2234.000000	9.687000
2233.000000	9.667900
2232.000000	9.647700
2231.000000	9.600200
2230.000000	9.562300
2229.000000	9.516300
2228.000000	9.443900
2227.000000	9.403800
2226.000000	9.322300
2225.000000	9.245200
2224.000000	9.168900
2223.000000	9.078300
2222.000000	9.007900
2221.000000	8.917500
2220.000000	8.827200
2219.000000	8.723500
2218.000000	8.663200
2217.000000	8.578700
2216.000000	8.503500
2215.000000	8.426000
2214.000000	8.364400
2213.000000	8.325900
2212.000000	8.302600
2211.000000	8.291100
2210.000000	8.249000
2209.000000	8.252200
2208.000000	8.282900
2207.000000	8.297000
2206.000000	8.323900
2205.000000	8.402300
2204.000000	8.491500
2203.000000	8.570400
2202.000000	8.672600
2201.000000	8.768200
2200.000000	8.891600
2199.000000	9.006700
2198.000000	9.096100
2197.000000	9.219300
2196.000000	9.344800
2195.000000	9.474700
2194.000000	9.576100
2193.000000	9.677000
2192.000000	9.762900
2191.000000	9.865100
2190.000000	9.948100
2189.000000	10.023400
2188.000000	10.088300
2187.000000	10.152800
2186.000000	10.200200
2185.000000	10.254000
2184.000000	10.307400
2183.000000	10.337800
2182.000000	10.375600
2181.000000	10.399000
2180.000000	10.427100
2179.000000	10.456700
2178.000000	10.472700
2177.000000	10.502900
2176.000000	10.514900
2175.000000	10.534700
2174.000000	10.581100
2173.000000	10.604700
2172.000000	10.640100
2171.000000	10.664700
2170.000000	10.701100
2169.000000	10.732500
2168.000000	10.770300
2167.000000	10.808700
2166.000000	10.840600
2165.000000	10.884300
2164.000000	10.937500
2163.000000	10.961300
2162.000000	11.009800
2161.000000	11.069800
2160.000000	11.130800
2159.000000	11.173500
2158.000000	11.251700
2157.000000	11.322100
2156.000000	11.379800
2155.000000	11.465100
2154.000000	11.538000
2153.000000	11.615100
2152.000000	11.699100
2151.000000	11.798600
2150.000000	11.880700
2149.000000	11.952200
2148.000000	12.035200
2147.000000	12.122800
2146.000000	12.215100
2145.000000	12.295000
2144.000000	12.383500
2143.000000	12.464100
2142.000000	12.533700
2141.000000	12.619000
2140.000000	12.708100
2139.000000	12.769400
2138.000000	12.848100
2137.000000	12.929000
2136.000000	12.998400
2135.000000	13.062600
2134.000000	13.135100
2133.000000	13.198300
2132.000000	13.249600
2131.000000	13.310200
2130.000000	13.372100
2129.000000	13.412100
2128.000000	13.460400
2127.000000	13.513100
2126.000000	13.548900
2125.000000	13.588500
2124.000000	13.633200
2123.000000	13.673700
2122.000000	13.704900
2121.000000	13.729500
2120.000000	13.769100
2119.000000	13.786900
2118.000000	13.797600
2117.000000	13.828100
2116.000000	13.844400
2115.000000	13.855600
2114.000000	13.868100
2113.000000	13.872300
2112.000000	13.895500
2111.000000	13.906300
2110.000000	13.897700
2109.000000	13.905000
2108.000000	13.919400
2107.000000	13.922900
2106.000000	13.921200
2105.000000	13.910400
2104.000000	13.904100
2103.000000	13.907200
2102.000000	13.910800
2101.000000	13.922700
2100.000000	13.923800
2099.000000	13.920300
2098.000000	13.918900
2097.000000	13.927200
2096.000000	13.942800
2095.000000	13.950000
2094.000000	13.953900
2093.000000	13.973900
2092.000000	13.989000
2091.000000	13.991100
2090.000000	14.000500
2089.000000	14.008200
2088.000000	14.017200
2087.000000	14.026100
2086.000000	14.024500
2085.000000	14.021200
2084.000000	14.013400
2083.000000	14.000600
2082.000000	13.970800
2081.000000	13.945200
2080.000000	13.923000
2079.000000	13.882900
2078.000000	13.854700
2077.000000	13.816400
2076.000000	13.761000
2075.000000	13.702600
2074.000000	13.641000
2073.000000	13.581300
2072.000000	13.505700
2071.000000	13.434900
2070.000000	13.381300
2069.000000	13.306300
2068.000000	13.198300
2067.000000	13.110700
2066.000000	13.027300
2065.000000	12.950500
2064.000000	12.868000
2063.000000	12.781500
2062.000000	12.707700
2061.000000	12.632900
2060.000000	12.561400
2059.000000	12.502900
2058.000000	12.454500
2057.000000	12.417200
2056.000000	12.353500
2055.000000	12.317800
2054.000000	12.310800
2053.000000	12.314300
2052.000000	12.334700
2051.000000	12.358800
2050.000000	12.388500
2049.000000	12.436700
2048.000000	12.518400
2047.000000	12.590700
2046.000000	12.667700
2045.000000	12.738700
2044.000000	12.835200
2043.000000	12.950000
2042.000000	13.047400
2041.000000	13.127900
2040.000000	13.222200
2039.000000	13.323800
2038.000000	13.426400
2037.000000	13.500400
2036.000000	13.604200
2035.000000	13.676400
2034.000000	13.764400
2033.000000	13.846100
2032.000000	13.919000
2031.000000	13.995400
2030.000000	14.055200
2029.000000	14.112600
2028.000000	14.174700
2027.000000	14.247100
2026.000000	14.309100
2025.000000	14.356300
2024.000000	14.409000
2023.000000	14.444300
2022.000000	14.506600
2021.000000	14.541900
2020.000000	14.589100
2019.000000	14.628400
2018.000000	14.650200
2017.000000	14.695900
2016.000000	14.733500
2015.000000	14.770300
2014.000000	14.777800
2013.000000	14.801200
2012.000000	14.813400
2011.000000	14.860900
2010.000000	14.839200
2009.000000	14.837500
2008.000000	14.843900
2007.000000	14.842600
2006.000000	14.841300
2005.000000	14.821600
2004.000000	14.795000
2003.000000	14.800400
2002.000000	14.774000
2001.000000	14.757100
2000.000000	14.699900
1999.000000	14.673600
1998.000000	14.639500
1997.000000	14.599700
1996.000000	14.577700
1995.000000	14.520400
1994.000000	14.468000
1993.000000	14.431400
1992.000000	14.390700
1991.000000	14.324900
1990.000000	14.275900
1989.000000	14.225700
1988.000000	14.168100
1987.000000	14.119000
1986.000000	14.053500
1985.000000	13.986100
1984.000000	13.926900
1983.000000	13.858200
1982.000000	13.802400
1981.000000	13.757000
1980.000000	13.696700
1979.000000	13.609000
1978.000000	13.583100
1977.000000	13.501700
1976.000000	13.447000
1975.000000	13.391300
1974.000000	13.311400
1973.000000	13.281700
1972.000000	13.204400
1971.000000	13.147500
1970.000000	13.092200
1969.000000	13.042600
1968.000000	12.982200
1967.000000	12.917200
1966.000000	12.871800
1965.000000	12.803400
1964.000000	12.766100
1963.000000	12.693200
1962.000000	12.622800
1961.000000	12.574800
1960.000000	12.501300
1959.000000	12.451900
1958.000000	12.375000
1957.000000	12.335100
1956.000000	12.255500
1955.000000	12.198900
1954.000000	12.139800
1953.000000	12.093000
1952.000000	12.012400
1951.000000	11.934900
1950.000000	11.892300
1949.000000	11.848200
1948.000000	11.798600
1947.000000	11.742400
1946.000000	11.697000
1945.000000	11.637800
1944.000000	11.610600
1943.000000	11.583300
1942.000000	11.553200
1941.000000	11.512900
1940.000000	11.486800
1939.000000	11.477500
1938.000000	11.467000
1937.000000	11.450000
1936.000000	11.437600
1935.000000	11.430700
1934.000000	11.428800
1933.000000	11.446200
1932.000000	11.464600
1931.000000	11.495900
1930.000000	11.521200
1929.000000	11.570300
1928.000000	11.620100
1927.000000	11.661400
1926.000000	11.733200
1925.000000	11.792000
1924.000000	11.854600
1923.000000	11.926400
1922.000000	12.029200
1921.000000	12.168700
1920.000000	12.281500
1919.000000	12.389500
1918.000000	12.517200
1917.000000	12.636100
1916.000000	12.753000
1915.000000	12.893900
1914.000000	13.105600
1913.000000	13.327900
1912.000000	13.549800
1911.000000	13.760500
1910.000000	13.961900
1909.000000	14.132200
1908.000000	14.371400
1907.000000	14.669000
1906.000000	14.993000
1905.000000	15.377100
1904.000000	15.733600
1903.000000	16.053500
1902.000000	16.410500
1901.000000	16.784600
1900.000000	17.219300
1899.000000	17.684200
1898.000000	18.145400
1897.000000	18.614400
1896.000000	18.989700
1895.000000	19.383100
1894.000000	19.831100
1893.000000	20.298200
1892.000000	20.839000
1891.000000	21.370400
1890.000000	21.860300
1889.000000	22.304900
1888.000000	22.751800
1887.000000	23.186700
1886.000000	23.598400
1885.000000	24.038300
1884.000000	24.489000
1883.000000	24.865500
1882.000000	25.222900
1881.000000	25.570200
1880.000000	25.858200
1879.000000	26.156600
1878.000000	26.456500
1877.000000	26.757600
1876.000000	27.022500
1875.000000	27.282400
1874.000000	27.540600
1873.000000	27.776800
1872.000000	28.008500
1871.000000	28.209400
1870.000000	28.394600
1869.000000	28.577500
1868.000000	28.719500
1867.000000	28.813000
1866.000000	28.890200
1865.000000	28.972100
1864.000000	29.058500
1863.000000	29.150600
1862.000000	29.245700
1861.000000	29.358800
1860.000000	29.467400
1859.000000	29.552400
1858.000000	29.626800
1857.000000	29.686300
1856.000000	29.736000
1855.000000	29.790700
1854.000000	29.833100
1853.000000	29.841900
1852.000000	29.875500
1851.000000	29.908300
1850.000000	29.935000
1849.000000	29.989900
1848.000000	30.034000
1847.000000	30.040000
1846.000000	30.023200
1845.000000	29.977900
1844.000000	29.940700
1843.000000	29.953700
1842.000000	29.979300
1841.000000	29.994000
1840.000000	29.983400
1839.000000	29.946300
1838.000000	29.926600
1837.000000	29.909000
1836.000000	29.889000
1835.000000	29.852600
1834.000000	29.791600
1833.000000	29.747800
1832.000000	29.730200
1831.000000	29.729600
1830.000000	29.719000
1829.000000	29.700800
1828.000000	29.664200
1827.000000	29.641600
1826.000000	29.644000
1825.000000	29.622100
1824.000000	29.604800
1823.000000	29.609200
1822.000000	29.658200
1821.000000	29.708900
1820.000000	29.716100
1819.000000	29.688700
1818.000000	29.670400
1817.000000	29.661900
1816.000000	29.668800
1815.000000	29.674800
1814.000000	29.655400
1813.000000	29.632200
1812.000000	29.629100
1811.000000	29.615600
1810.000000	29.571000
1809.000000	29.543100
1808.000000	29.523600
1807.000000	29.509100
1806.000000	29.491200
1805.000000	29.457000
1804.000000	29.435300
1803.000000	29.412900
1802.000000	29.395500
1801.000000	29.387100
1800.000000	29.355500
1799.000000	29.331900
1798.000000	29.302300
1797.000000	29.272200
1796.000000	29.254900
1795.000000	29.225600
1794.000000	29.208400
1793.000000	29.175200
1792.000000	29.143400
1791.000000	29.124400
1790.000000	29.104200
1789.000000	29.090900
1788.000000	29.094700
1787.000000	29.093600
1786.000000	29.088400
1785.000000	29.074200
1784.000000	29.072700
1783.000000	29.056000
1782.000000	29.022200
1781.000000	28.999400
1780.000000	28.973000
1779.000000	28.929100
1778.000000	28.881100
1777.000000	28.848200
1776.000000	28.794600
1775.000000	28.733100
1774.000000	28.692300
1773.000000	28.638400
1772.000000	28.581000
1771.000000	28.512000
1770.000000	28.465000
1769.000000	28.416200
1768.000000	28.352200
1767.000000	28.312600
1766.000000	28.275500
1765.000000	28.219700
1764.000000	28.188700
1763.000000	28.173500
1762.000000	28.136100
1761.000000	28.121900
1760.000000	28.104100
1759.000000	28.090500
1758.000000	28.094300
1757.000000	28.067800
1756.000000	28.043600
1755.000000	28.060500
1754.000000	28.056200
1753.000000	28.032300
1752.000000	28.014200
1751.000000	28.004100
1750.000000	27.953900
1749.000000	27.921000
1748.000000	27.899500
1747.000000	27.849600
1746.000000	27.787200
1745.000000	27.714400
1744.000000	27.641300
1743.000000	27.564300
1742.000000	27.489300
1741.000000	27.403900
1740.000000	27.338700
1739.000000	27.253500
1738.000000	27.173100
1737.000000	27.122600
1736.000000	27.070800
1735.000000	27.024100
1734.000000	26.961300
1733.000000	26.925100
1732.000000	26.863800
1731.000000	26.816400
1730.000000	26.775600
1729.000000	26.714600
1728.000000	26.675800
1727.000000	26.639000
1726.000000	26.600000
1725.000000	26.566800
1724.000000	26.594800
1723.000000	26.637600
1722.000000	26.716500
1721.000000	26.845500
1720.000000	27.005400
1719.000000	27.206000
1718.000000	27.407000
1717.000000	27.644700
1716.000000	27.868700
1715.000000	28.076000
1714.000000	28.279500
1713.000000	28.454800
1712.000000	28.629600
1711.000000	28.795400
1710.000000	28.910200
1709.000000	29.034000
1708.000000	29.136700
1707.000000	29.253900
1706.000000	29.325400
1705.000000	29.389900
1704.000000	29.436700
1703.000000	29.493800
1702.000000	29.516100
1701.000000	29.555900
1700.000000	29.573400
1699.000000	29.589000
1698.000000	29.589700
1697.000000	29.592000
1696.000000	29.570900
1695.000000	29.539400
1694.000000	29.492400
1693.000000	29.423700
1692.000000	29.346200
1691.000000	29.274600
1690.000000	29.198600
1689.000000	29.172400
1688.000000	29.187900
1687.000000	29.260700
1686.000000	29.350600
1685.000000	29.497200
1684.000000	29.691300
1683.000000	29.881900
1682.000000	30.104200
1681.000000	30.295200
1680.000000	30.516100
1679.000000	30.705700
1678.000000	30.875600
1677.000000	31.055800
1676.000000	31.197000
1675.000000	31.336700
1674.000000	31.490900
1673.000000	31.634000
1672.000000	31.800500
1671.000000	31.937600
1670.000000	32.101500
1669.000000	32.263200
1668.000000	32.404400
1667.000000	32.547500
1666.000000	32.692300
1665.000000	32.819900
1664.000000	32.956400
1663.000000	33.088000
1662.000000	33.197300
1661.000000	33.319900
1660.000000	33.396700
1659.000000	33.481100
1658.000000	33.564100
1657.000000	33.630900
1656.000000	33.662600
1655.000000	33.722700
1654.000000	33.751700
1653.000000	33.776200
1652.000000	33.800200
1651.000000	33.804800
1650.000000	33.810000
1649.000000	33.806100
1648.000000	33.795500
1647.000000	33.776700
1646.000000	33.768300
1645.000000	33.748700
1644.000000	33.737200
1643.000000	33.721300
1642.000000	33.699000
1641.000000	33.697700
1640.000000	33.699700
1639.000000	33.670600
1638.000000	33.645600
1637.000000	33.619100
1636.000000	33.581100
1635.000000	33.570500
1634.000000	33.534200
1633.000000	33.488900
1632.000000	33.462100
1631.000000	33.422400
1630.000000	33.378000
1629.000000	33.345700
1628.000000	33.310300
1627.000000	33.270200
1626.000000	33.235300
1625.000000	33.195900
1624.000000	33.158200
1623.000000	33.133300
1622.000000	33.099400
1621.000000	33.069100
1620.000000	33.035900
1619.000000	33.022900
1618.000000	32.992600
1617.000000	32.954000
1616.000000	32.935100
1615.000000	32.898700
1614.000000	32.864200
1613.000000	32.822900
