PE UV       SUBTECH     SPECTRUM    ASCII       PEDS        4.00        
   -1
CICIMAUCR0021-1.Sample.ASC
24/03/08
13:20:54.00
24/03/08
13:20:54.00
Vinicio Soto Monge
C. resplendens. 
250,000000
1
Lambda 1050
1050L1511233
PerkinElmer UV WinLab 6.3.2.0749 / 2.02.05 Lambda 900 UV/VIS/NIR, Aug  7 2015 09:38:08

0
0
3350/servo 860,8/2
0
0
UV/VIS
1
1
1
DoubleDePol,CommonBeamDepol,RBeamAtt,SBeamAtt,60mm sphere, WB InGaAs Detector
0
0
0
0
Program
Program
3350/servo 860,8/2
3350/0,2 860,8/0,2
3350/0,2 860,8/0,2
0
15.00
 
 
 
0
 
860,8
319,2
860,8
Front
100
on
S:100 R:100
0
0
0
0
 
0
 
 
 
0
 
 
0
0
0
0
0
 
 
 
 
0
0


0
0
#HDR
-1
-1
#GR
nm
%R
1.0
0.0
2500,000000
-1,000000
2251
8
31,927300
2,181000
#DATA
2500.000000	2.356500
2499.000000	2.275700
2498.000000	2.202900
2497.000000	2.386900
2496.000000	2.352000
2495.000000	2.370200
2494.000000	2.358900
2493.000000	2.285100
2492.000000	2.192400
2491.000000	2.230200
2490.000000	2.194700
2489.000000	2.240300
2488.000000	2.254500
2487.000000	2.248100
2486.000000	2.261100
2485.000000	2.193600
2484.000000	2.200400
2483.000000	2.198000
2482.000000	2.193000
2481.000000	2.223500
2480.000000	2.181000
2479.000000	2.225100
2478.000000	2.194400
2477.000000	2.238500
2476.000000	2.181500
2475.000000	2.194300
2474.000000	2.189400
2473.000000	2.256800
2472.000000	2.190800
2471.000000	2.196800
2470.000000	2.229400
2469.000000	2.213700
2468.000000	2.236500
2467.000000	2.257000
2466.000000	2.188200
2465.000000	2.215800
2464.000000	2.233300
2463.000000	2.261000
2462.000000	2.289200
2461.000000	2.269900
2460.000000	2.288100
2459.000000	2.300100
2458.000000	2.310300
2457.000000	2.327500
2456.000000	2.328900
2455.000000	2.341300
2454.000000	2.359100
2453.000000	2.358200
2452.000000	2.392400
2451.000000	2.407600
2450.000000	2.460600
2449.000000	2.480800
2448.000000	2.483900
2447.000000	2.509000
2446.000000	2.518100
2445.000000	2.534600
2444.000000	2.570900
2443.000000	2.587200
2442.000000	2.608900
2441.000000	2.602200
2440.000000	2.632900
2439.000000	2.654900
2438.000000	2.680900
2437.000000	2.706300
2436.000000	2.708500
2435.000000	2.739300
2434.000000	2.747500
2433.000000	2.764500
2432.000000	2.797400
2431.000000	2.807500
2430.000000	2.816000
2429.000000	2.822900
2428.000000	2.844100
2427.000000	2.855900
2426.000000	2.872600
2425.000000	2.889800
2424.000000	2.920700
2423.000000	2.959100
2422.000000	3.002800
2421.000000	3.006700
2420.000000	3.044800
2419.000000	3.055200
2418.000000	3.066700
2417.000000	3.072300
2416.000000	3.084300
2415.000000	3.101400
2414.000000	3.118100
2413.000000	3.151100
2412.000000	3.163200
2411.000000	3.188800
2410.000000	3.181700
2409.000000	3.178000
2408.000000	3.217600
2407.000000	3.241500
2406.000000	3.232600
2405.000000	3.246800
2404.000000	3.265700
2403.000000	3.268500
2402.000000	3.290500
2401.000000	3.320900
2400.000000	3.313200
2399.000000	3.330300
2398.000000	3.345100
2397.000000	3.354800
2396.000000	3.364100
2395.000000	3.398700
2394.000000	3.426400
2393.000000	3.433400
2392.000000	3.443000
2391.000000	3.439200
2390.000000	3.453300
2389.000000	3.465800
2388.000000	3.479600
2387.000000	3.495200
2386.000000	3.501500
2385.000000	3.492500
2384.000000	3.506800
2383.000000	3.510700
2382.000000	3.506000
2381.000000	3.505500
2380.000000	3.517100
2379.000000	3.535400
2378.000000	3.527900
2377.000000	3.499900
2376.000000	3.494800
2375.000000	3.509000
2374.000000	3.494900
2373.000000	3.486500
2372.000000	3.501700
2371.000000	3.502900
2370.000000	3.485500
2369.000000	3.467600
2368.000000	3.459500
2367.000000	3.446900
2366.000000	3.440700
2365.000000	3.439000
2364.000000	3.410100
2363.000000	3.380200
2362.000000	3.355900
2361.000000	3.350600
2360.000000	3.334400
2359.000000	3.302200
2358.000000	3.288700
2357.000000	3.279600
2356.000000	3.263600
2355.000000	3.249400
2354.000000	3.228100
2353.000000	3.232700
2352.000000	3.233600
2351.000000	3.226300
2350.000000	3.239400
2349.000000	3.254700
2348.000000	3.274700
2347.000000	3.274200
2346.000000	3.282800
2345.000000	3.308400
2344.000000	3.332200
2343.000000	3.354600
2342.000000	3.351900
2341.000000	3.373000
2340.000000	3.401800
2339.000000	3.418100
2338.000000	3.430800
2337.000000	3.420100
2336.000000	3.416000
2335.000000	3.411600
2334.000000	3.405000
2333.000000	3.395700
2332.000000	3.394200
2331.000000	3.382200
2330.000000	3.367000
2329.000000	3.337900
2328.000000	3.336700
2327.000000	3.326800
2326.000000	3.280500
2325.000000	3.254400
2324.000000	3.246900
2323.000000	3.206600
2322.000000	3.172900
2321.000000	3.141100
2320.000000	3.115800
2319.000000	3.075200
2318.000000	3.035600
2317.000000	3.028200
2316.000000	2.993800
2315.000000	2.944100
2314.000000	2.903300
2313.000000	2.877700
2312.000000	2.837900
2311.000000	2.809900
2310.000000	2.794300
2309.000000	2.787500
2308.000000	2.778300
2307.000000	2.753400
2306.000000	2.751300
2305.000000	2.740900
2304.000000	2.753800
2303.000000	2.773600
2302.000000	2.790600
2301.000000	2.803500
2300.000000	2.821600
2299.000000	2.844200
2298.000000	2.863700
2297.000000	2.899200
2296.000000	2.906000
2295.000000	2.923800
2294.000000	2.934600
2293.000000	2.964600
2292.000000	2.980000
2291.000000	2.982700
2290.000000	2.983200
2289.000000	2.971900
2288.000000	2.967000
2287.000000	2.959600
2286.000000	2.938600
2285.000000	2.913600
2284.000000	2.917600
2283.000000	2.890300
2282.000000	2.875400
2281.000000	2.848800
2280.000000	2.835000
2279.000000	2.810600
2278.000000	2.778000
2277.000000	2.768300
2276.000000	2.769600
2275.000000	2.728600
2274.000000	2.706800
2273.000000	2.710400
2272.000000	2.702400
2271.000000	2.702100
2270.000000	2.698300
2269.000000	2.703700
2268.000000	2.712800
2267.000000	2.699700
2266.000000	2.724600
2265.000000	2.750200
2264.000000	2.774500
2263.000000	2.811600
2262.000000	2.844800
2261.000000	2.900100
2260.000000	2.953500
2259.000000	3.022900
2258.000000	3.077600
2257.000000	3.134900
2256.000000	3.178900
2255.000000	3.255600
2254.000000	3.316500
2253.000000	3.377000
2252.000000	3.426300
2251.000000	3.498000
2250.000000	3.552600
2249.000000	3.602900
2248.000000	3.666400
2247.000000	3.682700
2246.000000	3.746200
2245.000000	3.793000
2244.000000	3.808600
2243.000000	3.830500
2242.000000	3.882000
2241.000000	3.939100
2240.000000	3.951400
2239.000000	3.991100
2238.000000	3.999500
2237.000000	4.025800
2236.000000	4.045400
2235.000000	4.079800
2234.000000	4.084500
2233.000000	4.094700
2232.000000	4.117800
2231.000000	4.114700
2230.000000	4.130900
2229.000000	4.123800
2228.000000	4.123400
2227.000000	4.118200
2226.000000	4.097300
2225.000000	4.103600
2224.000000	4.063700
2223.000000	4.036500
2222.000000	4.013400
2221.000000	3.987800
2220.000000	3.978200
2219.000000	3.974800
2218.000000	3.935400
2217.000000	3.922000
2216.000000	3.864800
2215.000000	3.868800
2214.000000	3.839500
2213.000000	3.833900
2212.000000	3.829400
2211.000000	3.824300
2210.000000	3.832100
2209.000000	3.837300
2208.000000	3.856300
2207.000000	3.870200
2206.000000	3.896300
2205.000000	3.930200
2204.000000	3.974300
2203.000000	4.018800
2202.000000	4.084300
2201.000000	4.118800
2200.000000	4.177800
2199.000000	4.233000
2198.000000	4.293400
2197.000000	4.377600
2196.000000	4.412300
2195.000000	4.468600
2194.000000	4.547200
2193.000000	4.608900
2192.000000	4.653900
2191.000000	4.698700
2190.000000	4.738400
2189.000000	4.787500
2188.000000	4.823400
2187.000000	4.840300
2186.000000	4.869700
2185.000000	4.889900
2184.000000	4.931100
2183.000000	4.953800
2182.000000	4.949100
2181.000000	4.971000
2180.000000	4.967800
2179.000000	4.970300
2178.000000	4.986900
2177.000000	5.007000
2176.000000	5.031000
2175.000000	5.024700
2174.000000	5.029300
2173.000000	5.039500
2172.000000	5.065300
2171.000000	5.067100
2170.000000	5.075600
2169.000000	5.080500
2168.000000	5.078600
2167.000000	5.110700
2166.000000	5.122500
2165.000000	5.125000
2164.000000	5.141800
2163.000000	5.154100
2162.000000	5.178000
2161.000000	5.169100
2160.000000	5.192000
2159.000000	5.205400
2158.000000	5.227900
2157.000000	5.227000
2156.000000	5.236900
2155.000000	5.256700
2154.000000	5.278400
2153.000000	5.294300
2152.000000	5.309500
2151.000000	5.346300
2150.000000	5.350300
2149.000000	5.364300
2148.000000	5.378400
2147.000000	5.404400
2146.000000	5.425400
2145.000000	5.439200
2144.000000	5.445600
2143.000000	5.465700
2142.000000	5.472200
2141.000000	5.497600
2140.000000	5.510500
2139.000000	5.519800
2138.000000	5.525100
2137.000000	5.541000
2136.000000	5.553000
2135.000000	5.561100
2134.000000	5.553300
2133.000000	5.559800
2132.000000	5.576800
2131.000000	5.581500
2130.000000	5.585800
2129.000000	5.593500
2128.000000	5.597800
2127.000000	5.595700
2126.000000	5.594700
2125.000000	5.597900
2124.000000	5.598100
2123.000000	5.600900
2122.000000	5.593400
2121.000000	5.583400
2120.000000	5.585500
2119.000000	5.591600
2118.000000	5.598300
2117.000000	5.584100
2116.000000	5.556800
2115.000000	5.552000
2114.000000	5.554900
2113.000000	5.552700
2112.000000	5.545500
2111.000000	5.536800
2110.000000	5.526300
2109.000000	5.519000
2108.000000	5.520600
2107.000000	5.507000
2106.000000	5.487100
2105.000000	5.491700
2104.000000	5.489100
2103.000000	5.481400
2102.000000	5.473600
2101.000000	5.457900
2100.000000	5.454600
2099.000000	5.449500
2098.000000	5.440300
2097.000000	5.440400
2096.000000	5.443900
2095.000000	5.441200
2094.000000	5.422600
2093.000000	5.398500
2092.000000	5.393900
2091.000000	5.406000
2090.000000	5.400700
2089.000000	5.395600
2088.000000	5.394500
2087.000000	5.386800
2086.000000	5.376600
2085.000000	5.378300
2084.000000	5.386200
2083.000000	5.375900
2082.000000	5.374000
2081.000000	5.379700
2080.000000	5.372600
2079.000000	5.357600
2078.000000	5.360500
2077.000000	5.346500
2076.000000	5.329400
2075.000000	5.331800
2074.000000	5.331400
2073.000000	5.333900
2072.000000	5.323600
2071.000000	5.314300
2070.000000	5.302300
2069.000000	5.306300
2068.000000	5.304800
2067.000000	5.296200
2066.000000	5.283500
2065.000000	5.291900
2064.000000	5.289900
2063.000000	5.287100
2062.000000	5.294000
2061.000000	5.282800
2060.000000	5.278700
2059.000000	5.292200
2058.000000	5.307400
2057.000000	5.320400
2056.000000	5.330400
2055.000000	5.348000
2054.000000	5.369200
2053.000000	5.394700
2052.000000	5.422500
2051.000000	5.466700
2050.000000	5.482400
2049.000000	5.520600
2048.000000	5.580600
2047.000000	5.616200
2046.000000	5.673700
2045.000000	5.737800
2044.000000	5.798300
2043.000000	5.842200
2042.000000	5.906200
2041.000000	5.967100
2040.000000	6.022900
2039.000000	6.083600
2038.000000	6.138900
2037.000000	6.189500
2036.000000	6.238700
2035.000000	6.299600
2034.000000	6.344800
2033.000000	6.392500
2032.000000	6.447200
2031.000000	6.499900
2030.000000	6.539200
2029.000000	6.586800
2028.000000	6.633000
2027.000000	6.670800
2026.000000	6.695900
2025.000000	6.731800
2024.000000	6.783800
2023.000000	6.809700
2022.000000	6.851400
2021.000000	6.892200
2020.000000	6.915600
2019.000000	6.948700
2018.000000	6.971100
2017.000000	7.009300
2016.000000	7.029300
2015.000000	7.054500
2014.000000	7.076400
2013.000000	7.121800
2012.000000	7.120700
2011.000000	7.150700
2010.000000	7.148800
2009.000000	7.153900
2008.000000	7.191800
2007.000000	7.190800
2006.000000	7.197100
2005.000000	7.211600
2004.000000	7.224800
2003.000000	7.196700
2002.000000	7.204300
2001.000000	7.188500
2000.000000	7.193200
1999.000000	7.176600
1998.000000	7.183800
1997.000000	7.175700
1996.000000	7.158600
1995.000000	7.127600
1994.000000	7.127300
1993.000000	7.112900
1992.000000	7.084700
1991.000000	7.061300
1990.000000	7.066400
1989.000000	7.024800
1988.000000	7.003100
1987.000000	6.984400
1986.000000	6.954800
1985.000000	6.926500
1984.000000	6.899000
1983.000000	6.856600
1982.000000	6.856900
1981.000000	6.835200
1980.000000	6.804800
1979.000000	6.797000
1978.000000	6.738500
1977.000000	6.694300
1976.000000	6.674800
1975.000000	6.647000
1974.000000	6.639600
1973.000000	6.605500
1972.000000	6.581800
1971.000000	6.562100
1970.000000	6.529200
1969.000000	6.514800
1968.000000	6.457800
1967.000000	6.464100
1966.000000	6.435100
1965.000000	6.393000
1964.000000	6.380300
1963.000000	6.361300
1962.000000	6.324000
1961.000000	6.299000
1960.000000	6.280100
1959.000000	6.240600
1958.000000	6.198600
1957.000000	6.216300
1956.000000	6.159400
1955.000000	6.154300
1954.000000	6.127800
1953.000000	6.089300
1952.000000	6.083400
1951.000000	6.071900
1950.000000	6.018900
1949.000000	6.001300
1948.000000	6.004500
1947.000000	5.981900
1946.000000	5.977100
1945.000000	5.957400
1944.000000	5.933900
1943.000000	5.934500
1942.000000	5.923100
1941.000000	5.948900
1940.000000	5.930600
1939.000000	5.904800
1938.000000	5.915200
1937.000000	5.924500
1936.000000	5.936300
1935.000000	5.931200
1934.000000	5.949600
1933.000000	5.988700
1932.000000	6.027700
1931.000000	6.042100
1930.000000	6.083100
1929.000000	6.096500
1928.000000	6.140100
1927.000000	6.174000
1926.000000	6.209300
1925.000000	6.252200
1924.000000	6.308800
1923.000000	6.386000
1922.000000	6.450800
1921.000000	6.519500
1920.000000	6.570200
1919.000000	6.618700
1918.000000	6.688200
1917.000000	6.775500
1916.000000	6.881900
1915.000000	6.970100
1914.000000	7.071900
1913.000000	7.123700
1912.000000	7.224100
1911.000000	7.287200
1910.000000	7.416100
1909.000000	7.512900
1908.000000	7.624700
1907.000000	7.742200
1906.000000	7.839200
1905.000000	7.917200
1904.000000	8.026000
1903.000000	8.158500
1902.000000	8.286500
1901.000000	8.384200
1900.000000	8.510000
1899.000000	8.638300
1898.000000	8.752500
1897.000000	8.885200
1896.000000	9.021400
1895.000000	9.152400
1894.000000	9.272200
1893.000000	9.409000
1892.000000	9.528100
1891.000000	9.632900
1890.000000	9.737900
1889.000000	9.862300
1888.000000	10.003900
1887.000000	10.164000
1886.000000	10.324500
1885.000000	10.470200
1884.000000	10.650600
1883.000000	10.837200
1882.000000	11.017800
1881.000000	11.224200
1880.000000	11.419700
1879.000000	11.616100
1878.000000	11.811100
1877.000000	11.964200
1876.000000	12.107100
1875.000000	12.246700
1874.000000	12.374000
1873.000000	12.461700
1872.000000	12.552400
1871.000000	12.617500
1870.000000	12.637600
1869.000000	12.672800
1868.000000	12.750900
1867.000000	12.790700
1866.000000	12.835800
1865.000000	12.894800
1864.000000	12.957100
1863.000000	13.006000
1862.000000	13.025900
1861.000000	13.030700
1860.000000	13.022400
1859.000000	12.996400
1858.000000	12.950100
1857.000000	12.949000
1856.000000	12.953200
1855.000000	12.927900
1854.000000	12.893400
1853.000000	12.848700
1852.000000	12.829400
1851.000000	12.833400
1850.000000	12.836000
1849.000000	12.830400
1848.000000	12.747300
1847.000000	12.643000
1846.000000	12.577200
1845.000000	12.580600
1844.000000	12.619600
1843.000000	12.631100
1842.000000	12.621000
1841.000000	12.573800
1840.000000	12.522000
1839.000000	12.495800
1838.000000	12.477500
1837.000000	12.432800
1836.000000	12.378400
1835.000000	12.334000
1834.000000	12.304800
1833.000000	12.298300
1832.000000	12.294500
1831.000000	12.256100
1830.000000	12.202800
1829.000000	12.172800
1828.000000	12.121100
1827.000000	12.070600
1826.000000	12.034600
1825.000000	11.997200
1824.000000	11.998300
1823.000000	12.015900
1822.000000	12.017700
1821.000000	11.991400
1820.000000	11.941200
1819.000000	11.900300
1818.000000	11.909400
1817.000000	11.934700
1816.000000	11.952400
1815.000000	11.935700
1814.000000	11.919300
1813.000000	11.936200
1812.000000	11.931500
1811.000000	11.905100
1810.000000	11.864700
1809.000000	11.855600
1808.000000	11.859400
1807.000000	11.846900
1806.000000	11.805100
1805.000000	11.762800
1804.000000	11.746000
1803.000000	11.742100
1802.000000	11.729300
1801.000000	11.693200
1800.000000	11.650600
1799.000000	11.642200
1798.000000	11.625800
1797.000000	11.602300
1796.000000	11.580900
1795.000000	11.569500
1794.000000	11.552900
1793.000000	11.527700
1792.000000	11.488500
1791.000000	11.457500
1790.000000	11.437900
1789.000000	11.418000
1788.000000	11.382000
1787.000000	11.356700
1786.000000	11.328800
1785.000000	11.291300
1784.000000	11.242600
1783.000000	11.194600
1782.000000	11.156400
1781.000000	11.102700
1780.000000	11.059300
1779.000000	11.041800
1778.000000	10.988200
1777.000000	10.923700
1776.000000	10.883300
1775.000000	10.817400
1774.000000	10.744600
1773.000000	10.699400
1772.000000	10.617700
1771.000000	10.556300
1770.000000	10.486300
1769.000000	10.409800
1768.000000	10.357200
1767.000000	10.309700
1766.000000	10.248900
1765.000000	10.206400
1764.000000	10.202500
1763.000000	10.192400
1762.000000	10.180800
1761.000000	10.205600
1760.000000	10.237100
1759.000000	10.298400
1758.000000	10.321600
1757.000000	10.340000
1756.000000	10.363100
1755.000000	10.358700
1754.000000	10.365600
1753.000000	10.362300
1752.000000	10.367700
1751.000000	10.359300
1750.000000	10.312600
1749.000000	10.280300
1748.000000	10.226400
1747.000000	10.173100
1746.000000	10.125400
1745.000000	10.047800
1744.000000	9.962600
1743.000000	9.863500
1742.000000	9.784300
1741.000000	9.644900
1740.000000	9.534500
1739.000000	9.413600
1738.000000	9.304700
1737.000000	9.201300
1736.000000	9.146100
1735.000000	9.074800
1734.000000	9.065500
1733.000000	9.071600
1732.000000	9.102900
1731.000000	9.138500
1730.000000	9.175500
1729.000000	9.258000
1728.000000	9.306300
1727.000000	9.346800
1726.000000	9.393000
1725.000000	9.433100
1724.000000	9.451300
1723.000000	9.457500
1722.000000	9.448700
1721.000000	9.468600
1720.000000	9.482300
1719.000000	9.508500
1718.000000	9.503900
1717.000000	9.514700
1716.000000	9.547000
1715.000000	9.574300
1714.000000	9.594500
1713.000000	9.622800
1712.000000	9.640000
1711.000000	9.654900
1710.000000	9.647900
1709.000000	9.666000
1708.000000	9.651800
1707.000000	9.628100
1706.000000	9.605900
1705.000000	9.606100
1704.000000	9.591900
1703.000000	9.527500
1702.000000	9.503100
1701.000000	9.427300
1700.000000	9.346500
1699.000000	9.273800
1698.000000	9.208200
1697.000000	9.154200
1696.000000	9.109300
1695.000000	9.109500
1694.000000	9.143900
1693.000000	9.206500
1692.000000	9.267300
1691.000000	9.334500
1690.000000	9.417600
1689.000000	9.459000
1688.000000	9.496400
1687.000000	9.502600
1686.000000	9.491600
1685.000000	9.500500
1684.000000	9.541700
1683.000000	9.654200
1682.000000	9.801000
1681.000000	10.001600
1680.000000	10.280800
1679.000000	10.547100
1678.000000	10.821700
1677.000000	11.058500
1676.000000	11.296000
1675.000000	11.497500
1674.000000	11.636100
1673.000000	11.766100
1672.000000	11.880200
1671.000000	12.008000
1670.000000	12.098500
1669.000000	12.188900
1668.000000	12.265700
1667.000000	12.337400
1666.000000	12.381500
1665.000000	12.455200
1664.000000	12.482100
1663.000000	12.495600
1662.000000	12.540200
1661.000000	12.554300
1660.000000	12.561900
1659.000000	12.586000
1658.000000	12.601900
1657.000000	12.606200
1656.000000	12.616600
1655.000000	12.604900
1654.000000	12.605400
1653.000000	12.589600
1652.000000	12.585100
1651.000000	12.602700
1650.000000	12.561200
1649.000000	12.556600
1648.000000	12.530700
1647.000000	12.511400
1646.000000	12.474700
1645.000000	12.453700
1644.000000	12.438000
1643.000000	12.409300
1642.000000	12.375300
1641.000000	12.357300
1640.000000	12.311100
1639.000000	12.288000
1638.000000	12.272400
1637.000000	12.242400
1636.000000	12.199200
1635.000000	12.159500
1634.000000	12.111000
1633.000000	12.082800
1632.000000	12.056600
1631.000000	12.022700
1630.000000	11.980500
1629.000000	11.943200
1628.000000	11.903400
1627.000000	11.849400
1626.000000	11.813700
1625.000000	11.764500
1624.000000	11.724300
1623.000000	11.695800
1622.000000	11.650100
1621.000000	11.619000
1620.000000	11.571600
1619.000000	11.549700
1618.000000	11.515100
1617.000000	11.487500
1616.000000	11.433500
1615.000000	11.394600
1614.000000	11.365100
1613.000000	11.318100
1612.000000	11.290400
1611.000000	11.249500
1610.000000	11.235500
1609.000000	11.205100
1608.000000	11.155800
1607.000000	11.110000
1606.000000	11.088800
1605.000000	11.062100
1604.000000	11.024500
1603.000000	10.991900
1602.000000	10.964700
1601.000000	10.930400
1600.000000	10.898000
1599.000000	10.863200
1598.000000	10.839100
1597.000000	10.815000
1596.000000	10.788600
1595.000000	10.757300
1594.000000	10.729400
