PE UV       SUBTECH     SPECTRUM    ASCII       PEDS        4.00        
   -1
CICIMAUCR0141-1.Sample.ASC
24/04/04
12:21:23.00
24/04/04
12:21:23.00
Vinicio Soto Monge
C. kalinini
250,000000
1
Lambda 1050
1050L1511233
PerkinElmer UV WinLab 6.3.2.0749 / 2.02.05 Lambda 900 UV/VIS/NIR, Aug  7 2015 09:38:08

0
0
3350/servo 860,8/2
0
0
UV/VIS
1
1
1
DoubleDePol,CommonBeamDepol,RBeamAtt,SBeamAtt,60mm sphere, WB InGaAs Detector
0
0
0
0
Program
Program
3350/servo 860,8/2
3350/0,2 860,8/0,2
3350/0,2 860,8/0,2
0
15.00
 
 
 
0
 
860,8
319,2
860,8
Front
100
on
S:100 R:100
0
0
0
0
 
0
 
 
 
0
 
 
0
0
0
0
0
 
 
 
 
0
0


0
0
#HDR
-1
-1
#GR
nm
%R
1.0
0.0
2500,000000
-1,000000
2251
8
80,492200
5,685100
#DATA
2500.000000	6.635500
2499.000000	6.665900
2498.000000	6.638100
2497.000000	6.629700
2496.000000	6.621000
2495.000000	6.503200
2494.000000	6.547900
2493.000000	6.493200
2492.000000	6.572400
2491.000000	6.585400
2490.000000	6.573900
2489.000000	6.581500
2488.000000	6.626000
2487.000000	6.557300
2486.000000	6.523200
2485.000000	6.597300
2484.000000	6.664800
2483.000000	6.667700
2482.000000	6.631500
2481.000000	6.605500
2480.000000	6.615800
2479.000000	6.693400
2478.000000	6.721000
2477.000000	6.689600
2476.000000	6.739800
2475.000000	6.728700
2474.000000	6.767600
2473.000000	6.742900
2472.000000	6.849100
2471.000000	6.791800
2470.000000	6.788600
2469.000000	6.869700
2468.000000	6.896100
2467.000000	6.913300
2466.000000	6.942900
2465.000000	6.964900
2464.000000	6.979500
2463.000000	7.032300
2462.000000	7.095500
2461.000000	7.144300
2460.000000	7.163700
2459.000000	7.196700
2458.000000	7.241900
2457.000000	7.306200
2456.000000	7.309800
2455.000000	7.392300
2454.000000	7.441900
2453.000000	7.493300
2452.000000	7.546000
2451.000000	7.603300
2450.000000	7.680200
2449.000000	7.738300
2448.000000	7.810100
2447.000000	7.873300
2446.000000	7.937500
2445.000000	7.987400
2444.000000	8.044700
2443.000000	8.116800
2442.000000	8.186500
2441.000000	8.240900
2440.000000	8.325200
2439.000000	8.388800
2438.000000	8.459100
2437.000000	8.532500
2436.000000	8.615200
2435.000000	8.679900
2434.000000	8.761000
2433.000000	8.823700
2432.000000	8.868900
2431.000000	8.943900
2430.000000	9.000900
2429.000000	9.069800
2428.000000	9.150200
2427.000000	9.214700
2426.000000	9.266800
2425.000000	9.336300
2424.000000	9.395800
2423.000000	9.451400
2422.000000	9.518600
2421.000000	9.579500
2420.000000	9.635400
2419.000000	9.696500
2418.000000	9.738000
2417.000000	9.793800
2416.000000	9.847500
2415.000000	9.903100
2414.000000	9.939800
2413.000000	9.984800
2412.000000	10.033600
2411.000000	10.069700
2410.000000	10.081800
2409.000000	10.125800
2408.000000	10.180900
2407.000000	10.207200
2406.000000	10.244000
2405.000000	10.267700
2404.000000	10.304600
2403.000000	10.330300
2402.000000	10.344800
2401.000000	10.377300
2400.000000	10.407900
2399.000000	10.425600
2398.000000	10.452600
2397.000000	10.473000
2396.000000	10.493700
2395.000000	10.509600
2394.000000	10.533200
2393.000000	10.552300
2392.000000	10.562300
2391.000000	10.575600
2390.000000	10.590400
2389.000000	10.601800
2388.000000	10.611600
2387.000000	10.626400
2386.000000	10.625300
2385.000000	10.623000
2384.000000	10.628500
2383.000000	10.627800
2382.000000	10.624000
2381.000000	10.627000
2380.000000	10.628700
2379.000000	10.625900
2378.000000	10.614700
2377.000000	10.606800
2376.000000	10.604500
2375.000000	10.591000
2374.000000	10.576700
2373.000000	10.564700
2372.000000	10.562700
2371.000000	10.564100
2370.000000	10.564900
2369.000000	10.555400
2368.000000	10.542700
2367.000000	10.540200
2366.000000	10.537400
2365.000000	10.529900
2364.000000	10.531900
2363.000000	10.532200
2362.000000	10.528700
2361.000000	10.522500
2360.000000	10.524900
2359.000000	10.520300
2358.000000	10.502700
2357.000000	10.490900
2356.000000	10.487200
2355.000000	10.481300
2354.000000	10.470200
2353.000000	10.449100
2352.000000	10.425300
2351.000000	10.415300
2350.000000	10.397100
2349.000000	10.382000
2348.000000	10.370600
2347.000000	10.353300
2346.000000	10.347900
2345.000000	10.350600
2344.000000	10.337500
2343.000000	10.316100
2342.000000	10.303500
2341.000000	10.306500
2340.000000	10.294000
2339.000000	10.285200
2338.000000	10.270200
2337.000000	10.255900
2336.000000	10.265000
2335.000000	10.249100
2334.000000	10.259200
2333.000000	10.265900
2332.000000	10.262100
2331.000000	10.263700
2330.000000	10.268000
2329.000000	10.280900
2328.000000	10.279700
2327.000000	10.273700
2326.000000	10.291300
2325.000000	10.295900
2324.000000	10.309000
2323.000000	10.311000
2322.000000	10.306400
2321.000000	10.297300
2320.000000	10.285200
2319.000000	10.285900
2318.000000	10.262000
2317.000000	10.241200
2316.000000	10.202500
2315.000000	10.189300
2314.000000	10.158500
2313.000000	10.124700
2312.000000	10.101100
2311.000000	10.077600
2310.000000	10.038200
2309.000000	9.990000
2308.000000	9.955100
2307.000000	9.928100
2306.000000	9.882300
2305.000000	9.848200
2304.000000	9.799700
2303.000000	9.767200
2302.000000	9.752300
2301.000000	9.728900
2300.000000	9.703800
2299.000000	9.681200
2298.000000	9.655000
2297.000000	9.637300
2296.000000	9.607400
2295.000000	9.603400
2294.000000	9.578100
2293.000000	9.564500
2292.000000	9.562400
2291.000000	9.553800
2290.000000	9.529800
2289.000000	9.513200
2288.000000	9.527800
2287.000000	9.508500
2286.000000	9.501600
2285.000000	9.495900
2284.000000	9.466900
2283.000000	9.473700
2282.000000	9.464600
2281.000000	9.447000
2280.000000	9.416800
2279.000000	9.404100
2278.000000	9.396800
2277.000000	9.387500
2276.000000	9.365600
2275.000000	9.341800
2274.000000	9.305000
2273.000000	9.283000
2272.000000	9.257200
2271.000000	9.236700
2270.000000	9.223700
2269.000000	9.209200
2268.000000	9.176100
2267.000000	9.162800
2266.000000	9.136300
2265.000000	9.130500
2264.000000	9.141500
2263.000000	9.146300
2262.000000	9.150900
2261.000000	9.182700
2260.000000	9.174500
2259.000000	9.207500
2258.000000	9.246700
2257.000000	9.267900
2256.000000	9.298800
2255.000000	9.356200
2254.000000	9.396100
2253.000000	9.458900
2252.000000	9.489800
2251.000000	9.556100
2250.000000	9.593000
2249.000000	9.660900
2248.000000	9.693000
2247.000000	9.745400
2246.000000	9.771300
2245.000000	9.819100
2244.000000	9.879400
2243.000000	9.889400
2242.000000	9.934900
2241.000000	9.961000
2240.000000	9.975800
2239.000000	9.997400
2238.000000	10.007500
2237.000000	10.013400
2236.000000	10.016000
2235.000000	9.987900
2234.000000	9.979500
2233.000000	9.988000
2232.000000	9.925900
2231.000000	9.906400
2230.000000	9.856500
2229.000000	9.806900
2228.000000	9.773800
2227.000000	9.705600
2226.000000	9.615800
2225.000000	9.554500
2224.000000	9.496600
2223.000000	9.406500
2222.000000	9.287700
2221.000000	9.233100
2220.000000	9.152600
2219.000000	9.066000
2218.000000	8.978700
2217.000000	8.907900
2216.000000	8.824600
2215.000000	8.749500
2214.000000	8.671000
2213.000000	8.648800
2212.000000	8.595500
2211.000000	8.560600
2210.000000	8.549500
2209.000000	8.549200
2208.000000	8.545800
2207.000000	8.606700
2206.000000	8.642400
2205.000000	8.704200
2204.000000	8.795400
2203.000000	8.851300
2202.000000	8.968900
2201.000000	9.080000
2200.000000	9.186600
2199.000000	9.320700
2198.000000	9.441500
2197.000000	9.547900
2196.000000	9.667000
2195.000000	9.807500
2194.000000	9.932900
2193.000000	10.014000
2192.000000	10.104500
2191.000000	10.230400
2190.000000	10.328900
2189.000000	10.401700
2188.000000	10.463400
2187.000000	10.543800
2186.000000	10.607400
2185.000000	10.655800
2184.000000	10.689400
2183.000000	10.731000
2182.000000	10.774800
2181.000000	10.805000
2180.000000	10.840800
2179.000000	10.854000
2178.000000	10.882100
2177.000000	10.897600
2176.000000	10.920100
2175.000000	10.951400
2174.000000	10.987100
2173.000000	11.006600
2172.000000	11.039000
2171.000000	11.077300
2170.000000	11.104800
2169.000000	11.136300
2168.000000	11.152000
2167.000000	11.192000
2166.000000	11.248100
2165.000000	11.274300
2164.000000	11.327600
2163.000000	11.379800
2162.000000	11.442400
2161.000000	11.487000
2160.000000	11.532000
2159.000000	11.595200
2158.000000	11.660000
2157.000000	11.721900
2156.000000	11.789400
2155.000000	11.862400
2154.000000	11.938800
2153.000000	12.028700
2152.000000	12.112600
2151.000000	12.182400
2150.000000	12.269200
2149.000000	12.339800
2148.000000	12.435300
2147.000000	12.522800
2146.000000	12.610700
2145.000000	12.674800
2144.000000	12.762600
2143.000000	12.865500
2142.000000	12.940500
2141.000000	13.007100
2140.000000	13.081800
2139.000000	13.158200
2138.000000	13.243300
2137.000000	13.320400
2136.000000	13.388300
2135.000000	13.469700
2134.000000	13.530400
2133.000000	13.586400
2132.000000	13.652700
2131.000000	13.710300
2130.000000	13.773000
2129.000000	13.827000
2128.000000	13.868300
2127.000000	13.919400
2126.000000	13.964000
2125.000000	14.010200
2124.000000	14.047900
2123.000000	14.088300
2122.000000	14.131900
2121.000000	14.158800
2120.000000	14.183800
2119.000000	14.212700
2118.000000	14.241700
2117.000000	14.259400
2116.000000	14.278600
2115.000000	14.307400
2114.000000	14.323300
2113.000000	14.339500
2112.000000	14.350600
2111.000000	14.362600
2110.000000	14.367700
2109.000000	14.373100
2108.000000	14.382200
2107.000000	14.386800
2106.000000	14.392100
2105.000000	14.387000
2104.000000	14.388700
2103.000000	14.400200
2102.000000	14.411800
2101.000000	14.401600
2100.000000	14.402100
2099.000000	14.413900
2098.000000	14.421600
2097.000000	14.427900
2096.000000	14.421700
2095.000000	14.417400
2094.000000	14.427400
2093.000000	14.435800
2092.000000	14.446500
2091.000000	14.459000
2090.000000	14.468500
2089.000000	14.470700
2088.000000	14.468600
2087.000000	14.472900
2086.000000	14.469400
2085.000000	14.462400
2084.000000	14.461800
2083.000000	14.440700
2082.000000	14.415200
2081.000000	14.406200
2080.000000	14.383700
2079.000000	14.351000
2078.000000	14.301800
2077.000000	14.256000
2076.000000	14.207600
2075.000000	14.156100
2074.000000	14.091000
2073.000000	14.020900
2072.000000	13.964700
2071.000000	13.903100
2070.000000	13.816300
2069.000000	13.737800
2068.000000	13.647900
2067.000000	13.579300
2066.000000	13.507100
2065.000000	13.410600
2064.000000	13.322900
2063.000000	13.246800
2062.000000	13.171500
2061.000000	13.088500
2060.000000	13.029400
2059.000000	12.955600
2058.000000	12.899700
2057.000000	12.863800
2056.000000	12.830400
2055.000000	12.797800
2054.000000	12.772700
2053.000000	12.758300
2052.000000	12.780700
2051.000000	12.808800
2050.000000	12.836100
2049.000000	12.888400
2048.000000	12.952400
2047.000000	13.020700
2046.000000	13.102800
2045.000000	13.176000
2044.000000	13.277500
2043.000000	13.374800
2042.000000	13.470200
2041.000000	13.555700
2040.000000	13.661500
2039.000000	13.753300
2038.000000	13.839300
2037.000000	13.936800
2036.000000	14.031600
2035.000000	14.119100
2034.000000	14.178400
2033.000000	14.252000
2032.000000	14.345700
2031.000000	14.400900
2030.000000	14.476800
2029.000000	14.508500
2028.000000	14.586600
2027.000000	14.663700
2026.000000	14.718100
2025.000000	14.756800
2024.000000	14.798700
2023.000000	14.855600
2022.000000	14.908400
2021.000000	14.957100
2020.000000	14.961800
2019.000000	15.017400
2018.000000	15.049600
2017.000000	15.083600
2016.000000	15.134500
2015.000000	15.164900
2014.000000	15.174400
2013.000000	15.178500
2012.000000	15.217800
2011.000000	15.220300
2010.000000	15.231800
2009.000000	15.223900
2008.000000	15.229000
2007.000000	15.223400
2006.000000	15.217300
2005.000000	15.214700
2004.000000	15.204600
2003.000000	15.211100
2002.000000	15.174500
2001.000000	15.151700
2000.000000	15.129300
1999.000000	15.105500
1998.000000	15.075900
1997.000000	15.021100
1996.000000	14.990400
1995.000000	14.946400
1994.000000	14.917500
1993.000000	14.866500
1992.000000	14.832000
1991.000000	14.787800
1990.000000	14.728100
1989.000000	14.684000
1988.000000	14.651300
1987.000000	14.582400
1986.000000	14.535000
1985.000000	14.476600
1984.000000	14.426500
1983.000000	14.369500
1982.000000	14.321200
1981.000000	14.263400
1980.000000	14.208200
1979.000000	14.151300
1978.000000	14.108000
1977.000000	14.029400
1976.000000	13.958600
1975.000000	13.952500
1974.000000	13.869100
1973.000000	13.831800
1972.000000	13.797100
1971.000000	13.745600
1970.000000	13.681900
1969.000000	13.645100
1968.000000	13.587500
1967.000000	13.531900
1966.000000	13.470300
1965.000000	13.427200
1964.000000	13.353500
1963.000000	13.316600
1962.000000	13.256600
1961.000000	13.192200
1960.000000	13.137400
1959.000000	13.074500
1958.000000	13.006400
1957.000000	12.953400
1956.000000	12.916300
1955.000000	12.836300
1954.000000	12.787000
1953.000000	12.738300
1952.000000	12.673500
1951.000000	12.632600
1950.000000	12.584300
1949.000000	12.512700
1948.000000	12.481800
1947.000000	12.428100
1946.000000	12.389000
1945.000000	12.343700
1944.000000	12.296200
1943.000000	12.246700
1942.000000	12.221500
1941.000000	12.212400
1940.000000	12.178500
1939.000000	12.166300
1938.000000	12.147300
1937.000000	12.112600
1936.000000	12.118800
1935.000000	12.106000
1934.000000	12.123400
1933.000000	12.126600
1932.000000	12.144600
1931.000000	12.164000
1930.000000	12.202900
1929.000000	12.241400
1928.000000	12.287000
1927.000000	12.332900
1926.000000	12.400400
1925.000000	12.466200
1924.000000	12.531300
1923.000000	12.611500
1922.000000	12.703600
1921.000000	12.828700
1920.000000	12.956100
1919.000000	13.054500
1918.000000	13.171800
1917.000000	13.296800
1916.000000	13.440500
1915.000000	13.592700
1914.000000	13.766700
1913.000000	13.993600
1912.000000	14.200000
1911.000000	14.399800
1910.000000	14.621000
1909.000000	14.823800
1908.000000	15.041500
1907.000000	15.325900
1906.000000	15.649200
1905.000000	15.991100
1904.000000	16.342000
1903.000000	16.660700
1902.000000	17.013100
1901.000000	17.372100
1900.000000	17.771800
1899.000000	18.220300
1898.000000	18.652300
1897.000000	19.087200
1896.000000	19.476800
1895.000000	19.862500
1894.000000	20.299500
1893.000000	20.756300
1892.000000	21.229000
1891.000000	21.730900
1890.000000	22.192200
1889.000000	22.621400
1888.000000	23.071800
1887.000000	23.473500
1886.000000	23.886500
1885.000000	24.293100
1884.000000	24.692400
1883.000000	25.067900
1882.000000	25.423000
1881.000000	25.756100
1880.000000	26.068000
1879.000000	26.370100
1878.000000	26.679000
1877.000000	26.954500
1876.000000	27.223700
1875.000000	27.502000
1874.000000	27.743400
1873.000000	27.982300
1872.000000	28.200000
1871.000000	28.376900
1870.000000	28.536900
1869.000000	28.685000
1868.000000	28.823100
1867.000000	28.915200
1866.000000	28.994900
1865.000000	29.085800
1864.000000	29.173000
1863.000000	29.268000
1862.000000	29.387400
1861.000000	29.498200
1860.000000	29.594000
1859.000000	29.663700
1858.000000	29.734800
1857.000000	29.787100
1856.000000	29.849000
1855.000000	29.900500
1854.000000	29.933800
1853.000000	29.950700
1852.000000	29.978900
1851.000000	30.033500
1850.000000	30.096400
1849.000000	30.153800
1848.000000	30.157200
1847.000000	30.142200
1846.000000	30.120000
1845.000000	30.105300
1844.000000	30.099800
1843.000000	30.124200
1842.000000	30.157100
1841.000000	30.160900
1840.000000	30.144900
1839.000000	30.122400
1838.000000	30.103300
1837.000000	30.078800
1836.000000	30.041000
1835.000000	29.994300
1834.000000	29.957300
1833.000000	29.926000
1832.000000	29.894600
1831.000000	29.898600
1830.000000	29.897300
1829.000000	29.883900
1828.000000	29.843000
1827.000000	29.811400
1826.000000	29.806700
1825.000000	29.795700
1824.000000	29.791400
1823.000000	29.809500
1822.000000	29.861300
1821.000000	29.882300
1820.000000	29.873400
1819.000000	29.837800
1818.000000	29.824800
1817.000000	29.838000
1816.000000	29.845000
1815.000000	29.830100
1814.000000	29.808300
1813.000000	29.812200
1812.000000	29.820000
1811.000000	29.782100
1810.000000	29.740300
1809.000000	29.725600
1808.000000	29.727700
1807.000000	29.718500
1806.000000	29.693100
1805.000000	29.645300
1804.000000	29.630900
1803.000000	29.631400
1802.000000	29.631900
1801.000000	29.608400
1800.000000	29.560400
1799.000000	29.527600
1798.000000	29.513700
1797.000000	29.498200
1796.000000	29.478400
1795.000000	29.451600
1794.000000	29.428200
1793.000000	29.398100
1792.000000	29.379200
1791.000000	29.365700
1790.000000	29.345900
1789.000000	29.332400
1788.000000	29.327200
1787.000000	29.326100
1786.000000	29.316600
1785.000000	29.308000
1784.000000	29.286400
1783.000000	29.264600
1782.000000	29.241400
1781.000000	29.217100
1780.000000	29.189200
1779.000000	29.163200
1778.000000	29.107300
1777.000000	29.059300
1776.000000	29.020700
1775.000000	28.971300
1774.000000	28.909700
1773.000000	28.863000
1772.000000	28.814200
1771.000000	28.756900
1770.000000	28.695400
1769.000000	28.632700
1768.000000	28.574400
1767.000000	28.517300
1766.000000	28.464600
1765.000000	28.404400
1764.000000	28.370500
1763.000000	28.339000
1762.000000	28.303200
1761.000000	28.266500
1760.000000	28.250800
1759.000000	28.248300
1758.000000	28.211300
1757.000000	28.189000
1756.000000	28.178300
1755.000000	28.160000
1754.000000	28.137600
1753.000000	28.124400
1752.000000	28.113100
1751.000000	28.065200
1750.000000	28.038100
1749.000000	27.997400
1748.000000	27.964000
1747.000000	27.909900
1746.000000	27.863700
1745.000000	27.787600
1744.000000	27.727200
1743.000000	27.672300
1742.000000	27.589500
1741.000000	27.526100
1740.000000	27.453300
1739.000000	27.373700
1738.000000	27.338200
1737.000000	27.283000
1736.000000	27.228400
1735.000000	27.178400
1734.000000	27.139100
1733.000000	27.103100
1732.000000	27.070200
1731.000000	27.010800
1730.000000	26.968600
1729.000000	26.961400
1728.000000	26.926700
1727.000000	26.897400
1726.000000	26.882800
1725.000000	26.883900
1724.000000	26.903300
1723.000000	26.924900
1722.000000	27.021900
1721.000000	27.117400
1720.000000	27.258500
1719.000000	27.453700
1718.000000	27.646100
1717.000000	27.836600
1716.000000	28.026700
1715.000000	28.225400
1714.000000	28.417000
1713.000000	28.579300
1712.000000	28.747000
1711.000000	28.897600
1710.000000	29.006500
1709.000000	29.127800
1708.000000	29.249000
1707.000000	29.324600
1706.000000	29.412400
1705.000000	29.461700
1704.000000	29.517700
1703.000000	29.567200
1702.000000	29.597000
1701.000000	29.628700
1700.000000	29.651200
1699.000000	29.676400
1698.000000	29.696800
1697.000000	29.710000
1696.000000	29.709500
1695.000000	29.690100
1694.000000	29.663000
1693.000000	29.612100
1692.000000	29.575500
1691.000000	29.523400
1690.000000	29.506200
1689.000000	29.487900
1688.000000	29.498000
1687.000000	29.558100
1686.000000	29.674300
1685.000000	29.827400
1684.000000	29.995500
1683.000000	30.190000
1682.000000	30.403300
1681.000000	30.605700
1680.000000	30.801100
1679.000000	31.000000
1678.000000	31.156500
1677.000000	31.335100
1676.000000	31.518400
1675.000000	31.652700
1674.000000	31.796200
1673.000000	31.956300
1672.000000	32.101800
1671.000000	32.256800
1670.000000	32.403400
1669.000000	32.567900
1668.000000	32.704800
1667.000000	32.842300
1666.000000	32.957100
1665.000000	33.083300
1664.000000	33.190100
1663.000000	33.325600
1662.000000	33.416700
1661.000000	33.526800
1660.000000	33.618400
1659.000000	33.703200
1658.000000	33.767500
1657.000000	33.826100
1656.000000	33.884500
1655.000000	33.928500
1654.000000	33.955900
1653.000000	33.945800
1652.000000	33.971500
1651.000000	33.973300
1650.000000	33.978800
1649.000000	33.970400
1648.000000	33.965400
1647.000000	33.948700
1646.000000	33.933200
1645.000000	33.906800
1644.000000	33.876800
1643.000000	33.865200
1642.000000	33.844000
1641.000000	33.836800
1640.000000	33.817700
1639.000000	33.796200
1638.000000	33.783200
1637.000000	33.759100
1636.000000	33.727200
1635.000000	33.711300
1634.000000	33.679500
1633.000000	33.655300
1632.000000	33.607800
1631.000000	33.576400
1630.000000	33.545600
1629.000000	33.514100
1628.000000	33.490500
1627.000000	33.446700
1626.000000	33.406700
1625.000000	33.360300
1624.000000	33.333000
1623.000000	33.305900
1622.000000	33.275800
1621.000000	33.273200
1620.000000	33.236400
1619.000000	33.218100
1618.000000	33.193100
1617.000000	33.178800
1616.000000	33.157800
1615.000000	33.124200
