PE UV       SUBTECH     SPECTRUM    ASCII       PEDS        4.00        
   -1
CICIMAUCR0112-2.Sample.ASC
24/04/04
15:29:38.00
24/04/04
15:29:38.00
Vinicio Soto Monge
C. resplendens
250,000000
1
Lambda 1050
1050L1511233
PerkinElmer UV WinLab 6.3.2.0749 / 2.02.05 Lambda 900 UV/VIS/NIR, Aug  7 2015 09:38:08

0
0
3350/servo 860,8/2
0
0
UV/VIS
1
1
1
DoubleDePol,CommonBeamDepol,RBeamAtt,SBeamAtt,60mm sphere, WB InGaAs Detector
0
0
0
0
Program
Program
3350/servo 860,8/2
3350/0,2 860,8/0,2
3350/0,2 860,8/0,2
0
15.00
 
 
 
0
 
860,8
319,2
860,8
Front
100
on
S:100 R:100
0
0
0
0
 
0
 
 
 
0
 
 
0
0
0
0
0
 
 
 
 
0
0


0
0
#HDR
-1
-1
#GR
nm
%R
1.0
0.0
2500,000000
-1,000000
2251
8
62,626100
4,604700
#DATA
2500.000000	4.652700
2499.000000	4.761900
2498.000000	4.708400
2497.000000	4.628500
2496.000000	4.727100
2495.000000	4.604700
2494.000000	4.713500
2493.000000	4.652300
2492.000000	4.731600
2491.000000	4.635100
2490.000000	4.630100
2489.000000	4.687900
2488.000000	4.673100
2487.000000	4.661100
2486.000000	4.661100
2485.000000	4.693500
2484.000000	4.676500
2483.000000	4.701200
2482.000000	4.731300
2481.000000	4.708300
2480.000000	4.689900
2479.000000	4.649400
2478.000000	4.661600
2477.000000	4.663400
2476.000000	4.661000
2475.000000	4.710400
2474.000000	4.683900
2473.000000	4.692600
2472.000000	4.708100
2471.000000	4.681900
2470.000000	4.682200
2469.000000	4.691000
2468.000000	4.710000
2467.000000	4.665000
2466.000000	4.682200
2465.000000	4.682400
2464.000000	4.707200
2463.000000	4.736800
2462.000000	4.715100
2461.000000	4.742800
2460.000000	4.741200
2459.000000	4.749700
2458.000000	4.758700
2457.000000	4.776700
2456.000000	4.780000
2455.000000	4.765400
2454.000000	4.797100
2453.000000	4.812900
2452.000000	4.823400
2451.000000	4.831600
2450.000000	4.848000
2449.000000	4.881700
2448.000000	4.900000
2447.000000	4.913400
2446.000000	4.914300
2445.000000	4.936500
2444.000000	4.939400
2443.000000	4.955800
2442.000000	4.986300
2441.000000	5.002000
2440.000000	5.018400
2439.000000	5.027500
2438.000000	5.045500
2437.000000	5.033200
2436.000000	5.055900
2435.000000	5.085600
2434.000000	5.080200
2433.000000	5.093700
2432.000000	5.125100
2431.000000	5.126900
2430.000000	5.136600
2429.000000	5.144300
2428.000000	5.171600
2427.000000	5.167200
2426.000000	5.167300
2425.000000	5.177800
2424.000000	5.215100
2423.000000	5.212800
2422.000000	5.218100
2421.000000	5.221300
2420.000000	5.248200
2419.000000	5.281200
2418.000000	5.316000
2417.000000	5.311500
2416.000000	5.319600
2415.000000	5.335400
2414.000000	5.330400
2413.000000	5.339300
2412.000000	5.356500
2411.000000	5.377500
2410.000000	5.395800
2409.000000	5.400900
2408.000000	5.401000
2407.000000	5.410100
2406.000000	5.416200
2405.000000	5.435000
2404.000000	5.450100
2403.000000	5.451300
2402.000000	5.467400
2401.000000	5.459300
2400.000000	5.479900
2399.000000	5.484200
2398.000000	5.495300
2397.000000	5.503200
2396.000000	5.508700
2395.000000	5.519300
2394.000000	5.521100
2393.000000	5.527200
2392.000000	5.541100
2391.000000	5.551200
2390.000000	5.552000
2389.000000	5.561700
2388.000000	5.574000
2387.000000	5.577900
2386.000000	5.564700
2385.000000	5.559800
2384.000000	5.572500
2383.000000	5.566600
2382.000000	5.567800
2381.000000	5.568400
2380.000000	5.575000
2379.000000	5.578900
2378.000000	5.575800
2377.000000	5.565200
2376.000000	5.557200
2375.000000	5.572000
2374.000000	5.571400
2373.000000	5.573800
2372.000000	5.573600
2371.000000	5.557600
2370.000000	5.551200
2369.000000	5.552300
2368.000000	5.552100
2367.000000	5.538000
2366.000000	5.535500
2365.000000	5.543200
2364.000000	5.545300
2363.000000	5.528700
2362.000000	5.512900
2361.000000	5.502800
2360.000000	5.499700
2359.000000	5.495800
2358.000000	5.493600
2357.000000	5.494800
2356.000000	5.490600
2355.000000	5.478600
2354.000000	5.484800
2353.000000	5.480200
2352.000000	5.465100
2351.000000	5.458500
2350.000000	5.461600
2349.000000	5.461600
2348.000000	5.450700
2347.000000	5.465100
2346.000000	5.471700
2345.000000	5.465800
2344.000000	5.467700
2343.000000	5.469000
2342.000000	5.465200
2341.000000	5.468500
2340.000000	5.464200
2339.000000	5.458100
2338.000000	5.448700
2337.000000	5.447200
2336.000000	5.458500
2335.000000	5.454500
2334.000000	5.436700
2333.000000	5.414200
2332.000000	5.406800
2331.000000	5.400200
2330.000000	5.384700
2329.000000	5.369200
2328.000000	5.368100
2327.000000	5.367800
2326.000000	5.347900
2325.000000	5.328900
2324.000000	5.308700
2323.000000	5.299900
2322.000000	5.283100
2321.000000	5.279300
2320.000000	5.261200
2319.000000	5.239200
2318.000000	5.206400
2317.000000	5.189300
2316.000000	5.178200
2315.000000	5.171600
2314.000000	5.163500
2313.000000	5.158700
2312.000000	5.135100
2311.000000	5.114000
2310.000000	5.128300
2309.000000	5.109900
2308.000000	5.098200
2307.000000	5.092800
2306.000000	5.092600
2305.000000	5.086800
2304.000000	5.077900
2303.000000	5.073100
2302.000000	5.070500
2301.000000	5.061900
2300.000000	5.060700
2299.000000	5.053700
2298.000000	5.041500
2297.000000	5.055900
2296.000000	5.038400
2295.000000	5.054900
2294.000000	5.039400
2293.000000	5.035400
2292.000000	5.032100
2291.000000	5.010500
2290.000000	5.007500
2289.000000	5.004800
2288.000000	4.981300
2287.000000	4.968600
2286.000000	4.961600
2285.000000	4.951100
2284.000000	4.935700
2283.000000	4.916800
2282.000000	4.917300
2281.000000	4.910100
2280.000000	4.885300
2279.000000	4.870700
2278.000000	4.860600
2277.000000	4.837400
2276.000000	4.821200
2275.000000	4.805000
2274.000000	4.795300
2273.000000	4.764800
2272.000000	4.759400
2271.000000	4.765400
2270.000000	4.744600
2269.000000	4.734500
2268.000000	4.737000
2267.000000	4.729200
2266.000000	4.709000
2265.000000	4.711300
2264.000000	4.716600
2263.000000	4.699200
2262.000000	4.724800
2261.000000	4.740200
2260.000000	4.726200
2259.000000	4.723200
2258.000000	4.725200
2257.000000	4.748500
2256.000000	4.731600
2255.000000	4.752900
2254.000000	4.765100
2253.000000	4.779200
2252.000000	4.793200
2251.000000	4.812600
2250.000000	4.819900
2249.000000	4.840900
2248.000000	4.867800
2247.000000	4.881600
2246.000000	4.902300
2245.000000	4.908100
2244.000000	4.916300
2243.000000	4.925300
2242.000000	4.938700
2241.000000	4.930500
2240.000000	4.953300
2239.000000	4.977700
2238.000000	4.976500
2237.000000	5.000500
2236.000000	5.006000
2235.000000	5.005000
2234.000000	5.021700
2233.000000	5.015200
2232.000000	5.013900
2231.000000	5.006900
2230.000000	5.019500
2229.000000	4.999300
2228.000000	4.987000
2227.000000	4.997200
2226.000000	4.973900
2225.000000	4.955600
2224.000000	4.941400
2223.000000	4.928100
2222.000000	4.873200
2221.000000	4.865500
2220.000000	4.845300
2219.000000	4.819200
2218.000000	4.784900
2217.000000	4.778700
2216.000000	4.765500
2215.000000	4.748100
2214.000000	4.732000
2213.000000	4.723000
2212.000000	4.721400
2211.000000	4.709300
2210.000000	4.728300
2209.000000	4.736400
2208.000000	4.782300
2207.000000	4.827600
2206.000000	4.845500
2205.000000	4.909700
2204.000000	4.949100
2203.000000	5.018300
2202.000000	5.089200
2201.000000	5.158500
2200.000000	5.260300
2199.000000	5.342100
2198.000000	5.414600
2197.000000	5.503900
2196.000000	5.579300
2195.000000	5.658700
2194.000000	5.731000
2193.000000	5.816200
2192.000000	5.872000
2191.000000	5.931100
2190.000000	6.005300
2189.000000	6.047100
2188.000000	6.111200
2187.000000	6.159000
2186.000000	6.181800
2185.000000	6.216000
2184.000000	6.249400
2183.000000	6.277500
2182.000000	6.302500
2181.000000	6.333900
2180.000000	6.359900
2179.000000	6.394500
2178.000000	6.392800
2177.000000	6.418600
2176.000000	6.427300
2175.000000	6.470100
2174.000000	6.454400
2173.000000	6.462300
2172.000000	6.478600
2171.000000	6.487600
2170.000000	6.494900
2169.000000	6.502500
2168.000000	6.500500
2167.000000	6.513300
2166.000000	6.541000
2165.000000	6.547000
2164.000000	6.556900
2163.000000	6.540300
2162.000000	6.563500
2161.000000	6.592100
2160.000000	6.600300
2159.000000	6.604400
2158.000000	6.622300
2157.000000	6.634100
2156.000000	6.663700
2155.000000	6.662200
2154.000000	6.683300
2153.000000	6.695300
2152.000000	6.733800
2151.000000	6.748100
2150.000000	6.752700
2149.000000	6.755500
2148.000000	6.759900
2147.000000	6.781900
2146.000000	6.800500
2145.000000	6.801900
2144.000000	6.804100
2143.000000	6.823200
2142.000000	6.830500
2141.000000	6.825800
2140.000000	6.839600
2139.000000	6.844400
2138.000000	6.837900
2137.000000	6.837500
2136.000000	6.862700
2135.000000	6.873600
2134.000000	6.868800
2133.000000	6.867400
2132.000000	6.879400
2131.000000	6.894100
2130.000000	6.897500
2129.000000	6.890000
2128.000000	6.900800
2127.000000	6.915900
2126.000000	6.915200
2125.000000	6.927000
2124.000000	6.917800
2123.000000	6.901200
2122.000000	6.898800
2121.000000	6.899200
2120.000000	6.902700
2119.000000	6.914300
2118.000000	6.908000
2117.000000	6.893700
2116.000000	6.886000
2115.000000	6.889100
2114.000000	6.906700
2113.000000	6.901200
2112.000000	6.881900
2111.000000	6.869700
2110.000000	6.861600
2109.000000	6.868400
2108.000000	6.863500
2107.000000	6.860600
2106.000000	6.872200
2105.000000	6.853800
2104.000000	6.849700
2103.000000	6.856900
2102.000000	6.853400
2101.000000	6.850900
2100.000000	6.850500
2099.000000	6.847700
2098.000000	6.833100
2097.000000	6.836800
2096.000000	6.841100
2095.000000	6.834800
2094.000000	6.824600
2093.000000	6.815100
2092.000000	6.826800
2091.000000	6.828000
2090.000000	6.837700
2089.000000	6.839800
2088.000000	6.828900
2087.000000	6.834700
2086.000000	6.833400
2085.000000	6.835000
2084.000000	6.833200
2083.000000	6.837200
2082.000000	6.838100
2081.000000	6.849000
2080.000000	6.854900
2079.000000	6.846700
2078.000000	6.849400
2077.000000	6.853500
2076.000000	6.855500
2075.000000	6.855200
2074.000000	6.857600
2073.000000	6.864500
2072.000000	6.855400
2071.000000	6.862800
2070.000000	6.875800
2069.000000	6.880500
2068.000000	6.862500
2067.000000	6.856000
2066.000000	6.866100
2065.000000	6.880900
2064.000000	6.895600
2063.000000	6.907000
2062.000000	6.899200
2061.000000	6.907500
2060.000000	6.908000
2059.000000	6.916800
2058.000000	6.938600
2057.000000	6.948400
2056.000000	6.955000
2055.000000	6.978100
2054.000000	6.982400
2053.000000	6.985700
2052.000000	7.008700
2051.000000	7.040100
2050.000000	7.061900
2049.000000	7.081000
2048.000000	7.106700
2047.000000	7.124500
2046.000000	7.160200
2045.000000	7.190100
2044.000000	7.213000
2043.000000	7.249800
2042.000000	7.293900
2041.000000	7.326200
2040.000000	7.358600
2039.000000	7.380700
2038.000000	7.417300
2037.000000	7.459800
2036.000000	7.503200
2035.000000	7.531700
2034.000000	7.553800
2033.000000	7.583400
2032.000000	7.610800
2031.000000	7.674500
2030.000000	7.695000
2029.000000	7.704900
2028.000000	7.739900
2027.000000	7.763900
2026.000000	7.780600
2025.000000	7.799700
2024.000000	7.826700
2023.000000	7.867200
2022.000000	7.879600
2021.000000	7.915800
2020.000000	7.932500
2019.000000	7.948700
2018.000000	7.981000
2017.000000	8.007500
2016.000000	8.023700
2015.000000	8.036500
2014.000000	8.058100
2013.000000	8.076500
2012.000000	8.097500
2011.000000	8.111400
2010.000000	8.125800
2009.000000	8.132800
2008.000000	8.165400
2007.000000	8.159600
2006.000000	8.159100
2005.000000	8.161200
2004.000000	8.178000
2003.000000	8.182400
2002.000000	8.176800
2001.000000	8.187800
2000.000000	8.152800
1999.000000	8.150300
1998.000000	8.150300
1997.000000	8.129200
1996.000000	8.152400
1995.000000	8.111300
1994.000000	8.120500
1993.000000	8.112500
1992.000000	8.119100
1991.000000	8.077700
1990.000000	8.064800
1989.000000	8.054000
1988.000000	8.041500
1987.000000	8.015000
1986.000000	7.978900
1985.000000	7.991300
1984.000000	7.972000
1983.000000	7.947900
1982.000000	7.937200
1981.000000	7.890700
1980.000000	7.882700
1979.000000	7.850200
1978.000000	7.842400
1977.000000	7.839200
1976.000000	7.803800
1975.000000	7.763900
1974.000000	7.731200
1973.000000	7.732000
1972.000000	7.675500
1971.000000	7.675600
1970.000000	7.656700
1969.000000	7.646700
1968.000000	7.619700
1967.000000	7.605000
1966.000000	7.591100
1965.000000	7.567200
1964.000000	7.553500
1963.000000	7.527800
1962.000000	7.509100
1961.000000	7.492300
1960.000000	7.488000
1959.000000	7.460100
1958.000000	7.439600
1957.000000	7.409700
1956.000000	7.403600
1955.000000	7.377600
1954.000000	7.384500
1953.000000	7.369100
1952.000000	7.345700
1951.000000	7.344200
1950.000000	7.330500
1949.000000	7.301300
1948.000000	7.295000
1947.000000	7.282700
1946.000000	7.277900
1945.000000	7.257500
1944.000000	7.261700
1943.000000	7.251900
1942.000000	7.240300
1941.000000	7.237600
1940.000000	7.256500
1939.000000	7.233400
1938.000000	7.232500
1937.000000	7.243100
1936.000000	7.255400
1935.000000	7.258400
1934.000000	7.262900
1933.000000	7.251300
1932.000000	7.268500
1931.000000	7.301900
1930.000000	7.321100
1929.000000	7.336600
1928.000000	7.392300
1927.000000	7.400200
1926.000000	7.418700
1925.000000	7.453200
1924.000000	7.486400
1923.000000	7.516200
1922.000000	7.551300
1921.000000	7.592500
1920.000000	7.648400
1919.000000	7.704900
1918.000000	7.766300
1917.000000	7.813300
1916.000000	7.835700
1915.000000	7.893000
1914.000000	7.959900
1913.000000	8.051300
1912.000000	8.088300
1911.000000	8.174700
1910.000000	8.224800
1909.000000	8.280100
1908.000000	8.339100
1907.000000	8.429400
1906.000000	8.516200
1905.000000	8.606700
1904.000000	8.710300
1903.000000	8.786300
1902.000000	8.867200
1901.000000	8.937600
1900.000000	9.035200
1899.000000	9.165700
1898.000000	9.235900
1897.000000	9.328300
1896.000000	9.422200
1895.000000	9.501400
1894.000000	9.599700
1893.000000	9.701700
1892.000000	9.796200
1891.000000	9.917800
1890.000000	10.023000
1889.000000	10.120300
1888.000000	10.235200
1887.000000	10.356200
1886.000000	10.499500
1885.000000	10.664400
1884.000000	10.862700
1883.000000	11.075600
1882.000000	11.284300
1881.000000	11.545000
1880.000000	11.796300
1879.000000	12.042000
1878.000000	12.279000
1877.000000	12.514600
1876.000000	12.746900
1875.000000	12.948000
1874.000000	13.157800
1873.000000	13.348000
1872.000000	13.487400
1871.000000	13.623800
1870.000000	13.745400
1869.000000	13.843800
1868.000000	13.928700
1867.000000	13.985900
1866.000000	14.020500
1865.000000	14.043600
1864.000000	14.063100
1863.000000	14.060100
1862.000000	14.078500
1861.000000	14.108000
1860.000000	14.090300
1859.000000	14.056200
1858.000000	14.020900
1857.000000	13.986800
1856.000000	13.950500
1855.000000	13.890200
1854.000000	13.835500
1853.000000	13.775200
1852.000000	13.696500
1851.000000	13.628100
1850.000000	13.571200
1849.000000	13.515500
1848.000000	13.457400
1847.000000	13.373200
1846.000000	13.285300
1845.000000	13.225200
1844.000000	13.171800
1843.000000	13.145500
1842.000000	13.124100
1841.000000	13.096000
1840.000000	13.057800
1839.000000	13.012700
1838.000000	12.968300
1837.000000	12.928400
1836.000000	12.879700
1835.000000	12.810200
1834.000000	12.736100
1833.000000	12.669000
1832.000000	12.611000
1831.000000	12.555400
1830.000000	12.478600
1829.000000	12.403700
1828.000000	12.328100
1827.000000	12.260200
1826.000000	12.208700
1825.000000	12.147900
1824.000000	12.090600
1823.000000	12.077000
1822.000000	12.082700
1821.000000	12.045600
1820.000000	12.020700
1819.000000	11.999000
1818.000000	11.964100
1817.000000	11.951900
1816.000000	11.956700
1815.000000	11.950400
1814.000000	11.924600
1813.000000	11.910700
1812.000000	11.886800
1811.000000	11.860600
1810.000000	11.846100
1809.000000	11.825000
1808.000000	11.785500
1807.000000	11.756500
1806.000000	11.731600
1805.000000	11.681700
1804.000000	11.640600
1803.000000	11.605800
1802.000000	11.580600
1801.000000	11.554400
1800.000000	11.507800
1799.000000	11.466500
1798.000000	11.435200
1797.000000	11.398800
1796.000000	11.370200
1795.000000	11.342600
1794.000000	11.309200
1793.000000	11.273100
1792.000000	11.221600
1791.000000	11.176500
1790.000000	11.141700
1789.000000	11.109600
1788.000000	11.053800
1787.000000	11.001600
1786.000000	10.961900
1785.000000	10.915600
1784.000000	10.861100
1783.000000	10.797000
1782.000000	10.745500
1781.000000	10.707400
1780.000000	10.652600
1779.000000	10.598200
1778.000000	10.542300
1777.000000	10.482100
1776.000000	10.414200
1775.000000	10.337900
1774.000000	10.266200
1773.000000	10.194500
1772.000000	10.092300
1771.000000	10.020900
1770.000000	9.954700
1769.000000	9.887900
1768.000000	9.829600
1767.000000	9.769100
1766.000000	9.721700
1765.000000	9.689300
1764.000000	9.669600
1763.000000	9.645000
1762.000000	9.659100
1761.000000	9.692200
1760.000000	9.738000
1759.000000	9.761500
1758.000000	9.815400
1757.000000	9.854600
1756.000000	9.889000
1755.000000	9.924000
1754.000000	9.923800
1753.000000	9.921500
1752.000000	9.916500
1751.000000	9.910100
1750.000000	9.867700
1749.000000	9.831100
1748.000000	9.792800
1747.000000	9.769800
1746.000000	9.711800
1745.000000	9.648900
1744.000000	9.554400
1743.000000	9.463600
1742.000000	9.380100
1741.000000	9.262600
1740.000000	9.151900
1739.000000	9.054800
1738.000000	8.958900
1737.000000	8.902100
1736.000000	8.836400
1735.000000	8.806600
1734.000000	8.803700
1733.000000	8.774500
1732.000000	8.810300
1731.000000	8.860600
1730.000000	8.918200
1729.000000	8.953000
1728.000000	9.013700
1727.000000	9.043100
1726.000000	9.111800
1725.000000	9.152700
1724.000000	9.195700
1723.000000	9.216100
1722.000000	9.173000
1721.000000	9.186400
1720.000000	9.182200
1719.000000	9.186400
1718.000000	9.177900
1717.000000	9.185800
1716.000000	9.204400
1715.000000	9.238300
1714.000000	9.241000
1713.000000	9.254300
1712.000000	9.292900
1711.000000	9.285400
1710.000000	9.304000
1709.000000	9.283500
1708.000000	9.254300
1707.000000	9.259800
1706.000000	9.232500
1705.000000	9.222800
1704.000000	9.169600
1703.000000	9.139300
1702.000000	9.113900
1701.000000	9.045000
1700.000000	8.985100
1699.000000	8.907100
1698.000000	8.849400
1697.000000	8.797200
1696.000000	8.786600
1695.000000	8.754100
1694.000000	8.795500
1693.000000	8.818600
1692.000000	8.864400
1691.000000	8.940600
1690.000000	8.991400
1689.000000	9.050800
1688.000000	9.079000
1687.000000	9.075800
1686.000000	9.071100
1685.000000	9.052700
1684.000000	9.087200
1683.000000	9.135700
1682.000000	9.283100
1681.000000	9.492800
1680.000000	9.717800
1679.000000	10.006100
1678.000000	10.296300
1677.000000	10.594400
1676.000000	10.877600
1675.000000	11.093400
1674.000000	11.316900
1673.000000	11.523100
1672.000000	11.685700
1671.000000	11.826200
1670.000000	11.917700
1669.000000	12.026600
1668.000000	12.114600
1667.000000	12.225600
1666.000000	12.279500
1665.000000	12.323400
1664.000000	12.365000
1663.000000	12.424300
1662.000000	12.448400
1661.000000	12.486200
1660.000000	12.506800
1659.000000	12.519900
1658.000000	12.533600
1657.000000	12.537200
1656.000000	12.530600
1655.000000	12.536700
1654.000000	12.506300
1653.000000	12.492500
1652.000000	12.475000
1651.000000	12.455600
1650.000000	12.431600
1649.000000	12.413400
1648.000000	12.382600
1647.000000	12.341300
1646.000000	12.319800
1645.000000	12.266400
1644.000000	12.256100
1643.000000	12.211800
1642.000000	12.182900
1641.000000	12.148700
1640.000000	12.117500
1639.000000	12.066600
1638.000000	12.025200
1637.000000	11.986200
1636.000000	11.945900
1635.000000	11.910300
1634.000000	11.851800
1633.000000	11.798900
1632.000000	11.756100
1631.000000	11.723700
1630.000000	11.676900
1629.000000	11.635100
1628.000000	11.582700
1627.000000	11.555500
1626.000000	11.504800
1625.000000	11.453900
1624.000000	11.398700
1623.000000	11.374100
1622.000000	11.342600
1621.000000	11.296400
1620.000000	11.227500
1619.000000	11.193300
1618.000000	11.169400
1617.000000	11.123300
1616.000000	11.082600
1615.000000	11.050400
1614.000000	11.027500
1613.000000	10.987900
1612.000000	10.941000
1611.000000	10.916000
1610.000000	10.880100
1609.000000	10.854800
1608.000000	10.828300
1607.000000	10.804100
1606.000000	10.766100
1605.000000	10.717300
1604.000000	10.710200
1603.000000	10.692700
1602.000000	10.646100
1601.000000	10.612600
1600.000000	10.591400
1599.000000	10.554400
1598.000000	10.538700
1597.000000	10.512100
1596.000000	10.481700
1595.000000	10.466600
1594.000000	10.455400
1593.000000	10.432600
1592.000000	10.405100
