PE UV       SUBTECH     SPECTRUM    ASCII       PEDS        4.00        
   -1
CICIMAUCR0020-1.Sample.ASC
24/03/08
12:01:00.00
24/03/08
12:01:00.00
Vinicio Soto Monge
C. resplendens
250,000000
1
Lambda 1050
1050L1511233
PerkinElmer UV WinLab 6.3.2.0749 / 2.02.05 Lambda 900 UV/VIS/NIR, Aug  7 2015 09:38:08

0
0
3350/servo 860,8/2
0
0
UV/VIS
1
1
1
DoubleDePol,CommonBeamDepol,RBeamAtt,SBeamAtt,60mm sphere, WB InGaAs Detector
0
0
0
0
Program
Program
3350/servo 860,8/2
3350/0,2 860,8/0,2
3350/0,2 860,8/0,2
0
15.00
 
 
 
0
 
860,8
319,2
860,8
Front
100
on
S:100 R:100
0
0
0
0
 
0
 
 
 
0
 
 
0
0
0
0
0
 
 
 
 
0
0


0
0
#HDR
-1
-1
#GR
nm
%R
1.0
0.0
2500,000000
-1,000000
2251
8
26,391500
2,064300
#DATA
2500.000000	2.294900
2499.000000	2.284600
2498.000000	2.361600
2497.000000	2.341600
2496.000000	2.365700
2495.000000	2.273900
2494.000000	2.337400
2493.000000	2.273900
2492.000000	2.241800
2491.000000	2.206000
2490.000000	2.218900
2489.000000	2.327100
2488.000000	2.285100
2487.000000	2.258600
2486.000000	2.262500
2485.000000	2.223400
2484.000000	2.231900
2483.000000	2.108600
2482.000000	2.163300
2481.000000	2.181400
2480.000000	2.207900
2479.000000	2.220300
2478.000000	2.245300
2477.000000	2.220100
2476.000000	2.196600
2475.000000	2.179800
2474.000000	2.226600
2473.000000	2.196900
2472.000000	2.214700
2471.000000	2.188000
2470.000000	2.168000
2469.000000	2.177900
2468.000000	2.195700
2467.000000	2.214900
2466.000000	2.223300
2465.000000	2.199300
2464.000000	2.221100
2463.000000	2.237200
2462.000000	2.212200
2461.000000	2.196700
2460.000000	2.233600
2459.000000	2.263600
2458.000000	2.260900
2457.000000	2.283100
2456.000000	2.318600
2455.000000	2.300600
2454.000000	2.310800
2453.000000	2.330400
2452.000000	2.372800
2451.000000	2.364400
2450.000000	2.368900
2449.000000	2.424000
2448.000000	2.444600
2447.000000	2.453200
2446.000000	2.457600
2445.000000	2.484200
2444.000000	2.476000
2443.000000	2.518900
2442.000000	2.538800
2441.000000	2.555300
2440.000000	2.565800
2439.000000	2.602800
2438.000000	2.612700
2437.000000	2.623700
2436.000000	2.641800
2435.000000	2.656200
2434.000000	2.681900
2433.000000	2.691700
2432.000000	2.716500
2431.000000	2.753100
2430.000000	2.756800
2429.000000	2.770500
2428.000000	2.766700
2427.000000	2.789400
2426.000000	2.816500
2425.000000	2.839000
2424.000000	2.850800
2423.000000	2.863800
2422.000000	2.901600
2421.000000	2.926200
2420.000000	2.931000
2419.000000	2.926900
2418.000000	2.934700
2417.000000	2.952400
2416.000000	2.972800
2415.000000	2.985400
2414.000000	2.978700
2413.000000	3.000900
2412.000000	3.005200
2411.000000	3.015900
2410.000000	3.027200
2409.000000	3.030300
2408.000000	3.059800
2407.000000	3.053300
2406.000000	3.066200
2405.000000	3.079900
2404.000000	3.093800
2403.000000	3.101900
2402.000000	3.115200
2401.000000	3.108900
2400.000000	3.114100
2399.000000	3.123600
2398.000000	3.143200
2397.000000	3.142900
2396.000000	3.144600
2395.000000	3.156200
2394.000000	3.185700
2393.000000	3.199200
2392.000000	3.187100
2391.000000	3.196400
2390.000000	3.208900
2389.000000	3.209300
2388.000000	3.224400
2387.000000	3.231500
2386.000000	3.229200
2385.000000	3.220900
2384.000000	3.225200
2383.000000	3.247000
2382.000000	3.259600
2381.000000	3.246300
2380.000000	3.234300
2379.000000	3.232600
2378.000000	3.237100
2377.000000	3.251700
2376.000000	3.228800
2375.000000	3.219400
2374.000000	3.221400
2373.000000	3.209300
2372.000000	3.210900
2371.000000	3.206900
2370.000000	3.202800
2369.000000	3.198400
2368.000000	3.185100
2367.000000	3.187000
2366.000000	3.176400
2365.000000	3.150200
2364.000000	3.126800
2363.000000	3.124300
2362.000000	3.108200
2361.000000	3.088400
2360.000000	3.087600
2359.000000	3.068500
2358.000000	3.057100
2357.000000	3.040900
2356.000000	3.020000
2355.000000	3.015100
2354.000000	3.001500
2353.000000	2.989000
2352.000000	2.968800
2351.000000	2.967400
2350.000000	2.972300
2349.000000	2.984500
2348.000000	3.005100
2347.000000	3.010200
2346.000000	3.004700
2345.000000	3.006300
2344.000000	3.022700
2343.000000	3.034200
2342.000000	3.049000
2341.000000	3.050100
2340.000000	3.060400
2339.000000	3.063800
2338.000000	3.068200
2337.000000	3.075600
2336.000000	3.081200
2335.000000	3.079800
2334.000000	3.066500
2333.000000	3.061700
2332.000000	3.060600
2331.000000	3.040500
2330.000000	3.036400
2329.000000	3.017000
2328.000000	3.004200
2327.000000	2.979100
2326.000000	2.970300
2325.000000	2.958900
2324.000000	2.947900
2323.000000	2.927800
2322.000000	2.905300
2321.000000	2.867900
2320.000000	2.869100
2319.000000	2.835900
2318.000000	2.813500
2317.000000	2.783800
2316.000000	2.755600
2315.000000	2.733300
2314.000000	2.701300
2313.000000	2.686900
2312.000000	2.645000
2311.000000	2.626800
2310.000000	2.603900
2309.000000	2.588000
2308.000000	2.568400
2307.000000	2.556700
2306.000000	2.569600
2305.000000	2.563900
2304.000000	2.551400
2303.000000	2.557500
2302.000000	2.565400
2301.000000	2.574300
2300.000000	2.595500
2299.000000	2.606100
2298.000000	2.621400
2297.000000	2.638400
2296.000000	2.646900
2295.000000	2.654900
2294.000000	2.668800
2293.000000	2.683200
2292.000000	2.694100
2291.000000	2.692300
2290.000000	2.693600
2289.000000	2.698000
2288.000000	2.698200
2287.000000	2.682100
2286.000000	2.674700
2285.000000	2.662600
2284.000000	2.650200
2283.000000	2.610700
2282.000000	2.622700
2281.000000	2.605800
2280.000000	2.596900
2279.000000	2.576800
2278.000000	2.567000
2277.000000	2.553500
2276.000000	2.527600
2275.000000	2.502000
2274.000000	2.500600
2273.000000	2.475400
2272.000000	2.467000
2271.000000	2.465400
2270.000000	2.461900
2269.000000	2.454900
2268.000000	2.454700
2267.000000	2.475900
2266.000000	2.479700
2265.000000	2.484300
2264.000000	2.479400
2263.000000	2.514400
2262.000000	2.550900
2261.000000	2.581700
2260.000000	2.612800
2259.000000	2.635500
2258.000000	2.674200
2257.000000	2.714500
2256.000000	2.768200
2255.000000	2.831200
2254.000000	2.848700
2253.000000	2.894200
2252.000000	2.947500
2251.000000	2.981700
2250.000000	3.015500
2249.000000	3.039600
2248.000000	3.091100
2247.000000	3.130200
2246.000000	3.147800
2245.000000	3.174100
2244.000000	3.223000
2243.000000	3.218600
2242.000000	3.241100
2241.000000	3.277600
2240.000000	3.300100
2239.000000	3.321700
2238.000000	3.326600
2237.000000	3.355500
2236.000000	3.370800
2235.000000	3.368200
2234.000000	3.384100
2233.000000	3.388000
2232.000000	3.391900
2231.000000	3.410300
2230.000000	3.387400
2229.000000	3.395500
2228.000000	3.386400
2227.000000	3.377600
2226.000000	3.365200
2225.000000	3.354800
2224.000000	3.342200
2223.000000	3.339200
2222.000000	3.314200
2221.000000	3.304800
2220.000000	3.266400
2219.000000	3.244600
2218.000000	3.213900
2217.000000	3.196200
2216.000000	3.188200
2215.000000	3.159400
2214.000000	3.153300
2213.000000	3.135700
2212.000000	3.108800
2211.000000	3.081600
2210.000000	3.112100
2209.000000	3.131600
2208.000000	3.125100
2207.000000	3.129600
2206.000000	3.170700
2205.000000	3.185300
2204.000000	3.228800
2203.000000	3.258100
2202.000000	3.299800
2201.000000	3.348500
2200.000000	3.383400
2199.000000	3.413400
2198.000000	3.454200
2197.000000	3.524800
2196.000000	3.563200
2195.000000	3.609800
2194.000000	3.660400
2193.000000	3.712000
2192.000000	3.746300
2191.000000	3.775200
2190.000000	3.818900
2189.000000	3.835600
2188.000000	3.899300
2187.000000	3.914800
2186.000000	3.921700
2185.000000	3.938400
2184.000000	3.976300
2183.000000	3.979100
2182.000000	3.983000
2181.000000	4.009300
2180.000000	4.020900
2179.000000	4.031700
2178.000000	4.023200
2177.000000	4.028300
2176.000000	4.031500
2175.000000	4.022400
2174.000000	4.027600
2173.000000	4.065900
2172.000000	4.066400
2171.000000	4.078900
2170.000000	4.081400
2169.000000	4.088000
2168.000000	4.096200
2167.000000	4.117100
2166.000000	4.122800
2165.000000	4.135300
2164.000000	4.138600
2163.000000	4.149000
2162.000000	4.156400
2161.000000	4.155300
2160.000000	4.170100
2159.000000	4.187300
2158.000000	4.187000
2157.000000	4.212200
2156.000000	4.255000
2155.000000	4.238900
2154.000000	4.251200
2153.000000	4.275800
2152.000000	4.279100
2151.000000	4.303800
2150.000000	4.310600
2149.000000	4.338500
2148.000000	4.357400
2147.000000	4.381700
2146.000000	4.376700
2145.000000	4.394500
2144.000000	4.418100
2143.000000	4.436000
2142.000000	4.437100
2141.000000	4.448300
2140.000000	4.479400
2139.000000	4.489600
2138.000000	4.486100
2137.000000	4.500600
2136.000000	4.518000
2135.000000	4.545100
2134.000000	4.536900
2133.000000	4.536500
2132.000000	4.570400
2131.000000	4.572900
2130.000000	4.553800
2129.000000	4.566200
2128.000000	4.573400
2127.000000	4.563300
2126.000000	4.570900
2125.000000	4.571600
2124.000000	4.559600
2123.000000	4.562500
2122.000000	4.576300
2121.000000	4.571000
2120.000000	4.558700
2119.000000	4.555300
2118.000000	4.558100
2117.000000	4.549500
2116.000000	4.540600
2115.000000	4.540900
2114.000000	4.549400
2113.000000	4.541900
2112.000000	4.528300
2111.000000	4.524800
2110.000000	4.533300
2109.000000	4.535200
2108.000000	4.512700
2107.000000	4.498200
2106.000000	4.495300
2105.000000	4.488200
2104.000000	4.488700
2103.000000	4.473800
2102.000000	4.457600
2101.000000	4.461900
2100.000000	4.469000
2099.000000	4.472000
2098.000000	4.456800
2097.000000	4.441500
2096.000000	4.435500
2095.000000	4.431500
2094.000000	4.437000
2093.000000	4.441100
2092.000000	4.428600
2091.000000	4.420600
2090.000000	4.429000
2089.000000	4.438000
2088.000000	4.428900
2087.000000	4.443400
2086.000000	4.435700
2085.000000	4.422600
2084.000000	4.425800
2083.000000	4.420000
2082.000000	4.430800
2081.000000	4.420400
2080.000000	4.405000
2079.000000	4.408300
2078.000000	4.406800
2077.000000	4.397300
2076.000000	4.395800
2075.000000	4.386500
2074.000000	4.390400
2073.000000	4.377900
2072.000000	4.365500
2071.000000	4.365500
2070.000000	4.349800
2069.000000	4.340200
2068.000000	4.343400
2067.000000	4.331000
2066.000000	4.340200
2065.000000	4.327400
2064.000000	4.309700
2063.000000	4.306500
2062.000000	4.301100
2061.000000	4.289900
2060.000000	4.298200
2059.000000	4.300300
2058.000000	4.297400
2057.000000	4.304500
2056.000000	4.320500
2055.000000	4.326400
2054.000000	4.321200
2053.000000	4.335300
2052.000000	4.371500
2051.000000	4.389900
2050.000000	4.417900
2049.000000	4.452000
2048.000000	4.490100
2047.000000	4.523200
2046.000000	4.554100
2045.000000	4.590300
2044.000000	4.648600
2043.000000	4.692700
2042.000000	4.741400
2041.000000	4.792800
2040.000000	4.826900
2039.000000	4.872800
2038.000000	4.935100
2037.000000	4.969500
2036.000000	5.012100
2035.000000	5.065100
2034.000000	5.100900
2033.000000	5.132200
2032.000000	5.163000
2031.000000	5.187200
2030.000000	5.266800
2029.000000	5.291500
2028.000000	5.321900
2027.000000	5.356200
2026.000000	5.382800
2025.000000	5.413300
2024.000000	5.454300
2023.000000	5.488400
2022.000000	5.522300
2021.000000	5.542700
2020.000000	5.581200
2019.000000	5.594100
2018.000000	5.621000
2017.000000	5.647000
2016.000000	5.670800
2015.000000	5.687400
2014.000000	5.708500
2013.000000	5.723900
2012.000000	5.760300
2011.000000	5.765600
2010.000000	5.764900
2009.000000	5.776000
2008.000000	5.795200
2007.000000	5.791800
2006.000000	5.820000
2005.000000	5.813400
2004.000000	5.816900
2003.000000	5.831600
2002.000000	5.825000
2001.000000	5.812700
2000.000000	5.816100
1999.000000	5.811300
1998.000000	5.797800
1997.000000	5.790800
1996.000000	5.790500
1995.000000	5.773900
1994.000000	5.782400
1993.000000	5.760300
1992.000000	5.737700
1991.000000	5.739700
1990.000000	5.715400
1989.000000	5.707000
1988.000000	5.675800
1987.000000	5.677600
1986.000000	5.649300
1985.000000	5.625000
1984.000000	5.610800
1983.000000	5.594200
1982.000000	5.581100
1981.000000	5.544900
1980.000000	5.508300
1979.000000	5.495100
1978.000000	5.469000
1977.000000	5.443200
1976.000000	5.424800
1975.000000	5.407900
1974.000000	5.387900
1973.000000	5.371000
1972.000000	5.331900
1971.000000	5.316900
1970.000000	5.302300
1969.000000	5.280900
1968.000000	5.266300
1967.000000	5.233400
1966.000000	5.255200
1965.000000	5.214900
1964.000000	5.212300
1963.000000	5.172600
1962.000000	5.154200
1961.000000	5.131000
1960.000000	5.109700
1959.000000	5.090200
1958.000000	5.050700
1957.000000	5.042400
1956.000000	5.047000
1955.000000	4.998900
1954.000000	4.995900
1953.000000	4.980100
1952.000000	4.965800
1951.000000	4.948700
1950.000000	4.933600
1949.000000	4.937600
1948.000000	4.911400
1947.000000	4.900800
1946.000000	4.901900
1945.000000	4.858700
1944.000000	4.853400
1943.000000	4.870500
1942.000000	4.878000
1941.000000	4.865500
1940.000000	4.855000
1939.000000	4.875100
1938.000000	4.849500
1937.000000	4.849400
1936.000000	4.870600
1935.000000	4.884200
1934.000000	4.919900
1933.000000	4.941900
1932.000000	4.968000
1931.000000	4.975500
1930.000000	5.007200
1929.000000	5.015100
1928.000000	5.046500
1927.000000	5.065900
1926.000000	5.097200
1925.000000	5.127100
1924.000000	5.194100
1923.000000	5.259600
1922.000000	5.292400
1921.000000	5.333200
1920.000000	5.345600
1919.000000	5.400300
1918.000000	5.471500
1917.000000	5.549300
1916.000000	5.615000
1915.000000	5.689400
1914.000000	5.772300
1913.000000	5.809400
1912.000000	5.856500
1911.000000	5.919500
1910.000000	6.021200
1909.000000	6.124900
1908.000000	6.220100
1907.000000	6.326100
1906.000000	6.387200
1905.000000	6.432600
1904.000000	6.501800
1903.000000	6.608300
1902.000000	6.719400
1901.000000	6.794200
1900.000000	6.873900
1899.000000	6.953800
1898.000000	7.051200
1897.000000	7.146900
1896.000000	7.262900
1895.000000	7.378800
1894.000000	7.488700
1893.000000	7.581100
1892.000000	7.658300
1891.000000	7.740500
1890.000000	7.826400
1889.000000	7.911800
1888.000000	8.032700
1887.000000	8.152200
1886.000000	8.268700
1885.000000	8.397900
1884.000000	8.531000
1883.000000	8.660600
1882.000000	8.817600
1881.000000	8.986600
1880.000000	9.166000
1879.000000	9.329000
1878.000000	9.478200
1877.000000	9.606400
1876.000000	9.717000
1875.000000	9.830000
1874.000000	9.909500
1873.000000	9.973000
1872.000000	10.026300
1871.000000	10.065500
1870.000000	10.064800
1869.000000	10.083200
1868.000000	10.128000
1867.000000	10.161800
1866.000000	10.214600
1865.000000	10.263100
1864.000000	10.295200
1863.000000	10.340900
1862.000000	10.378700
1861.000000	10.369400
1860.000000	10.353600
1859.000000	10.311400
1858.000000	10.280000
1857.000000	10.282900
1856.000000	10.295200
1855.000000	10.262500
1854.000000	10.215300
1853.000000	10.166800
1852.000000	10.132200
1851.000000	10.168900
1850.000000	10.189700
1849.000000	10.139400
1848.000000	10.039600
1847.000000	9.923300
1846.000000	9.855600
1845.000000	9.882500
1844.000000	9.957300
1843.000000	9.986400
1842.000000	9.943400
1841.000000	9.859600
1840.000000	9.809700
1839.000000	9.800500
1838.000000	9.776100
1837.000000	9.728100
1836.000000	9.667600
1835.000000	9.621600
1834.000000	9.609300
1833.000000	9.615100
1832.000000	9.612600
1831.000000	9.571500
1830.000000	9.505400
1829.000000	9.458500
1828.000000	9.435200
1827.000000	9.400400
1826.000000	9.345300
1825.000000	9.315400
1824.000000	9.330100
1823.000000	9.362200
1822.000000	9.352800
1821.000000	9.312200
1820.000000	9.247100
1819.000000	9.208300
1818.000000	9.227700
1817.000000	9.244600
1816.000000	9.238500
1815.000000	9.223900
1814.000000	9.221300
1813.000000	9.229000
1812.000000	9.215300
1811.000000	9.190300
1810.000000	9.171800
1809.000000	9.175400
1808.000000	9.171500
1807.000000	9.140800
1806.000000	9.097900
1805.000000	9.068200
1804.000000	9.057600
1803.000000	9.054400
1802.000000	9.040800
1801.000000	9.002500
1800.000000	8.962800
1799.000000	8.930200
1798.000000	8.918100
1797.000000	8.909000
1796.000000	8.901700
1795.000000	8.874800
1794.000000	8.850600
1793.000000	8.820300
1792.000000	8.800500
1791.000000	8.788100
1790.000000	8.766000
1789.000000	8.734000
1788.000000	8.719600
1787.000000	8.690000
1786.000000	8.648500
1785.000000	8.604000
1784.000000	8.575500
1783.000000	8.542200
1782.000000	8.499800
1781.000000	8.482000
1780.000000	8.445200
1779.000000	8.400000
1778.000000	8.375100
1777.000000	8.329700
1776.000000	8.272900
1775.000000	8.222000
1774.000000	8.163200
1773.000000	8.098800
1772.000000	8.063000
1771.000000	8.009200
1770.000000	7.952500
1769.000000	7.897000
1768.000000	7.840700
1767.000000	7.817500
1766.000000	7.788600
1765.000000	7.758700
1764.000000	7.741400
1763.000000	7.733200
1762.000000	7.746300
1761.000000	7.759700
1760.000000	7.782400
1759.000000	7.812300
1758.000000	7.854700
1757.000000	7.877700
1756.000000	7.897800
1755.000000	7.912700
1754.000000	7.914500
1753.000000	7.910300
1752.000000	7.902200
1751.000000	7.889600
1750.000000	7.846200
1749.000000	7.844100
1748.000000	7.812900
1747.000000	7.757700
1746.000000	7.713600
1745.000000	7.660600
1744.000000	7.610600
1743.000000	7.507800
1742.000000	7.428200
1741.000000	7.336900
1740.000000	7.240600
1739.000000	7.174200
1738.000000	7.103400
1737.000000	7.060100
1736.000000	6.986500
1735.000000	6.972500
1734.000000	6.946600
1733.000000	6.950000
1732.000000	6.990000
1731.000000	7.018100
1730.000000	7.053000
1729.000000	7.087300
1728.000000	7.140300
1727.000000	7.168300
1726.000000	7.195900
1725.000000	7.226000
1724.000000	7.222800
1723.000000	7.253500
1722.000000	7.259900
1721.000000	7.276100
1720.000000	7.288400
1719.000000	7.292700
1718.000000	7.294100
1717.000000	7.335000
1716.000000	7.362900
1715.000000	7.368700
1714.000000	7.430500
1713.000000	7.472300
1712.000000	7.465300
1711.000000	7.495700
1710.000000	7.490300
1709.000000	7.493900
1708.000000	7.495200
1707.000000	7.467800
1706.000000	7.469800
1705.000000	7.452300
1704.000000	7.460800
1703.000000	7.411100
1702.000000	7.360900
1701.000000	7.292300
1700.000000	7.231700
1699.000000	7.174700
1698.000000	7.137400
1697.000000	7.064000
1696.000000	7.068700
1695.000000	7.060800
1694.000000	7.080500
1693.000000	7.101900
1692.000000	7.151400
1691.000000	7.202800
1690.000000	7.247800
1689.000000	7.277800
1688.000000	7.283000
1687.000000	7.294200
1686.000000	7.285800
1685.000000	7.271600
1684.000000	7.324200
1683.000000	7.397200
1682.000000	7.516200
1681.000000	7.688300
1680.000000	7.901600
1679.000000	8.125400
1678.000000	8.326600
1677.000000	8.502700
1676.000000	8.669600
1675.000000	8.817800
1674.000000	8.946300
1673.000000	9.039100
1672.000000	9.132700
1671.000000	9.207300
1670.000000	9.285800
1669.000000	9.354600
1668.000000	9.399800
1667.000000	9.465100
1666.000000	9.497600
1665.000000	9.549800
1664.000000	9.570000
1663.000000	9.608700
1662.000000	9.632900
1661.000000	9.635600
1660.000000	9.663700
1659.000000	9.676500
1658.000000	9.690500
1657.000000	9.692500
1656.000000	9.688400
1655.000000	9.698600
1654.000000	9.679400
1653.000000	9.679100
1652.000000	9.676100
1651.000000	9.645400
1650.000000	9.630600
1649.000000	9.636800
1648.000000	9.618100
1647.000000	9.589600
1646.000000	9.571900
1645.000000	9.540300
1644.000000	9.526200
1643.000000	9.491500
1642.000000	9.466300
1641.000000	9.446800
1640.000000	9.425000
1639.000000	9.396500
1638.000000	9.390000
1637.000000	9.348300
1636.000000	9.305400
1635.000000	9.284500
1634.000000	9.262900
1633.000000	9.231600
1632.000000	9.210000
1631.000000	9.168600
1630.000000	9.154100
1629.000000	9.117000
1628.000000	9.072900
1627.000000	9.050200
1626.000000	9.015500
1625.000000	8.984600
1624.000000	8.970300
1623.000000	8.937300
1622.000000	8.924500
1621.000000	8.882600
1620.000000	8.837700
1619.000000	8.804300
1618.000000	8.786200
1617.000000	8.769100
1616.000000	8.757200
1615.000000	8.733800
1614.000000	8.707600
1613.000000	8.683200
1612.000000	8.646800
1611.000000	8.625500
1610.000000	8.606200
1609.000000	8.585400
1608.000000	8.562100
1607.000000	8.534200
1606.000000	8.507700
1605.000000	8.491700
1604.000000	8.474100
1603.000000	8.454000
1602.000000	8.431800
1601.000000	8.407600
1600.000000	8.395300
1599.000000	8.374100
1598.000000	8.363900
1597.000000	8.333900
1596.000000	8.313600
1595.000000	8.307900
1594.000000	8.294200
1593.000000	8.268300
1592.000000	8.258100
1591.000000	8.254600
1590.000000	8.238500
1589.000000	8.225500
1588.000000	8.207500
1587.000000	8.198400
1586.000000	8.196900
1585.000000	8.193900
1584.000000	8.190700
