PE UV       SUBTECH     SPECTRUM    ASCII       PEDS        4.00        
   -1
CICIMAUCR0108-3.Sample.ASC
24/04/04
14:31:49.00
24/04/04
14:31:49.00
Vinicio Soto Monge
C. resplendens
250,000000
1
Lambda 1050
1050L1511233
PerkinElmer UV WinLab 6.3.2.0749 / 2.02.05 Lambda 900 UV/VIS/NIR, Aug  7 2015 09:38:08

0
0
3350/servo 860,8/2
0
0
UV/VIS
1
1
1
DoubleDePol,CommonBeamDepol,RBeamAtt,SBeamAtt,60mm sphere, WB InGaAs Detector
0
0
0
0
Program
Program
3350/servo 860,8/2
3350/0,2 860,8/0,2
3350/0,2 860,8/0,2
0
15.00
 
 
 
0
 
860,8
319,2
860,8
Front
100
on
S:100 R:100
0
0
0
0
 
0
 
 
 
0
 
 
0
0
0
0
0
 
 
 
 
0
0


0
0
#HDR
-1
-1
#GR
nm
%R
1.0
0.0
2500,000000
-1,000000
2251
8
68,128600
5,096800
#DATA
2500.000000	5.332400
2499.000000	5.420900
2498.000000	5.341800
2497.000000	5.350400
2496.000000	5.266300
2495.000000	5.351000
2494.000000	5.355900
2493.000000	5.282900
2492.000000	5.340500
2491.000000	5.337000
2490.000000	5.315100
2489.000000	5.320400
2488.000000	5.314200
2487.000000	5.222000
2486.000000	5.227000
2485.000000	5.147300
2484.000000	5.202400
2483.000000	5.299600
2482.000000	5.284800
2481.000000	5.331800
2480.000000	5.207800
2479.000000	5.324700
2478.000000	5.243100
2477.000000	5.303200
2476.000000	5.260700
2475.000000	5.258600
2474.000000	5.252000
2473.000000	5.269900
2472.000000	5.283700
2471.000000	5.266400
2470.000000	5.281600
2469.000000	5.269200
2468.000000	5.259300
2467.000000	5.343000
2466.000000	5.306800
2465.000000	5.324500
2464.000000	5.341100
2463.000000	5.320500
2462.000000	5.350800
2461.000000	5.370600
2460.000000	5.419000
2459.000000	5.435100
2458.000000	5.444800
2457.000000	5.480800
2456.000000	5.514200
2455.000000	5.494200
2454.000000	5.541300
2453.000000	5.576300
2452.000000	5.612200
2451.000000	5.652500
2450.000000	5.667200
2449.000000	5.717700
2448.000000	5.753200
2447.000000	5.767200
2446.000000	5.821400
2445.000000	5.827800
2444.000000	5.860600
2443.000000	5.908200
2442.000000	5.938200
2441.000000	5.958000
2440.000000	5.999300
2439.000000	6.035800
2438.000000	6.063200
2437.000000	6.106300
2436.000000	6.109000
2435.000000	6.144100
2434.000000	6.170900
2433.000000	6.199100
2432.000000	6.243300
2431.000000	6.248700
2430.000000	6.270100
2429.000000	6.286900
2428.000000	6.308400
2427.000000	6.334600
2426.000000	6.366000
2425.000000	6.378300
2424.000000	6.404800
2423.000000	6.412600
2422.000000	6.427000
2421.000000	6.430900
2420.000000	6.475800
2419.000000	6.486000
2418.000000	6.484500
2417.000000	6.508600
2416.000000	6.516500
2415.000000	6.531500
2414.000000	6.544400
2413.000000	6.551200
2412.000000	6.564400
2411.000000	6.572700
2410.000000	6.584700
2409.000000	6.603000
2408.000000	6.618900
2407.000000	6.631900
2406.000000	6.640500
2405.000000	6.647700
2404.000000	6.655400
2403.000000	6.683400
2402.000000	6.703000
2401.000000	6.715400
2400.000000	6.725600
2399.000000	6.752100
2398.000000	6.766800
2397.000000	6.778200
2396.000000	6.788400
2395.000000	6.792700
2394.000000	6.809600
2393.000000	6.838300
2392.000000	6.831000
2391.000000	6.824400
2390.000000	6.845600
2389.000000	6.857400
2388.000000	6.855600
2387.000000	6.849800
2386.000000	6.850300
2385.000000	6.869900
2384.000000	6.872300
2383.000000	6.861300
2382.000000	6.851200
2381.000000	6.851500
2380.000000	6.848800
2379.000000	6.833000
2378.000000	6.819500
2377.000000	6.815200
2376.000000	6.829700
2375.000000	6.812200
2374.000000	6.790200
2373.000000	6.777900
2372.000000	6.757300
2371.000000	6.737600
2370.000000	6.714400
2369.000000	6.705900
2368.000000	6.686100
2367.000000	6.647500
2366.000000	6.616400
2365.000000	6.584800
2364.000000	6.547800
2363.000000	6.524700
2362.000000	6.490500
2361.000000	6.444100
2360.000000	6.398000
2359.000000	6.365200
2358.000000	6.341800
2357.000000	6.318900
2356.000000	6.287900
2355.000000	6.260600
2354.000000	6.229200
2353.000000	6.213000
2352.000000	6.219900
2351.000000	6.219300
2350.000000	6.233300
2349.000000	6.258400
2348.000000	6.270200
2347.000000	6.297400
2346.000000	6.315200
2345.000000	6.322900
2344.000000	6.360400
2343.000000	6.383000
2342.000000	6.410000
2341.000000	6.431400
2340.000000	6.447100
2339.000000	6.450500
2338.000000	6.444300
2337.000000	6.452000
2336.000000	6.449900
2335.000000	6.438600
2334.000000	6.420100
2333.000000	6.386700
2332.000000	6.366500
2331.000000	6.350000
2330.000000	6.319000
2329.000000	6.286600
2328.000000	6.244900
2327.000000	6.192900
2326.000000	6.152200
2325.000000	6.095600
2324.000000	6.042700
2323.000000	5.982600
2322.000000	5.924200
2321.000000	5.847500
2320.000000	5.775300
2319.000000	5.700300
2318.000000	5.632700
2317.000000	5.562900
2316.000000	5.512700
2315.000000	5.445300
2314.000000	5.374400
2313.000000	5.317700
2312.000000	5.263200
2311.000000	5.210800
2310.000000	5.177900
2309.000000	5.148900
2308.000000	5.133000
2307.000000	5.131200
2306.000000	5.112500
2305.000000	5.126000
2304.000000	5.132000
2303.000000	5.147400
2302.000000	5.162500
2301.000000	5.175100
2300.000000	5.214300
2299.000000	5.246100
2298.000000	5.262600
2297.000000	5.274000
2296.000000	5.312100
2295.000000	5.348400
2294.000000	5.353500
2293.000000	5.377800
2292.000000	5.371500
2291.000000	5.374300
2290.000000	5.384900
2289.000000	5.390500
2288.000000	5.358600
2287.000000	5.339900
2286.000000	5.344100
2285.000000	5.307800
2284.000000	5.296000
2283.000000	5.274500
2282.000000	5.268900
2281.000000	5.245200
2280.000000	5.214000
2279.000000	5.183300
2278.000000	5.156300
2277.000000	5.149700
2276.000000	5.140500
2275.000000	5.136100
2274.000000	5.114100
2273.000000	5.111600
2272.000000	5.097700
2271.000000	5.102500
2270.000000	5.096800
2269.000000	5.118200
2268.000000	5.113300
2267.000000	5.146300
2266.000000	5.164000
2265.000000	5.186700
2264.000000	5.229900
2263.000000	5.263200
2262.000000	5.327100
2261.000000	5.385500
2260.000000	5.481900
2259.000000	5.497700
2258.000000	5.599100
2257.000000	5.651600
2256.000000	5.741000
2255.000000	5.804600
2254.000000	5.885000
2253.000000	5.966400
2252.000000	6.023200
2251.000000	6.089200
2250.000000	6.152800
2249.000000	6.219800
2248.000000	6.270900
2247.000000	6.317200
2246.000000	6.385500
2245.000000	6.439300
2244.000000	6.469100
2243.000000	6.521400
2242.000000	6.554200
2241.000000	6.604500
2240.000000	6.658500
2239.000000	6.667100
2238.000000	6.709500
2237.000000	6.738100
2236.000000	6.750900
2235.000000	6.755400
2234.000000	6.794700
2233.000000	6.787900
2232.000000	6.801100
2231.000000	6.792200
2230.000000	6.803300
2229.000000	6.792400
2228.000000	6.777200
2227.000000	6.766000
2226.000000	6.731400
2225.000000	6.708500
2224.000000	6.692000
2223.000000	6.646300
2222.000000	6.612300
2221.000000	6.586600
2220.000000	6.534000
2219.000000	6.500400
2218.000000	6.469100
2217.000000	6.437700
2216.000000	6.424000
2215.000000	6.390100
2214.000000	6.360700
2213.000000	6.354000
2212.000000	6.354200
2211.000000	6.331000
2210.000000	6.355400
2209.000000	6.376700
2208.000000	6.401500
2207.000000	6.450800
2206.000000	6.507900
2205.000000	6.565800
2204.000000	6.663500
2203.000000	6.730900
2202.000000	6.831600
2201.000000	6.935100
2200.000000	7.037200
2199.000000	7.139300
2198.000000	7.241500
2197.000000	7.360300
2196.000000	7.457000
2195.000000	7.569200
2194.000000	7.679100
2193.000000	7.755500
2192.000000	7.827100
2191.000000	7.912500
2190.000000	8.003700
2189.000000	8.062200
2188.000000	8.129300
2187.000000	8.191500
2186.000000	8.224300
2185.000000	8.283200
2184.000000	8.315800
2183.000000	8.345300
2182.000000	8.395800
2181.000000	8.417400
2180.000000	8.458500
2179.000000	8.484200
2178.000000	8.513700
2177.000000	8.534700
2176.000000	8.560900
2175.000000	8.587000
2174.000000	8.627600
2173.000000	8.646700
2172.000000	8.675100
2171.000000	8.697600
2170.000000	8.735700
2169.000000	8.761000
2168.000000	8.796400
2167.000000	8.830200
2166.000000	8.861700
2165.000000	8.888300
2164.000000	8.924700
2163.000000	8.953700
2162.000000	8.985800
2161.000000	9.007500
2160.000000	9.046700
2159.000000	9.078100
2158.000000	9.093100
2157.000000	9.129300
2156.000000	9.180400
2155.000000	9.231500
2154.000000	9.265800
2153.000000	9.296800
2152.000000	9.320800
2151.000000	9.360500
2150.000000	9.391800
2149.000000	9.441600
2148.000000	9.472200
2147.000000	9.489700
2146.000000	9.530100
2145.000000	9.557100
2144.000000	9.571400
2143.000000	9.605400
2142.000000	9.635300
2141.000000	9.671200
2140.000000	9.698400
2139.000000	9.705800
2138.000000	9.731300
2137.000000	9.750800
2136.000000	9.761900
2135.000000	9.788800
2134.000000	9.802800
2133.000000	9.812500
2132.000000	9.825000
2131.000000	9.831900
2130.000000	9.833500
2129.000000	9.846700
2128.000000	9.852200
2127.000000	9.848800
2126.000000	9.855100
2125.000000	9.845700
2124.000000	9.823500
2123.000000	9.828600
2122.000000	9.831800
2121.000000	9.821900
2120.000000	9.813300
2119.000000	9.810400
2118.000000	9.787200
2117.000000	9.772900
2116.000000	9.767600
2115.000000	9.752000
2114.000000	9.742300
2113.000000	9.723300
2112.000000	9.708800
2111.000000	9.699700
2110.000000	9.682600
2109.000000	9.667200
2108.000000	9.656700
2107.000000	9.647700
2106.000000	9.629800
2105.000000	9.606800
2104.000000	9.596900
2103.000000	9.588500
2102.000000	9.570300
2101.000000	9.555200
2100.000000	9.541000
2099.000000	9.529700
2098.000000	9.531300
2097.000000	9.513100
2096.000000	9.498300
2095.000000	9.493900
2094.000000	9.475200
2093.000000	9.468000
2092.000000	9.460300
2091.000000	9.464600
2090.000000	9.467900
2089.000000	9.469200
2088.000000	9.470700
2087.000000	9.458000
2086.000000	9.438900
2085.000000	9.434700
2084.000000	9.438200
2083.000000	9.435200
2082.000000	9.416900
2081.000000	9.396600
2080.000000	9.385400
2079.000000	9.365300
2078.000000	9.363600
2077.000000	9.365500
2076.000000	9.351000
2075.000000	9.343800
2074.000000	9.330500
2073.000000	9.298300
2072.000000	9.276100
2071.000000	9.266700
2070.000000	9.250200
2069.000000	9.226900
2068.000000	9.203700
2067.000000	9.183700
2066.000000	9.157900
2065.000000	9.135600
2064.000000	9.110300
2063.000000	9.093100
2062.000000	9.077100
2061.000000	9.050600
2060.000000	9.027700
2059.000000	9.020000
2058.000000	8.994700
2057.000000	8.964900
2056.000000	8.961300
2055.000000	8.966300
2054.000000	8.982300
2053.000000	9.004500
2052.000000	8.995300
2051.000000	9.024100
2050.000000	9.056200
2049.000000	9.096800
2048.000000	9.145500
2047.000000	9.214100
2046.000000	9.276300
2045.000000	9.351500
2044.000000	9.441300
2043.000000	9.536900
2042.000000	9.619000
2041.000000	9.705000
2040.000000	9.806700
2039.000000	9.894200
2038.000000	9.996400
2037.000000	10.093600
2036.000000	10.167000
2035.000000	10.244600
2034.000000	10.334500
2033.000000	10.404700
2032.000000	10.470600
2031.000000	10.546700
2030.000000	10.607500
2029.000000	10.671300
2028.000000	10.731300
2027.000000	10.798100
2026.000000	10.859700
2025.000000	10.902500
2024.000000	10.960800
2023.000000	11.014800
2022.000000	11.062400
2021.000000	11.126100
2020.000000	11.170400
2019.000000	11.199300
2018.000000	11.233600
2017.000000	11.280800
2016.000000	11.331300
2015.000000	11.366900
2014.000000	11.383700
2013.000000	11.434800
2012.000000	11.469900
2011.000000	11.514900
2010.000000	11.537600
2009.000000	11.578700
2008.000000	11.598500
2007.000000	11.626900
2006.000000	11.649700
2005.000000	11.667600
2004.000000	11.690500
2003.000000	11.719300
2002.000000	11.726400
2001.000000	11.729500
2000.000000	11.755000
1999.000000	11.750300
1998.000000	11.766200
1997.000000	11.760000
1996.000000	11.739500
1995.000000	11.746200
1994.000000	11.737700
1993.000000	11.736500
1992.000000	11.707200
1991.000000	11.680400
1990.000000	11.671000
1989.000000	11.681000
1988.000000	11.666400
1987.000000	11.614400
1986.000000	11.583800
1985.000000	11.545400
1984.000000	11.526600
1983.000000	11.512200
1982.000000	11.475500
1981.000000	11.426200
1980.000000	11.394500
1979.000000	11.360800
1978.000000	11.337500
1977.000000	11.297200
1976.000000	11.236000
1975.000000	11.215300
1974.000000	11.176300
1973.000000	11.146800
1972.000000	11.127200
1971.000000	11.074700
1970.000000	11.058000
1969.000000	11.006100
1968.000000	10.982600
1967.000000	10.952600
1966.000000	10.920800
1965.000000	10.877800
1964.000000	10.843400
1963.000000	10.817800
1962.000000	10.795200
1961.000000	10.748400
1960.000000	10.705900
1959.000000	10.688600
1958.000000	10.647700
1957.000000	10.626200
1956.000000	10.569200
1955.000000	10.545000
1954.000000	10.503200
1953.000000	10.492900
1952.000000	10.452800
1951.000000	10.406500
1950.000000	10.376700
1949.000000	10.350100
1948.000000	10.312000
1947.000000	10.311400
1946.000000	10.289800
1945.000000	10.286500
1944.000000	10.254600
1943.000000	10.240800
1942.000000	10.239200
1941.000000	10.198900
1940.000000	10.207800
1939.000000	10.238300
1938.000000	10.234400
1937.000000	10.251100
1936.000000	10.244100
1935.000000	10.257000
1934.000000	10.263900
1933.000000	10.300000
1932.000000	10.327700
1931.000000	10.366300
1930.000000	10.401400
1929.000000	10.427200
1928.000000	10.507600
1927.000000	10.542900
1926.000000	10.605100
1925.000000	10.653800
1924.000000	10.694200
1923.000000	10.759500
1922.000000	10.841300
1921.000000	10.949400
1920.000000	11.051400
1919.000000	11.143200
1918.000000	11.212000
1917.000000	11.279300
1916.000000	11.348400
1915.000000	11.423400
1914.000000	11.562800
1913.000000	11.671300
1912.000000	11.798800
1911.000000	11.912500
1910.000000	12.000800
1909.000000	12.072200
1908.000000	12.144400
1907.000000	12.265200
1906.000000	12.422000
1905.000000	12.597400
1904.000000	12.740500
1903.000000	12.849900
1902.000000	12.943500
1901.000000	13.052100
1900.000000	13.179600
1899.000000	13.337900
1898.000000	13.481100
1897.000000	13.624300
1896.000000	13.695400
1895.000000	13.769600
1894.000000	13.892100
1893.000000	14.013200
1892.000000	14.166500
1891.000000	14.314800
1890.000000	14.456300
1889.000000	14.568300
1888.000000	14.707100
1887.000000	14.856200
1886.000000	15.016100
1885.000000	15.207600
1884.000000	15.426900
1883.000000	15.668400
1882.000000	15.884900
1881.000000	16.132500
1880.000000	16.381700
1879.000000	16.612300
1878.000000	16.853900
1877.000000	17.071100
1876.000000	17.287800
1875.000000	17.500700
1874.000000	17.672000
1873.000000	17.844100
1872.000000	18.011900
1871.000000	18.141800
1870.000000	18.262000
1869.000000	18.354100
1868.000000	18.407300
1867.000000	18.434100
1866.000000	18.442700
1865.000000	18.437000
1864.000000	18.414000
1863.000000	18.401300
1862.000000	18.414900
1861.000000	18.432100
1860.000000	18.426100
1859.000000	18.437700
1858.000000	18.433700
1857.000000	18.402300
1856.000000	18.344000
1855.000000	18.305800
1854.000000	18.278100
1853.000000	18.208800
1852.000000	18.127600
1851.000000	18.085400
1850.000000	18.033700
1849.000000	18.002600
1848.000000	17.979800
1847.000000	17.948000
1846.000000	17.878400
1845.000000	17.786600
1844.000000	17.707400
1843.000000	17.670400
1842.000000	17.675300
1841.000000	17.657800
1840.000000	17.611100
1839.000000	17.580700
1838.000000	17.552600
1837.000000	17.515100
1836.000000	17.464300
1835.000000	17.396800
1834.000000	17.320200
1833.000000	17.239000
1832.000000	17.186800
1831.000000	17.136200
1830.000000	17.082000
1829.000000	17.037600
1828.000000	16.971900
1827.000000	16.910900
1826.000000	16.850100
1825.000000	16.781300
1824.000000	16.728800
1823.000000	16.699100
1822.000000	16.697200
1821.000000	16.700500
1820.000000	16.684700
1819.000000	16.660600
1818.000000	16.616400
1817.000000	16.577600
1816.000000	16.581800
1815.000000	16.587200
1814.000000	16.576200
1813.000000	16.559200
1812.000000	16.529900
1811.000000	16.506000
1810.000000	16.478700
1809.000000	16.444000
1808.000000	16.405600
1807.000000	16.379800
1806.000000	16.357100
1805.000000	16.300600
1804.000000	16.252900
1803.000000	16.215900
1802.000000	16.190800
1801.000000	16.155900
1800.000000	16.106700
1799.000000	16.055400
1798.000000	16.021300
1797.000000	15.984100
1796.000000	15.959500
1795.000000	15.924300
1794.000000	15.895300
1793.000000	15.867300
1792.000000	15.834100
1791.000000	15.787100
1790.000000	15.732100
1789.000000	15.691200
1788.000000	15.633200
1787.000000	15.591000
1786.000000	15.530900
1785.000000	15.478400
1784.000000	15.412000
1783.000000	15.336600
1782.000000	15.276700
1781.000000	15.224500
1780.000000	15.165700
1779.000000	15.098600
1778.000000	15.006100
1777.000000	14.928300
1776.000000	14.843900
1775.000000	14.755800
1774.000000	14.656300
1773.000000	14.557900
1772.000000	14.449800
1771.000000	14.346800
1770.000000	14.229800
1769.000000	14.114900
1768.000000	14.003900
1767.000000	13.913400
1766.000000	13.818600
1765.000000	13.760400
1764.000000	13.720600
1763.000000	13.683000
1762.000000	13.690500
1761.000000	13.712200
1760.000000	13.750500
1759.000000	13.784100
1758.000000	13.849500
1757.000000	13.885500
1756.000000	13.932100
1755.000000	13.959300
1754.000000	13.984400
1753.000000	13.989800
1752.000000	13.984400
1751.000000	13.972700
1750.000000	13.953200
1749.000000	13.925300
1748.000000	13.885100
1747.000000	13.841900
1746.000000	13.766900
1745.000000	13.675400
1744.000000	13.580500
1743.000000	13.455800
1742.000000	13.313800
1741.000000	13.182000
1740.000000	13.022400
1739.000000	12.843500
1738.000000	12.695600
1737.000000	12.573000
1736.000000	12.422600
1735.000000	12.345800
1734.000000	12.251200
1733.000000	12.230000
1732.000000	12.229800
1731.000000	12.251400
1730.000000	12.320600
1729.000000	12.397300
1728.000000	12.488300
1727.000000	12.573300
1726.000000	12.676600
1725.000000	12.735800
1724.000000	12.768300
1723.000000	12.807800
1722.000000	12.854800
1721.000000	12.877900
1720.000000	12.897900
1719.000000	12.938700
1718.000000	12.971800
1717.000000	13.016500
1716.000000	13.073000
1715.000000	13.098400
1714.000000	13.161600
1713.000000	13.234800
1712.000000	13.290400
1711.000000	13.320700
1710.000000	13.366800
1709.000000	13.371700
1708.000000	13.409400
1707.000000	13.408800
1706.000000	13.435000
1705.000000	13.450400
1704.000000	13.460800
1703.000000	13.450600
1702.000000	13.438900
1701.000000	13.385200
1700.000000	13.349700
1699.000000	13.260400
1698.000000	13.254200
1697.000000	13.196500
1696.000000	13.206700
1695.000000	13.204700
1694.000000	13.271900
1693.000000	13.341100
1692.000000	13.429600
1691.000000	13.544400
1690.000000	13.652500
1689.000000	13.742300
1688.000000	13.801700
1687.000000	13.808400
1686.000000	13.808600
1685.000000	13.822500
1684.000000	13.857300
1683.000000	13.953200
1682.000000	14.114700
1681.000000	14.360000
1680.000000	14.672200
1679.000000	15.008800
1678.000000	15.312900
1677.000000	15.636700
1676.000000	15.890100
1675.000000	16.153000
1674.000000	16.377600
1673.000000	16.574900
1672.000000	16.714800
1671.000000	16.856800
1670.000000	16.962600
1669.000000	17.081700
1668.000000	17.150400
1667.000000	17.212500
1666.000000	17.277100
1665.000000	17.326800
1664.000000	17.357500
1663.000000	17.387600
1662.000000	17.443100
1661.000000	17.472300
1660.000000	17.497000
1659.000000	17.499400
1658.000000	17.521600
1657.000000	17.512800
1656.000000	17.527500
1655.000000	17.508000
1654.000000	17.490100
1653.000000	17.485700
1652.000000	17.472600
1651.000000	17.450000
1650.000000	17.406300
1649.000000	17.398400
1648.000000	17.363100
1647.000000	17.346700
1646.000000	17.290700
1645.000000	17.264300
1644.000000	17.226100
1643.000000	17.171500
1642.000000	17.129900
1641.000000	17.105400
1640.000000	17.051000
1639.000000	17.017800
1638.000000	16.968100
1637.000000	16.919400
1636.000000	16.859100
1635.000000	16.801400
1634.000000	16.768800
1633.000000	16.735300
1632.000000	16.680100
1631.000000	16.613600
1630.000000	16.560700
1629.000000	16.506300
1628.000000	16.455000
1627.000000	16.421000
1626.000000	16.369900
1625.000000	16.316700
1624.000000	16.251300
1623.000000	16.212900
1622.000000	16.168100
1621.000000	16.127900
1620.000000	16.065900
1619.000000	16.018600
1618.000000	15.986600
1617.000000	15.945600
1616.000000	15.882100
1615.000000	15.850000
1614.000000	15.825000
1613.000000	15.778100
1612.000000	15.732600
1611.000000	15.681900
1610.000000	15.661200
1609.000000	15.613300
1608.000000	15.570800
1607.000000	15.529500
1606.000000	15.488800
1605.000000	15.455000
1604.000000	15.431300
1603.000000	15.396500
