PE UV       SUBTECH     SPECTRUM    ASCII       PEDS        4.00        
   -1
CICIMAUCR0097-1.ASC
24/04/03
15:09:17.00
24/04/03
15:09:17.00
Vinicio Soto Monge
C. kalinini
250,000000
1
Lambda 1050
1050L1511233
PerkinElmer UV WinLab 6.3.2.0749 / 2.02.05 Lambda 900 UV/VIS/NIR, Aug  7 2015 09:38:08

0
0
3350/servo 860,8/2
0
0
UV/VIS
1
1
1
DoubleDePol,CommonBeamDepol,RBeamAtt,SBeamAtt,60mm sphere, WB InGaAs Detector
0
0
0
0
Program
Program
3350/servo 860,8/2
3350/0,2 860,8/0,2
3350/0,2 860,8/0,2
0
15.00
 
 
 
0
 
860,8
319,2
860,8
Front
100
on
S:100 R:100
0
0
0
0
 
0
 
 
 
0
 
 
0
0
0
0
0
 
 
 
 
0
0


0
0
#HDR
-1
-1
#GR
nm
%R
1.0
0.0
2500,000000
-1,000000
2251
8
71,118700
4,659200
#DATA
2500.000000	4.879300
2499.000000	4.748400
2498.000000	4.917000
2497.000000	4.889800
2496.000000	4.778100
2495.000000	4.734200
2494.000000	4.808000
2493.000000	4.801600
2492.000000	4.763500
2491.000000	4.801900
2490.000000	4.785600
2489.000000	4.758500
2488.000000	4.691200
2487.000000	4.754100
2486.000000	4.799600
2485.000000	4.726400
2484.000000	4.748600
2483.000000	4.736000
2482.000000	4.738100
2481.000000	4.738000
2480.000000	4.747400
2479.000000	4.750900
2478.000000	4.727800
2477.000000	4.725700
2476.000000	4.743400
2475.000000	4.723700
2474.000000	4.662500
2473.000000	4.719100
2472.000000	4.694300
2471.000000	4.699500
2470.000000	4.697500
2469.000000	4.659200
2468.000000	4.732800
2467.000000	4.707300
2466.000000	4.684200
2465.000000	4.730100
2464.000000	4.738300
2463.000000	4.733500
2462.000000	4.738400
2461.000000	4.745900
2460.000000	4.787400
2459.000000	4.768900
2458.000000	4.797200
2457.000000	4.838500
2456.000000	4.846100
2455.000000	4.879000
2454.000000	4.904200
2453.000000	4.921700
2452.000000	4.945900
2451.000000	4.976700
2450.000000	5.007700
2449.000000	5.043000
2448.000000	5.073500
2447.000000	5.093700
2446.000000	5.116300
2445.000000	5.145400
2444.000000	5.185600
2443.000000	5.214000
2442.000000	5.234000
2441.000000	5.257600
2440.000000	5.298800
2439.000000	5.303800
2438.000000	5.363200
2437.000000	5.368100
2436.000000	5.388400
2435.000000	5.403700
2434.000000	5.427500
2433.000000	5.463000
2432.000000	5.476600
2431.000000	5.484600
2430.000000	5.506800
2429.000000	5.528000
2428.000000	5.566300
2427.000000	5.578800
2426.000000	5.602200
2425.000000	5.611500
2424.000000	5.616700
2423.000000	5.636100
2422.000000	5.658100
2421.000000	5.675400
2420.000000	5.667500
2419.000000	5.691900
2418.000000	5.695300
2417.000000	5.703600
2416.000000	5.715900
2415.000000	5.728100
2414.000000	5.744500
2413.000000	5.736600
2412.000000	5.744900
2411.000000	5.774700
2410.000000	5.770000
2409.000000	5.782500
2408.000000	5.790800
2407.000000	5.792400
2406.000000	5.832400
2405.000000	5.846900
2404.000000	5.847300
2403.000000	5.839200
2402.000000	5.846800
2401.000000	5.857900
2400.000000	5.874800
2399.000000	5.898200
2398.000000	5.926900
2397.000000	5.927900
2396.000000	5.933000
2395.000000	5.943700
2394.000000	5.961100
2393.000000	5.969600
2392.000000	5.988900
2391.000000	5.995800
2390.000000	5.995000
2389.000000	6.001500
2388.000000	6.023100
2387.000000	6.019100
2386.000000	6.012000
2385.000000	6.015000
2384.000000	6.016700
2383.000000	6.026100
2382.000000	6.031500
2381.000000	6.022900
2380.000000	6.018400
2379.000000	6.012700
2378.000000	6.004400
2377.000000	6.010600
2376.000000	6.011400
2375.000000	6.003100
2374.000000	5.978000
2373.000000	5.961900
2372.000000	5.955900
2371.000000	5.944500
2370.000000	5.941300
2369.000000	5.922800
2368.000000	5.893200
2367.000000	5.872500
2366.000000	5.853800
2365.000000	5.820200
2364.000000	5.789700
2363.000000	5.779100
2362.000000	5.759000
2361.000000	5.711300
2360.000000	5.678400
2359.000000	5.663900
2358.000000	5.647400
2357.000000	5.637800
2356.000000	5.616500
2355.000000	5.601200
2354.000000	5.591300
2353.000000	5.564500
2352.000000	5.565000
2351.000000	5.586200
2350.000000	5.587000
2349.000000	5.592100
2348.000000	5.620900
2347.000000	5.641100
2346.000000	5.658700
2345.000000	5.658800
2344.000000	5.668200
2343.000000	5.706500
2342.000000	5.717500
2341.000000	5.721900
2340.000000	5.742500
2339.000000	5.742000
2338.000000	5.746900
2337.000000	5.758700
2336.000000	5.757200
2335.000000	5.754600
2334.000000	5.735400
2333.000000	5.719200
2332.000000	5.707800
2331.000000	5.697600
2330.000000	5.675400
2329.000000	5.652700
2328.000000	5.622700
2327.000000	5.584100
2326.000000	5.567400
2325.000000	5.538100
2324.000000	5.500900
2323.000000	5.461300
2322.000000	5.425900
2321.000000	5.378100
2320.000000	5.336200
2319.000000	5.302000
2318.000000	5.261300
2317.000000	5.241500
2316.000000	5.200600
2315.000000	5.161300
2314.000000	5.119400
2313.000000	5.066200
2312.000000	5.037900
2311.000000	5.011400
2310.000000	5.002000
2309.000000	4.981800
2308.000000	4.959300
2307.000000	4.941700
2306.000000	4.946900
2305.000000	4.947300
2304.000000	4.961200
2303.000000	4.971800
2302.000000	4.974900
2301.000000	4.996400
2300.000000	5.012500
2299.000000	5.038300
2298.000000	5.063300
2297.000000	5.079000
2296.000000	5.092500
2295.000000	5.118200
2294.000000	5.125200
2293.000000	5.131700
2292.000000	5.140000
2291.000000	5.137400
2290.000000	5.155600
2289.000000	5.138800
2288.000000	5.125200
2287.000000	5.115400
2286.000000	5.108500
2285.000000	5.084500
2284.000000	5.076300
2283.000000	5.036700
2282.000000	5.002800
2281.000000	4.977900
2280.000000	4.951400
2279.000000	4.913900
2278.000000	4.881400
2277.000000	4.859800
2276.000000	4.822000
2275.000000	4.811200
2274.000000	4.789400
2273.000000	4.766400
2272.000000	4.739700
2271.000000	4.742300
2270.000000	4.734000
2269.000000	4.721400
2268.000000	4.709100
2267.000000	4.718500
2266.000000	4.744900
2265.000000	4.757700
2264.000000	4.781800
2263.000000	4.835300
2262.000000	4.856100
2261.000000	4.909000
2260.000000	4.934300
2259.000000	4.996600
2258.000000	5.049200
2257.000000	5.101900
2256.000000	5.193700
2255.000000	5.235700
2254.000000	5.303000
2253.000000	5.366600
2252.000000	5.421800
2251.000000	5.501800
2250.000000	5.557100
2249.000000	5.623800
2248.000000	5.671800
2247.000000	5.729000
2246.000000	5.771900
2245.000000	5.805300
2244.000000	5.847200
2243.000000	5.889800
2242.000000	5.925000
2241.000000	5.968100
2240.000000	5.981700
2239.000000	6.016900
2238.000000	6.022800
2237.000000	6.045700
2236.000000	6.045900
2235.000000	6.094200
2234.000000	6.104400
2233.000000	6.087300
2232.000000	6.087900
2231.000000	6.108100
2230.000000	6.083000
2229.000000	6.058700
2228.000000	6.047600
2227.000000	6.050700
2226.000000	6.013500
2225.000000	5.979300
2224.000000	5.943900
2223.000000	5.903400
2222.000000	5.859700
2221.000000	5.823400
2220.000000	5.764900
2219.000000	5.753200
2218.000000	5.715200
2217.000000	5.666400
2216.000000	5.630300
2215.000000	5.592700
2214.000000	5.598900
2213.000000	5.568800
2212.000000	5.555800
2211.000000	5.526700
2210.000000	5.515000
2209.000000	5.550600
2208.000000	5.561400
2207.000000	5.622400
2206.000000	5.657400
2205.000000	5.678300
2204.000000	5.738500
2203.000000	5.812600
2202.000000	5.876600
2201.000000	5.985000
2200.000000	6.065600
2199.000000	6.140000
2198.000000	6.240400
2197.000000	6.323500
2196.000000	6.397400
2195.000000	6.476200
2194.000000	6.562100
2193.000000	6.616600
2192.000000	6.689400
2191.000000	6.745700
2190.000000	6.816800
2189.000000	6.869900
2188.000000	6.914400
2187.000000	6.949600
2186.000000	7.008800
2185.000000	7.044200
2184.000000	7.084800
2183.000000	7.119300
2182.000000	7.121600
2181.000000	7.138500
2180.000000	7.155500
2179.000000	7.183800
2178.000000	7.198700
2177.000000	7.226700
2176.000000	7.233000
2175.000000	7.245000
2174.000000	7.271200
2173.000000	7.290800
2172.000000	7.297100
2171.000000	7.315800
2170.000000	7.346000
2169.000000	7.362700
2168.000000	7.376300
2167.000000	7.392600
2166.000000	7.401700
2165.000000	7.418000
2164.000000	7.459600
2163.000000	7.500800
2162.000000	7.524400
2161.000000	7.560400
2160.000000	7.581200
2159.000000	7.612100
2158.000000	7.652100
2157.000000	7.671900
2156.000000	7.696400
2155.000000	7.740500
2154.000000	7.792200
2153.000000	7.821800
2152.000000	7.859200
2151.000000	7.899700
2150.000000	7.925200
2149.000000	7.953200
2148.000000	7.971100
2147.000000	7.999500
2146.000000	8.036100
2145.000000	8.091200
2144.000000	8.111500
2143.000000	8.135300
2142.000000	8.158600
2141.000000	8.184100
2140.000000	8.208800
2139.000000	8.237700
2138.000000	8.252900
2137.000000	8.293500
2136.000000	8.318900
2135.000000	8.336200
2134.000000	8.364900
2133.000000	8.374300
2132.000000	8.392100
2131.000000	8.420200
2130.000000	8.437900
2129.000000	8.447400
2128.000000	8.446200
2127.000000	8.458700
2126.000000	8.478100
2125.000000	8.480900
2124.000000	8.489500
2123.000000	8.482600
2122.000000	8.488700
2121.000000	8.489800
2120.000000	8.486300
2119.000000	8.492600
2118.000000	8.491200
2117.000000	8.487600
2116.000000	8.486400
2115.000000	8.483000
2114.000000	8.477100
2113.000000	8.475200
2112.000000	8.468100
2111.000000	8.463100
2110.000000	8.453100
2109.000000	8.436100
2108.000000	8.427900
2107.000000	8.427900
2106.000000	8.425200
2105.000000	8.416800
2104.000000	8.411800
2103.000000	8.396800
2102.000000	8.391200
2101.000000	8.387400
2100.000000	8.373100
2099.000000	8.347900
2098.000000	8.329800
2097.000000	8.326600
2096.000000	8.330300
2095.000000	8.324600
2094.000000	8.317400
2093.000000	8.300300
2092.000000	8.281400
2091.000000	8.274500
2090.000000	8.266300
2089.000000	8.259900
2088.000000	8.251700
2087.000000	8.235500
2086.000000	8.231400
2085.000000	8.218600
2084.000000	8.193600
2083.000000	8.181100
2082.000000	8.168100
2081.000000	8.156900
2080.000000	8.146300
2079.000000	8.122300
2078.000000	8.099300
2077.000000	8.104400
2076.000000	8.091000
2075.000000	8.057000
2074.000000	8.039000
2073.000000	8.017800
2072.000000	8.001700
2071.000000	7.991500
2070.000000	7.957600
2069.000000	7.930900
2068.000000	7.920000
2067.000000	7.906000
2066.000000	7.872400
2065.000000	7.860500
2064.000000	7.839900
2063.000000	7.821000
2062.000000	7.804000
2061.000000	7.787200
2060.000000	7.787500
2059.000000	7.803200
2058.000000	7.792000
2057.000000	7.775200
2056.000000	7.777300
2055.000000	7.795500
2054.000000	7.802100
2053.000000	7.813000
2052.000000	7.845300
2051.000000	7.870700
2050.000000	7.897100
2049.000000	7.931900
2048.000000	7.975000
2047.000000	8.021600
2046.000000	8.051200
2045.000000	8.098100
2044.000000	8.151800
2043.000000	8.210900
2042.000000	8.262200
2041.000000	8.307000
2040.000000	8.375400
2039.000000	8.407000
2038.000000	8.447800
2037.000000	8.496500
2036.000000	8.549900
2035.000000	8.587900
2034.000000	8.628000
2033.000000	8.680700
2032.000000	8.708700
2031.000000	8.730800
2030.000000	8.777400
2029.000000	8.804800
2028.000000	8.813200
2027.000000	8.828500
2026.000000	8.856700
2025.000000	8.873500
2024.000000	8.891300
2023.000000	8.895900
2022.000000	8.927700
2021.000000	8.942000
2020.000000	8.948300
2019.000000	8.987200
2018.000000	8.998500
2017.000000	9.002600
2016.000000	9.009700
2015.000000	9.003000
2014.000000	9.011300
2013.000000	9.042700
2012.000000	9.035100
2011.000000	9.043800
2010.000000	9.045000
2009.000000	9.046000
2008.000000	9.030800
2007.000000	9.013500
2006.000000	9.009300
2005.000000	9.007700
2004.000000	8.992400
2003.000000	8.968700
2002.000000	8.966400
2001.000000	8.953900
2000.000000	8.918300
1999.000000	8.917400
1998.000000	8.904900
1997.000000	8.880300
1996.000000	8.860100
1995.000000	8.830700
1994.000000	8.804600
1993.000000	8.789600
1992.000000	8.794500
1991.000000	8.754600
1990.000000	8.754300
1989.000000	8.716100
1988.000000	8.680100
1987.000000	8.670000
1986.000000	8.647100
1985.000000	8.610200
1984.000000	8.587800
1983.000000	8.536400
1982.000000	8.543900
1981.000000	8.508300
1980.000000	8.475700
1979.000000	8.448900
1978.000000	8.417900
1977.000000	8.395300
1976.000000	8.357700
1975.000000	8.337400
1974.000000	8.315900
1973.000000	8.281200
1972.000000	8.259000
1971.000000	8.215500
1970.000000	8.194100
1969.000000	8.180600
1968.000000	8.171100
1967.000000	8.143400
1966.000000	8.126800
1965.000000	8.105900
1964.000000	8.071700
1963.000000	8.039100
1962.000000	8.037400
1961.000000	8.045300
1960.000000	8.002700
1959.000000	7.976400
1958.000000	7.965600
1957.000000	7.944900
1956.000000	7.928200
1955.000000	7.905000
1954.000000	7.902900
1953.000000	7.871600
1952.000000	7.843100
1951.000000	7.833200
1950.000000	7.804800
1949.000000	7.810500
1948.000000	7.791000
1947.000000	7.787700
1946.000000	7.759100
1945.000000	7.749000
1944.000000	7.738600
1943.000000	7.742100
1942.000000	7.743200
1941.000000	7.742900
1940.000000	7.746400
1939.000000	7.768400
1938.000000	7.782700
1937.000000	7.792900
1936.000000	7.810000
1935.000000	7.833400
1934.000000	7.829800
1933.000000	7.854800
1932.000000	7.897100
1931.000000	7.926200
1930.000000	7.957600
1929.000000	8.034200
1928.000000	8.074700
1927.000000	8.114000
1926.000000	8.163300
1925.000000	8.238600
1924.000000	8.277000
1923.000000	8.324300
1922.000000	8.418700
1921.000000	8.508200
1920.000000	8.591000
1919.000000	8.676900
1918.000000	8.748600
1917.000000	8.829800
1916.000000	8.893900
1915.000000	8.987100
1914.000000	9.113400
1913.000000	9.246400
1912.000000	9.366200
1911.000000	9.463300
1910.000000	9.573300
1909.000000	9.647800
1908.000000	9.729300
1907.000000	9.883100
1906.000000	10.014400
1905.000000	10.189800
1904.000000	10.335200
1903.000000	10.471300
1902.000000	10.604800
1901.000000	10.724800
1900.000000	10.895400
1899.000000	11.077500
1898.000000	11.249300
1897.000000	11.430800
1896.000000	11.559000
1895.000000	11.686000
1894.000000	11.842900
1893.000000	12.023900
1892.000000	12.225600
1891.000000	12.445500
1890.000000	12.634600
1889.000000	12.841400
1888.000000	13.057100
1887.000000	13.269500
1886.000000	13.515300
1885.000000	13.819000
1884.000000	14.143900
1883.000000	14.485700
1882.000000	14.827900
1881.000000	15.176700
1880.000000	15.511700
1879.000000	15.838200
1878.000000	16.141000
1877.000000	16.470400
1876.000000	16.779000
1875.000000	17.050200
1874.000000	17.294100
1873.000000	17.549000
1872.000000	17.777800
1871.000000	18.003800
1870.000000	18.180300
1869.000000	18.343200
1868.000000	18.480000
1867.000000	18.579000
1866.000000	18.653600
1865.000000	18.709500
1864.000000	18.765200
1863.000000	18.825000
1862.000000	18.882100
1861.000000	18.937100
1860.000000	18.974100
1859.000000	19.000200
1858.000000	19.022200
1857.000000	19.024100
1856.000000	19.012800
1855.000000	18.999000
1854.000000	18.980800
1853.000000	18.941500
1852.000000	18.911500
1851.000000	18.881900
1850.000000	18.855200
1849.000000	18.836200
1848.000000	18.809700
1847.000000	18.762600
1846.000000	18.690700
1845.000000	18.640100
1844.000000	18.597900
1843.000000	18.576300
1842.000000	18.589400
1841.000000	18.568600
1840.000000	18.524700
1839.000000	18.495900
1838.000000	18.449500
1837.000000	18.423900
1836.000000	18.391300
1835.000000	18.337700
1834.000000	18.273700
1833.000000	18.213800
1832.000000	18.157000
1831.000000	18.110500
1830.000000	18.066200
1829.000000	18.016600
1828.000000	17.958200
1827.000000	17.899300
1826.000000	17.850700
1825.000000	17.806400
1824.000000	17.771700
1823.000000	17.757200
1822.000000	17.754500
1821.000000	17.746400
1820.000000	17.738100
1819.000000	17.703100
1818.000000	17.697600
1817.000000	17.704800
1816.000000	17.707400
1815.000000	17.715800
1814.000000	17.736400
1813.000000	17.749300
1812.000000	17.735300
1811.000000	17.729500
1810.000000	17.698300
1809.000000	17.678000
1808.000000	17.678000
1807.000000	17.654800
1806.000000	17.624900
1805.000000	17.600500
1804.000000	17.564000
1803.000000	17.539900
1802.000000	17.519100
1801.000000	17.505400
1800.000000	17.476900
1799.000000	17.426700
1798.000000	17.408000
1797.000000	17.385000
1796.000000	17.360400
1795.000000	17.343200
1794.000000	17.315000
1793.000000	17.286800
1792.000000	17.242400
1791.000000	17.203700
1790.000000	17.135400
1789.000000	17.100200
1788.000000	17.069600
1787.000000	17.022300
1786.000000	16.986600
1785.000000	16.926400
1784.000000	16.844700
1783.000000	16.793900
1782.000000	16.734800
1781.000000	16.653300
1780.000000	16.587700
1779.000000	16.520700
1778.000000	16.459600
1777.000000	16.377400
1776.000000	16.277600
1775.000000	16.166100
1774.000000	16.059400
1773.000000	15.952300
1772.000000	15.826400
1771.000000	15.723900
1770.000000	15.620400
1769.000000	15.491500
1768.000000	15.395300
1767.000000	15.297900
1766.000000	15.221200
1765.000000	15.159500
1764.000000	15.099400
1763.000000	15.062300
1762.000000	15.071500
1761.000000	15.068300
1760.000000	15.116800
1759.000000	15.135300
1758.000000	15.181400
1757.000000	15.214300
1756.000000	15.235300
1755.000000	15.231500
1754.000000	15.236800
1753.000000	15.250800
1752.000000	15.212300
1751.000000	15.158500
1750.000000	15.091400
1749.000000	15.025800
1748.000000	14.943700
1747.000000	14.854500
1746.000000	14.759800
1745.000000	14.621800
1744.000000	14.499700
1743.000000	14.327100
1742.000000	14.181800
1741.000000	13.984900
1740.000000	13.772800
1739.000000	13.608100
1738.000000	13.425000
1737.000000	13.284100
1736.000000	13.172600
1735.000000	13.095200
1734.000000	13.057000
1733.000000	13.063400
1732.000000	13.090300
1731.000000	13.158400
1730.000000	13.224300
1729.000000	13.335900
1728.000000	13.415200
1727.000000	13.508200
1726.000000	13.604700
1725.000000	13.642700
1724.000000	13.699500
1723.000000	13.722100
1722.000000	13.746300
1721.000000	13.768400
1720.000000	13.759800
1719.000000	13.780500
1718.000000	13.815400
1717.000000	13.849200
1716.000000	13.871900
1715.000000	13.953600
1714.000000	13.987700
1713.000000	14.034000
1712.000000	14.109800
1711.000000	14.115000
1710.000000	14.132300
1709.000000	14.139500
1708.000000	14.140400
1707.000000	14.136200
1706.000000	14.089500
1705.000000	14.075900
1704.000000	14.021200
1703.000000	13.974300
1702.000000	13.883900
1701.000000	13.792000
1700.000000	13.676500
1699.000000	13.567100
1698.000000	13.461600
1697.000000	13.395900
1696.000000	13.347600
1695.000000	13.368700
1694.000000	13.417300
1693.000000	13.531400
1692.000000	13.689300
1691.000000	13.849500
1690.000000	13.987900
1689.000000	14.117800
1688.000000	14.205700
1687.000000	14.283900
1686.000000	14.321000
1685.000000	14.338800
1684.000000	14.456300
1683.000000	14.645900
1682.000000	14.920600
1681.000000	15.307000
1680.000000	15.745200
1679.000000	16.242500
1678.000000	16.730400
1677.000000	17.174100
1676.000000	17.576500
1675.000000	17.962700
1674.000000	18.307700
1673.000000	18.571300
1672.000000	18.813200
1671.000000	19.045700
1670.000000	19.211700
1669.000000	19.402700
1668.000000	19.546500
1667.000000	19.688400
1666.000000	19.785500
1665.000000	19.908300
1664.000000	19.988100
1663.000000	20.074100
1662.000000	20.120500
1661.000000	20.184200
1660.000000	20.209200
1659.000000	20.265100
1658.000000	20.269200
1657.000000	20.292800
1656.000000	20.308400
1655.000000	20.324100
1654.000000	20.304000
1653.000000	20.273500
1652.000000	20.250800
1651.000000	20.232900
1650.000000	20.206000
1649.000000	20.178000
1648.000000	20.142200
1647.000000	20.077500
1646.000000	20.030400
1645.000000	19.979600
1644.000000	19.930800
1643.000000	19.860000
1642.000000	19.786100
1641.000000	19.727200
1640.000000	19.675800
1639.000000	19.605200
1638.000000	19.551900
1637.000000	19.478400
1636.000000	19.395700
1635.000000	19.330800
1634.000000	19.265100
1633.000000	19.185700
1632.000000	19.115000
1631.000000	19.024700
1630.000000	18.938800
1629.000000	18.852900
1628.000000	18.777400
1627.000000	18.686500
1626.000000	18.599800
1625.000000	18.517400
1624.000000	18.434100
1623.000000	18.368700
1622.000000	18.292000
1621.000000	18.222400
1620.000000	18.145400
1619.000000	18.067800
1618.000000	17.988300
1617.000000	17.917100
1616.000000	17.850700
1615.000000	17.779700
1614.000000	17.704200
1613.000000	17.641000
1612.000000	17.571200
1611.000000	17.509100
1610.000000	17.437500
1609.000000	17.401700
1608.000000	17.337000
1607.000000	17.259100
1606.000000	17.189300
1605.000000	17.153800
1604.000000	17.104000
1603.000000	17.038600
1602.000000	16.981200
1601.000000	16.923200
1600.000000	16.869400
1599.000000	16.825700
1598.000000	16.768900
1597.000000	16.725400
