PE UV       SUBTECH     SPECTRUM    ASCII       PEDS        4.00        
   -1
CICIMAUCR0013-1.Sample.ASC
24/04/04
13:29:52.00
24/04/04
13:29:52.00
Vinicio Soto Monge
C. resplendens
250,000000
1
Lambda 1050
1050L1511233
PerkinElmer UV WinLab 6.3.2.0749 / 2.02.05 Lambda 900 UV/VIS/NIR, Aug  7 2015 09:38:08

0
0
3350/servo 860,8/2
0
0
UV/VIS
1
1
1
DoubleDePol,CommonBeamDepol,RBeamAtt,SBeamAtt,60mm sphere, WB InGaAs Detector
0
0
0
0
Program
Program
3350/servo 860,8/2
3350/0,2 860,8/0,2
3350/0,2 860,8/0,2
0
15.00
 
 
 
0
 
860,8
319,2
860,8
Front
100
on
S:100 R:100
0
0
0
0
 
0
 
 
 
0
 
 
0
0
0
0
0
 
 
 
 
0
0


0
0
#HDR
-1
-1
#GR
nm
%R
1.0
0.0
2500,000000
-1,000000
2251
8
69,170400
4,972700
#DATA
2500.000000	6.444400
2499.000000	6.347300
2498.000000	6.327100
2497.000000	6.328500
2496.000000	6.352700
2495.000000	6.311300
2494.000000	6.372500
2493.000000	6.327700
2492.000000	6.229700
2491.000000	6.264900
2490.000000	6.306900
2489.000000	6.247300
2488.000000	6.294100
2487.000000	6.251700
2486.000000	6.236900
2485.000000	6.314800
2484.000000	6.243700
2483.000000	6.280700
2482.000000	6.263800
2481.000000	6.249300
2480.000000	6.301900
2479.000000	6.266800
2478.000000	6.302800
2477.000000	6.242700
2476.000000	6.261400
2475.000000	6.303100
2474.000000	6.285900
2473.000000	6.321000
2472.000000	6.300200
2471.000000	6.337600
2470.000000	6.317800
2469.000000	6.298000
2468.000000	6.323700
2467.000000	6.345700
2466.000000	6.334500
2465.000000	6.382300
2464.000000	6.401400
2463.000000	6.427500
2462.000000	6.442300
2461.000000	6.461300
2460.000000	6.489500
2459.000000	6.558300
2458.000000	6.618500
2457.000000	6.659800
2456.000000	6.671400
2455.000000	6.729400
2454.000000	6.758000
2453.000000	6.807300
2452.000000	6.879400
2451.000000	6.961500
2450.000000	6.999600
2449.000000	7.079300
2448.000000	7.126100
2447.000000	7.203600
2446.000000	7.245600
2445.000000	7.318200
2444.000000	7.382900
2443.000000	7.441200
2442.000000	7.496200
2441.000000	7.562500
2440.000000	7.631500
2439.000000	7.657700
2438.000000	7.735200
2437.000000	7.763500
2436.000000	7.823300
2435.000000	7.871100
2434.000000	7.931900
2433.000000	7.983900
2432.000000	8.024100
2431.000000	8.076300
2430.000000	8.127200
2429.000000	8.163400
2428.000000	8.197500
2427.000000	8.232200
2426.000000	8.265700
2425.000000	8.300300
2424.000000	8.350000
2423.000000	8.372000
2422.000000	8.402700
2421.000000	8.429500
2420.000000	8.480500
2419.000000	8.515000
2418.000000	8.538600
2417.000000	8.568200
2416.000000	8.593800
2415.000000	8.613700
2414.000000	8.634000
2413.000000	8.665300
2412.000000	8.704900
2411.000000	8.719300
2410.000000	8.738600
2409.000000	8.765200
2408.000000	8.781500
2407.000000	8.813700
2406.000000	8.825000
2405.000000	8.843900
2404.000000	8.890300
2403.000000	8.901800
2402.000000	8.927200
2401.000000	8.960300
2400.000000	8.956900
2399.000000	8.997900
2398.000000	9.036700
2397.000000	9.064300
2396.000000	9.104000
2395.000000	9.110800
2394.000000	9.122300
2393.000000	9.159000
2392.000000	9.187200
2391.000000	9.200500
2390.000000	9.208600
2389.000000	9.213800
2388.000000	9.227700
2387.000000	9.241400
2386.000000	9.243600
2385.000000	9.247600
2384.000000	9.261200
2383.000000	9.267600
2382.000000	9.248700
2381.000000	9.243000
2380.000000	9.236800
2379.000000	9.226300
2378.000000	9.219900
2377.000000	9.209500
2376.000000	9.197700
2375.000000	9.177600
2374.000000	9.143900
2373.000000	9.131100
2372.000000	9.111900
2371.000000	9.085900
2370.000000	9.065500
2369.000000	9.020100
2368.000000	8.975700
2367.000000	8.946300
2366.000000	8.897300
2365.000000	8.846100
2364.000000	8.793400
2363.000000	8.744400
2362.000000	8.691400
2361.000000	8.618500
2360.000000	8.554000
2359.000000	8.512100
2358.000000	8.479700
2357.000000	8.437500
2356.000000	8.393500
2355.000000	8.363200
2354.000000	8.339800
2353.000000	8.318800
2352.000000	8.310800
2351.000000	8.308200
2350.000000	8.328500
2349.000000	8.366000
2348.000000	8.377000
2347.000000	8.395900
2346.000000	8.434200
2345.000000	8.474700
2344.000000	8.518200
2343.000000	8.548600
2342.000000	8.574000
2341.000000	8.592300
2340.000000	8.608200
2339.000000	8.617100
2338.000000	8.622200
2337.000000	8.630800
2336.000000	8.630600
2335.000000	8.614300
2334.000000	8.587000
2333.000000	8.556400
2332.000000	8.511900
2331.000000	8.471900
2330.000000	8.428100
2329.000000	8.376000
2328.000000	8.319000
2327.000000	8.259700
2326.000000	8.212800
2325.000000	8.124800
2324.000000	8.026100
2323.000000	7.949800
2322.000000	7.891400
2321.000000	7.789700
2320.000000	7.705200
2319.000000	7.612600
2318.000000	7.522600
2317.000000	7.415700
2316.000000	7.331700
2315.000000	7.234300
2314.000000	7.131300
2313.000000	7.052400
2312.000000	6.975100
2311.000000	6.888700
2310.000000	6.822500
2309.000000	6.781300
2308.000000	6.745000
2307.000000	6.711900
2306.000000	6.694700
2305.000000	6.699500
2304.000000	6.726600
2303.000000	6.754400
2302.000000	6.777100
2301.000000	6.812400
2300.000000	6.856300
2299.000000	6.926700
2298.000000	6.978800
2297.000000	7.014800
2296.000000	7.062900
2295.000000	7.118300
2294.000000	7.159300
2293.000000	7.173300
2292.000000	7.178700
2291.000000	7.199700
2290.000000	7.194000
2289.000000	7.187600
2288.000000	7.176900
2287.000000	7.138500
2286.000000	7.097200
2285.000000	7.056700
2284.000000	7.019400
2283.000000	6.944300
2282.000000	6.901600
2281.000000	6.854600
2280.000000	6.800000
2279.000000	6.738300
2278.000000	6.671900
2277.000000	6.605300
2276.000000	6.565900
2275.000000	6.534000
2274.000000	6.499100
2273.000000	6.453400
2272.000000	6.414000
2271.000000	6.390900
2270.000000	6.396500
2269.000000	6.395200
2268.000000	6.400300
2267.000000	6.427200
2266.000000	6.464200
2265.000000	6.503400
2264.000000	6.569600
2263.000000	6.647600
2262.000000	6.734000
2261.000000	6.818200
2260.000000	6.941900
2259.000000	7.031400
2258.000000	7.156900
2257.000000	7.272500
2256.000000	7.410900
2255.000000	7.542600
2254.000000	7.664200
2253.000000	7.783200
2252.000000	7.885000
2251.000000	8.015700
2250.000000	8.086100
2249.000000	8.226000
2248.000000	8.301000
2247.000000	8.394200
2246.000000	8.447000
2245.000000	8.534500
2244.000000	8.592100
2243.000000	8.647700
2242.000000	8.738800
2241.000000	8.777200
2240.000000	8.832400
2239.000000	8.880500
2238.000000	8.913100
2237.000000	8.942900
2236.000000	8.990000
2235.000000	9.020200
2234.000000	9.047500
2233.000000	9.043200
2232.000000	9.061700
2231.000000	9.052700
2230.000000	9.053000
2229.000000	9.017600
2228.000000	9.011800
2227.000000	8.983000
2226.000000	8.951200
2225.000000	8.917700
2224.000000	8.881200
2223.000000	8.852000
2222.000000	8.775900
2221.000000	8.737400
2220.000000	8.671200
2219.000000	8.627600
2218.000000	8.567400
2217.000000	8.519300
2216.000000	8.469200
2215.000000	8.417000
2214.000000	8.372200
2213.000000	8.337200
2212.000000	8.337200
2211.000000	8.298000
2210.000000	8.304400
2209.000000	8.335500
2208.000000	8.368600
2207.000000	8.409100
2206.000000	8.473700
2205.000000	8.534700
2204.000000	8.632300
2203.000000	8.710800
2202.000000	8.854000
2201.000000	8.954800
2200.000000	9.093100
2199.000000	9.209300
2198.000000	9.359200
2197.000000	9.489700
2196.000000	9.629200
2195.000000	9.761500
2194.000000	9.885400
2193.000000	10.009900
2192.000000	10.113000
2191.000000	10.200700
2190.000000	10.325600
2189.000000	10.413900
2188.000000	10.495400
2187.000000	10.560400
2186.000000	10.625500
2185.000000	10.696400
2184.000000	10.724200
2183.000000	10.781100
2182.000000	10.806700
2181.000000	10.833700
2180.000000	10.870800
2179.000000	10.913500
2178.000000	10.931700
2177.000000	10.973400
2176.000000	11.004700
2175.000000	11.043200
2174.000000	11.059200
2173.000000	11.099100
2172.000000	11.126000
2171.000000	11.158300
2170.000000	11.185900
2169.000000	11.216500
2168.000000	11.235100
2167.000000	11.268600
2166.000000	11.317000
2165.000000	11.343700
2164.000000	11.374600
2163.000000	11.395200
2162.000000	11.422000
2161.000000	11.470800
2160.000000	11.511900
2159.000000	11.549200
2158.000000	11.595400
2157.000000	11.643000
2156.000000	11.686700
2155.000000	11.735100
2154.000000	11.763900
2153.000000	11.816900
2152.000000	11.862200
2151.000000	11.918500
2150.000000	11.956600
2149.000000	12.003600
2148.000000	12.054200
2147.000000	12.081900
2146.000000	12.125300
2145.000000	12.178600
2144.000000	12.218400
2143.000000	12.273500
2142.000000	12.317500
2141.000000	12.336000
2140.000000	12.363900
2139.000000	12.396600
2138.000000	12.416600
2137.000000	12.454000
2136.000000	12.485600
2135.000000	12.515900
2134.000000	12.556300
2133.000000	12.570500
2132.000000	12.566900
2131.000000	12.580400
2130.000000	12.618700
2129.000000	12.636700
2128.000000	12.645900
2127.000000	12.660100
2126.000000	12.658800
2125.000000	12.657900
2124.000000	12.661300
2123.000000	12.661700
2122.000000	12.654200
2121.000000	12.647700
2120.000000	12.623700
2119.000000	12.627500
2118.000000	12.637000
2117.000000	12.610000
2116.000000	12.591500
2115.000000	12.587000
2114.000000	12.576600
2113.000000	12.561200
2112.000000	12.548000
2111.000000	12.534400
2110.000000	12.519000
2109.000000	12.501700
2108.000000	12.484700
2107.000000	12.469000
2106.000000	12.453800
2105.000000	12.437800
2104.000000	12.430100
2103.000000	12.418900
2102.000000	12.395100
2101.000000	12.381800
2100.000000	12.369200
2099.000000	12.335900
2098.000000	12.310300
2097.000000	12.304600
2096.000000	12.305500
2095.000000	12.302100
2094.000000	12.280900
2093.000000	12.259700
2092.000000	12.249000
2091.000000	12.241400
2090.000000	12.236400
2089.000000	12.225800
2088.000000	12.222500
2087.000000	12.212400
2086.000000	12.200200
2085.000000	12.192800
2084.000000	12.176200
2083.000000	12.160000
2082.000000	12.154500
2081.000000	12.139600
2080.000000	12.138300
2079.000000	12.119500
2078.000000	12.100300
2077.000000	12.094300
2076.000000	12.071900
2075.000000	12.056200
2074.000000	12.030900
2073.000000	12.016800
2072.000000	11.997900
2071.000000	11.985400
2070.000000	11.972100
2069.000000	11.949200
2068.000000	11.929400
2067.000000	11.921500
2066.000000	11.916000
2065.000000	11.895700
2064.000000	11.886400
2063.000000	11.875200
2062.000000	11.854700
2061.000000	11.864200
2060.000000	11.857300
2059.000000	11.848600
2058.000000	11.868000
2057.000000	11.882400
2056.000000	11.898500
2055.000000	11.916200
2054.000000	11.963600
2053.000000	12.001800
2052.000000	12.050600
2051.000000	12.122500
2050.000000	12.188500
2049.000000	12.251200
2048.000000	12.326500
2047.000000	12.409200
2046.000000	12.519500
2045.000000	12.605400
2044.000000	12.701600
2043.000000	12.813600
2042.000000	12.911400
2041.000000	13.023200
2040.000000	13.125500
2039.000000	13.246700
2038.000000	13.358300
2037.000000	13.439700
2036.000000	13.519000
2035.000000	13.631500
2034.000000	13.727100
2033.000000	13.823100
2032.000000	13.906800
2031.000000	13.986100
2030.000000	14.057500
2029.000000	14.122200
2028.000000	14.205600
2027.000000	14.279500
2026.000000	14.352000
2025.000000	14.430600
2024.000000	14.469600
2023.000000	14.544700
2022.000000	14.621200
2021.000000	14.676600
2020.000000	14.732700
2019.000000	14.795400
2018.000000	14.848800
2017.000000	14.907500
2016.000000	14.957400
2015.000000	14.988800
2014.000000	15.021000
2013.000000	15.063200
2012.000000	15.128600
2011.000000	15.155400
2010.000000	15.182900
2009.000000	15.197400
2008.000000	15.240200
2007.000000	15.227700
2006.000000	15.259500
2005.000000	15.279800
2004.000000	15.281300
2003.000000	15.277400
2002.000000	15.262200
2001.000000	15.267100
2000.000000	15.273200
1999.000000	15.272600
1998.000000	15.249600
1997.000000	15.252900
1996.000000	15.222700
1995.000000	15.214100
1994.000000	15.185300
1993.000000	15.154600
1992.000000	15.121200
1991.000000	15.089500
1990.000000	15.055100
1989.000000	15.022300
1988.000000	14.984500
1987.000000	14.939400
1986.000000	14.910100
1985.000000	14.865600
1984.000000	14.803500
1983.000000	14.763100
1982.000000	14.725700
1981.000000	14.680600
1980.000000	14.619100
1979.000000	14.588700
1978.000000	14.536600
1977.000000	14.469900
1976.000000	14.443300
1975.000000	14.386200
1974.000000	14.351000
1973.000000	14.306900
1972.000000	14.253300
1971.000000	14.231200
1970.000000	14.161100
1969.000000	14.139000
1968.000000	14.091100
1967.000000	14.054200
1966.000000	14.025900
1965.000000	13.995900
1964.000000	13.966600
1963.000000	13.930400
1962.000000	13.874900
1961.000000	13.838400
1960.000000	13.811500
1959.000000	13.781000
1958.000000	13.737000
1957.000000	13.697500
1956.000000	13.650700
1955.000000	13.629300
1954.000000	13.603400
1953.000000	13.566400
1952.000000	13.528100
1951.000000	13.512900
1950.000000	13.461400
1949.000000	13.442900
1948.000000	13.418000
1947.000000	13.401200
1946.000000	13.382500
1945.000000	13.372700
1944.000000	13.346600
1943.000000	13.357700
1942.000000	13.340800
1941.000000	13.352700
1940.000000	13.400200
1939.000000	13.418700
1938.000000	13.424600
1937.000000	13.445200
1936.000000	13.491800
1935.000000	13.522500
1934.000000	13.554500
1933.000000	13.625200
1932.000000	13.682200
1931.000000	13.746800
1930.000000	13.817100
1929.000000	13.900600
1928.000000	13.976500
1927.000000	14.071600
1926.000000	14.162800
1925.000000	14.263600
1924.000000	14.365600
1923.000000	14.493600
1922.000000	14.603100
1921.000000	14.743600
1920.000000	14.882100
1919.000000	15.003300
1918.000000	15.151700
1917.000000	15.278700
1916.000000	15.419100
1915.000000	15.568000
1914.000000	15.755700
1913.000000	15.934500
1912.000000	16.115600
1911.000000	16.273000
1910.000000	16.429500
1909.000000	16.601200
1908.000000	16.771400
1907.000000	16.962000
1906.000000	17.168300
1905.000000	17.369700
1904.000000	17.568100
1903.000000	17.750500
1902.000000	17.931700
1901.000000	18.118200
1900.000000	18.318700
1899.000000	18.503500
1898.000000	18.706400
1897.000000	18.913200
1896.000000	19.088300
1895.000000	19.263000
1894.000000	19.439100
1893.000000	19.625000
1892.000000	19.799800
1891.000000	20.005800
1890.000000	20.200000
1889.000000	20.362500
1888.000000	20.557000
1887.000000	20.765700
1886.000000	21.009800
1885.000000	21.274600
1884.000000	21.574300
1883.000000	21.895800
1882.000000	22.239200
1881.000000	22.568000
1880.000000	22.905600
1879.000000	23.227100
1878.000000	23.553100
1877.000000	23.851000
1876.000000	24.132800
1875.000000	24.393100
1874.000000	24.607200
1873.000000	24.806600
1872.000000	24.988700
1871.000000	25.142700
1870.000000	25.240600
1869.000000	25.339700
1868.000000	25.419100
1867.000000	25.451000
1866.000000	25.468600
1865.000000	25.475100
1864.000000	25.502600
1863.000000	25.524100
1862.000000	25.533000
1861.000000	25.528400
1860.000000	25.531700
1859.000000	25.498400
1858.000000	25.450500
1857.000000	25.400100
1856.000000	25.339800
1855.000000	25.279500
1854.000000	25.203100
1853.000000	25.098700
1852.000000	25.012700
1851.000000	24.958900
1850.000000	24.911200
1849.000000	24.854200
1848.000000	24.752400
1847.000000	24.635500
1846.000000	24.531700
1845.000000	24.443200
1844.000000	24.393400
1843.000000	24.380600
1842.000000	24.358200
1841.000000	24.310900
1840.000000	24.236900
1839.000000	24.188000
1838.000000	24.151500
1837.000000	24.084500
1836.000000	24.008100
1835.000000	23.913700
1834.000000	23.818100
1833.000000	23.756400
1832.000000	23.683400
1831.000000	23.603600
1830.000000	23.533400
1829.000000	23.430600
1828.000000	23.339000
1827.000000	23.278400
1826.000000	23.194300
1825.000000	23.118400
1824.000000	23.088500
1823.000000	23.091800
1822.000000	23.114200
1821.000000	23.101600
1820.000000	23.031900
1819.000000	22.991500
1818.000000	22.986000
1817.000000	22.979900
1816.000000	22.986900
1815.000000	22.989400
1814.000000	22.994500
1813.000000	22.997600
1812.000000	22.987300
1811.000000	22.964000
1810.000000	22.928100
1809.000000	22.905900
1808.000000	22.886000
1807.000000	22.876200
1806.000000	22.836300
1805.000000	22.782400
1804.000000	22.733800
1803.000000	22.706300
1802.000000	22.681500
1801.000000	22.641300
1800.000000	22.601100
1799.000000	22.563000
1798.000000	22.537100
1797.000000	22.512500
1796.000000	22.479300
1795.000000	22.439000
1794.000000	22.411900
1793.000000	22.378700
1792.000000	22.331400
1791.000000	22.284300
1790.000000	22.246700
1789.000000	22.184000
1788.000000	22.146100
1787.000000	22.096200
1786.000000	22.026000
1785.000000	21.959400
1784.000000	21.897000
1783.000000	21.841900
1782.000000	21.768800
1781.000000	21.688300
1780.000000	21.611500
1779.000000	21.550900
1778.000000	21.469700
1777.000000	21.387100
1776.000000	21.274700
1775.000000	21.163300
1774.000000	21.043800
1773.000000	20.925400
1772.000000	20.808600
1771.000000	20.669200
1770.000000	20.546200
1769.000000	20.444400
1768.000000	20.339800
1767.000000	20.241800
1766.000000	20.154800
1765.000000	20.091500
1764.000000	20.038000
1763.000000	20.023600
1762.000000	20.032400
1761.000000	20.066200
1760.000000	20.123200
1759.000000	20.182500
1758.000000	20.251900
1757.000000	20.293700
1756.000000	20.335800
1755.000000	20.375200
1754.000000	20.374900
1753.000000	20.361000
1752.000000	20.331800
1751.000000	20.294600
1750.000000	20.226200
1749.000000	20.164700
1748.000000	20.093800
1747.000000	19.993300
1746.000000	19.874100
1745.000000	19.741400
1744.000000	19.567900
1743.000000	19.384700
1742.000000	19.199700
1741.000000	18.985900
1740.000000	18.772100
1739.000000	18.545800
1738.000000	18.355700
1737.000000	18.181700
1736.000000	18.050700
1735.000000	17.965300
1734.000000	17.924700
1733.000000	17.916900
1732.000000	17.942900
1731.000000	18.000800
1730.000000	18.080000
1729.000000	18.170300
1728.000000	18.281400
1727.000000	18.371900
1726.000000	18.438500
1725.000000	18.502800
1724.000000	18.535300
1723.000000	18.550300
1722.000000	18.544600
1721.000000	18.525400
1720.000000	18.518800
1719.000000	18.536100
1718.000000	18.528500
1717.000000	18.540300
1716.000000	18.562800
1715.000000	18.608100
1714.000000	18.634200
1713.000000	18.680400
1712.000000	18.701100
1711.000000	18.716900
1710.000000	18.730300
1709.000000	18.715800
1708.000000	18.678200
1707.000000	18.656200
1706.000000	18.626700
1705.000000	18.573200
1704.000000	18.547400
1703.000000	18.447800
1702.000000	18.349800
1701.000000	18.227300
1700.000000	18.092300
1699.000000	17.948500
1698.000000	17.816600
1697.000000	17.698600
1696.000000	17.639600
1695.000000	17.623500
1694.000000	17.663100
1693.000000	17.787800
1692.000000	17.924500
1691.000000	18.072100
1690.000000	18.217500
1689.000000	18.306000
1688.000000	18.374900
1687.000000	18.374800
1686.000000	18.377400
1685.000000	18.388000
1684.000000	18.461100
1683.000000	18.652400
1682.000000	18.924400
1681.000000	19.315400
1680.000000	19.785900
1679.000000	20.328000
1678.000000	20.818900
1677.000000	21.314700
1676.000000	21.739800
1675.000000	22.115800
1674.000000	22.459300
1673.000000	22.754700
1672.000000	22.995900
1671.000000	23.233100
1670.000000	23.427600
1669.000000	23.581900
1668.000000	23.732300
1667.000000	23.839900
1666.000000	23.946900
1665.000000	24.044500
1664.000000	24.119900
1663.000000	24.213400
1662.000000	24.282300
1661.000000	24.347700
1660.000000	24.401200
1659.000000	24.421100
1658.000000	24.457600
1657.000000	24.477200
1656.000000	24.508700
1655.000000	24.513600
1654.000000	24.519300
1653.000000	24.530900
1652.000000	24.513700
1651.000000	24.507100
1650.000000	24.472300
1649.000000	24.460500
1648.000000	24.448500
1647.000000	24.408800
1646.000000	24.380100
1645.000000	24.334800
1644.000000	24.276100
1643.000000	24.234800
1642.000000	24.189300
1641.000000	24.157100
1640.000000	24.103200
1639.000000	24.040400
1638.000000	23.984600
1637.000000	23.922400
1636.000000	23.861200
1635.000000	23.815700
1634.000000	23.754000
1633.000000	23.689500
1632.000000	23.622700
1631.000000	23.557000
1630.000000	23.490600
1629.000000	23.405300
1628.000000	23.332700
1627.000000	23.253200
1626.000000	23.171500
1625.000000	23.075100
1624.000000	23.003600
1623.000000	22.940500
1622.000000	22.873000
1621.000000	22.784800
1620.000000	22.709400
1619.000000	22.634200
1618.000000	22.553200
1617.000000	22.461700
1616.000000	22.393400
1615.000000	22.324400
1614.000000	22.256200
1613.000000	22.174000
1612.000000	22.106800
1611.000000	22.030200
1610.000000	21.948000
