PE UV       SUBTECH     SPECTRUM    ASCII       PEDS        4.00        
   -1
CICIMAUCR0158-1.ASC
24/04/03
16:46:49.00
24/04/03
16:46:49.00
Vinicio Soto Monge
C. cupreomarginata
250,000000
1
Lambda 1050
1050L1511233
PerkinElmer UV WinLab 6.3.2.0749 / 2.02.05 Lambda 900 UV/VIS/NIR, Aug  7 2015 09:38:08

0
0
3350/servo 860,8/2
0
0
UV/VIS
1
1
1
DoubleDePol,CommonBeamDepol,RBeamAtt,SBeamAtt,60mm sphere, WB InGaAs Detector
0
0
0
0
Program
Program
3350/servo 860,8/2
3350/0,2 860,8/0,2
3350/0,2 860,8/0,2
0
15.00
 
 
 
0
 
860,8
319,2
860,8
Front
100
on
S:100 R:100
0
0
0
0
 
0
 
 
 
0
 
 
0
0
0
0
0
 
 
 
 
0
0


0
0
#HDR
-1
-1
#GR
nm
%R
1.0
0.0
2500,000000
-1,000000
2251
8
61,268000
5,280400
#DATA
2500.000000	11.382200
2499.000000	11.405800
2498.000000	11.323800
2497.000000	11.410300
2496.000000	11.253200
2495.000000	11.436400
2494.000000	11.329300
2493.000000	11.360400
2492.000000	11.379500
2491.000000	11.446200
2490.000000	11.472900
2489.000000	11.470200
2488.000000	11.406500
2487.000000	11.470800
2486.000000	11.540400
2485.000000	11.501000
2484.000000	11.556100
2483.000000	11.634700
2482.000000	11.641300
2481.000000	11.593600
2480.000000	11.646700
2479.000000	11.711000
2478.000000	11.727400
2477.000000	11.781500
2476.000000	11.838400
2475.000000	11.877800
2474.000000	11.947500
2473.000000	11.931600
2472.000000	12.015100
2471.000000	12.005100
2470.000000	12.058000
2469.000000	12.142000
2468.000000	12.168000
2467.000000	12.218100
2466.000000	12.263500
2465.000000	12.310400
2464.000000	12.362600
2463.000000	12.454700
2462.000000	12.522500
2461.000000	12.605500
2460.000000	12.667200
2459.000000	12.727700
2458.000000	12.807000
2457.000000	12.869800
2456.000000	12.945500
2455.000000	13.015400
2454.000000	13.115500
2453.000000	13.203700
2452.000000	13.299700
2451.000000	13.410400
2450.000000	13.472200
2449.000000	13.579500
2448.000000	13.673900
2447.000000	13.779000
2446.000000	13.867900
2445.000000	13.970200
2444.000000	14.066200
2443.000000	14.177100
2442.000000	14.304000
2441.000000	14.401300
2440.000000	14.503400
2439.000000	14.600600
2438.000000	14.713700
2437.000000	14.802600
2436.000000	14.900200
2435.000000	15.005900
2434.000000	15.107300
2433.000000	15.216700
2432.000000	15.314900
2431.000000	15.410700
2430.000000	15.515300
2429.000000	15.607000
2428.000000	15.703500
2427.000000	15.779800
2426.000000	15.877900
2425.000000	15.974700
2424.000000	16.060300
2423.000000	16.149900
2422.000000	16.241800
2421.000000	16.346400
2420.000000	16.441600
2419.000000	16.516700
2418.000000	16.598600
2417.000000	16.683300
2416.000000	16.752500
2415.000000	16.812300
2414.000000	16.891900
2413.000000	16.959700
2412.000000	17.017200
2411.000000	17.063000
2410.000000	17.133200
2409.000000	17.190200
2408.000000	17.236100
2407.000000	17.290700
2406.000000	17.342400
2405.000000	17.386700
2404.000000	17.435300
2403.000000	17.470600
2402.000000	17.517100
2401.000000	17.552500
2400.000000	17.592300
2399.000000	17.640700
2398.000000	17.670200
2397.000000	17.706900
2396.000000	17.725100
2395.000000	17.754100
2394.000000	17.788900
2393.000000	17.805000
2392.000000	17.848900
2391.000000	17.882800
2390.000000	17.888000
2389.000000	17.895100
2388.000000	17.921800
2387.000000	17.930300
2386.000000	17.941200
2385.000000	17.955500
2384.000000	17.953700
2383.000000	17.962200
2382.000000	17.970900
2381.000000	17.970300
2380.000000	17.973600
2379.000000	17.980300
2378.000000	17.978500
2377.000000	17.970200
2376.000000	17.947100
2375.000000	17.948000
2374.000000	17.961400
2373.000000	17.944400
2372.000000	17.927700
2371.000000	17.926100
2370.000000	17.921900
2369.000000	17.904500
2368.000000	17.900400
2367.000000	17.899900
2366.000000	17.892500
2365.000000	17.894300
2364.000000	17.885200
2363.000000	17.883500
2362.000000	17.889200
2361.000000	17.888500
2360.000000	17.892600
2359.000000	17.878100
2358.000000	17.864500
2357.000000	17.860200
2356.000000	17.848800
2355.000000	17.838300
2354.000000	17.820300
2353.000000	17.807900
2352.000000	17.796600
2351.000000	17.772100
2350.000000	17.748600
2349.000000	17.734400
2348.000000	17.730500
2347.000000	17.712400
2346.000000	17.691000
2345.000000	17.672800
2344.000000	17.667100
2343.000000	17.655400
2342.000000	17.635000
2341.000000	17.611600
2340.000000	17.605700
2339.000000	17.594000
2338.000000	17.580100
2337.000000	17.563800
2336.000000	17.567500
2335.000000	17.563700
2334.000000	17.556000
2333.000000	17.543600
2332.000000	17.545600
2331.000000	17.548700
2330.000000	17.539300
2329.000000	17.546900
2328.000000	17.547200
2327.000000	17.541100
2326.000000	17.556500
2325.000000	17.559500
2324.000000	17.566300
2323.000000	17.569400
2322.000000	17.560600
2321.000000	17.551700
2320.000000	17.532900
2319.000000	17.514500
2318.000000	17.483500
2317.000000	17.445600
2316.000000	17.422800
2315.000000	17.378900
2314.000000	17.343700
2313.000000	17.287200
2312.000000	17.254300
2311.000000	17.190700
2310.000000	17.127700
2309.000000	17.076500
2308.000000	17.017200
2307.000000	16.952000
2306.000000	16.894400
2305.000000	16.857400
2304.000000	16.801300
2303.000000	16.741400
2302.000000	16.698800
2301.000000	16.631700
2300.000000	16.588900
2299.000000	16.542600
2298.000000	16.497300
2297.000000	16.472800
2296.000000	16.421600
2295.000000	16.392200
2294.000000	16.364500
2293.000000	16.319100
2292.000000	16.318000
2291.000000	16.284300
2290.000000	16.253700
2289.000000	16.209500
2288.000000	16.199500
2287.000000	16.170700
2286.000000	16.141800
2285.000000	16.133800
2284.000000	16.100000
2283.000000	16.069100
2282.000000	16.075500
2281.000000	16.038200
2280.000000	16.024600
2279.000000	15.986800
2278.000000	15.956400
2277.000000	15.929700
2276.000000	15.878700
2275.000000	15.845700
2274.000000	15.819900
2273.000000	15.762800
2272.000000	15.715200
2271.000000	15.677900
2270.000000	15.631100
2269.000000	15.607600
2268.000000	15.557800
2267.000000	15.526200
2266.000000	15.505800
2265.000000	15.488200
2264.000000	15.475600
2263.000000	15.459200
2262.000000	15.468800
2261.000000	15.476200
2260.000000	15.484600
2259.000000	15.498300
2258.000000	15.525800
2257.000000	15.577200
2256.000000	15.603100
2255.000000	15.649000
2254.000000	15.699200
2253.000000	15.766100
2252.000000	15.814200
2251.000000	15.881800
2250.000000	15.913800
2249.000000	15.969400
2248.000000	16.042200
2247.000000	16.101400
2246.000000	16.126200
2245.000000	16.186100
2244.000000	16.228100
2243.000000	16.274100
2242.000000	16.301700
2241.000000	16.327600
2240.000000	16.367100
2239.000000	16.372000
2238.000000	16.385900
2237.000000	16.387000
2236.000000	16.382700
2235.000000	16.381900
2234.000000	16.353700
2233.000000	16.305800
2232.000000	16.263800
2231.000000	16.227700
2230.000000	16.146900
2229.000000	16.071300
2228.000000	16.013100
2227.000000	15.915400
2226.000000	15.817600
2225.000000	15.710300
2224.000000	15.593700
2223.000000	15.477200
2222.000000	15.367100
2221.000000	15.221200
2220.000000	15.102900
2219.000000	14.981900
2218.000000	14.831000
2217.000000	14.723900
2216.000000	14.589600
2215.000000	14.513300
2214.000000	14.421500
2213.000000	14.332300
2212.000000	14.291600
2211.000000	14.249800
2210.000000	14.249000
2209.000000	14.253900
2208.000000	14.287700
2207.000000	14.340000
2206.000000	14.452800
2205.000000	14.569600
2204.000000	14.707200
2203.000000	14.837000
2202.000000	15.028900
2201.000000	15.221500
2200.000000	15.420900
2199.000000	15.636500
2198.000000	15.837600
2197.000000	16.082400
2196.000000	16.280100
2195.000000	16.482000
2194.000000	16.683800
2193.000000	16.891600
2192.000000	17.066900
2191.000000	17.224900
2190.000000	17.376600
2189.000000	17.537200
2188.000000	17.678600
2187.000000	17.772100
2186.000000	17.880600
2185.000000	17.983000
2184.000000	18.082900
2183.000000	18.132200
2182.000000	18.203800
2181.000000	18.273300
2180.000000	18.316500
2179.000000	18.359400
2178.000000	18.425800
2177.000000	18.471500
2176.000000	18.514500
2175.000000	18.550300
2174.000000	18.582100
2173.000000	18.618100
2172.000000	18.676200
2171.000000	18.710900
2170.000000	18.751500
2169.000000	18.804400
2168.000000	18.884500
2167.000000	18.936600
2166.000000	18.975800
2165.000000	19.044600
2164.000000	19.108000
2163.000000	19.153800
2162.000000	19.224400
2161.000000	19.301200
2160.000000	19.381300
2159.000000	19.458000
2158.000000	19.560600
2157.000000	19.642100
2156.000000	19.724600
2155.000000	19.824400
2154.000000	19.922900
2153.000000	20.032900
2152.000000	20.135700
2151.000000	20.250800
2150.000000	20.351000
2149.000000	20.445300
2148.000000	20.577600
2147.000000	20.688100
2146.000000	20.777800
2145.000000	20.898200
2144.000000	21.005400
2143.000000	21.112900
2142.000000	21.228400
2141.000000	21.340700
2140.000000	21.428900
2139.000000	21.512800
2138.000000	21.615300
2137.000000	21.715200
2136.000000	21.799000
2135.000000	21.890000
2134.000000	21.976100
2133.000000	22.036800
2132.000000	22.106400
2131.000000	22.170200
2130.000000	22.239900
2129.000000	22.303700
2128.000000	22.362000
2127.000000	22.417100
2126.000000	22.480100
2125.000000	22.516900
2124.000000	22.546300
2123.000000	22.581000
2122.000000	22.629900
2121.000000	22.678600
2120.000000	22.708700
2119.000000	22.723100
2118.000000	22.746600
2117.000000	22.772300
2116.000000	22.778800
2115.000000	22.795500
2114.000000	22.826100
2113.000000	22.830700
2112.000000	22.834600
2111.000000	22.848100
2110.000000	22.855000
2109.000000	22.844000
2108.000000	22.843600
2107.000000	22.843000
2106.000000	22.847900
2105.000000	22.848100
2104.000000	22.836700
2103.000000	22.843900
2102.000000	22.832500
2101.000000	22.823900
2100.000000	22.833100
2099.000000	22.831800
2098.000000	22.831200
2097.000000	22.819100
2096.000000	22.814000
2095.000000	22.821800
2094.000000	22.823500
2093.000000	22.815800
2092.000000	22.814400
2091.000000	22.823900
2090.000000	22.814700
2089.000000	22.807400
2088.000000	22.822700
2087.000000	22.831500
2086.000000	22.811700
2085.000000	22.792800
2084.000000	22.767500
2083.000000	22.744200
2082.000000	22.714800
2081.000000	22.681700
2080.000000	22.642100
2079.000000	22.577600
2078.000000	22.524100
2077.000000	22.467300
2076.000000	22.406400
2075.000000	22.343100
2074.000000	22.274400
2073.000000	22.194000
2072.000000	22.092400
2071.000000	21.996000
2070.000000	21.908500
2069.000000	21.820500
2068.000000	21.715200
2067.000000	21.627500
2066.000000	21.518500
2065.000000	21.428300
2064.000000	21.323900
2063.000000	21.219600
2062.000000	21.123900
2061.000000	21.047400
2060.000000	20.976900
2059.000000	20.891500
2058.000000	20.836400
2057.000000	20.783100
2056.000000	20.740400
2055.000000	20.710700
2054.000000	20.689000
2053.000000	20.695000
2052.000000	20.702200
2051.000000	20.731100
2050.000000	20.769400
2049.000000	20.828000
2048.000000	20.896500
2047.000000	20.972100
2046.000000	21.065100
2045.000000	21.161700
2044.000000	21.251000
2043.000000	21.358800
2042.000000	21.468700
2041.000000	21.564800
2040.000000	21.656400
2039.000000	21.759800
2038.000000	21.840900
2037.000000	21.932600
2036.000000	22.022600
2035.000000	22.104500
2034.000000	22.180100
2033.000000	22.229500
2032.000000	22.304400
2031.000000	22.378000
2030.000000	22.426100
2029.000000	22.495200
2028.000000	22.533700
2027.000000	22.581600
2026.000000	22.610300
2025.000000	22.665300
2024.000000	22.689100
2023.000000	22.721800
2022.000000	22.750500
2021.000000	22.775800
2020.000000	22.797500
2019.000000	22.805900
2018.000000	22.819500
2017.000000	22.826400
2016.000000	22.840200
2015.000000	22.848500
2014.000000	22.829200
2013.000000	22.821300
2012.000000	22.803900
2011.000000	22.774100
2010.000000	22.750400
2009.000000	22.716500
2008.000000	22.709400
2007.000000	22.655800
2006.000000	22.635300
2005.000000	22.598200
2004.000000	22.553800
2003.000000	22.477300
2002.000000	22.432100
2001.000000	22.360800
2000.000000	22.312100
1999.000000	22.233300
1998.000000	22.168400
1997.000000	22.084400
1996.000000	22.019500
1995.000000	21.934700
1994.000000	21.855900
1993.000000	21.768400
1992.000000	21.688100
1991.000000	21.601000
1990.000000	21.517600
1989.000000	21.436800
1988.000000	21.341700
1987.000000	21.265400
1986.000000	21.129900
1985.000000	21.053400
1984.000000	20.977000
1983.000000	20.870200
1982.000000	20.773400
1981.000000	20.682300
1980.000000	20.591500
1979.000000	20.510500
1978.000000	20.400100
1977.000000	20.320900
1976.000000	20.218800
1975.000000	20.134800
1974.000000	20.047000
1973.000000	19.983000
1972.000000	19.860800
1971.000000	19.782800
1970.000000	19.702500
1969.000000	19.619400
1968.000000	19.543000
1967.000000	19.446900
1966.000000	19.387500
1965.000000	19.296700
1964.000000	19.231900
1963.000000	19.120000
1962.000000	19.029400
1961.000000	18.982400
1960.000000	18.882600
1959.000000	18.805200
1958.000000	18.708400
1957.000000	18.626200
1956.000000	18.564100
1955.000000	18.464600
1954.000000	18.369100
1953.000000	18.291200
1952.000000	18.204300
1951.000000	18.147500
1950.000000	18.100600
1949.000000	18.020000
1948.000000	17.945200
1947.000000	17.861900
1946.000000	17.817000
1945.000000	17.760900
1944.000000	17.701400
1943.000000	17.644900
1942.000000	17.608000
1941.000000	17.575700
1940.000000	17.552700
1939.000000	17.521400
1938.000000	17.485200
1937.000000	17.485600
1936.000000	17.469400
1935.000000	17.449100
1934.000000	17.481500
1933.000000	17.476800
1932.000000	17.530800
1931.000000	17.570300
1930.000000	17.586100
1929.000000	17.649400
1928.000000	17.718600
1927.000000	17.769000
1926.000000	17.839000
1925.000000	17.926300
1924.000000	18.049400
1923.000000	18.126500
1922.000000	18.252300
1921.000000	18.405200
1920.000000	18.556000
1919.000000	18.675900
1918.000000	18.842000
1917.000000	18.988400
1916.000000	19.157200
1915.000000	19.340200
1914.000000	19.565600
1913.000000	19.820200
1912.000000	20.060700
1911.000000	20.286300
1910.000000	20.536800
1909.000000	20.764600
1908.000000	21.032900
1907.000000	21.349100
1906.000000	21.707300
1905.000000	22.099300
1904.000000	22.487100
1903.000000	22.837400
1902.000000	23.210800
1901.000000	23.617600
1900.000000	24.068200
1899.000000	24.540100
1898.000000	24.977000
1897.000000	25.460300
1896.000000	25.886300
1895.000000	26.296800
1894.000000	26.783200
1893.000000	27.282600
1892.000000	27.815700
1891.000000	28.359000
1890.000000	28.871400
1889.000000	29.332100
1888.000000	29.832600
1887.000000	30.292500
1886.000000	30.756300
1885.000000	31.240100
1884.000000	31.704600
1883.000000	32.125000
1882.000000	32.516600
1881.000000	32.909300
1880.000000	33.267300
1879.000000	33.622700
1878.000000	33.968600
1877.000000	34.312400
1876.000000	34.645100
1875.000000	34.974800
1874.000000	35.281900
1873.000000	35.571300
1872.000000	35.837200
1871.000000	36.068300
1870.000000	36.254600
1869.000000	36.431500
1868.000000	36.591200
1867.000000	36.695300
1866.000000	36.793800
1865.000000	36.888800
1864.000000	36.985400
1863.000000	37.099000
1862.000000	37.242300
1861.000000	37.370900
1860.000000	37.491000
1859.000000	37.586500
1858.000000	37.661400
1857.000000	37.726400
1856.000000	37.783500
1855.000000	37.836700
1854.000000	37.881500
1853.000000	37.902200
1852.000000	37.929700
1851.000000	37.978300
1850.000000	38.040800
1849.000000	38.122800
1848.000000	38.155400
1847.000000	38.134300
1846.000000	38.085200
1845.000000	38.047400
1844.000000	38.046800
1843.000000	38.079400
1842.000000	38.114100
1841.000000	38.119800
1840.000000	38.107300
1839.000000	38.079400
1838.000000	38.050100
1837.000000	38.032900
1836.000000	37.985900
1835.000000	37.915200
1834.000000	37.857800
1833.000000	37.818600
1832.000000	37.800500
1831.000000	37.791800
1830.000000	37.760600
1829.000000	37.727300
1828.000000	37.678200
1827.000000	37.632600
1826.000000	37.607100
1825.000000	37.576400
1824.000000	37.559900
1823.000000	37.600600
1822.000000	37.643800
1821.000000	37.656000
1820.000000	37.637100
1819.000000	37.576800
1818.000000	37.541000
1817.000000	37.542000
1816.000000	37.554000
1815.000000	37.537700
1814.000000	37.504300
1813.000000	37.501300
1812.000000	37.489300
1811.000000	37.472900
1810.000000	37.418500
1809.000000	37.391500
1808.000000	37.387700
1807.000000	37.372000
1806.000000	37.348200
1805.000000	37.321100
1804.000000	37.293800
1803.000000	37.280900
1802.000000	37.287800
1801.000000	37.269100
1800.000000	37.228700
1799.000000	37.189600
1798.000000	37.165000
1797.000000	37.148100
1796.000000	37.126300
1795.000000	37.115800
1794.000000	37.098500
1793.000000	37.081800
1792.000000	37.063300
1791.000000	37.057100
1790.000000	37.052000
1789.000000	37.045700
1788.000000	37.039300
1787.000000	37.049600
1786.000000	37.066800
1785.000000	37.063900
1784.000000	37.041100
1783.000000	37.031300
1782.000000	37.018700
1781.000000	37.012700
1780.000000	37.011200
1779.000000	36.996400
1778.000000	36.967700
1777.000000	36.936800
1776.000000	36.912400
1775.000000	36.893800
1774.000000	36.868100
1773.000000	36.833200
1772.000000	36.803800
1771.000000	36.763800
1770.000000	36.727200
1769.000000	36.695800
1768.000000	36.661400
1767.000000	36.631600
1766.000000	36.607700
1765.000000	36.574200
1764.000000	36.534800
1763.000000	36.523600
1762.000000	36.513100
1761.000000	36.492500
1760.000000	36.477000
1759.000000	36.453500
1758.000000	36.470400
1757.000000	36.470800
1756.000000	36.444300
1755.000000	36.424600
1754.000000	36.413100
1753.000000	36.403100
1752.000000	36.407300
1751.000000	36.389900
1750.000000	36.368900
1749.000000	36.346100
1748.000000	36.299100
1747.000000	36.272600
1746.000000	36.227500
1745.000000	36.186000
1744.000000	36.133800
1743.000000	36.073600
1742.000000	36.031300
1741.000000	35.967300
1740.000000	35.918600
1739.000000	35.861400
1738.000000	35.821600
1737.000000	35.772800
1736.000000	35.741500
1735.000000	35.717800
1734.000000	35.683600
1733.000000	35.638100
1732.000000	35.632500
1731.000000	35.590800
1730.000000	35.566600
1729.000000	35.542700
1728.000000	35.507100
1727.000000	35.486900
1726.000000	35.478800
1725.000000	35.467500
1724.000000	35.465700
1723.000000	35.511800
1722.000000	35.571600
1721.000000	35.641400
1720.000000	35.764100
1719.000000	35.917000
1718.000000	36.071300
1717.000000	36.241200
1716.000000	36.388500
1715.000000	36.553300
1714.000000	36.720300
1713.000000	36.831400
1712.000000	36.956500
1711.000000	37.068800
1710.000000	37.144200
1709.000000	37.244100
1708.000000	37.323000
1707.000000	37.368400
1706.000000	37.420500
1705.000000	37.448000
1704.000000	37.485300
1703.000000	37.499900
1702.000000	37.513500
1701.000000	37.518200
1700.000000	37.529300
1699.000000	37.523800
1698.000000	37.516900
1697.000000	37.503900
1696.000000	37.487600
1695.000000	37.460000
1694.000000	37.436600
1693.000000	37.380500
1692.000000	37.331900
1691.000000	37.273300
1690.000000	37.249600
1689.000000	37.238600
1688.000000	37.276300
1687.000000	37.304700
1686.000000	37.403000
1685.000000	37.511700
1684.000000	37.677800
1683.000000	37.838900
1682.000000	38.005100
1681.000000	38.185500
1680.000000	38.357200
1679.000000	38.522000
1678.000000	38.685200
1677.000000	38.825700
1676.000000	38.973000
1675.000000	39.105900
1674.000000	39.257600
1673.000000	39.394100
1672.000000	39.526700
1671.000000	39.652800
1670.000000	39.795400
1669.000000	39.935800
1668.000000	40.081400
1667.000000	40.192600
1666.000000	40.309200
1665.000000	40.415900
1664.000000	40.522900
1663.000000	40.638500
1662.000000	40.743300
1661.000000	40.823700
1660.000000	40.900000
1659.000000	40.970100
1658.000000	41.056400
1657.000000	41.084600
1656.000000	41.156400
1655.000000	41.183300
1654.000000	41.200200
1653.000000	41.220000
1652.000000	41.229600
1651.000000	41.255500
1650.000000	41.249200
1649.000000	41.242700
1648.000000	41.221900
1647.000000	41.223400
1646.000000	41.203900
1645.000000	41.194100
1644.000000	41.176100
1643.000000	41.157400
1642.000000	41.148500
1641.000000	41.136900
1640.000000	41.126200
1639.000000	41.104800
1638.000000	41.087300
1637.000000	41.048100
1636.000000	41.029900
1635.000000	40.996100
1634.000000	40.990700
1633.000000	40.962600
1632.000000	40.918700
1631.000000	40.874600
1630.000000	40.842900
1629.000000	40.794300
1628.000000	40.758100
1627.000000	40.734500
1626.000000	40.682200
1625.000000	40.631100
1624.000000	40.605100
