PE UV       SUBTECH     SPECTRUM    ASCII       PEDS        4.00        
   -1
CICIMAUCR0019-1.Sample.ASC
24/03/08
13:32:45.00
24/03/08
13:32:45.00
Vinicio Soto Monge
C. cupreomarginata
250,000000
1
Lambda 1050
1050L1511233
PerkinElmer UV WinLab 6.3.2.0749 / 2.02.05 Lambda 900 UV/VIS/NIR, Aug  7 2015 09:38:08

0
0
3350/servo 860,8/2
0
0
UV/VIS
1
1
1
DoubleDePol,CommonBeamDepol,RBeamAtt,SBeamAtt,60mm sphere, WB InGaAs Detector
0
0
0
0
Program
Program
3350/servo 860,8/2
3350/0,2 860,8/0,2
3350/0,2 860,8/0,2
0
15.00
 
 
 
0
 
860,8
319,2
860,8
Front
100
on
S:100 R:100
0
0
0
0
 
0
 
 
 
0
 
 
0
0
0
0
0
 
 
 
 
0
0


0
0
#HDR
-1
-1
#GR
nm
%R
1.0
0.0
2500,000000
-1,000000
2251
8
27,863200
2,274800
#DATA
2500.000000	2.631700
2499.000000	2.521300
2498.000000	2.468800
2497.000000	2.539900
2496.000000	2.630500
2495.000000	2.525500
2494.000000	2.598500
2493.000000	2.479600
2492.000000	2.533500
2491.000000	2.525500
2490.000000	2.546500
2489.000000	2.562100
2488.000000	2.445800
2487.000000	2.545100
2486.000000	2.440200
2485.000000	2.521800
2484.000000	2.533000
2483.000000	2.478800
2482.000000	2.459600
2481.000000	2.512800
2480.000000	2.490400
2479.000000	2.522300
2478.000000	2.472000
2477.000000	2.491400
2476.000000	2.511300
2475.000000	2.495500
2474.000000	2.464900
2473.000000	2.530500
2472.000000	2.544800
2471.000000	2.492900
2470.000000	2.489700
2469.000000	2.547100
2468.000000	2.508200
2467.000000	2.507500
2466.000000	2.565400
2465.000000	2.536900
2464.000000	2.533800
2463.000000	2.536200
2462.000000	2.563600
2461.000000	2.570200
2460.000000	2.622600
2459.000000	2.595800
2458.000000	2.600900
2457.000000	2.620600
2456.000000	2.661100
2455.000000	2.662600
2454.000000	2.685900
2453.000000	2.720700
2452.000000	2.747700
2451.000000	2.759400
2450.000000	2.787100
2449.000000	2.777800
2448.000000	2.828100
2447.000000	2.853500
2446.000000	2.860400
2445.000000	2.892300
2444.000000	2.931100
2443.000000	2.943600
2442.000000	2.984100
2441.000000	3.017100
2440.000000	3.019900
2439.000000	3.064400
2438.000000	3.083600
2437.000000	3.095400
2436.000000	3.110700
2435.000000	3.130500
2434.000000	3.157200
2433.000000	3.184200
2432.000000	3.217500
2431.000000	3.238300
2430.000000	3.251200
2429.000000	3.269700
2428.000000	3.285400
2427.000000	3.305300
2426.000000	3.311800
2425.000000	3.337200
2424.000000	3.372000
2423.000000	3.403700
2422.000000	3.435800
2421.000000	3.509100
2420.000000	3.536500
2419.000000	3.548400
2418.000000	3.576100
2417.000000	3.585600
2416.000000	3.594500
2415.000000	3.623500
2414.000000	3.648700
2413.000000	3.659500
2412.000000	3.687500
2411.000000	3.708000
2410.000000	3.719000
2409.000000	3.739800
2408.000000	3.766000
2407.000000	3.785600
2406.000000	3.810300
2405.000000	3.824800
2404.000000	3.844000
2403.000000	3.859900
2402.000000	3.869900
2401.000000	3.904000
2400.000000	3.934800
2399.000000	3.928700
2398.000000	3.929600
2397.000000	3.959100
2396.000000	3.997500
2395.000000	4.005800
2394.000000	4.023500
2393.000000	4.049600
2392.000000	4.052800
2391.000000	4.069700
2390.000000	4.090000
2389.000000	4.099000
2388.000000	4.109500
2387.000000	4.118100
2386.000000	4.117700
2385.000000	4.114000
2384.000000	4.128500
2383.000000	4.150300
2382.000000	4.159000
2381.000000	4.157600
2380.000000	4.174500
2379.000000	4.171900
2378.000000	4.169600
2377.000000	4.175600
2376.000000	4.168500
2375.000000	4.160000
2374.000000	4.157100
2373.000000	4.161800
2372.000000	4.152100
2371.000000	4.148400
2370.000000	4.144100
2369.000000	4.128700
2368.000000	4.134800
2367.000000	4.123700
2366.000000	4.083800
2365.000000	4.067600
2364.000000	4.062700
2363.000000	4.044300
2362.000000	4.033200
2361.000000	4.011600
2360.000000	3.977000
2359.000000	3.956700
2358.000000	3.956800
2357.000000	3.948300
2356.000000	3.923000
2355.000000	3.909700
2354.000000	3.924300
2353.000000	3.935800
2352.000000	3.908400
2351.000000	3.885900
2350.000000	3.921700
2349.000000	3.944800
2348.000000	3.951600
2347.000000	3.971600
2346.000000	3.976800
2345.000000	3.993900
2344.000000	4.017200
2343.000000	4.034100
2342.000000	4.069000
2341.000000	4.095400
2340.000000	4.097000
2339.000000	4.098000
2338.000000	4.093900
2337.000000	4.109900
2336.000000	4.121300
2335.000000	4.120800
2334.000000	4.122100
2333.000000	4.113400
2332.000000	4.093000
2331.000000	4.088500
2330.000000	4.076800
2329.000000	4.048400
2328.000000	4.032000
2327.000000	4.003100
2326.000000	3.960100
2325.000000	3.959200
2324.000000	3.934700
2323.000000	3.906600
2322.000000	3.877300
2321.000000	3.835700
2320.000000	3.795400
2319.000000	3.749800
2318.000000	3.735400
2317.000000	3.700300
2316.000000	3.654500
2315.000000	3.605100
2314.000000	3.570300
2313.000000	3.533700
2312.000000	3.486000
2311.000000	3.454300
2310.000000	3.434500
2309.000000	3.410400
2308.000000	3.389500
2307.000000	3.367300
2306.000000	3.372000
2305.000000	3.362900
2304.000000	3.364900
2303.000000	3.379900
2302.000000	3.408000
2301.000000	3.441900
2300.000000	3.458300
2299.000000	3.484600
2298.000000	3.501800
2297.000000	3.518600
2296.000000	3.552600
2295.000000	3.579100
2294.000000	3.600600
2293.000000	3.598000
2292.000000	3.621900
2291.000000	3.630500
2290.000000	3.619200
2289.000000	3.621600
2288.000000	3.597400
2287.000000	3.604100
2286.000000	3.594400
2285.000000	3.562900
2284.000000	3.545600
2283.000000	3.514100
2282.000000	3.496800
2281.000000	3.468800
2280.000000	3.454300
2279.000000	3.417800
2278.000000	3.398400
2277.000000	3.397800
2276.000000	3.365900
2275.000000	3.337700
2274.000000	3.319900
2273.000000	3.316300
2272.000000	3.303500
2271.000000	3.279000
2270.000000	3.278800
2269.000000	3.281600
2268.000000	3.294700
2267.000000	3.320300
2266.000000	3.344700
2265.000000	3.358600
2264.000000	3.397300
2263.000000	3.426200
2262.000000	3.470200
2261.000000	3.545700
2260.000000	3.598000
2259.000000	3.659400
2258.000000	3.724500
2257.000000	3.798500
2256.000000	3.868100
2255.000000	3.936000
2254.000000	4.005200
2253.000000	4.070900
2252.000000	4.133900
2251.000000	4.204200
2250.000000	4.272600
2249.000000	4.339500
2248.000000	4.400000
2247.000000	4.452200
2246.000000	4.499600
2245.000000	4.564500
2244.000000	4.596800
2243.000000	4.604900
2242.000000	4.675100
2241.000000	4.708000
2240.000000	4.748500
2239.000000	4.766100
2238.000000	4.808700
2237.000000	4.804000
2236.000000	4.844100
2235.000000	4.879700
2234.000000	4.891800
2233.000000	4.914100
2232.000000	4.913200
2231.000000	4.909200
2230.000000	4.902300
2229.000000	4.918300
2228.000000	4.890100
2227.000000	4.900200
2226.000000	4.886400
2225.000000	4.860000
2224.000000	4.856600
2223.000000	4.822700
2222.000000	4.815000
2221.000000	4.778100
2220.000000	4.727500
2219.000000	4.698100
2218.000000	4.674700
2217.000000	4.646300
2216.000000	4.616700
2215.000000	4.606200
2214.000000	4.589300
2213.000000	4.574400
2212.000000	4.558400
2211.000000	4.546900
2210.000000	4.538800
2209.000000	4.571500
2208.000000	4.600900
2207.000000	4.603800
2206.000000	4.635800
2205.000000	4.694800
2204.000000	4.750100
2203.000000	4.793400
2202.000000	4.845900
2201.000000	4.941800
2200.000000	4.993200
2199.000000	5.062900
2198.000000	5.151700
2197.000000	5.214900
2196.000000	5.292600
2195.000000	5.359900
2194.000000	5.429000
2193.000000	5.492200
2192.000000	5.546200
2191.000000	5.620800
2190.000000	5.665700
2189.000000	5.706600
2188.000000	5.745500
2187.000000	5.790500
2186.000000	5.830800
2185.000000	5.865100
2184.000000	5.879700
2183.000000	5.912500
2182.000000	5.945500
2181.000000	5.951900
2180.000000	5.968300
2179.000000	5.986000
2178.000000	5.993400
2177.000000	6.001300
2176.000000	6.017700
2175.000000	6.020000
2174.000000	6.043800
2173.000000	6.050600
2172.000000	6.062800
2171.000000	6.073700
2170.000000	6.093200
2169.000000	6.107500
2168.000000	6.110600
2167.000000	6.127500
2166.000000	6.143900
2165.000000	6.151300
2164.000000	6.176300
2163.000000	6.188500
2162.000000	6.216500
2161.000000	6.221700
2160.000000	6.221600
2159.000000	6.250700
2158.000000	6.261500
2157.000000	6.284500
2156.000000	6.303700
2155.000000	6.309300
2154.000000	6.348400
2153.000000	6.356500
2152.000000	6.384600
2151.000000	6.416300
2150.000000	6.438900
2149.000000	6.449100
2148.000000	6.468900
2147.000000	6.503800
2146.000000	6.527300
2145.000000	6.550300
2144.000000	6.570400
2143.000000	6.596500
2142.000000	6.610400
2141.000000	6.626100
2140.000000	6.651800
2139.000000	6.666900
2138.000000	6.688900
2137.000000	6.704500
2136.000000	6.712600
2135.000000	6.714200
2134.000000	6.716000
2133.000000	6.734400
2132.000000	6.755500
2131.000000	6.764200
2130.000000	6.782600
2129.000000	6.799000
2128.000000	6.793900
2127.000000	6.788000
2126.000000	6.792300
2125.000000	6.799400
2124.000000	6.801600
2123.000000	6.796700
2122.000000	6.786900
2121.000000	6.774100
2120.000000	6.771500
2119.000000	6.791600
2118.000000	6.781900
2117.000000	6.761800
2116.000000	6.771900
2115.000000	6.764200
2114.000000	6.748300
2113.000000	6.748700
2112.000000	6.745500
2111.000000	6.738000
2110.000000	6.723400
2109.000000	6.705100
2108.000000	6.701100
2107.000000	6.692700
2106.000000	6.681300
2105.000000	6.681400
2104.000000	6.662000
2103.000000	6.650900
2102.000000	6.659800
2101.000000	6.640900
2100.000000	6.621800
2099.000000	6.617100
2098.000000	6.621000
2097.000000	6.607300
2096.000000	6.592700
2095.000000	6.584400
2094.000000	6.588400
2093.000000	6.596000
2092.000000	6.579100
2091.000000	6.572100
2090.000000	6.575500
2089.000000	6.577100
2088.000000	6.567500
2087.000000	6.547600
2086.000000	6.531500
2085.000000	6.534200
2084.000000	6.537000
2083.000000	6.520200
2082.000000	6.513900
2081.000000	6.517300
2080.000000	6.509900
2079.000000	6.501700
2078.000000	6.496400
2077.000000	6.479800
2076.000000	6.486300
2075.000000	6.475500
2074.000000	6.450100
2073.000000	6.444100
2072.000000	6.440300
2071.000000	6.425200
2070.000000	6.408500
2069.000000	6.398000
2068.000000	6.376700
2067.000000	6.368800
2066.000000	6.359400
2065.000000	6.355500
2064.000000	6.350100
2063.000000	6.336600
2062.000000	6.325700
2061.000000	6.317200
2060.000000	6.324500
2059.000000	6.329200
2058.000000	6.324300
2057.000000	6.324600
2056.000000	6.351600
2055.000000	6.362900
2054.000000	6.374500
2053.000000	6.420700
2052.000000	6.453200
2051.000000	6.488700
2050.000000	6.528000
2049.000000	6.564200
2048.000000	6.626200
2047.000000	6.678100
2046.000000	6.733900
2045.000000	6.790700
2044.000000	6.853300
2043.000000	6.929100
2042.000000	7.007700
2041.000000	7.055200
2040.000000	7.117100
2039.000000	7.201000
2038.000000	7.266400
2037.000000	7.352400
2036.000000	7.411800
2035.000000	7.460200
2034.000000	7.522000
2033.000000	7.569100
2032.000000	7.625300
2031.000000	7.699500
2030.000000	7.732600
2029.000000	7.798200
2028.000000	7.828800
2027.000000	7.893000
2026.000000	7.946700
2025.000000	7.974800
2024.000000	8.013200
2023.000000	8.071500
2022.000000	8.118600
2021.000000	8.146500
2020.000000	8.167800
2019.000000	8.209600
2018.000000	8.245200
2017.000000	8.277800
2016.000000	8.307500
2015.000000	8.333000
2014.000000	8.387400
2013.000000	8.412500
2012.000000	8.419500
2011.000000	8.450600
2010.000000	8.465800
2009.000000	8.507600
2008.000000	8.498200
2007.000000	8.498400
2006.000000	8.521600
2005.000000	8.517600
2004.000000	8.521000
2003.000000	8.516300
2002.000000	8.517100
2001.000000	8.503000
2000.000000	8.518300
1999.000000	8.498200
1998.000000	8.499100
1997.000000	8.484900
1996.000000	8.485500
1995.000000	8.463000
1994.000000	8.430300
1993.000000	8.432100
1992.000000	8.416000
1991.000000	8.363600
1990.000000	8.369000
1989.000000	8.332800
1988.000000	8.317300
1987.000000	8.267300
1986.000000	8.252800
1985.000000	8.229400
1984.000000	8.201700
1983.000000	8.163600
1982.000000	8.135500
1981.000000	8.113000
1980.000000	8.077100
1979.000000	8.032200
1978.000000	8.019300
1977.000000	7.960400
1976.000000	7.933100
1975.000000	7.916700
1974.000000	7.885500
1973.000000	7.845700
1972.000000	7.817300
1971.000000	7.768800
1970.000000	7.742100
1969.000000	7.728600
1968.000000	7.693800
1967.000000	7.674000
1966.000000	7.649700
1965.000000	7.614400
1964.000000	7.595300
1963.000000	7.563200
1962.000000	7.531800
1961.000000	7.511300
1960.000000	7.458000
1959.000000	7.439300
1958.000000	7.421000
1957.000000	7.388900
1956.000000	7.346100
1955.000000	7.330300
1954.000000	7.299300
1953.000000	7.272600
1952.000000	7.240100
1951.000000	7.203600
1950.000000	7.158400
1949.000000	7.167100
1948.000000	7.141500
1947.000000	7.110400
1946.000000	7.094400
1945.000000	7.066800
1944.000000	7.073700
1943.000000	7.068100
1942.000000	7.062800
1941.000000	7.059100
1940.000000	7.033800
1939.000000	7.021400
1938.000000	7.021500
1937.000000	7.056600
1936.000000	7.044300
1935.000000	7.050300
1934.000000	7.085600
1933.000000	7.118400
1932.000000	7.153200
1931.000000	7.183600
1930.000000	7.215200
1929.000000	7.233500
1928.000000	7.287800
1927.000000	7.318500
1926.000000	7.404200
1925.000000	7.461300
1924.000000	7.520500
1923.000000	7.584000
1922.000000	7.657700
1921.000000	7.720400
1920.000000	7.816500
1919.000000	7.888300
1918.000000	7.971700
1917.000000	8.077300
1916.000000	8.178300
1915.000000	8.268000
1914.000000	8.381300
1913.000000	8.479000
1912.000000	8.585000
1911.000000	8.696700
1910.000000	8.824600
1909.000000	8.940000
1908.000000	9.066800
1907.000000	9.173200
1906.000000	9.290300
1905.000000	9.438100
1904.000000	9.557200
1903.000000	9.699700
1902.000000	9.828200
1901.000000	9.958700
1900.000000	10.102700
1899.000000	10.239800
1898.000000	10.399800
1897.000000	10.569200
1896.000000	10.707000
1895.000000	10.833700
1894.000000	10.981600
1893.000000	11.125700
1892.000000	11.249600
1891.000000	11.387200
1890.000000	11.509600
1889.000000	11.634300
1888.000000	11.798900
1887.000000	11.955600
1886.000000	12.105400
1885.000000	12.276800
1884.000000	12.465300
1883.000000	12.647200
1882.000000	12.862500
1881.000000	13.083400
1880.000000	13.288900
1879.000000	13.486500
1878.000000	13.662800
1877.000000	13.838700
1876.000000	13.973200
1875.000000	14.100400
1874.000000	14.220800
1873.000000	14.315000
1872.000000	14.392100
1871.000000	14.471700
1870.000000	14.527900
1869.000000	14.587100
1868.000000	14.678700
1867.000000	14.732400
1866.000000	14.786200
1865.000000	14.857600
1864.000000	14.913700
1863.000000	14.954300
1862.000000	14.958600
1861.000000	14.970300
1860.000000	14.958200
1859.000000	14.928300
1858.000000	14.904700
1857.000000	14.911200
1856.000000	14.909300
1855.000000	14.898300
1854.000000	14.870900
1853.000000	14.826000
1852.000000	14.791800
1851.000000	14.792200
1850.000000	14.793800
1849.000000	14.747700
1848.000000	14.664600
1847.000000	14.578900
1846.000000	14.529500
1845.000000	14.533200
1844.000000	14.556300
1843.000000	14.561300
1842.000000	14.548800
1841.000000	14.515700
1840.000000	14.466600
1839.000000	14.424800
1838.000000	14.386200
1837.000000	14.349700
1836.000000	14.313800
1835.000000	14.289900
1834.000000	14.259400
1833.000000	14.236900
1832.000000	14.220400
1831.000000	14.184000
1830.000000	14.132300
1829.000000	14.087700
1828.000000	14.043800
1827.000000	13.997900
1826.000000	13.964900
1825.000000	13.951100
1824.000000	13.934500
1823.000000	13.944500
1822.000000	13.941900
1821.000000	13.897700
1820.000000	13.846500
1819.000000	13.814000
1818.000000	13.812700
1817.000000	13.836700
1816.000000	13.849700
1815.000000	13.843800
1814.000000	13.836500
1813.000000	13.841200
1812.000000	13.835700
1811.000000	13.812300
1810.000000	13.788000
1809.000000	13.756000
1808.000000	13.749400
1807.000000	13.738200
1806.000000	13.711100
1805.000000	13.670400
1804.000000	13.650000
1803.000000	13.628900
1802.000000	13.604200
1801.000000	13.577300
1800.000000	13.534700
1799.000000	13.505700
1798.000000	13.493200
1797.000000	13.476600
1796.000000	13.449000
1795.000000	13.426100
1794.000000	13.383800
1793.000000	13.365400
1792.000000	13.354600
1791.000000	13.311100
1790.000000	13.270900
1789.000000	13.254100
1788.000000	13.218700
1787.000000	13.170100
1786.000000	13.144200
1785.000000	13.091000
1784.000000	13.033800
1783.000000	12.993900
1782.000000	12.960700
1781.000000	12.923500
1780.000000	12.864600
1779.000000	12.808700
1778.000000	12.735100
1777.000000	12.701800
1776.000000	12.643100
1775.000000	12.568400
1774.000000	12.494500
1773.000000	12.425400
1772.000000	12.345600
1771.000000	12.271300
1770.000000	12.202200
1769.000000	12.132500
1768.000000	12.081300
1767.000000	12.014900
1766.000000	11.958600
1765.000000	11.909200
1764.000000	11.869900
1763.000000	11.873100
1762.000000	11.884300
1761.000000	11.906200
1760.000000	11.944300
1759.000000	11.959800
1758.000000	11.983500
1757.000000	12.017400
1756.000000	12.040400
1755.000000	12.064500
1754.000000	12.062600
1753.000000	12.050100
1752.000000	12.034300
1751.000000	12.001400
1750.000000	11.978300
1749.000000	11.947200
1748.000000	11.903100
1747.000000	11.863100
1746.000000	11.783000
1745.000000	11.714400
1744.000000	11.608000
1743.000000	11.482500
1742.000000	11.397400
1741.000000	11.280300
1740.000000	11.127400
1739.000000	11.005500
1738.000000	10.907900
1737.000000	10.797200
1736.000000	10.737400
1735.000000	10.677300
1734.000000	10.638600
1733.000000	10.648100
1732.000000	10.694000
1731.000000	10.723200
1730.000000	10.782100
1729.000000	10.824200
1728.000000	10.884300
1727.000000	10.937800
1726.000000	11.004000
1725.000000	11.020100
1724.000000	11.077900
1723.000000	11.057500
1722.000000	11.073800
1721.000000	11.105000
1720.000000	11.102700
1719.000000	11.122600
1718.000000	11.126500
1717.000000	11.178600
1716.000000	11.218800
1715.000000	11.256800
1714.000000	11.261800
1713.000000	11.303000
1712.000000	11.318000
1711.000000	11.357400
1710.000000	11.364900
1709.000000	11.376900
1708.000000	11.373900
1707.000000	11.362400
1706.000000	11.344700
1705.000000	11.324200
1704.000000	11.299000
1703.000000	11.252200
1702.000000	11.219400
1701.000000	11.149300
1700.000000	11.068000
1699.000000	10.981800
1698.000000	10.924900
1697.000000	10.856500
1696.000000	10.845100
1695.000000	10.815300
1694.000000	10.834100
1693.000000	10.914900
1692.000000	10.988300
1691.000000	11.112800
1690.000000	11.161900
1689.000000	11.225800
1688.000000	11.265600
1687.000000	11.282700
1686.000000	11.295800
1685.000000	11.306800
1684.000000	11.355500
1683.000000	11.492200
1682.000000	11.672300
1681.000000	11.879700
1680.000000	12.158400
1679.000000	12.453200
1678.000000	12.743300
1677.000000	13.011300
1676.000000	13.236500
1675.000000	13.471500
1674.000000	13.611100
1673.000000	13.774200
1672.000000	13.898400
1671.000000	14.032400
1670.000000	14.117900
1669.000000	14.207800
1668.000000	14.297400
1667.000000	14.408800
1666.000000	14.465100
1665.000000	14.531900
1664.000000	14.579800
1663.000000	14.602900
1662.000000	14.641000
1661.000000	14.653500
1660.000000	14.695500
1659.000000	14.723700
1658.000000	14.735800
1657.000000	14.748000
1656.000000	14.754500
1655.000000	14.744800
1654.000000	14.748400
1653.000000	14.741000
1652.000000	14.725800
1651.000000	14.722600
1650.000000	14.707100
1649.000000	14.695200
1648.000000	14.694800
1647.000000	14.654100
1646.000000	14.636400
1645.000000	14.624500
1644.000000	14.603000
1643.000000	14.571900
1642.000000	14.536700
1641.000000	14.512600
1640.000000	14.472200
1639.000000	14.450200
1638.000000	14.415400
1637.000000	14.376500
1636.000000	14.333600
1635.000000	14.304600
1634.000000	14.283300
1633.000000	14.249100
1632.000000	14.215500
1631.000000	14.156500
1630.000000	14.115200
1629.000000	14.078500
1628.000000	14.034300
1627.000000	13.984700
1626.000000	13.946800
1625.000000	13.918200
1624.000000	13.866100
1623.000000	13.810600
1622.000000	13.766300
1621.000000	13.737600
1620.000000	13.723700
1619.000000	13.683900
1618.000000	13.629200
1617.000000	13.598100
1616.000000	13.551200
1615.000000	13.522800
1614.000000	13.486600
1613.000000	13.442700
1612.000000	13.402600
1611.000000	13.344000
1610.000000	13.308800
1609.000000	13.288500
1608.000000	13.251100
1607.000000	13.208300
1606.000000	13.175300
1605.000000	13.125400
1604.000000	13.086700
1603.000000	13.066600
1602.000000	13.034800
1601.000000	12.991500
1600.000000	12.947700
1599.000000	12.924600
1598.000000	12.878300
1597.000000	12.842800
