PE UV       SUBTECH     SPECTRUM    ASCII       PEDS        4.00        
   -1
CICIMAUCR0251-3.ASC
24/05/30
14:00:00.00
24/05/30
14:00:00.00
Vinicio Soto Monge
C. resplendens, F Ventral
250,000000
1
Lambda 1050
1050L1511233
PerkinElmer UV WinLab 6.3.2.0749 / 2.02.05 Lambda 900 UV/VIS/NIR, Aug  7 2015 09:38:08

0
0
3350/servo 860,8/2
0
0
UV/VIS
1
1
1
DoubleDePol,CommonBeamDepol,RBeamAtt,SBeamAtt,60mm sphere, WB InGaAs Detector
0
0
0
0
Program
Program
3350/servo 860,8/2
3350/0,2 860,8/0,2
3350/0,2 860,8/0,2
0
15.00
 
 
 
0
 
860,8
319,2
860,8
Front
100
on
S:100 R:100
0
0
0
0
 
0
 
 
 
0
 
 
0
0
0
0
0
 
 
 
 
0
0


0
0
#HDR
-1
-1
#GR
nm
%R
1.0
0.0
2500,000000
-1,000000
2251
8
60,560100
3,798400
#DATA
250.000000	4.323333
251.000000	4.318333
252.000000	4.303867
253.000000	4.302033
254.000000	4.329200
255.000000	4.303533
256.000000	4.296500
257.000000	4.263400
258.000000	4.268233
259.000000	4.261033
260.000000	4.243733
261.000000	4.224300
262.000000	4.209867
263.000000	4.198467
264.000000	4.188967
265.000000	4.170267
266.000000	4.167367
267.000000	4.146567
268.000000	4.126300
269.000000	4.116367
270.000000	4.106333
271.000000	4.115000
272.000000	4.117533
273.000000	4.104300
274.000000	4.098700
275.000000	4.091433
276.000000	4.077067
277.000000	4.070333
278.000000	4.073533
279.000000	4.071433
280.000000	4.060000
281.000000	4.038867
282.000000	4.034800
283.000000	4.032233
284.000000	4.026100
285.000000	4.014933
286.000000	4.011800
287.000000	4.009633
288.000000	4.012133
289.000000	4.010833
290.000000	4.012067
291.000000	3.984067
292.000000	3.973800
293.000000	3.977233
294.000000	3.961500
295.000000	3.957567
296.000000	3.963167
297.000000	3.935267
298.000000	3.918833
299.000000	3.930900
300.000000	3.926933
301.000000	3.914467
302.000000	3.906867
303.000000	3.905500
304.000000	3.899800
305.000000	3.899733
306.000000	3.885200
307.000000	3.874300
308.000000	3.879400
309.000000	3.875067
310.000000	3.884300
311.000000	3.876833
312.000000	3.860167
313.000000	3.849333
314.000000	3.840033
315.000000	3.843100
316.000000	4.117533
317.000000	4.601600
318.000000	4.446567
319.000000	4.266833
320.000000	4.428633
321.000000	4.324300
322.000000	4.348167
323.000000	4.349167
324.000000	4.219167
325.000000	4.050100
326.000000	4.047233
327.000000	4.168433
328.000000	4.237633
329.000000	4.107833
330.000000	4.017033
331.000000	3.939633
332.000000	3.964167
333.000000	4.015900
334.000000	3.987867
335.000000	3.933067
336.000000	3.860067
337.000000	3.824033
338.000000	3.897800
339.000000	3.998467
340.000000	4.010033
341.000000	3.935467
342.000000	3.905967
343.000000	3.916667
344.000000	3.900100
345.000000	3.864933
346.000000	3.852300
347.000000	3.931433
348.000000	3.974033
349.000000	3.981567
350.000000	3.913433
351.000000	3.948433
352.000000	3.891967
353.000000	3.838767
354.000000	3.861467
355.000000	3.819367
356.000000	3.819800
357.000000	3.848567
358.000000	3.803200
359.000000	3.819933
360.000000	3.865200
361.000000	3.841567
362.000000	3.817200
363.000000	3.755300
364.000000	3.785933
365.000000	3.773867
366.000000	3.796900
367.000000	3.851500
368.000000	3.797833
369.000000	3.726467
370.000000	3.739700
371.000000	3.727600
372.000000	3.744433
373.000000	3.674567
374.000000	3.683200
375.000000	3.901800
376.000000	3.996700
377.000000	4.006700
378.000000	4.017733
379.000000	4.024333
380.000000	4.037067
381.000000	4.062367
382.000000	4.080667
383.000000	4.094700
384.000000	4.123867
385.000000	4.154233
386.000000	4.168767
387.000000	4.197400
388.000000	4.228800
389.000000	4.258333
390.000000	4.289000
391.000000	4.324767
392.000000	4.350733
393.000000	4.377033
394.000000	4.427233
395.000000	4.452500
396.000000	4.485533
397.000000	4.528200
398.000000	4.571533
399.000000	4.604367
400.000000	4.643533
401.000000	4.679200
402.000000	4.731500
403.000000	4.782267
404.000000	4.837567
405.000000	4.880267
406.000000	4.926400
407.000000	4.981967
408.000000	5.030600
409.000000	5.074467
410.000000	5.123033
411.000000	5.184000
412.000000	5.243800
413.000000	5.303567
414.000000	5.359200
415.000000	5.412567
416.000000	5.467233
417.000000	5.533367
418.000000	5.608867
419.000000	5.668567
420.000000	5.725067
421.000000	5.798533
422.000000	5.858800
423.000000	5.927900
424.000000	5.991100
425.000000	6.058333
426.000000	6.132267
427.000000	6.201767
428.000000	6.261700
429.000000	6.337067
430.000000	6.413233
431.000000	6.493067
432.000000	6.557333
433.000000	6.628833
434.000000	6.709200
435.000000	6.780133
436.000000	6.859567
437.000000	6.932000
438.000000	7.010800
439.000000	7.090233
440.000000	7.163467
441.000000	7.236233
442.000000	7.320533
443.000000	7.399500
444.000000	7.475700
445.000000	7.543267
446.000000	7.626700
447.000000	7.691033
448.000000	7.761367
449.000000	7.836600
450.000000	7.907533
451.000000	7.975900
452.000000	8.056933
453.000000	8.125000
454.000000	8.187633
455.000000	8.264033
456.000000	8.320833
457.000000	8.397167
458.000000	8.460500
459.000000	8.517267
460.000000	8.594933
461.000000	8.670500
462.000000	8.737100
463.000000	8.816700
464.000000	8.876800
465.000000	8.952833
466.000000	9.010667
467.000000	9.084733
468.000000	9.157533
469.000000	9.233600
470.000000	9.319633
471.000000	9.393000
472.000000	9.461000
473.000000	9.549800
474.000000	9.636367
475.000000	9.712933
476.000000	9.798300
477.000000	9.882967
478.000000	9.963700
479.000000	10.064233
480.000000	10.152667
481.000000	10.242267
482.000000	10.327067
483.000000	10.417467
484.000000	10.495233
485.000000	10.575333
486.000000	10.659000
487.000000	10.738600
488.000000	10.818233
489.000000	10.906900
490.000000	11.003867
491.000000	11.087800
492.000000	11.190433
493.000000	11.296133
494.000000	11.393100
495.000000	11.507433
496.000000	11.633600
497.000000	11.746500
498.000000	11.861533
499.000000	12.009033
500.000000	12.130567
501.000000	12.294133
502.000000	12.429467
503.000000	12.596767
504.000000	12.756633
505.000000	12.929900
506.000000	13.098900
507.000000	13.277933
508.000000	13.475300
509.000000	13.673267
510.000000	13.883367
511.000000	14.080933
512.000000	14.292500
513.000000	14.530600
514.000000	14.760967
515.000000	15.000300
516.000000	15.248033
517.000000	15.498633
518.000000	15.754800
519.000000	16.016767
520.000000	16.259833
521.000000	16.517967
522.000000	16.798933
523.000000	17.072233
524.000000	17.345033
525.000000	17.628033
526.000000	17.891333
527.000000	18.161033
528.000000	18.422733
529.000000	18.693633
530.000000	18.958300
531.000000	19.215833
532.000000	19.501900
533.000000	19.758033
534.000000	20.019533
535.000000	20.279000
536.000000	20.531433
537.000000	20.768967
538.000000	20.997800
539.000000	21.232567
540.000000	21.465400
541.000000	21.687800
542.000000	21.912167
543.000000	22.123500
544.000000	22.338600
545.000000	22.538967
546.000000	22.722667
547.000000	22.895667
548.000000	23.070233
549.000000	23.231900
550.000000	23.399600
551.000000	23.553533
552.000000	23.692100
553.000000	23.836833
554.000000	23.968000
555.000000	24.080267
556.000000	24.194700
557.000000	24.277900
558.000000	24.374333
559.000000	24.442367
560.000000	24.480200
561.000000	24.564867
562.000000	24.624400
563.000000	24.693367
564.000000	24.744800
565.000000	24.785433
566.000000	24.833933
567.000000	24.868533
568.000000	24.904633
569.000000	24.929167
570.000000	24.940933
571.000000	24.959900
572.000000	24.971867
573.000000	24.969833
574.000000	24.970967
575.000000	24.972400
576.000000	24.957867
577.000000	24.931733
578.000000	24.906500
579.000000	24.884600
580.000000	24.848567
581.000000	24.806400
582.000000	24.773367
583.000000	24.733433
584.000000	24.678633
585.000000	24.610000
586.000000	24.540633
587.000000	24.472067
588.000000	24.402333
589.000000	24.328633
590.000000	24.247900
591.000000	24.161933
592.000000	24.068800
593.000000	23.995233
594.000000	23.910100
595.000000	23.804467
596.000000	23.699500
597.000000	23.604833
598.000000	23.500133
599.000000	23.401700
600.000000	23.302067
601.000000	23.204400
602.000000	23.101100
603.000000	23.004933
604.000000	22.917133
605.000000	22.827200
606.000000	22.733600
607.000000	22.648600
608.000000	22.570433
609.000000	22.482267
610.000000	22.404533
611.000000	22.338500
612.000000	22.274500
613.000000	22.211000
614.000000	22.155000
615.000000	22.110800
616.000000	22.067233
617.000000	22.029433
618.000000	21.992667
619.000000	21.957700
620.000000	21.922067
621.000000	21.894733
622.000000	21.878033
623.000000	21.869100
624.000000	21.855100
625.000000	21.846433
626.000000	21.839633
627.000000	21.834333
628.000000	21.833767
629.000000	21.848533
630.000000	21.849433
631.000000	21.866400
632.000000	21.884367
633.000000	21.901700
634.000000	21.933667
635.000000	21.943800
636.000000	21.968567
637.000000	22.000833
638.000000	22.034233
639.000000	22.069333
640.000000	22.101200
641.000000	22.139133
642.000000	22.179600
643.000000	22.226533
644.000000	22.281100
645.000000	22.343067
646.000000	22.394133
647.000000	22.456267
648.000000	22.511233
649.000000	22.559467
650.000000	22.621333
651.000000	22.696133
652.000000	22.774867
653.000000	22.832833
654.000000	22.916167
655.000000	23.012833
656.000000	23.092700
657.000000	23.180300
658.000000	23.274200
659.000000	23.372733
660.000000	23.463533
661.000000	23.553267
662.000000	23.664800
663.000000	23.772567
664.000000	23.859967
665.000000	23.965867
666.000000	24.084533
667.000000	24.199533
668.000000	24.300333
669.000000	24.427333
670.000000	24.552533
671.000000	24.679000
672.000000	24.814300
673.000000	24.949133
674.000000	25.092567
675.000000	25.235133
676.000000	25.371533
677.000000	25.506167
678.000000	25.644500
679.000000	25.779400
680.000000	25.922267
681.000000	26.059067
682.000000	26.208600
683.000000	26.366433
684.000000	26.523333
685.000000	26.689033
686.000000	26.846367
687.000000	27.018033
688.000000	27.191033
689.000000	27.356867
690.000000	27.538733
691.000000	27.722667
692.000000	27.905333
693.000000	28.079300
694.000000	28.267200
695.000000	28.456867
696.000000	28.628333
697.000000	28.828400
698.000000	29.006500
699.000000	29.187433
700.000000	29.378800
701.000000	29.596233
702.000000	29.803267
703.000000	30.011367
704.000000	30.198533
705.000000	30.412633
706.000000	30.621167
707.000000	30.829167
708.000000	31.048933
709.000000	31.277767
710.000000	31.480667
711.000000	31.694467
712.000000	31.931767
713.000000	32.143467
714.000000	32.372200
715.000000	32.594500
716.000000	32.817700
717.000000	33.007400
718.000000	33.253833
719.000000	33.470033
720.000000	33.724933
721.000000	33.935633
722.000000	34.177367
723.000000	34.392667
724.000000	34.612833
725.000000	34.830900
726.000000	35.073467
727.000000	35.316800
728.000000	35.531367
729.000000	35.755133
730.000000	35.968533
731.000000	36.193133
732.000000	36.412067
733.000000	36.611200
734.000000	36.816300
735.000000	36.991667
736.000000	37.203633
737.000000	37.438867
738.000000	37.621267
739.000000	37.824833
740.000000	38.012933
741.000000	38.219133
742.000000	38.355233
743.000000	38.598200
744.000000	38.769700
745.000000	38.963467
746.000000	39.164767
747.000000	39.382100
748.000000	39.546200
749.000000	39.673833
750.000000	39.935333
751.000000	40.044467
752.000000	40.216200
753.000000	40.364500
754.000000	40.577967
755.000000	40.685567
756.000000	40.854867
757.000000	41.030333
758.000000	41.213433
759.000000	41.380367
760.000000	41.477233
761.000000	41.620700
762.000000	41.812900
763.000000	41.980433
764.000000	42.117600
765.000000	42.249467
766.000000	42.412100
767.000000	42.522400
768.000000	42.706733
769.000000	42.845067
770.000000	42.965900
771.000000	43.113533
772.000000	43.283867
773.000000	43.366600
774.000000	43.472900
775.000000	43.623067
776.000000	43.778267
777.000000	43.894067
778.000000	43.970600
779.000000	44.196600
780.000000	44.290533
781.000000	44.373900
782.000000	44.487933
783.000000	44.661733
784.000000	44.789067
785.000000	44.954933
786.000000	45.095567
787.000000	45.194400
788.000000	45.266733
789.000000	45.390500
790.000000	45.635000
791.000000	45.660433
792.000000	45.739100
793.000000	45.771067
794.000000	45.981267
795.000000	46.076500
796.000000	46.221433
797.000000	46.233900
798.000000	46.359000
799.000000	46.496600
800.000000	46.619433
801.000000	46.659600
802.000000	46.798533
803.000000	46.830800
804.000000	46.958233
805.000000	47.066600
806.000000	47.133400
807.000000	47.289933
808.000000	47.307200
809.000000	47.454633
810.000000	47.492233
811.000000	47.554067
812.000000	47.761300
813.000000	47.775000
814.000000	47.905567
815.000000	47.931667
816.000000	48.030300
817.000000	48.147933
818.000000	48.248867
819.000000	48.336933
820.000000	48.462267
821.000000	48.465100
822.000000	48.674800
823.000000	48.678833
824.000000	48.789300
825.000000	48.828433
826.000000	48.934767
827.000000	48.944700
828.000000	48.968333
829.000000	49.051467
830.000000	49.219600
831.000000	49.320867
832.000000	49.236233
833.000000	49.447933
834.000000	49.354533
835.000000	49.320700
836.000000	49.489100
837.000000	49.482500
838.000000	49.567500
839.000000	49.611533
840.000000	49.602567
841.000000	49.580600
842.000000	49.725300
843.000000	49.918067
844.000000	49.854400
845.000000	50.105367
846.000000	49.998433
847.000000	49.859500
848.000000	49.937700
849.000000	49.960967
850.000000	49.932267
851.000000	50.079567
852.000000	50.273300
853.000000	50.148100
854.000000	50.110433
855.000000	50.050500
856.000000	50.271600
857.000000	49.234833
858.000000	49.852311
859.000000	49.856927
860.000000	49.873149
861.000000	49.901401
862.000000	49.896857
863.000000	49.916433
864.000000	49.925435
865.000000	49.924105
866.000000	49.936182
867.000000	49.943115
868.000000	49.951690
869.000000	49.947766
870.000000	49.953824
871.000000	49.955664
872.000000	50.035429
873.000000	50.141743
874.000000	50.300794
875.000000	50.461149
876.000000	50.609702
877.000000	50.745248
878.000000	50.854533
879.000000	50.963798
880.000000	51.069277
881.000000	51.167825
882.000000	51.257823
883.000000	51.347485
884.000000	51.442870
885.000000	51.527192
886.000000	51.608371
887.000000	51.685162
888.000000	51.763897
889.000000	51.839981
890.000000	51.912435
891.000000	51.973756
892.000000	52.034129
893.000000	52.091585
894.000000	52.120824
895.000000	52.155413
896.000000	52.198505
897.000000	52.232551
898.000000	52.258117
899.000000	52.285145
900.000000	52.304136
901.000000	52.331800
902.000000	52.363255
903.000000	52.399832
904.000000	52.435028
905.000000	52.466868
906.000000	52.507825
907.000000	52.562546
908.000000	52.636491
909.000000	52.702679
910.000000	52.762824
911.000000	52.833994
912.000000	52.914155
913.000000	52.991649
914.000000	53.080122
915.000000	53.169063
916.000000	53.242654
917.000000	53.301261
918.000000	53.371754
919.000000	53.423113
920.000000	53.483543
921.000000	53.552913
922.000000	53.611490
923.000000	53.645329
924.000000	53.693475
925.000000	53.751717
926.000000	53.786534
927.000000	53.835881
928.000000	53.899774
929.000000	53.933680
930.000000	53.958346
931.000000	54.001196
932.000000	54.039663
933.000000	54.068046
934.000000	54.096007
935.000000	54.116213
936.000000	54.140435
937.000000	54.167553
938.000000	54.205871
939.000000	54.234566
940.000000	54.261651
941.000000	54.294735
942.000000	54.321348
943.000000	54.345761
944.000000	54.374646
945.000000	54.398586
946.000000	54.402644
947.000000	54.400399
948.000000	54.405655
949.000000	54.425556
950.000000	54.426391
951.000000	54.405555
952.000000	54.397894
953.000000	54.392972
954.000000	54.386958
955.000000	54.384716
956.000000	54.373547
957.000000	54.350062
958.000000	54.326640
959.000000	54.308836
960.000000	54.293604
961.000000	54.273528
962.000000	54.243172
963.000000	54.219674
964.000000	54.198719
965.000000	54.187690
966.000000	54.189616
967.000000	54.184518
968.000000	54.176104
969.000000	54.172204
970.000000	54.168302
971.000000	54.171958
972.000000	54.165190
973.000000	54.154877
974.000000	54.152557
975.000000	54.139932
976.000000	54.135434
977.000000	54.129466
978.000000	54.119359
979.000000	54.115386
980.000000	54.112159
981.000000	54.108173
982.000000	54.097385
983.000000	54.087750
984.000000	54.090003
985.000000	54.091534
986.000000	54.090704
987.000000	54.090835
988.000000	54.096239
989.000000	54.095992
990.000000	54.096777
991.000000	54.116083
992.000000	54.121043
993.000000	54.139649
994.000000	54.153062
995.000000	54.172095
996.000000	54.189214
997.000000	54.201734
998.000000	54.222548
999.000000	54.241305
1000.000000	54.266448
1001.000000	54.295169
1002.000000	54.324232
1003.000000	54.344333
1004.000000	54.364690
1005.000000	54.390556
1006.000000	54.403875
1007.000000	54.418753
1008.000000	54.439323
1009.000000	54.477474
1010.000000	54.513261
1011.000000	54.552283
1012.000000	54.588854
1013.000000	54.657121
1014.000000	54.728926
1015.000000	54.810006
1016.000000	54.884418
1017.000000	54.964001
1018.000000	55.062933
1019.000000	55.156048
1020.000000	55.252350
1021.000000	55.364112
1022.000000	55.463591
1023.000000	55.574504
1024.000000	55.677785
1025.000000	55.775280
1026.000000	55.890783
1027.000000	56.008885
1028.000000	56.105037
1029.000000	56.201269
1030.000000	56.292990
1031.000000	56.383044
1032.000000	56.468045
1033.000000	56.571171
1034.000000	56.670376
1035.000000	56.755803
1036.000000	56.830783
1037.000000	56.911648
1038.000000	56.992097
1039.000000	57.062136
1040.000000	57.134876
1041.000000	57.204904
1042.000000	57.300312
1043.000000	57.358401
1044.000000	57.426922
1045.000000	57.500640
1046.000000	57.580788
1047.000000	57.654826
1048.000000	57.736978
1049.000000	57.813265
1050.000000	57.889955
1051.000000	57.970853
1052.000000	58.066750
1053.000000	58.162854
1054.000000	58.252987
1055.000000	58.339909
1056.000000	58.436726
1057.000000	58.534001
1058.000000	58.626978
1059.000000	58.715081
1060.000000	58.799023
1061.000000	58.892690
1062.000000	58.978357
1063.000000	59.059188
1064.000000	59.140563
1065.000000	59.227858
1066.000000	59.299771
1067.000000	59.390647
1068.000000	59.453399
1069.000000	59.539720
1070.000000	59.618069
1071.000000	59.685538
1072.000000	59.756068
1073.000000	59.834200
1074.000000	59.918194
1075.000000	59.988344
1076.000000	60.052276
1077.000000	60.113443
1078.000000	60.192109
1079.000000	60.258313
1080.000000	60.327842
1081.000000	60.410286
1082.000000	60.474720
1083.000000	60.561160
1084.000000	60.617851
1085.000000	60.687292
1086.000000	60.744526
1087.000000	60.827308
1088.000000	60.879807
1089.000000	60.942390
1090.000000	60.998575
1091.000000	61.047741
1092.000000	61.111534
1093.000000	61.151769
1094.000000	61.188952
1095.000000	61.216293
1096.000000	61.268111
1097.000000	61.301236
1098.000000	61.330069
1099.000000	61.357635
1100.000000	61.366214
1101.000000	61.400014
1102.000000	61.408642
1103.000000	61.418484
1104.000000	61.435877
1105.000000	61.455246
1106.000000	61.461877
1107.000000	61.469041
1108.000000	61.488090
1109.000000	61.499054
1110.000000	61.501241
1111.000000	61.506028
1112.000000	61.513322
1113.000000	61.510676
1114.000000	61.503874
1115.000000	61.503590
1116.000000	61.489056
1117.000000	61.475290
1118.000000	61.428995
1119.000000	61.390293
1120.000000	61.339824
1121.000000	61.249327
1122.000000	61.154307
1123.000000	61.040540
1124.000000	60.894292
1125.000000	60.734933
1126.000000	60.544992
1127.000000	60.325424
1128.000000	60.046095
1129.000000	59.691152
1130.000000	59.292226
1131.000000	58.841860
1132.000000	58.375290
1133.000000	57.872043
1134.000000	57.287757
1135.000000	56.657774
1136.000000	56.054586
1137.000000	55.479307
1138.000000	54.940993
1139.000000	54.416295
1140.000000	53.914891
1141.000000	53.416752
1142.000000	52.960027
1143.000000	52.531045
1144.000000	52.165778
1145.000000	51.842366
1146.000000	51.598293
1147.000000	51.423697
1148.000000	51.283467
1149.000000	51.171775
1150.000000	51.066038
1151.000000	50.926526
1152.000000	50.759291
1153.000000	50.544963
1154.000000	50.274820
1155.000000	49.954059
1156.000000	49.587810
1157.000000	49.167076
1158.000000	48.729173
1159.000000	48.260763
1160.000000	47.798981
1161.000000	47.343845
1162.000000	46.875433
1163.000000	46.400090
1164.000000	45.935875
1165.000000	45.483696
1166.000000	45.045561
1167.000000	44.615839
1168.000000	44.203691
1169.000000	43.802388
1170.000000	43.406784
