PE UV       SUBTECH     SPECTRUM    ASCII       PEDS        4.00        
   -1
CICIMAUCR0201-3.ASC
24/06/06
13:45:31.00
24/06/06
13:45:31.00
Vinicio Soto Monge
C. cupreomarginata. Sex F. Ventral
250,000000
1
Lambda 1050
1050L1511233
PerkinElmer UV WinLab 6.3.2.0749 / 2.02.05 Lambda 900 UV/VIS/NIR, Aug  7 2015 09:38:08

0
0
3350/servo 860,8/2
0
0
UV/VIS
1
1
1
DoubleDePol,CommonBeamDepol,RBeamAtt,SBeamAtt,60mm sphere, WB InGaAs Detector
0
0
0
0
Program
Program
3350/servo 860,8/2
3350/0,2 860,8/0,2
3350/0,2 860,8/0,2
0
15.00
 
 
 
0
 
860,8
319,2
860,8
Front
100
on
S:100 R:100
0
0
0
0
 
0
 
 
 
0
 
 
0
0
0
0
0
 
 
 
 
0
0


0
0
#HDR
-1
-1
#GR
nm
%R
1.0
0.0
2500,000000
-1,000000
2251
8
54,950700
3,908500
#DATA
250.000000	4.940833
251.000000	4.921233
252.000000	4.943267
253.000000	4.917000
254.000000	4.881033
255.000000	4.867467
256.000000	4.877433
257.000000	4.843267
258.000000	4.843067
259.000000	4.821367
260.000000	4.818067
261.000000	4.811267
262.000000	4.789767
263.000000	4.761400
264.000000	4.719133
265.000000	4.711967
266.000000	4.693033
267.000000	4.670067
268.000000	4.686667
269.000000	4.645633
270.000000	4.608600
271.000000	4.606333
272.000000	4.608600
273.000000	4.581433
274.000000	4.588933
275.000000	4.583600
276.000000	4.547467
277.000000	4.532133
278.000000	4.541367
279.000000	4.521733
280.000000	4.500367
281.000000	4.494800
282.000000	4.518900
283.000000	4.507800
284.000000	4.494933
285.000000	4.488967
286.000000	4.472333
287.000000	4.478633
288.000000	4.473633
289.000000	4.486400
290.000000	4.494633
291.000000	4.479167
292.000000	4.467700
293.000000	4.463467
294.000000	4.460300
295.000000	4.481100
296.000000	4.488700
297.000000	4.484867
298.000000	4.473167
299.000000	4.449633
300.000000	4.456800
301.000000	4.450300
302.000000	4.440867
303.000000	4.441633
304.000000	4.443200
305.000000	4.433300
306.000000	4.437233
307.000000	4.452167
308.000000	4.442067
309.000000	4.455233
310.000000	4.456333
311.000000	4.439567
312.000000	4.413033
313.000000	4.429467
314.000000	4.431900
315.000000	4.437600
316.000000	5.170567
317.000000	6.096967
318.000000	5.862567
319.000000	5.566033
320.000000	5.518867
321.000000	5.473100
322.000000	5.364533
323.000000	5.174667
324.000000	5.073167
325.000000	4.930633
326.000000	4.991500
327.000000	5.090133
328.000000	4.845200
329.000000	4.807800
330.000000	4.878100
331.000000	4.746333
332.000000	4.736600
333.000000	4.820400
334.000000	4.799567
335.000000	4.653900
336.000000	4.757667
337.000000	4.927300
338.000000	4.800000
339.000000	4.652367
340.000000	4.602167
341.000000	4.531367
342.000000	4.550500
343.000000	4.627033
344.000000	4.514300
345.000000	4.448833
346.000000	4.508700
347.000000	4.494467
348.000000	4.467567
349.000000	4.536933
350.000000	4.490800
351.000000	4.433833
352.000000	4.430500
353.000000	4.432733
354.000000	4.477367
355.000000	4.491167
356.000000	4.418300
357.000000	4.368533
358.000000	4.400167
359.000000	4.418533
360.000000	4.416633
361.000000	4.430400
362.000000	4.469800
363.000000	4.431867
364.000000	4.358633
365.000000	4.397567
366.000000	4.434300
367.000000	4.389467
368.000000	4.393333
369.000000	4.300833
370.000000	4.190033
371.000000	4.127033
372.000000	4.051233
373.000000	4.086033
374.000000	4.114233
375.000000	4.347400
376.000000	4.536533
377.000000	4.569667
378.000000	4.575400
379.000000	4.593533
380.000000	4.608167
381.000000	4.620267
382.000000	4.628800
383.000000	4.655167
384.000000	4.689200
385.000000	4.706833
386.000000	4.715033
387.000000	4.737067
388.000000	4.763533
389.000000	4.800033
390.000000	4.825700
391.000000	4.850133
392.000000	4.878267
393.000000	4.908100
394.000000	4.935200
395.000000	4.965700
396.000000	5.001033
397.000000	5.030933
398.000000	5.065100
399.000000	5.102233
400.000000	5.139500
401.000000	5.177900
402.000000	5.212933
403.000000	5.246400
404.000000	5.285133
405.000000	5.328933
406.000000	5.374200
407.000000	5.410167
408.000000	5.452100
409.000000	5.482233
410.000000	5.538333
411.000000	5.577900
412.000000	5.624800
413.000000	5.675333
414.000000	5.719467
415.000000	5.769733
416.000000	5.812067
417.000000	5.859133
418.000000	5.901533
419.000000	5.956900
420.000000	5.996767
421.000000	6.053767
422.000000	6.111133
423.000000	6.165167
424.000000	6.211733
425.000000	6.262233
426.000000	6.314267
427.000000	6.374133
428.000000	6.425967
429.000000	6.488100
430.000000	6.552800
431.000000	6.607300
432.000000	6.665733
433.000000	6.716800
434.000000	6.782500
435.000000	6.850767
436.000000	6.921567
437.000000	6.984133
438.000000	7.045767
439.000000	7.124267
440.000000	7.188067
441.000000	7.258333
442.000000	7.313333
443.000000	7.392800
444.000000	7.453233
445.000000	7.532667
446.000000	7.599000
447.000000	7.648433
448.000000	7.715200
449.000000	7.786267
450.000000	7.863800
451.000000	7.912267
452.000000	7.995167
453.000000	8.042133
454.000000	8.105000
455.000000	8.172667
456.000000	8.221767
457.000000	8.300833
458.000000	8.358533
459.000000	8.434533
460.000000	8.501133
461.000000	8.577600
462.000000	8.636700
463.000000	8.709567
464.000000	8.782067
465.000000	8.850400
466.000000	8.932300
467.000000	9.006567
468.000000	9.087067
469.000000	9.158633
470.000000	9.255900
471.000000	9.338200
472.000000	9.437400
473.000000	9.531967
474.000000	9.622067
475.000000	9.733300
476.000000	9.828600
477.000000	9.926600
478.000000	10.036100
479.000000	10.139933
480.000000	10.267833
481.000000	10.393300
482.000000	10.522967
483.000000	10.634100
484.000000	10.749767
485.000000	10.852100
486.000000	10.955600
487.000000	11.072000
488.000000	11.198000
489.000000	11.307033
490.000000	11.440067
491.000000	11.573500
492.000000	11.716933
493.000000	11.864400
494.000000	12.006933
495.000000	12.179633
496.000000	12.329133
497.000000	12.518267
498.000000	12.690333
499.000000	12.864067
500.000000	13.057033
501.000000	13.256967
502.000000	13.470200
503.000000	13.679633
504.000000	13.891233
505.000000	14.120567
506.000000	14.341933
507.000000	14.571100
508.000000	14.813267
509.000000	15.063600
510.000000	15.307867
511.000000	15.564433
512.000000	15.834433
513.000000	16.099467
514.000000	16.380733
515.000000	16.645800
516.000000	16.931300
517.000000	17.216533
518.000000	17.513800
519.000000	17.789967
520.000000	18.090367
521.000000	18.381000
522.000000	18.690300
523.000000	18.986133
524.000000	19.291933
525.000000	19.593867
526.000000	19.897167
527.000000	20.191000
528.000000	20.483200
529.000000	20.769733
530.000000	21.057800
531.000000	21.339100
532.000000	21.627567
533.000000	21.900567
534.000000	22.184100
535.000000	22.451933
536.000000	22.715400
537.000000	22.969800
538.000000	23.218000
539.000000	23.465400
540.000000	23.702100
541.000000	23.932533
542.000000	24.156200
543.000000	24.382967
544.000000	24.595400
545.000000	24.792867
546.000000	24.988033
547.000000	25.178367
548.000000	25.341800
549.000000	25.505767
550.000000	25.655900
551.000000	25.801067
552.000000	25.943500
553.000000	26.075300
554.000000	26.206500
555.000000	26.321867
556.000000	26.437200
557.000000	26.528300
558.000000	26.612700
559.000000	26.689033
560.000000	26.743567
561.000000	26.812500
562.000000	26.877833
563.000000	26.940533
564.000000	26.991167
565.000000	27.045633
566.000000	27.083967
567.000000	27.121200
568.000000	27.145933
569.000000	27.182400
570.000000	27.209933
571.000000	27.223233
572.000000	27.238267
573.000000	27.235533
574.000000	27.231933
575.000000	27.243200
576.000000	27.239267
577.000000	27.220067
578.000000	27.187367
579.000000	27.165933
580.000000	27.143367
581.000000	27.113667
582.000000	27.066400
583.000000	27.025433
584.000000	26.977100
585.000000	26.927000
586.000000	26.872367
587.000000	26.806667
588.000000	26.738300
589.000000	26.667967
590.000000	26.595533
591.000000	26.516867
592.000000	26.435300
593.000000	26.341500
594.000000	26.253633
595.000000	26.179300
596.000000	26.079800
597.000000	25.975033
598.000000	25.867300
599.000000	25.763767
600.000000	25.655733
601.000000	25.546400
602.000000	25.427300
603.000000	25.296033
604.000000	25.175200
605.000000	25.054767
606.000000	24.925167
607.000000	24.789833
608.000000	24.664633
609.000000	24.548700
610.000000	24.427200
611.000000	24.294067
612.000000	24.159800
613.000000	24.026567
614.000000	23.884533
615.000000	23.741133
616.000000	23.609633
617.000000	23.481367
618.000000	23.353200
619.000000	23.238833
620.000000	23.125433
621.000000	23.009800
622.000000	22.895433
623.000000	22.786367
624.000000	22.681233
625.000000	22.584000
626.000000	22.490800
627.000000	22.406400
628.000000	22.332367
629.000000	22.267467
630.000000	22.201667
631.000000	22.151900
632.000000	22.130767
633.000000	22.098533
634.000000	22.075233
635.000000	22.069467
636.000000	22.070900
637.000000	22.087500
638.000000	22.101500
639.000000	22.131267
640.000000	22.165300
641.000000	22.199300
642.000000	22.273133
643.000000	22.345433
644.000000	22.416700
645.000000	22.513967
646.000000	22.610800
647.000000	22.706433
648.000000	22.809500
649.000000	22.921967
650.000000	23.036600
651.000000	23.162833
652.000000	23.292100
653.000000	23.419400
654.000000	23.574933
655.000000	23.738100
656.000000	23.893800
657.000000	24.052100
658.000000	24.231000
659.000000	24.414933
660.000000	24.597167
661.000000	24.793067
662.000000	24.974333
663.000000	25.171467
664.000000	25.383100
665.000000	25.585167
666.000000	25.790567
667.000000	26.005033
668.000000	26.211667
669.000000	26.440933
670.000000	26.681667
671.000000	26.929667
672.000000	27.183767
673.000000	27.451667
674.000000	27.732867
675.000000	27.990333
676.000000	28.256133
677.000000	28.521300
678.000000	28.800367
679.000000	29.078200
680.000000	29.342000
681.000000	29.603400
682.000000	29.897100
683.000000	30.164333
684.000000	30.426167
685.000000	30.723700
686.000000	30.997833
687.000000	31.252567
688.000000	31.537367
689.000000	31.832800
690.000000	32.117000
691.000000	32.384100
692.000000	32.654267
693.000000	32.945333
694.000000	33.204133
695.000000	33.449633
696.000000	33.697700
697.000000	33.973333
698.000000	34.210267
699.000000	34.441900
700.000000	34.698000
701.000000	34.958567
702.000000	35.208800
703.000000	35.433900
704.000000	35.675900
705.000000	35.885500
706.000000	36.091067
707.000000	36.335633
708.000000	36.552067
709.000000	36.738700
710.000000	36.963700
711.000000	37.163367
712.000000	37.345800
713.000000	37.552667
714.000000	37.750700
715.000000	37.935033
716.000000	38.111200
717.000000	38.276367
718.000000	38.479200
719.000000	38.646500
720.000000	38.793167
721.000000	38.960800
722.000000	39.180500
723.000000	39.340500
724.000000	39.507867
725.000000	39.675800
726.000000	39.824733
727.000000	39.960033
728.000000	40.126000
729.000000	40.288300
730.000000	40.455333
731.000000	40.553167
732.000000	40.695167
733.000000	40.832100
734.000000	40.984033
735.000000	41.077300
736.000000	41.203300
737.000000	41.350567
738.000000	41.460433
739.000000	41.575100
740.000000	41.708433
741.000000	41.827067
742.000000	41.935800
743.000000	42.051900
744.000000	42.184067
745.000000	42.288300
746.000000	42.385200
747.000000	42.519033
748.000000	42.604133
749.000000	42.661467
750.000000	42.784400
751.000000	42.915400
752.000000	43.028867
753.000000	43.104233
754.000000	43.166233
755.000000	43.222000
756.000000	43.332267
757.000000	43.440833
758.000000	43.486000
759.000000	43.593567
760.000000	43.689033
761.000000	43.763333
762.000000	43.855033
763.000000	43.946967
764.000000	44.026967
765.000000	44.126800
766.000000	44.159767
767.000000	44.287000
768.000000	44.357933
769.000000	44.398300
770.000000	44.438633
771.000000	44.473900
772.000000	44.555500
773.000000	44.615833
774.000000	44.711733
775.000000	44.716233
776.000000	44.873200
777.000000	44.812133
778.000000	44.939000
779.000000	44.973667
780.000000	45.152767
781.000000	45.131667
782.000000	45.165133
783.000000	45.244767
784.000000	45.249367
785.000000	45.343533
786.000000	45.287033
787.000000	45.305067
788.000000	45.437867
789.000000	45.491200
790.000000	45.539567
791.000000	45.511033
792.000000	45.543167
793.000000	45.558833
794.000000	45.563500
795.000000	45.560933
796.000000	45.601400
797.000000	45.645400
798.000000	45.679267
799.000000	45.702500
800.000000	45.763500
801.000000	45.808533
802.000000	45.794633
803.000000	45.760867
804.000000	45.816333
805.000000	45.778367
806.000000	45.765033
807.000000	45.754700
808.000000	45.864367
809.000000	45.855967
810.000000	45.747933
811.000000	45.757767
812.000000	45.877633
813.000000	45.716367
814.000000	45.734167
815.000000	45.738633
816.000000	45.844833
817.000000	45.707500
818.000000	45.720167
819.000000	45.735467
820.000000	45.738900
821.000000	45.595267
822.000000	45.666600
823.000000	45.588167
824.000000	45.571000
825.000000	45.442000
826.000000	45.566700
827.000000	45.484233
828.000000	45.340067
829.000000	45.339633
830.000000	45.368200
831.000000	45.114200
832.000000	45.194867
833.000000	45.091100
834.000000	45.149367
835.000000	45.093167
836.000000	44.942567
837.000000	44.931833
838.000000	44.850467
839.000000	44.813067
840.000000	44.778167
841.000000	44.544333
842.000000	44.558567
843.000000	44.478467
844.000000	44.483700
845.000000	44.135567
846.000000	44.211300
847.000000	43.954367
848.000000	43.854700
849.000000	43.649467
850.000000	43.747400
851.000000	43.539733
852.000000	43.110967
853.000000	43.222300
854.000000	43.217900
855.000000	43.263000
856.000000	42.955033
857.000000	42.322600
858.000000	42.846878
859.000000	42.797096
860.000000	42.743607
861.000000	42.685777
862.000000	42.623361
863.000000	42.584647
864.000000	42.551865
865.000000	42.488488
866.000000	42.446878
867.000000	42.394484
868.000000	42.351083
869.000000	42.307880
870.000000	42.257436
871.000000	42.215960
872.000000	42.193213
873.000000	42.250792
874.000000	42.374005
875.000000	42.514018
876.000000	42.638933
877.000000	42.742769
878.000000	42.841179
879.000000	42.921979
880.000000	42.985504
881.000000	43.050016
882.000000	43.093764
883.000000	43.143544
884.000000	43.179257
885.000000	43.230419
886.000000	43.258316
887.000000	43.294380
888.000000	43.322479
889.000000	43.352225
890.000000	43.375327
891.000000	43.377370
892.000000	43.398849
893.000000	43.407393
894.000000	43.416101
895.000000	43.444911
896.000000	43.452736
897.000000	43.452668
898.000000	43.449710
899.000000	43.464085
900.000000	43.481627
901.000000	43.486387
902.000000	43.488265
903.000000	43.511533
904.000000	43.536881
905.000000	43.558816
906.000000	43.588545
907.000000	43.634641
908.000000	43.679946
909.000000	43.743364
910.000000	43.813004
911.000000	43.871680
912.000000	43.921005
913.000000	44.003133
914.000000	44.080884
915.000000	44.163337
916.000000	44.248537
917.000000	44.319800
918.000000	44.378988
919.000000	44.451369
920.000000	44.518560
921.000000	44.596953
922.000000	44.665631
923.000000	44.730608
924.000000	44.803341
925.000000	44.875930
926.000000	44.951743
927.000000	45.022442
928.000000	45.093868
929.000000	45.164655
930.000000	45.245325
931.000000	45.319100
932.000000	45.388641
933.000000	45.458578
934.000000	45.517916
935.000000	45.587684
936.000000	45.665110
937.000000	45.731756
938.000000	45.804692
939.000000	45.875109
940.000000	45.950982
941.000000	46.029927
942.000000	46.100730
943.000000	46.163808
944.000000	46.228911
945.000000	46.290576
946.000000	46.347625
947.000000	46.410865
948.000000	46.464796
949.000000	46.514597
950.000000	46.573337
951.000000	46.623925
952.000000	46.672400
953.000000	46.720507
954.000000	46.759775
955.000000	46.800410
956.000000	46.841657
957.000000	46.886622
958.000000	46.936729
959.000000	46.979593
960.000000	47.014941
961.000000	47.041556
962.000000	47.079590
963.000000	47.128424
964.000000	47.168355
965.000000	47.213974
966.000000	47.264957
967.000000	47.307875
968.000000	47.363679
969.000000	47.427476
970.000000	47.468102
971.000000	47.516185
972.000000	47.578320
973.000000	47.634940
974.000000	47.681797
975.000000	47.730695
976.000000	47.785087
977.000000	47.843054
978.000000	47.900834
979.000000	47.946388
980.000000	48.001563
981.000000	48.052880
982.000000	48.097014
983.000000	48.151817
984.000000	48.209943
985.000000	48.260320
986.000000	48.320131
987.000000	48.382934
988.000000	48.437925
989.000000	48.494595
990.000000	48.550504
991.000000	48.616262
992.000000	48.677663
993.000000	48.741079
994.000000	48.805638
995.000000	48.872829
996.000000	48.940607
997.000000	49.015229
998.000000	49.077264
999.000000	49.140851
1000.000000	49.214985
1001.000000	49.287606
1002.000000	49.356326
1003.000000	49.426071
1004.000000	49.492167
1005.000000	49.558371
1006.000000	49.610777
1007.000000	49.682454
1008.000000	49.753239
1009.000000	49.824770
1010.000000	49.892574
1011.000000	49.968480
1012.000000	50.050062
1013.000000	50.124069
1014.000000	50.218789
1015.000000	50.325917
1016.000000	50.424232
1017.000000	50.536909
1018.000000	50.644748
1019.000000	50.762949
1020.000000	50.879428
1021.000000	51.008964
1022.000000	51.116703
1023.000000	51.240593
1024.000000	51.361192
1025.000000	51.485277
1026.000000	51.597915
1027.000000	51.728172
1028.000000	51.842209
1029.000000	51.949144
1030.000000	52.065592
1031.000000	52.177484
1032.000000	52.288444
1033.000000	52.400757
1034.000000	52.505206
1035.000000	52.603881
1036.000000	52.709452
1037.000000	52.814672
1038.000000	52.914907
1039.000000	53.011553
1040.000000	53.099536
1041.000000	53.197152
1042.000000	53.297058
1043.000000	53.392817
1044.000000	53.491312
1045.000000	53.586575
1046.000000	53.684815
1047.000000	53.775901
1048.000000	53.877812
1049.000000	53.965398
1050.000000	54.064384
1051.000000	54.172914
1052.000000	54.293358
1053.000000	54.393341
1054.000000	54.505456
1055.000000	54.610009
1056.000000	54.715386
1057.000000	54.826576
1058.000000	54.933542
1059.000000	55.037697
1060.000000	55.149083
1061.000000	55.256904
1062.000000	55.355045
1063.000000	55.455051
1064.000000	55.559160
1065.000000	55.663579
1066.000000	55.757014
1067.000000	55.851967
1068.000000	55.935316
1069.000000	56.035516
1070.000000	56.136813
1071.000000	56.225883
1072.000000	56.322836
1073.000000	56.412127
1074.000000	56.494742
1075.000000	56.591849
1076.000000	56.678505
1077.000000	56.758220
1078.000000	56.847152
1079.000000	56.928619
1080.000000	57.013903
1081.000000	57.099565
1082.000000	57.193640
1083.000000	57.270267
1084.000000	57.354511
1085.000000	57.437060
1086.000000	57.514012
1087.000000	57.588930
1088.000000	57.669743
1089.000000	57.744518
1090.000000	57.811730
1091.000000	57.874177
1092.000000	57.939278
1093.000000	58.025173
1094.000000	58.068817
1095.000000	58.123860
1096.000000	58.182758
1097.000000	58.234059
1098.000000	58.270726
1099.000000	58.312922
1100.000000	58.362714
1101.000000	58.407553
1102.000000	58.435509
1103.000000	58.464716
1104.000000	58.492961
1105.000000	58.531282
1106.000000	58.564700
1107.000000	58.581330
1108.000000	58.616414
1109.000000	58.650259
1110.000000	58.672715
1111.000000	58.698614
1112.000000	58.731186
1113.000000	58.759067
1114.000000	58.788756
1115.000000	58.812890
1116.000000	58.831572
1117.000000	58.843973
1118.000000	58.830800
1119.000000	58.820224
1120.000000	58.800734
1121.000000	58.771319
1122.000000	58.721752
1123.000000	58.656916
1124.000000	58.568527
1125.000000	58.473149
1126.000000	58.343356
1127.000000	58.189017
1128.000000	58.003417
1129.000000	57.765569
1130.000000	57.494146
1131.000000	57.182169
1132.000000	56.837480
1133.000000	56.478765
1134.000000	56.070696
1135.000000	55.588047
1136.000000	55.133900
1137.000000	54.689466
1138.000000	54.260973
1139.000000	53.854412
1140.000000	53.466928
1141.000000	53.083018
1142.000000	52.711853
1143.000000	52.363319
1144.000000	52.066796
1145.000000	51.789098
1146.000000	51.571521
1147.000000	51.405923
1148.000000	51.275488
1149.000000	51.152816
1150.000000	51.029297
1151.000000	50.906054
1152.000000	50.767461
1153.000000	50.582915
1154.000000	50.359981
1155.000000	50.096452
1156.000000	49.802038
1157.000000	49.477117
1158.000000	49.118447
1159.000000	48.747791
1160.000000	48.366656
1161.000000	47.987775
1162.000000	47.595099
1163.000000	47.202016
1164.000000	46.828058
1165.000000	46.469538
1166.000000	46.116638
1167.000000	45.783517
1168.000000	45.445771
1169.000000	45.139413
1170.000000	44.832707
