PE UV       SUBTECH     SPECTRUM    ASCII       PEDS        4.00        
   -1
CICIMAUCR0205-4.ASC
24/06/06
14:47:53.00
24/06/06
14:47:53.00
Vinicio Soto Monge
C. cupreomarginata. Sex F. Ventral
250,000000
1
Lambda 1050
1050L1511233
PerkinElmer UV WinLab 6.3.2.0749 / 2.02.05 Lambda 900 UV/VIS/NIR, Aug  7 2015 09:38:08

0
0
3350/servo 860,8/2
0
0
UV/VIS
1
1
1
DoubleDePol,CommonBeamDepol,RBeamAtt,SBeamAtt,60mm sphere, WB InGaAs Detector
0
0
0
0
Program
Program
3350/servo 860,8/2
3350/0,2 860,8/0,2
3350/0,2 860,8/0,2
0
15.00
 
 
 
0
 
860,8
319,2
860,8
Front
100
on
S:100 R:100
0
0
0
0
 
0
 
 
 
0
 
 
0
0
0
0
0
 
 
 
 
0
0


0
0
#HDR
-1
-1
#GR
nm
%R
1.0
0.0
2500,000000
-1,000000
2251
8
59,445600
4,483100
#DATA
250.000000	5.562550
251.000000	5.558175
252.000000	5.555800
253.000000	5.529250
254.000000	5.520550
255.000000	5.532825
256.000000	5.509850
257.000000	5.474475
258.000000	5.457750
259.000000	5.446625
260.000000	5.445975
261.000000	5.419875
262.000000	5.377675
263.000000	5.356550
264.000000	5.328825
265.000000	5.311250
266.000000	5.279325
267.000000	5.260500
268.000000	5.243950
269.000000	5.257425
270.000000	5.247450
271.000000	5.222200
272.000000	5.190225
273.000000	5.185975
274.000000	5.175450
275.000000	5.156300
276.000000	5.147375
277.000000	5.141900
278.000000	5.110650
279.000000	5.092950
280.000000	5.115675
281.000000	5.100625
282.000000	5.095725
283.000000	5.089475
284.000000	5.077325
285.000000	5.076000
286.000000	5.078250
287.000000	5.071575
288.000000	5.067075
289.000000	5.065675
290.000000	5.058600
291.000000	5.065825
292.000000	5.052275
293.000000	5.047175
294.000000	5.034450
295.000000	5.031925
296.000000	5.022100
297.000000	5.025875
298.000000	5.013125
299.000000	5.008925
300.000000	4.994750
301.000000	4.988925
302.000000	4.975400
303.000000	4.976500
304.000000	4.977425
305.000000	4.976075
306.000000	4.997175
307.000000	4.990875
308.000000	4.976900
309.000000	4.966275
310.000000	4.941550
311.000000	4.930025
312.000000	4.945200
313.000000	4.944150
314.000000	4.941925
315.000000	4.924075
316.000000	5.391375
317.000000	5.993650
318.000000	5.913475
319.000000	5.806375
320.000000	5.917050
321.000000	5.902150
322.000000	5.504275
323.000000	5.336600
324.000000	5.271075
325.000000	5.306300
326.000000	5.392950
327.000000	5.258825
328.000000	5.146625
329.000000	5.086650
330.000000	5.117975
331.000000	5.121100
332.000000	5.060225
333.000000	5.030900
334.000000	4.944575
335.000000	4.971300
336.000000	5.041850
337.000000	4.972825
338.000000	4.876625
339.000000	4.936825
340.000000	4.977700
341.000000	4.957225
342.000000	5.015875
343.000000	4.944650
344.000000	4.967275
345.000000	4.953400
346.000000	4.884975
347.000000	4.883675
348.000000	4.842900
349.000000	4.907350
350.000000	4.930225
351.000000	4.882475
352.000000	4.874675
353.000000	4.821000
354.000000	4.813975
355.000000	4.906050
356.000000	4.831075
357.000000	4.814250
358.000000	4.862125
359.000000	4.833400
360.000000	4.801050
361.000000	4.729550
362.000000	4.701000
363.000000	4.775650
364.000000	4.787675
365.000000	4.770675
366.000000	4.792075
367.000000	4.747000
368.000000	4.722550
369.000000	4.671375
370.000000	4.698200
371.000000	4.606125
372.000000	4.432750
373.000000	4.425300
374.000000	4.332600
375.000000	4.659100
376.000000	4.964050
377.000000	4.999625
378.000000	5.002525
379.000000	5.023025
380.000000	5.048700
381.000000	5.065750
382.000000	5.077675
383.000000	5.095600
384.000000	5.113225
385.000000	5.137900
386.000000	5.173775
387.000000	5.195800
388.000000	5.224975
389.000000	5.240950
390.000000	5.265625
391.000000	5.311500
392.000000	5.345750
393.000000	5.371500
394.000000	5.414025
395.000000	5.449900
396.000000	5.484800
397.000000	5.530250
398.000000	5.568325
399.000000	5.611825
400.000000	5.664325
401.000000	5.701725
402.000000	5.748800
403.000000	5.793500
404.000000	5.849875
405.000000	5.903350
406.000000	5.956900
407.000000	6.001175
408.000000	6.059950
409.000000	6.124025
410.000000	6.187725
411.000000	6.245375
412.000000	6.308200
413.000000	6.375425
414.000000	6.442750
415.000000	6.509375
416.000000	6.579925
417.000000	6.647900
418.000000	6.724150
419.000000	6.792000
420.000000	6.865225
421.000000	6.954600
422.000000	7.032150
423.000000	7.114975
424.000000	7.194275
425.000000	7.282075
426.000000	7.372650
427.000000	7.453000
428.000000	7.547075
429.000000	7.636125
430.000000	7.733850
431.000000	7.835675
432.000000	7.935200
433.000000	8.034150
434.000000	8.134875
435.000000	8.243375
436.000000	8.351050
437.000000	8.450775
438.000000	8.562625
439.000000	8.675000
440.000000	8.781325
441.000000	8.900125
442.000000	9.017600
443.000000	9.138200
444.000000	9.230750
445.000000	9.345200
446.000000	9.442550
447.000000	9.545425
448.000000	9.645825
449.000000	9.748600
450.000000	9.848150
451.000000	9.960025
452.000000	10.062375
453.000000	10.149250
454.000000	10.243475
455.000000	10.338675
456.000000	10.421250
457.000000	10.511600
458.000000	10.593325
459.000000	10.680200
460.000000	10.766575
461.000000	10.855900
462.000000	10.943150
463.000000	11.010775
464.000000	11.100825
465.000000	11.183225
466.000000	11.264025
467.000000	11.357025
468.000000	11.445325
469.000000	11.525400
470.000000	11.608225
471.000000	11.690925
472.000000	11.780375
473.000000	11.863650
474.000000	11.945175
475.000000	12.027425
476.000000	12.123775
477.000000	12.200925
478.000000	12.286450
479.000000	12.368850
480.000000	12.464750
481.000000	12.558950
482.000000	12.641500
483.000000	12.720850
484.000000	12.790625
485.000000	12.854700
486.000000	12.927900
487.000000	12.998125
488.000000	13.084425
489.000000	13.129550
490.000000	13.219200
491.000000	13.296975
492.000000	13.381050
493.000000	13.469675
494.000000	13.564225
495.000000	13.656550
496.000000	13.758600
497.000000	13.856625
498.000000	13.965000
499.000000	14.090300
500.000000	14.209725
501.000000	14.338575
502.000000	14.486500
503.000000	14.627500
504.000000	14.783250
505.000000	14.940875
506.000000	15.110350
507.000000	15.286350
508.000000	15.476475
509.000000	15.668300
510.000000	15.873800
511.000000	16.074125
512.000000	16.301000
513.000000	16.529675
514.000000	16.756300
515.000000	17.005500
516.000000	17.256225
517.000000	17.509775
518.000000	17.768250
519.000000	18.031000
520.000000	18.314975
521.000000	18.584850
522.000000	18.866025
523.000000	19.154525
524.000000	19.449725
525.000000	19.754775
526.000000	20.039850
527.000000	20.340675
528.000000	20.634250
529.000000	20.931075
530.000000	21.235500
531.000000	21.531625
532.000000	21.836875
533.000000	22.154400
534.000000	22.459575
535.000000	22.767250
536.000000	23.066525
537.000000	23.374250
538.000000	23.675375
539.000000	23.980875
540.000000	24.276625
541.000000	24.588225
542.000000	24.900100
543.000000	25.211900
544.000000	25.509025
545.000000	25.815050
546.000000	26.118600
547.000000	26.412875
548.000000	26.714800
549.000000	26.995200
550.000000	27.287300
551.000000	27.568925
552.000000	27.858100
553.000000	28.145050
554.000000	28.412750
555.000000	28.683325
556.000000	28.934150
557.000000	29.183025
558.000000	29.419775
559.000000	29.672250
560.000000	29.957500
561.000000	30.176900
562.000000	30.408375
563.000000	30.621450
564.000000	30.821950
565.000000	31.031050
566.000000	31.210800
567.000000	31.392525
568.000000	31.561075
569.000000	31.727350
570.000000	31.870650
571.000000	32.018375
572.000000	32.160200
573.000000	32.288300
574.000000	32.406425
575.000000	32.524400
576.000000	32.632825
577.000000	32.736500
578.000000	32.821000
579.000000	32.904950
580.000000	32.987900
581.000000	33.056350
582.000000	33.122600
583.000000	33.171300
584.000000	33.225250
585.000000	33.274175
586.000000	33.308700
587.000000	33.327350
588.000000	33.340075
589.000000	33.364050
590.000000	33.376825
591.000000	33.379025
592.000000	33.379450
593.000000	33.371300
594.000000	33.357475
595.000000	33.334325
596.000000	33.314300
597.000000	33.274775
598.000000	33.221025
599.000000	33.169675
600.000000	33.114425
601.000000	33.058000
602.000000	32.993975
603.000000	32.911550
604.000000	32.824725
605.000000	32.734425
606.000000	32.645575
607.000000	32.556125
608.000000	32.453900
609.000000	32.344325
610.000000	32.227875
611.000000	32.107025
612.000000	31.972675
613.000000	31.831975
614.000000	31.701025
615.000000	31.568375
616.000000	31.437100
617.000000	31.300000
618.000000	31.165225
619.000000	31.025425
620.000000	30.861925
621.000000	30.715150
622.000000	30.572025
623.000000	30.420275
624.000000	30.256700
625.000000	30.100050
626.000000	29.945625
627.000000	29.777950
628.000000	29.610875
629.000000	29.445000
630.000000	29.275550
631.000000	29.111475
632.000000	28.946300
633.000000	28.767700
634.000000	28.583150
635.000000	28.417525
636.000000	28.251900
637.000000	28.070600
638.000000	27.884375
639.000000	27.718050
640.000000	27.549675
641.000000	27.389025
642.000000	27.241150
643.000000	27.087625
644.000000	26.944925
645.000000	26.822525
646.000000	26.708325
647.000000	26.594525
648.000000	26.495200
649.000000	26.406025
650.000000	26.321225
651.000000	26.252275
652.000000	26.197425
653.000000	26.158550
654.000000	26.132450
655.000000	26.104375
656.000000	26.091000
657.000000	26.101550
658.000000	26.125525
659.000000	26.156525
660.000000	26.189575
661.000000	26.242775
662.000000	26.299200
663.000000	26.354600
664.000000	26.426050
665.000000	26.493325
666.000000	26.576475
667.000000	26.679450
668.000000	26.784925
669.000000	26.901950
670.000000	27.031600
671.000000	27.160575
672.000000	27.314050
673.000000	27.474550
674.000000	27.627775
675.000000	27.796050
676.000000	27.974025
677.000000	28.155975
678.000000	28.352050
679.000000	28.560425
680.000000	28.764925
681.000000	29.001075
682.000000	29.231800
683.000000	29.465700
684.000000	29.719250
685.000000	29.992600
686.000000	30.233525
687.000000	30.482650
688.000000	30.771625
689.000000	31.054000
690.000000	31.308550
691.000000	31.586850
692.000000	31.866300
693.000000	32.164475
694.000000	32.446675
695.000000	32.732275
696.000000	33.043300
697.000000	33.352725
698.000000	33.635850
699.000000	33.934625
700.000000	34.222250
701.000000	34.549750
702.000000	34.875250
703.000000	35.192200
704.000000	35.518650
705.000000	35.801075
706.000000	36.111650
707.000000	36.434400
708.000000	36.771175
709.000000	37.084100
710.000000	37.387100
711.000000	37.687200
712.000000	37.991400
713.000000	38.258425
714.000000	38.528600
715.000000	38.816050
716.000000	39.114150
717.000000	39.351100
718.000000	39.646075
719.000000	39.905425
720.000000	40.149200
721.000000	40.444625
722.000000	40.694300
723.000000	40.940225
724.000000	41.206875
725.000000	41.450600
726.000000	41.691350
727.000000	41.990750
728.000000	42.244975
729.000000	42.464675
730.000000	42.714925
731.000000	42.923700
732.000000	43.129975
733.000000	43.380050
734.000000	43.614925
735.000000	43.808050
736.000000	43.991325
737.000000	44.210775
738.000000	44.384375
739.000000	44.612825
740.000000	44.831950
741.000000	44.977250
742.000000	45.161900
743.000000	45.366425
744.000000	45.525025
745.000000	45.673650
746.000000	45.813775
747.000000	45.996775
748.000000	46.124075
749.000000	46.269400
750.000000	46.414275
751.000000	46.538100
752.000000	46.667050
753.000000	46.807300
754.000000	46.941500
755.000000	47.050975
756.000000	47.189200
757.000000	47.302750
758.000000	47.445500
759.000000	47.538925
760.000000	47.694400
761.000000	47.860175
762.000000	47.984575
763.000000	48.080175
764.000000	48.178725
765.000000	48.248325
766.000000	48.447825
767.000000	48.505050
768.000000	48.550825
769.000000	48.720025
770.000000	48.748075
771.000000	48.859950
772.000000	48.976900
773.000000	49.083925
774.000000	49.137025
775.000000	49.154675
776.000000	49.273500
777.000000	49.339375
778.000000	49.440925
779.000000	49.496750
780.000000	49.564725
781.000000	49.654850
782.000000	49.719250
783.000000	49.745325
784.000000	49.812800
785.000000	49.891925
786.000000	49.978375
787.000000	50.025475
788.000000	50.097950
789.000000	50.130300
790.000000	50.108025
791.000000	50.165825
792.000000	50.184925
793.000000	50.241675
794.000000	50.236475
795.000000	50.321025
796.000000	50.370250
797.000000	50.325925
798.000000	50.351450
799.000000	50.356400
800.000000	50.389675
801.000000	50.422425
802.000000	50.461800
803.000000	50.443875
804.000000	50.474250
805.000000	50.433375
806.000000	50.432725
807.000000	50.291675
808.000000	50.409775
809.000000	50.341225
810.000000	50.304100
811.000000	50.246350
812.000000	50.320725
813.000000	50.295850
814.000000	50.294900
815.000000	50.253700
816.000000	50.140150
817.000000	49.997275
818.000000	50.039975
819.000000	49.996925
820.000000	49.955900
821.000000	49.824775
822.000000	49.848725
823.000000	49.766000
824.000000	49.666175
825.000000	49.599725
826.000000	49.557050
827.000000	49.467000
828.000000	49.415650
829.000000	49.343775
830.000000	49.263650
831.000000	49.244225
832.000000	49.054000
833.000000	48.919525
834.000000	48.837325
835.000000	48.731625
836.000000	48.532125
837.000000	48.481350
838.000000	48.363275
839.000000	48.208825
840.000000	48.056325
841.000000	47.985750
842.000000	47.713200
843.000000	47.616475
844.000000	47.383550
845.000000	47.235050
846.000000	47.139050
847.000000	46.981850
848.000000	46.825975
849.000000	46.502950
850.000000	46.445025
851.000000	46.003375
852.000000	45.927400
853.000000	45.724200
854.000000	45.525950
855.000000	45.365200
856.000000	45.379400
857.000000	44.230725
858.000000	44.991775
859.000000	44.844428
860.000000	44.708295
861.000000	44.572588
862.000000	44.445752
863.000000	44.306835
864.000000	44.178749
865.000000	44.035601
866.000000	43.918775
867.000000	43.790429
868.000000	43.668328
869.000000	43.535112
870.000000	43.419035
871.000000	43.326394
872.000000	43.282628
873.000000	43.305767
874.000000	43.361093
875.000000	43.401928
876.000000	43.440163
877.000000	43.479900
878.000000	43.502877
879.000000	43.493085
880.000000	43.511745
881.000000	43.518821
882.000000	43.519812
883.000000	43.521431
884.000000	43.529687
885.000000	43.532648
886.000000	43.540897
887.000000	43.543545
888.000000	43.546937
889.000000	43.543456
890.000000	43.552270
891.000000	43.569831
892.000000	43.569656
893.000000	43.583308
894.000000	43.598771
895.000000	43.602984
896.000000	43.608185
897.000000	43.622208
898.000000	43.638026
899.000000	43.651066
900.000000	43.662291
901.000000	43.680903
902.000000	43.705985
903.000000	43.734574
904.000000	43.751139
905.000000	43.777311
906.000000	43.813676
907.000000	43.855270
908.000000	43.890645
909.000000	43.928907
910.000000	43.966887
911.000000	44.015706
912.000000	44.057290
913.000000	44.112468
914.000000	44.159092
915.000000	44.214581
916.000000	44.278781
917.000000	44.330786
918.000000	44.400395
919.000000	44.464958
920.000000	44.535673
921.000000	44.612447
922.000000	44.682758
923.000000	44.765418
924.000000	44.836253
925.000000	44.910992
926.000000	44.997789
927.000000	45.097972
928.000000	45.192583
929.000000	45.273183
930.000000	45.353268
931.000000	45.449036
932.000000	45.557690
933.000000	45.643876
934.000000	45.720965
935.000000	45.823406
936.000000	45.928550
937.000000	46.034534
938.000000	46.139677
939.000000	46.235133
940.000000	46.332458
941.000000	46.447530
942.000000	46.554447
943.000000	46.649552
944.000000	46.749979
945.000000	46.865926
946.000000	46.972647
947.000000	47.064693
948.000000	47.164124
949.000000	47.269011
950.000000	47.362009
951.000000	47.457169
952.000000	47.567852
953.000000	47.663030
954.000000	47.756288
955.000000	47.852328
956.000000	47.941472
957.000000	48.038185
958.000000	48.149361
959.000000	48.259211
960.000000	48.349931
961.000000	48.436756
962.000000	48.542549
963.000000	48.647936
964.000000	48.750632
965.000000	48.860314
966.000000	48.960454
967.000000	49.058447
968.000000	49.167265
969.000000	49.282739
970.000000	49.397604
971.000000	49.501876
972.000000	49.615361
973.000000	49.726393
974.000000	49.835737
975.000000	49.947139
976.000000	50.059086
977.000000	50.160458
978.000000	50.275988
979.000000	50.383952
980.000000	50.498932
981.000000	50.605235
982.000000	50.721605
983.000000	50.834735
984.000000	50.942611
985.000000	51.052151
986.000000	51.174843
987.000000	51.280964
988.000000	51.396722
989.000000	51.509328
990.000000	51.629934
991.000000	51.746825
992.000000	51.860905
993.000000	51.976510
994.000000	52.081304
995.000000	52.195366
996.000000	52.305098
997.000000	52.420523
998.000000	52.533141
999.000000	52.654254
1000.000000	52.767788
1001.000000	52.878106
1002.000000	52.991256
1003.000000	53.102958
1004.000000	53.211693
1005.000000	53.314382
1006.000000	53.417298
1007.000000	53.535113
1008.000000	53.642153
1009.000000	53.755414
1010.000000	53.856387
1011.000000	53.959393
1012.000000	54.068576
1013.000000	54.171294
1014.000000	54.298313
1015.000000	54.399555
1016.000000	54.506554
1017.000000	54.624702
1018.000000	54.748812
1019.000000	54.868499
1020.000000	54.984309
1021.000000	55.113807
1022.000000	55.226277
1023.000000	55.344817
1024.000000	55.475567
1025.000000	55.592873
1026.000000	55.725961
1027.000000	55.844599
1028.000000	55.960380
1029.000000	56.084925
1030.000000	56.208434
1031.000000	56.326041
1032.000000	56.447239
1033.000000	56.574458
1034.000000	56.701004
1035.000000	56.809040
1036.000000	56.943944
1037.000000	57.064106
1038.000000	57.190131
1039.000000	57.302739
1040.000000	57.410504
1041.000000	57.535557
1042.000000	57.665174
1043.000000	57.771059
1044.000000	57.905337
1045.000000	58.029477
1046.000000	58.154556
1047.000000	58.267916
1048.000000	58.382471
1049.000000	58.509161
1050.000000	58.633848
1051.000000	58.757438
1052.000000	58.882070
1053.000000	59.008895
1054.000000	59.146321
1055.000000	59.252459
1056.000000	59.394042
1057.000000	59.525211
1058.000000	59.638005
1059.000000	59.764970
1060.000000	59.889775
1061.000000	60.032103
1062.000000	60.164913
1063.000000	60.289111
1064.000000	60.406756
1065.000000	60.529150
1066.000000	60.647343
1067.000000	60.782809
1068.000000	60.899033
1069.000000	61.013006
1070.000000	61.138787
1071.000000	61.263789
1072.000000	61.377871
1073.000000	61.496679
1074.000000	61.599692
1075.000000	61.732311
1076.000000	61.842982
1077.000000	61.943948
1078.000000	62.072616
1079.000000	62.186811
1080.000000	62.287765
1081.000000	62.388924
1082.000000	62.513197
1083.000000	62.613469
1084.000000	62.722158
1085.000000	62.839080
1086.000000	62.930227
1087.000000	63.049841
1088.000000	63.139230
1089.000000	63.245705
1090.000000	63.344310
1091.000000	63.430421
1092.000000	63.541330
1093.000000	63.619888
1094.000000	63.710118
1095.000000	63.800761
1096.000000	63.881459
1097.000000	63.962922
1098.000000	64.054669
1099.000000	64.135142
1100.000000	64.191676
1101.000000	64.278433
1102.000000	64.352434
1103.000000	64.425584
1104.000000	64.498751
1105.000000	64.570446
1106.000000	64.643718
1107.000000	64.715472
1108.000000	64.785288
1109.000000	64.858398
1110.000000	64.926504
1111.000000	64.992134
1112.000000	65.045944
1113.000000	65.116335
1114.000000	65.176383
1115.000000	65.242966
1116.000000	65.311919
1117.000000	65.362542
1118.000000	65.411896
1119.000000	65.458216
1120.000000	65.506625
1121.000000	65.540080
1122.000000	65.574788
1123.000000	65.591807
1124.000000	65.576510
1125.000000	65.576954
1126.000000	65.534003
1127.000000	65.503940
1128.000000	65.451165
1129.000000	65.381239
1130.000000	65.284066
1131.000000	65.196057
1132.000000	65.109365
1133.000000	65.019756
1134.000000	64.894062
1135.000000	64.716774
1136.000000	64.546894
1137.000000	64.380595
1138.000000	64.230592
1139.000000	64.091262
1140.000000	63.947430
1141.000000	63.815306
1142.000000	63.696002
1143.000000	63.573383
1144.000000	63.452957
1145.000000	63.328915
1146.000000	63.193229
1147.000000	63.068659
1148.000000	62.950376
1149.000000	62.840810
1150.000000	62.725359
1151.000000	62.606102
1152.000000	62.487760
1153.000000	62.353387
1154.000000	62.211676
1155.000000	62.049311
1156.000000	61.881754
1157.000000	61.703645
1158.000000	61.496878
1159.000000	61.283963
1160.000000	61.070415
1161.000000	60.848725
1162.000000	60.633742
1163.000000	60.434741
1164.000000	60.239997
1165.000000	60.055022
1166.000000	59.882024
1167.000000	59.728387
1168.000000	59.594633
