PE UV       SUBTECH     SPECTRUM    ASCII       PEDS        4.00        
   -1
CICIMAUCR0225-3.ASC
24/05/30
11:57:32.00
24/05/30
11:57:32.00
Vinicio Soto Monge
C. resplendens, F Ventral
250,000000
1
Lambda 1050
1050L1511233
PerkinElmer UV WinLab 6.3.2.0749 / 2.02.05 Lambda 900 UV/VIS/NIR, Aug  7 2015 09:38:08

0
0
3350/servo 860,8/2
0
0
UV/VIS
1
1
1
DoubleDePol,CommonBeamDepol,RBeamAtt,SBeamAtt,60mm sphere, WB InGaAs Detector
0
0
0
0
Program
Program
3350/servo 860,8/2
3350/0,2 860,8/0,2
3350/0,2 860,8/0,2
0
15.00
 
 
 
0
 
860,8
319,2
860,8
Front
100
on
S:100 R:100
0
0
0
0
 
0
 
 
 
0
 
 
0
0
0
0
0
 
 
 
 
0
0


0
0
#HDR
-1
-1
#GR
nm
%R
1.0
0.0
2500,000000
-1,000000
2251
8
54,354700
4,244400
#DATA
250.000000	4.621500
251.000000	4.618900
252.000000	4.594067
253.000000	4.589567
254.000000	4.594000
255.000000	4.577500
256.000000	4.574500
257.000000	4.544233
258.000000	4.548367
259.000000	4.545800
260.000000	4.543033
261.000000	4.509733
262.000000	4.503033
263.000000	4.477000
264.000000	4.467500
265.000000	4.442767
266.000000	4.417433
267.000000	4.407067
268.000000	4.404433
269.000000	4.392433
270.000000	4.374367
271.000000	4.361667
272.000000	4.364267
273.000000	4.355133
274.000000	4.346433
275.000000	4.349200
276.000000	4.321833
277.000000	4.311333
278.000000	4.319967
279.000000	4.295933
280.000000	4.276767
281.000000	4.282267
282.000000	4.281667
283.000000	4.276167
284.000000	4.283800
285.000000	4.280600
286.000000	4.278667
287.000000	4.259633
288.000000	4.240300
289.000000	4.238100
290.000000	4.244700
291.000000	4.255200
292.000000	4.268600
293.000000	4.243133
294.000000	4.228600
295.000000	4.256633
296.000000	4.262567
297.000000	4.240100
298.000000	4.235300
299.000000	4.240600
300.000000	4.268333
301.000000	4.250533
302.000000	4.221700
303.000000	4.216767
304.000000	4.209933
305.000000	4.201200
306.000000	4.201967
307.000000	4.229533
308.000000	4.226533
309.000000	4.221967
310.000000	4.209900
311.000000	4.209233
312.000000	4.214633
313.000000	4.214667
314.000000	4.219867
315.000000	4.208700
316.000000	4.648267
317.000000	5.257633
318.000000	5.245133
319.000000	4.890000
320.000000	4.701300
321.000000	4.752967
322.000000	4.658867
323.000000	4.788333
324.000000	4.701067
325.000000	4.515700
326.000000	4.448400
327.000000	4.399300
328.000000	4.337767
329.000000	4.342467
330.000000	4.426233
331.000000	4.453833
332.000000	4.428733
333.000000	4.449833
334.000000	4.434700
335.000000	4.366567
336.000000	4.393167
337.000000	4.486000
338.000000	4.563133
339.000000	4.487000
340.000000	4.448833
341.000000	4.457200
342.000000	4.405233
343.000000	4.372133
344.000000	4.383700
345.000000	4.451033
346.000000	4.434233
347.000000	4.379733
348.000000	4.388467
349.000000	4.365833
350.000000	4.299967
351.000000	4.326433
352.000000	4.405333
353.000000	4.451267
354.000000	4.449933
355.000000	4.537867
356.000000	4.491533
357.000000	4.415867
358.000000	4.476400
359.000000	4.475367
360.000000	4.450867
361.000000	4.475333
362.000000	4.553333
363.000000	4.534600
364.000000	4.534967
365.000000	4.539700
366.000000	4.494933
367.000000	4.512133
368.000000	4.542433
369.000000	4.470800
370.000000	4.476433
371.000000	4.521200
372.000000	4.586667
373.000000	4.571433
374.000000	4.449200
375.000000	4.689233
376.000000	4.920667
377.000000	4.986000
378.000000	5.024833
379.000000	5.063100
380.000000	5.103500
381.000000	5.131700
382.000000	5.170400
383.000000	5.218000
384.000000	5.267633
385.000000	5.300633
386.000000	5.334133
387.000000	5.373900
388.000000	5.421900
389.000000	5.477000
390.000000	5.518800
391.000000	5.556967
392.000000	5.595500
393.000000	5.649433
394.000000	5.681833
395.000000	5.717633
396.000000	5.759500
397.000000	5.814333
398.000000	5.865933
399.000000	5.911700
400.000000	5.948233
401.000000	5.983000
402.000000	6.026733
403.000000	6.069567
404.000000	6.115633
405.000000	6.145700
406.000000	6.192833
407.000000	6.233133
408.000000	6.264100
409.000000	6.304367
410.000000	6.351833
411.000000	6.382500
412.000000	6.417700
413.000000	6.459600
414.000000	6.492167
415.000000	6.530833
416.000000	6.573000
417.000000	6.605433
418.000000	6.644900
419.000000	6.688800
420.000000	6.706900
421.000000	6.747733
422.000000	6.780267
423.000000	6.823667
424.000000	6.855267
425.000000	6.887967
426.000000	6.936933
427.000000	6.977400
428.000000	7.001800
429.000000	7.048533
430.000000	7.075867
431.000000	7.120667
432.000000	7.162767
433.000000	7.199833
434.000000	7.236967
435.000000	7.273900
436.000000	7.317067
437.000000	7.361900
438.000000	7.395100
439.000000	7.440200
440.000000	7.495900
441.000000	7.535267
442.000000	7.571733
443.000000	7.615667
444.000000	7.664433
445.000000	7.706533
446.000000	7.740333
447.000000	7.780233
448.000000	7.811533
449.000000	7.860200
450.000000	7.898867
451.000000	7.945533
452.000000	7.981567
453.000000	8.030600
454.000000	8.066767
455.000000	8.108067
456.000000	8.152033
457.000000	8.205600
458.000000	8.251233
459.000000	8.284600
460.000000	8.337400
461.000000	8.389900
462.000000	8.450867
463.000000	8.492767
464.000000	8.548567
465.000000	8.602400
466.000000	8.661567
467.000000	8.711867
468.000000	8.772800
469.000000	8.840333
470.000000	8.896900
471.000000	8.968367
472.000000	9.048067
473.000000	9.116067
474.000000	9.194000
475.000000	9.282467
476.000000	9.359567
477.000000	9.436833
478.000000	9.516900
479.000000	9.607200
480.000000	9.703200
481.000000	9.800233
482.000000	9.890167
483.000000	9.984867
484.000000	10.072567
485.000000	10.153867
486.000000	10.251867
487.000000	10.337367
488.000000	10.438600
489.000000	10.519033
490.000000	10.617033
491.000000	10.719300
492.000000	10.828067
493.000000	10.942267
494.000000	11.051867
495.000000	11.180233
496.000000	11.302467
497.000000	11.418100
498.000000	11.548933
499.000000	11.680833
500.000000	11.830500
501.000000	11.981533
502.000000	12.137900
503.000000	12.288300
504.000000	12.432733
505.000000	12.585700
506.000000	12.761800
507.000000	12.927933
508.000000	13.110200
509.000000	13.284033
510.000000	13.471533
511.000000	13.662667
512.000000	13.860667
513.000000	14.062300
514.000000	14.272933
515.000000	14.470933
516.000000	14.685367
517.000000	14.906833
518.000000	15.124933
519.000000	15.337667
520.000000	15.567433
521.000000	15.786967
522.000000	16.009933
523.000000	16.236067
524.000000	16.462367
525.000000	16.686300
526.000000	16.917300
527.000000	17.132333
528.000000	17.355067
529.000000	17.579867
530.000000	17.800967
531.000000	18.016033
532.000000	18.227667
533.000000	18.442567
534.000000	18.648267
535.000000	18.867500
536.000000	19.075600
537.000000	19.267167
538.000000	19.458900
539.000000	19.647233
540.000000	19.838567
541.000000	20.025200
542.000000	20.215700
543.000000	20.399833
544.000000	20.566433
545.000000	20.741700
546.000000	20.905400
547.000000	21.058033
548.000000	21.210500
549.000000	21.344400
550.000000	21.482533
551.000000	21.627633
552.000000	21.762100
553.000000	21.887133
554.000000	22.015733
555.000000	22.113800
556.000000	22.239600
557.000000	22.333833
558.000000	22.425300
559.000000	22.504667
560.000000	22.576400
561.000000	22.650967
562.000000	22.726033
563.000000	22.801867
564.000000	22.884367
565.000000	22.949400
566.000000	23.005000
567.000000	23.056900
568.000000	23.100000
569.000000	23.136600
570.000000	23.174567
571.000000	23.210400
572.000000	23.248767
573.000000	23.273700
574.000000	23.294867
575.000000	23.315033
576.000000	23.327467
577.000000	23.338633
578.000000	23.344233
579.000000	23.352900
580.000000	23.346700
581.000000	23.341967
582.000000	23.342833
583.000000	23.345933
584.000000	23.330767
585.000000	23.313633
586.000000	23.306100
587.000000	23.290933
588.000000	23.264567
589.000000	23.247233
590.000000	23.229133
591.000000	23.203933
592.000000	23.181967
593.000000	23.153333
594.000000	23.114200
595.000000	23.084733
596.000000	23.060167
597.000000	23.030233
598.000000	22.995333
599.000000	22.964100
600.000000	22.939833
601.000000	22.903367
602.000000	22.867667
603.000000	22.833933
604.000000	22.808533
605.000000	22.773633
606.000000	22.735100
607.000000	22.699600
608.000000	22.671733
609.000000	22.639267
610.000000	22.612267
611.000000	22.592567
612.000000	22.579800
613.000000	22.564233
614.000000	22.541367
615.000000	22.529700
616.000000	22.520333
617.000000	22.506767
618.000000	22.490700
619.000000	22.479400
620.000000	22.486800
621.000000	22.497000
622.000000	22.503833
623.000000	22.510767
624.000000	22.518933
625.000000	22.530767
626.000000	22.549533
627.000000	22.559800
628.000000	22.574733
629.000000	22.604100
630.000000	22.632500
631.000000	22.665167
632.000000	22.695400
633.000000	22.731600
634.000000	22.767333
635.000000	22.804000
636.000000	22.849433
637.000000	22.895167
638.000000	22.938767
639.000000	22.983600
640.000000	23.029600
641.000000	23.088333
642.000000	23.153400
643.000000	23.204967
644.000000	23.256833
645.000000	23.315900
646.000000	23.388033
647.000000	23.452067
648.000000	23.531000
649.000000	23.609900
650.000000	23.678067
651.000000	23.755700
652.000000	23.839033
653.000000	23.928233
654.000000	24.012367
655.000000	24.113000
656.000000	24.211533
657.000000	24.300333
658.000000	24.403667
659.000000	24.513700
660.000000	24.626633
661.000000	24.733000
662.000000	24.839000
663.000000	24.954533
664.000000	25.057033
665.000000	25.162267
666.000000	25.273867
667.000000	25.398133
668.000000	25.523067
669.000000	25.636067
670.000000	25.777033
671.000000	25.931800
672.000000	26.061500
673.000000	26.194600
674.000000	26.347733
675.000000	26.492867
676.000000	26.616167
677.000000	26.768367
678.000000	26.894333
679.000000	27.035867
680.000000	27.176833
681.000000	27.329967
682.000000	27.494933
683.000000	27.666767
684.000000	27.816700
685.000000	27.970933
686.000000	28.147733
687.000000	28.319600
688.000000	28.483567
689.000000	28.659333
690.000000	28.849467
691.000000	29.012133
692.000000	29.186833
693.000000	29.392867
694.000000	29.572400
695.000000	29.759700
696.000000	29.941733
697.000000	30.152033
698.000000	30.362167
699.000000	30.539400
700.000000	30.738967
701.000000	30.934600
702.000000	31.126500
703.000000	31.345067
704.000000	31.553233
705.000000	31.766500
706.000000	31.973000
707.000000	32.171767
708.000000	32.370300
709.000000	32.599633
710.000000	32.851200
711.000000	33.059533
712.000000	33.284167
713.000000	33.457633
714.000000	33.675600
715.000000	33.903167
716.000000	34.121867
717.000000	34.329167
718.000000	34.529033
719.000000	34.761900
720.000000	34.985300
721.000000	35.179533
722.000000	35.380633
723.000000	35.604167
724.000000	35.821133
725.000000	36.036633
726.000000	36.240333
727.000000	36.438100
728.000000	36.631800
729.000000	36.804133
730.000000	37.049933
731.000000	37.246467
732.000000	37.398867
733.000000	37.576067
734.000000	37.787767
735.000000	37.975700
736.000000	38.116167
737.000000	38.317267
738.000000	38.478733
739.000000	38.705367
740.000000	38.805367
741.000000	38.981733
742.000000	39.161700
743.000000	39.295200
744.000000	39.475900
745.000000	39.624067
746.000000	39.718633
747.000000	39.852300
748.000000	40.050333
749.000000	40.141567
750.000000	40.308767
751.000000	40.419000
752.000000	40.544967
753.000000	40.635100
754.000000	40.771067
755.000000	40.889200
756.000000	40.986033
757.000000	41.082733
758.000000	41.186333
759.000000	41.269333
760.000000	41.413167
761.000000	41.503767
762.000000	41.613433
763.000000	41.673833
764.000000	41.744500
765.000000	41.893300
766.000000	41.953133
767.000000	42.026000
768.000000	42.040067
769.000000	42.137900
770.000000	42.172367
771.000000	42.195500
772.000000	42.344067
773.000000	42.368300
774.000000	42.419167
775.000000	42.541600
776.000000	42.559133
777.000000	42.650433
778.000000	42.761733
779.000000	42.801667
780.000000	42.867333
781.000000	42.903833
782.000000	42.934533
783.000000	42.964333
784.000000	43.054067
785.000000	43.134300
786.000000	43.176467
787.000000	43.193733
788.000000	43.231067
789.000000	43.261433
790.000000	43.229767
791.000000	43.329267
792.000000	43.411833
793.000000	43.433633
794.000000	43.454733
795.000000	43.481800
796.000000	43.573867
797.000000	43.613567
798.000000	43.668300
799.000000	43.637100
800.000000	43.768200
801.000000	43.802500
802.000000	43.801600
803.000000	43.881900
804.000000	43.889400
805.000000	43.938633
806.000000	43.934067
807.000000	44.030033
808.000000	43.941600
809.000000	44.082700
810.000000	44.039233
811.000000	44.175133
812.000000	44.236600
813.000000	44.196000
814.000000	44.251233
815.000000	44.254533
816.000000	44.307200
817.000000	44.396833
818.000000	44.468200
819.000000	44.431233
820.000000	44.524533
821.000000	44.417567
822.000000	44.603333
823.000000	44.646467
824.000000	44.679233
825.000000	44.718100
826.000000	44.644667
827.000000	44.741100
828.000000	44.731133
829.000000	44.761233
830.000000	44.744967
831.000000	44.855233
832.000000	44.732633
833.000000	44.841533
834.000000	44.824067
835.000000	44.858900
836.000000	44.863967
837.000000	44.901967
838.000000	44.944567
839.000000	44.783567
840.000000	44.966367
841.000000	45.027133
842.000000	44.946667
843.000000	44.849600
844.000000	44.923133
845.000000	44.918033
846.000000	44.952300
847.000000	44.909500
848.000000	44.942433
849.000000	44.680967
850.000000	44.708033
851.000000	44.653667
852.000000	44.736433
853.000000	44.784633
854.000000	44.662200
855.000000	44.642067
856.000000	44.514967
857.000000	43.844433
858.000000	44.333822
859.000000	44.334594
860.000000	44.340728
861.000000	44.331666
862.000000	44.338976
863.000000	44.346452
864.000000	44.354716
865.000000	44.355839
866.000000	44.374536
867.000000	44.376101
868.000000	44.376900
869.000000	44.368359
870.000000	44.371059
871.000000	44.401448
872.000000	44.492957
873.000000	44.649510
874.000000	44.861895
875.000000	45.050919
876.000000	45.232515
877.000000	45.422895
878.000000	45.583291
879.000000	45.692872
880.000000	45.812477
881.000000	45.922450
882.000000	46.040196
883.000000	46.139996
884.000000	46.239535
885.000000	46.338323
886.000000	46.441897
887.000000	46.520733
888.000000	46.604862
889.000000	46.679255
890.000000	46.751585
891.000000	46.831041
892.000000	46.887725
893.000000	46.921686
894.000000	46.979382
895.000000	47.041511
896.000000	47.061894
897.000000	47.093633
898.000000	47.130791
899.000000	47.153377
900.000000	47.181071
901.000000	47.218129
902.000000	47.244568
903.000000	47.277940
904.000000	47.307203
905.000000	47.342750
906.000000	47.399609
907.000000	47.463331
908.000000	47.516326
909.000000	47.576946
910.000000	47.658261
911.000000	47.740695
912.000000	47.820865
913.000000	47.909183
914.000000	48.003887
915.000000	48.102025
916.000000	48.189331
917.000000	48.261488
918.000000	48.316816
919.000000	48.395451
920.000000	48.472280
921.000000	48.539107
922.000000	48.603242
923.000000	48.670471
924.000000	48.732732
925.000000	48.788342
926.000000	48.848835
927.000000	48.908578
928.000000	48.974051
929.000000	49.039995
930.000000	49.090282
931.000000	49.137090
932.000000	49.189348
933.000000	49.251083
934.000000	49.297066
935.000000	49.354963
936.000000	49.404485
937.000000	49.452202
938.000000	49.513734
939.000000	49.565371
940.000000	49.625409
941.000000	49.686264
942.000000	49.737028
943.000000	49.781594
944.000000	49.827147
945.000000	49.876961
946.000000	49.925010
947.000000	49.965141
948.000000	50.010739
949.000000	50.050173
950.000000	50.082721
951.000000	50.120087
952.000000	50.158801
953.000000	50.197225
954.000000	50.226055
955.000000	50.243370
956.000000	50.272492
957.000000	50.296473
958.000000	50.306390
959.000000	50.322559
960.000000	50.335208
961.000000	50.346614
962.000000	50.358092
963.000000	50.372544
964.000000	50.391117
965.000000	50.416126
966.000000	50.442633
967.000000	50.465002
968.000000	50.493220
969.000000	50.529041
970.000000	50.553093
971.000000	50.585866
972.000000	50.613506
973.000000	50.638400
974.000000	50.659540
975.000000	50.687743
976.000000	50.719863
977.000000	50.744531
978.000000	50.758916
979.000000	50.790131
980.000000	50.818907
981.000000	50.840059
982.000000	50.863504
983.000000	50.881014
984.000000	50.908275
985.000000	50.930365
986.000000	50.951057
987.000000	50.962127
988.000000	50.995844
989.000000	51.022133
990.000000	51.045082
991.000000	51.088967
992.000000	51.123083
993.000000	51.148088
994.000000	51.191461
995.000000	51.229830
996.000000	51.252890
997.000000	51.297975
998.000000	51.334757
999.000000	51.374800
1000.000000	51.419454
1001.000000	51.452395
1002.000000	51.499338
1003.000000	51.530957
1004.000000	51.567927
1005.000000	51.615616
1006.000000	51.640959
1007.000000	51.681461
1008.000000	51.711445
1009.000000	51.764584
1010.000000	51.802193
1011.000000	51.860006
1012.000000	51.922407
1013.000000	51.975743
1014.000000	52.062287
1015.000000	52.164529
1016.000000	52.253047
1017.000000	52.357225
1018.000000	52.456457
1019.000000	52.550686
1020.000000	52.665552
1021.000000	52.787437
1022.000000	52.904736
1023.000000	53.026039
1024.000000	53.131802
1025.000000	53.244607
1026.000000	53.365507
1027.000000	53.480086
1028.000000	53.573973
1029.000000	53.664743
1030.000000	53.773552
1031.000000	53.874075
1032.000000	53.972971
1033.000000	54.074438
1034.000000	54.179270
1035.000000	54.256893
1036.000000	54.360030
1037.000000	54.428724
1038.000000	54.519571
1039.000000	54.592968
1040.000000	54.677055
1041.000000	54.753968
1042.000000	54.839366
1043.000000	54.909437
1044.000000	54.986377
1045.000000	55.072654
1046.000000	55.153766
1047.000000	55.233057
1048.000000	55.307486
1049.000000	55.392989
1050.000000	55.475414
1051.000000	55.550727
1052.000000	55.656572
1053.000000	55.745163
1054.000000	55.849958
1055.000000	55.937828
1056.000000	56.032147
1057.000000	56.132536
1058.000000	56.238849
1059.000000	56.320237
1060.000000	56.412001
1061.000000	56.508580
1062.000000	56.598113
1063.000000	56.687012
1064.000000	56.771473
1065.000000	56.848065
1066.000000	56.926695
1067.000000	57.016114
1068.000000	57.091754
1069.000000	57.176350
1070.000000	57.265966
1071.000000	57.342441
1072.000000	57.412417
1073.000000	57.494685
1074.000000	57.583426
1075.000000	57.636787
1076.000000	57.724523
1077.000000	57.795059
1078.000000	57.881580
1079.000000	57.943490
1080.000000	58.020978
1081.000000	58.080057
1082.000000	58.182241
1083.000000	58.251274
1084.000000	58.335592
1085.000000	58.409956
1086.000000	58.472850
1087.000000	58.558177
1088.000000	58.611776
1089.000000	58.687220
1090.000000	58.743587
1091.000000	58.811331
1092.000000	58.869636
1093.000000	58.920869
1094.000000	58.982400
1095.000000	59.032030
1096.000000	59.076458
1097.000000	59.119654
1098.000000	59.155629
1099.000000	59.179265
1100.000000	59.213419
1101.000000	59.239997
1102.000000	59.276027
1103.000000	59.304767
1104.000000	59.326036
1105.000000	59.337522
1106.000000	59.363739
1107.000000	59.375749
1108.000000	59.400123
1109.000000	59.425083
1110.000000	59.440568
1111.000000	59.454860
1112.000000	59.473210
1113.000000	59.482413
1114.000000	59.487267
1115.000000	59.498759
1116.000000	59.509464
1117.000000	59.502799
1118.000000	59.476588
1119.000000	59.443522
1120.000000	59.405105
1121.000000	59.340912
1122.000000	59.265803
1123.000000	59.147988
1124.000000	59.039693
1125.000000	58.919385
1126.000000	58.750497
1127.000000	58.544648
1128.000000	58.292111
1129.000000	57.978826
1130.000000	57.631708
1131.000000	57.212129
1132.000000	56.771745
1133.000000	56.307080
1134.000000	55.798984
1135.000000	55.220554
1136.000000	54.667648
1137.000000	54.141299
1138.000000	53.630367
1139.000000	53.133363
1140.000000	52.643124
1141.000000	52.178544
1142.000000	51.730763
1143.000000	51.330026
1144.000000	50.981851
1145.000000	50.687676
1146.000000	50.489317
1147.000000	50.361054
1148.000000	50.278947
1149.000000	50.221727
1150.000000	50.155909
1151.000000	50.068487
1152.000000	49.955440
1153.000000	49.779943
1154.000000	49.545676
1155.000000	49.248276
1156.000000	48.896169
1157.000000	48.483562
1158.000000	48.046715
1159.000000	47.586742
1160.000000	47.128284
1161.000000	46.658970
1162.000000	46.148430
1163.000000	45.659022
1164.000000	45.193933
1165.000000	44.713580
1166.000000	44.241085
1167.000000	43.777846
1168.000000	43.331143
1169.000000	42.893025
1170.000000	42.456196
