PE UV       SUBTECH     SPECTRUM    ASCII       PEDS        4.00        
   -1
CICIMAUCR0014-3.Sample.ASC
24/04/12
11:57:10.00
24/04/12
11:57:10.00
Vinicio Soto Monge
C. cupreomarginata
250,000000
1
Lambda 1050
1050L1511233
PerkinElmer UV WinLab 6.3.2.0749 / 2.02.05 Lambda 900 UV/VIS/NIR, Aug  7 2015 09:38:08

0
0
3350/servo 860,8/2
0
0
UV/VIS
1
1
1
DoubleDePol,CommonBeamDepol,RBeamAtt,SBeamAtt,60mm sphere, WB InGaAs Detector
0
0
0
0
Program
Program
3350/servo 860,8/2
3350/0,2 860,8/0,2
3350/0,2 860,8/0,2
0
15.00
 
 
 
0
 
860,8
319,2
860,8
Front
100
on
S:100 R:100
0
0
0
0
 
0
 
 
 
0
 
 
0
0
0
0
0
 
 
 
 
0
0


0
0
#HDR
-1
-1
#GR
nm
%R
1.0
0.0
2500,000000
-1,000000
2251
8
47,728700
2,957000
#DATA
2482.000000	11.163013
2481.000000	11.135953
2480.000000	11.200266
2479.000000	11.201471
2478.000000	11.198506
2477.000000	11.236501
2476.000000	11.239744
2475.000000	11.248919
2474.000000	11.267453
2473.000000	11.313232
2472.000000	11.354748
2471.000000	11.386998
2470.000000	11.453721
2469.000000	11.471513
2468.000000	11.504782
2467.000000	11.560755
2466.000000	11.625254
2465.000000	11.696332
2464.000000	11.742019
2463.000000	11.803367
2462.000000	11.862398
2461.000000	11.967209
2460.000000	12.050890
2459.000000	12.147546
2458.000000	12.249113
2457.000000	12.321581
2456.000000	12.427411
2455.000000	12.519062
2454.000000	12.631935
2453.000000	12.751758
2452.000000	12.832011
2451.000000	12.927925
2450.000000	13.014850
2449.000000	13.111413
2448.000000	13.217243
2447.000000	13.297774
2446.000000	13.408145
2445.000000	13.504429
2444.000000	13.590150
2443.000000	13.690049
2442.000000	13.782256
2441.000000	13.872610
2440.000000	13.948970
2439.000000	14.031540
2438.000000	14.136721
2437.000000	14.213174
2436.000000	14.294539
2435.000000	14.371734
2434.000000	14.459771
2433.000000	14.538263
2432.000000	14.621852
2431.000000	14.691540
2430.000000	14.761507
2429.000000	14.803208
2428.000000	14.785045
2427.000000	14.729628
2426.000000	14.698861
2425.000000	14.690614
2424.000000	14.681254
2423.000000	14.704699
2422.000000	14.754186
2421.000000	14.801911
2420.000000	14.847968
2419.000000	14.846486
2418.000000	14.840184
2417.000000	14.875677
2416.000000	14.891153
2415.000000	14.905517
2414.000000	14.921363
2413.000000	14.923217
2412.000000	14.936376
2411.000000	14.925997
2410.000000	14.967235
2409.000000	14.977707
2408.000000	14.977337
2407.000000	15.000133
2406.000000	15.016536
2405.000000	14.990588
2404.000000	14.969645
2403.000000	15.001987
2402.000000	15.023579
2401.000000	15.026915
2400.000000	14.995593
2399.000000	14.976410
2398.000000	15.002265
2397.000000	15.021726
2396.000000	15.037572
2395.000000	15.048322
2394.000000	15.033124
2393.000000	14.998373
2392.000000	14.976410
2391.000000	14.973815
2390.000000	14.978912
2389.000000	14.977893
2388.000000	14.980209
2387.000000	14.969923
2386.000000	14.963992
2385.000000	14.944438
2384.000000	14.910706
2383.000000	14.870024
2382.000000	14.815904
2381.000000	14.788566
2380.000000	14.783006
2379.000000	14.772164
2378.000000	14.715635
2377.000000	14.668651
2376.000000	14.643815
2375.000000	14.601464
2374.000000	14.560597
2373.000000	14.531127
2372.000000	14.497581
2371.000000	14.432618
2370.000000	14.373402
2369.000000	14.347083
2368.000000	14.281658
2367.000000	14.212062
2366.000000	14.168785
2365.000000	14.114944
2364.000000	14.040529
2363.000000	13.975289
2362.000000	13.934792
2361.000000	13.881506
2360.000000	13.808018
2359.000000	13.745744
2358.000000	13.715255
2357.000000	13.686990
2356.000000	13.625086
2355.000000	13.573191
2354.000000	13.576898
2353.000000	13.551135
2352.000000	13.508507
2351.000000	13.523056
2350.000000	13.543629
2349.000000	13.528616
2348.000000	13.532323
2347.000000	13.522963
2346.000000	13.519071
2345.000000	13.532231
2344.000000	13.546131
2343.000000	13.546038
2342.000000	13.530748
2341.000000	13.490158
2340.000000	13.465600
2339.000000	13.475516
2338.000000	13.425289
2337.000000	13.388591
2336.000000	13.368760
2335.000000	13.322053
2334.000000	13.277201
2333.000000	13.259686
2332.000000	13.220116
2331.000000	13.133376
2330.000000	13.083056
2329.000000	13.054513
2328.000000	13.025229
2327.000000	12.965828
2326.000000	12.896973
2325.000000	12.838869
2324.000000	12.796333
2323.000000	12.747774
2322.000000	12.660570
2321.000000	12.601076
2320.000000	12.551682
2319.000000	12.464943
2318.000000	12.391640
2317.000000	12.334555
2316.000000	12.234193
2315.000000	12.163856
2314.000000	12.100562
2313.000000	12.064513
2312.000000	11.990469
2311.000000	11.954606
2310.000000	11.940334
2309.000000	11.926341
2308.000000	11.901691
2307.000000	11.869905
2306.000000	11.872499
2305.000000	11.911977
2304.000000	11.983797
2303.000000	12.053485
2302.000000	12.081101
2301.000000	12.127900
2300.000000	12.211489
2299.000000	12.278489
2298.000000	12.314538
2297.000000	12.363283
2296.000000	12.430562
2295.000000	12.456602
2294.000000	12.490149
2293.000000	12.518136
2292.000000	12.552609
2291.000000	12.573275
2290.000000	12.543527
2289.000000	12.529163
2288.000000	12.518506
2287.000000	12.470966
2286.000000	12.439273
2285.000000	12.356518
2284.000000	12.321674
2283.000000	12.282660
2282.000000	12.235861
2281.000000	12.195086
2280.000000	12.130494
2279.000000	12.102137
2278.000000	12.052280
2277.000000	12.029205
2276.000000	11.965355
2275.000000	11.913552
2274.000000	11.900486
2273.000000	11.906602
2272.000000	11.885751
2271.000000	11.910494
2270.000000	11.948582
2269.000000	12.017992
2268.000000	12.084252
2267.000000	12.189433
2266.000000	12.300082
2265.000000	12.418144
2264.000000	12.532222
2263.000000	12.685128
2262.000000	12.852955
2261.000000	13.045432
2260.000000	13.221506
2259.000000	13.391093
2258.000000	13.584404
2257.000000	13.793376
2256.000000	14.006704
2255.000000	14.202795
2254.000000	14.363579
2253.000000	14.552812
2252.000000	14.724346
2251.000000	14.889670
2250.000000	15.031734
2249.000000	15.178061
2248.000000	15.321608
2247.000000	15.455980
2246.000000	15.559308
2245.000000	15.684692
2244.000000	15.772914
2243.000000	15.890606
2242.000000	15.984388
2241.000000	16.029704
2240.000000	16.109586
2239.000000	16.205501
2238.000000	16.256655
2237.000000	16.320875
2236.000000	16.358036
2235.000000	16.402796
2234.000000	16.438104
2233.000000	16.478230
2232.000000	16.506495
2231.000000	16.538373
2230.000000	16.515855
2229.000000	16.514742
2228.000000	16.534574
2227.000000	16.535130
2226.000000	16.519747
2225.000000	16.523824
2224.000000	16.514557
2223.000000	16.488980
2222.000000	16.435138
2221.000000	16.414936
2220.000000	16.370454
2219.000000	16.355627
2218.000000	16.304751
2217.000000	16.301971
2216.000000	16.270648
2215.000000	16.210227
2214.000000	16.199848
2213.000000	16.154902
2212.000000	16.131827
2211.000000	16.109030
2210.000000	16.065568
2209.000000	16.033040
2208.000000	16.008761
2207.000000	15.976882
2206.000000	15.963815
2205.000000	15.879856
2204.000000	15.849831
2203.000000	15.827219
2202.000000	15.821010
2201.000000	15.792467
2200.000000	15.769300
2199.000000	15.761145
2198.000000	15.724169
2197.000000	15.662265
2196.000000	15.644843
2195.000000	15.642434
2194.000000	15.601751
2193.000000	15.600639
2192.000000	15.601566
2191.000000	15.571726
2190.000000	15.543739
2189.000000	15.532341
2188.000000	15.512509
2187.000000	15.511675
2186.000000	15.474329
2185.000000	15.477017
2184.000000	15.439948
2183.000000	15.430033
2182.000000	15.447733
2181.000000	15.429477
2180.000000	15.386755
2179.000000	15.373596
2178.000000	15.381381
2177.000000	15.408718
2176.000000	15.394632
2175.000000	15.399915
2174.000000	15.372484
2173.000000	15.354784
2172.000000	15.363958
2171.000000	15.415391
2170.000000	15.413074
2169.000000	15.404641
2168.000000	15.422341
2167.000000	15.433647
2166.000000	15.481650
2165.000000	15.485913
2164.000000	15.489527
2163.000000	15.506301
2162.000000	15.543647
2161.000000	15.577194
2160.000000	15.601659
2159.000000	15.633630
2158.000000	15.677834
2157.000000	15.718331
2156.000000	15.727413
2155.000000	15.749839
2154.000000	15.794043
2153.000000	15.819527
2152.000000	15.840193
2151.000000	15.880968
2150.000000	15.943984
2149.000000	15.974102
2148.000000	16.011263
2147.000000	16.041103
2146.000000	16.052687
2145.000000	16.078264
2144.000000	16.110976
2143.000000	16.118761
2142.000000	16.142484
2141.000000	16.182055
2140.000000	16.185669
2139.000000	16.182611
2138.000000	16.197902
2137.000000	16.209671
2136.000000	16.229873
2135.000000	16.247388
2134.000000	16.245998
2133.000000	16.219957
2132.000000	16.206891
2131.000000	16.211802
2130.000000	16.221533
2129.000000	16.205037
2128.000000	16.172139
2127.000000	16.145357
2126.000000	16.112181
2125.000000	16.107177
2124.000000	16.109401
2123.000000	16.071499
2122.000000	16.022105
2121.000000	15.999586
2120.000000	15.970858
2119.000000	15.940277
2118.000000	15.899965
2117.000000	15.866141
2116.000000	15.832316
2115.000000	15.786166
2114.000000	15.754843
2113.000000	15.723521
2112.000000	15.672088
2111.000000	15.627792
2110.000000	15.605273
2109.000000	15.588963
2108.000000	15.550782
2107.000000	15.489434
2106.000000	15.445879
2105.000000	15.430774
2104.000000	15.412240
2103.000000	15.369797
2102.000000	15.344127
2101.000000	15.329022
2100.000000	15.295475
2099.000000	15.265357
2098.000000	15.253773
2097.000000	15.232088
2096.000000	15.213554
2095.000000	15.191406
2094.000000	15.173428
2093.000000	15.173613
2092.000000	15.174076
2091.000000	15.174169
2090.000000	15.156191
2089.000000	15.140808
2088.000000	15.125332
2087.000000	15.107817
2086.000000	15.090580
2085.000000	15.078718
2084.000000	15.051844
2083.000000	15.013849
2082.000000	14.993276
2081.000000	14.982155
2080.000000	14.958154
2079.000000	14.907092
2078.000000	14.874472
2077.000000	14.862518
2076.000000	14.842686
2075.000000	14.822299
2074.000000	14.787084
2073.000000	14.733520
2072.000000	14.702197
2071.000000	14.688482
2070.000000	14.661052
2069.000000	14.638625
2068.000000	14.620091
2067.000000	14.557446
2066.000000	14.515188
2065.000000	14.494615
2064.000000	14.482939
2063.000000	14.478027
2062.000000	14.430765
2061.000000	14.410192
2060.000000	14.392863
2059.000000	14.380167
2058.000000	14.404169
2057.000000	14.422610
2056.000000	14.422981
2055.000000	14.448002
2054.000000	14.485348
2053.000000	14.512130
2052.000000	14.565508
2051.000000	14.643166
2050.000000	14.694969
2049.000000	14.763916
2048.000000	14.871599
2047.000000	14.959451
2046.000000	15.043781
2045.000000	15.159712
2044.000000	15.255997
2043.000000	15.368963
2042.000000	15.484060
2041.000000	15.573765
2040.000000	15.667547
2039.000000	15.771524
2038.000000	15.865863
2037.000000	15.963259
2036.000000	16.057691
2035.000000	16.146840
2034.000000	16.241549
2033.000000	16.311701
2032.000000	16.376571
2031.000000	16.432173
2030.000000	16.487868
2029.000000	16.584338
2028.000000	16.615661
2027.000000	16.695450
2026.000000	16.733909
2025.000000	16.769587
2024.000000	16.859014
2023.000000	16.887464
2022.000000	16.895804
2021.000000	16.948904
2020.000000	16.992738
2019.000000	17.058348
2018.000000	17.065206
2017.000000	17.070303
2016.000000	17.077531
2015.000000	17.132763
2014.000000	17.123867
2013.000000	17.137304
2012.000000	17.160657
2011.000000	17.142586
2010.000000	17.109225
2009.000000	17.126832
2008.000000	17.122477
2007.000000	17.086520
2006.000000	17.080033
2005.000000	17.071137
2004.000000	17.019241
2003.000000	16.995054
2002.000000	16.974389
2001.000000	16.936857
2000.000000	16.875787
1999.000000	16.847986
1998.000000	16.794700
1997.000000	16.743732
1996.000000	16.703698
1995.000000	16.644389
1994.000000	16.573959
1993.000000	16.470261
1992.000000	16.424389
1991.000000	16.386486
1990.000000	16.326250
1989.000000	16.268609
1988.000000	16.189839
1987.000000	16.085677
1986.000000	16.028963
1985.000000	15.962240
1984.000000	15.890328
1983.000000	15.810260
1982.000000	15.743167
1981.000000	15.668845
1980.000000	15.574784
1979.000000	15.528449
1978.000000	15.447084
1977.000000	15.343015
1976.000000	15.270917
1975.000000	15.208642
1974.000000	15.127556
1973.000000	15.049712
1972.000000	15.002358
1971.000000	14.944438
1970.000000	14.878828
1969.000000	14.831102
1968.000000	14.706090
1967.000000	14.665778
1966.000000	14.604893
1965.000000	14.541599
1964.000000	14.491279
1963.000000	14.423815
1962.000000	14.363208
1961.000000	14.273596
1960.000000	14.189636
1959.000000	14.142652
1958.000000	14.071852
1957.000000	14.006612
1956.000000	13.980478
1955.000000	13.905601
1954.000000	13.819973
1953.000000	13.764834
1952.000000	13.704783
1951.000000	13.652888
1950.000000	13.603865
1949.000000	13.547799
1948.000000	13.488305
1947.000000	13.439838
1946.000000	13.400360
1945.000000	13.366072
1944.000000	13.313991
1943.000000	13.309543
1942.000000	13.286283
1941.000000	13.260335
1940.000000	13.285912
1939.000000	13.273031
1938.000000	13.316586
1937.000000	13.309636
1936.000000	13.293233
1935.000000	13.313713
1934.000000	13.311767
1933.000000	13.347816
1932.000000	13.387294
1931.000000	13.447715
1930.000000	13.531860
1929.000000	13.620916
1928.000000	13.707378
1927.000000	13.779568
1926.000000	13.877614
1925.000000	13.963983
1924.000000	14.011616
1923.000000	14.125971
1922.000000	14.336704
1921.000000	14.506014
1920.000000	14.649560
1919.000000	14.793385
1918.000000	14.918491
1917.000000	14.979190
1916.000000	15.091043
1915.000000	15.284169
1914.000000	15.493327
1913.000000	15.787278
1912.000000	16.081415
1911.000000	16.255635
1910.000000	16.382501
1909.000000	16.448483
1908.000000	16.625762
1907.000000	16.921659
1906.000000	17.274456
1905.000000	17.704634
1904.000000	18.030649
1903.000000	18.231003
1902.000000	18.466201
1901.000000	18.724381
1900.000000	19.022503
1899.000000	19.378914
1898.000000	19.719201
1897.000000	19.971543
1896.000000	20.148266
1895.000000	20.296724
1894.000000	20.541745
1893.000000	20.851358
1892.000000	21.246505
1891.000000	21.665469
1890.000000	21.996860
1889.000000	22.265512
1888.000000	22.517854
1887.000000	22.711258
1886.000000	23.008267
1885.000000	23.360230
1884.000000	23.728503
1883.000000	24.124392
1882.000000	24.465235
1881.000000	24.716743
1880.000000	24.928495
1879.000000	25.154982
1878.000000	25.438091
1877.000000	25.745943
1876.000000	26.046474
1875.000000	26.355438
1874.000000	26.617696
1873.000000	26.914891
1872.000000	27.252490
1871.000000	27.435514
1870.000000	27.650417
1869.000000	27.811757
1868.000000	27.822507
1867.000000	27.761808
1866.000000	27.690637
1865.000000	27.571277
1864.000000	27.484630
1863.000000	27.427359
1862.000000	27.411698
1861.000000	27.499550
1860.000000	27.612701
1859.000000	27.760788
1858.000000	27.852625
1857.000000	27.774781
1856.000000	27.689895
1855.000000	27.697958
1854.000000	27.707039
1853.000000	27.700552
1852.000000	27.667284
1851.000000	27.541993
1850.000000	27.433198
1849.000000	27.450805
1848.000000	27.591664
1847.000000	27.778303
1846.000000	27.776728
1845.000000	27.532355
1844.000000	27.256104
1843.000000	27.105514
1842.000000	27.128033
1841.000000	27.277604
1840.000000	27.338117
1839.000000	27.328943
1838.000000	27.271117
1837.000000	27.236828
1836.000000	27.247115
1835.000000	27.192995
1834.000000	27.031934
1833.000000	26.814065
1832.000000	26.673206
1831.000000	26.637249
1830.000000	26.643736
1829.000000	26.600088
1828.000000	26.544208
1827.000000	26.514646
1826.000000	26.468589
1825.000000	26.379996
1824.000000	26.252574
1823.000000	26.116255
1822.000000	26.111065
1821.000000	26.235615
1820.000000	26.345430
1819.000000	26.331344
1818.000000	26.242009
1817.000000	26.155362
1816.000000	26.088454
1815.000000	26.065472
1814.000000	26.056482
1813.000000	26.025530
1812.000000	26.017653
1811.000000	26.009128
1810.000000	25.978268
1809.000000	25.909507
1808.000000	25.847881
1807.000000	25.827493
1806.000000	25.818597
1805.000000	25.793020
1804.000000	25.738066
1803.000000	25.702944
1802.000000	25.683761
1801.000000	25.667544
1800.000000	25.642523
1799.000000	25.592573
1798.000000	25.531689
1797.000000	25.499069
1796.000000	25.462464
1795.000000	25.425488
1794.000000	25.387215
1793.000000	25.359692
1792.000000	25.319566
1791.000000	25.299456
1790.000000	25.269431
1789.000000	25.234587
1788.000000	25.184637
1787.000000	25.142750
1786.000000	25.107628
1785.000000	25.091874
1784.000000	25.072506
1783.000000	25.031174
1782.000000	24.983634
1781.000000	24.938133
1780.000000	24.891427
1779.000000	24.842868
1778.000000	24.794123
1777.000000	24.740837
1776.000000	24.686810
1775.000000	24.605446
1774.000000	24.529548
1773.000000	24.435488
1772.000000	24.347636
1771.000000	24.274704
1770.000000	24.198992
1769.000000	24.105395
1768.000000	24.029590
1767.000000	23.961570
1766.000000	23.897349
1765.000000	23.872421
1764.000000	23.852126
1763.000000	23.836835
1762.000000	23.826363
1761.000000	23.848512
1760.000000	23.862690
1759.000000	23.880854
1758.000000	23.914215
1757.000000	23.953230
1756.000000	23.976861
1755.000000	23.985016
1754.000000	23.983255
1753.000000	23.970003
1752.000000	23.948596
1751.000000	23.912918
1750.000000	23.896422
1749.000000	23.838689
1748.000000	23.793651
1747.000000	23.719700
1746.000000	23.648714
1745.000000	23.543440
1744.000000	23.446785
1743.000000	23.325757
1742.000000	23.177391
1741.000000	23.039219
1740.000000	22.890761
1739.000000	22.750828
1738.000000	22.611359
1737.000000	22.512664
1736.000000	22.411283
1735.000000	22.339741
1734.000000	22.304155
1733.000000	22.318612
1732.000000	22.331493
1731.000000	22.353178
1730.000000	22.409337
1729.000000	22.455116
1728.000000	22.490609
1727.000000	22.509421
1726.000000	22.528418
1725.000000	22.581704
1724.000000	22.610988
1723.000000	22.627576
1722.000000	22.658435
1721.000000	22.671317
1720.000000	22.706624
1719.000000	22.774088
1718.000000	22.848596
1717.000000	22.929497
1716.000000	23.009935
1715.000000	23.062572
1714.000000	23.156911
1713.000000	23.220390
1712.000000	23.275066
1711.000000	23.330205
1710.000000	23.352260
1709.000000	23.362918
1708.000000	23.368107
1707.000000	23.370146
1706.000000	23.359118
1705.000000	23.364215
1704.000000	23.306666
1703.000000	23.253196
1702.000000	23.206304
1701.000000	23.113263
1700.000000	23.020963
1699.000000	22.909017
1698.000000	22.824316
1697.000000	22.765655
1696.000000	22.709034
1695.000000	22.710053
1694.000000	22.723861
1693.000000	22.755091
1692.000000	22.852580
1691.000000	22.924771
1690.000000	22.975184
1689.000000	23.037273
1688.000000	23.089817
1687.000000	23.116228
1686.000000	23.148385
1685.000000	23.226877
1684.000000	23.334468
1683.000000	23.487189
1682.000000	23.736473
1681.000000	24.021991
1680.000000	24.378958
1679.000000	24.714148
1678.000000	25.027468
1677.000000	25.351352
1676.000000	25.603879
1675.000000	25.822304
1674.000000	26.049625
1673.000000	26.228108
1672.000000	26.412152
1671.000000	26.568673
1670.000000	26.706938
1669.000000	26.829541
1668.000000	26.957426
1667.000000	27.044537
1666.000000	27.129423
1665.000000	27.217553
1664.000000	27.325051
1663.000000	27.375927
1662.000000	27.414571
1661.000000	27.484537
1660.000000	27.554040
1659.000000	27.596298
1658.000000	27.616778
1657.000000	27.653198
1656.000000	27.667098
1655.000000	27.678404
1654.000000	27.688598
1653.000000	27.666913
1652.000000	27.668952
1651.000000	27.661816
1650.000000	27.653661
1649.000000	27.619744
1648.000000	27.587679
1647.000000	27.555523
1646.000000	27.532448
1645.000000	27.518176
1644.000000	27.473046
1643.000000	27.440240
1642.000000	27.412995
1641.000000	27.379912
1640.000000	27.344234
1639.000000	27.310038
1638.000000	27.250266
1637.000000	27.214773
1636.000000	27.175110
1635.000000	27.137856
1634.000000	27.080678
1633.000000	27.001538
1632.000000	26.967064
1631.000000	26.928884
1630.000000	26.855303
1629.000000	26.800720
1628.000000	26.738446
1627.000000	26.685438
1626.000000	26.642624
1625.000000	26.571824
1624.000000	26.513534
1623.000000	26.457932
1622.000000	26.394545
1621.000000	26.323281
1620.000000	26.266845
1619.000000	26.219397
1618.000000	26.161571
1617.000000	26.114680
1616.000000	26.044806
1615.000000	25.992540
1614.000000	25.948892
1613.000000	25.881242
1612.000000	25.823416
1611.000000	25.771891
1610.000000	25.712304
1609.000000	25.636962
1608.000000	25.577653
1607.000000	25.527148
