PE UV       SUBTECH     SPECTRUM    ASCII       PEDS        4.00        
   -1
CICIMAUCR0232-1.ASC
24/06/14
11:54:46.00
24/06/14
11:54:46.00
Vinicio Soto Monge
C. resplendens. Sex M. Ventral 
250,000000
1
Lambda 1050
1050L1511233
PerkinElmer UV WinLab 6.3.2.0749 / 2.02.05 Lambda 900 UV/VIS/NIR, Aug  7 2015 09:38:08

0
0
3350/servo 860,8/2
0
0
UV/VIS
1
1
1
DoubleDePol,CommonBeamDepol,RBeamAtt,SBeamAtt,60mm sphere, WB InGaAs Detector
0
0
0
0
Program
Program
3350/servo 860,8/2
3350/0,2 860,8/0,2
3350/0,2 860,8/0,2
0
15.00
 
 
 
0
 
860,8
319,2
860,8
Front
100
on
S:100 R:100
0
0
0
0
 
0
 
 
 
0
 
 
0
0
0
0
0
 
 
 
 
0
0


0
0
#HDR
-1
-1
#GR
nm
%R
1.0
0.0
2500,000000
-1,000000
2251
8
57,243100
4,709900
#DATA
2482.000000	5.524155
2481.000000	5.539356
2480.000000	5.519425
2479.000000	5.535190
2478.000000	5.589691
2477.000000	5.520664
2476.000000	5.523366
2475.000000	5.522015
2474.000000	5.514471
2473.000000	5.527420
2472.000000	5.487558
2471.000000	5.517173
2470.000000	5.549265
2469.000000	5.529334
2468.000000	5.507039
2467.000000	5.529672
2466.000000	5.498819
2465.000000	5.508840
2464.000000	5.517061
2463.000000	5.534064
2462.000000	5.583610
2461.000000	5.502985
2460.000000	5.550504
2459.000000	5.557373
2458.000000	5.569197
2457.000000	5.588227
2456.000000	5.621107
2455.000000	5.582033
2454.000000	5.618855
2453.000000	5.638786
2452.000000	5.672004
2451.000000	5.684053
2450.000000	5.697115
2449.000000	5.740806
2448.000000	5.750828
2447.000000	5.785172
2446.000000	5.815913
2445.000000	5.837083
2444.000000	5.847780
2443.000000	5.870977
2442.000000	5.905884
2441.000000	5.921649
2440.000000	5.945183
2439.000000	5.957570
2438.000000	5.982568
2437.000000	6.009593
2436.000000	6.014097
2435.000000	6.026484
2434.000000	6.062517
2433.000000	6.101366
2432.000000	6.105757
2431.000000	6.126814
2430.000000	6.145957
2429.000000	6.164086
2428.000000	6.173658
2427.000000	6.195165
2426.000000	6.210254
2425.000000	6.229847
2424.000000	6.229059
2423.000000	6.246738
2422.000000	6.292793
2421.000000	6.286037
2420.000000	6.303266
2419.000000	6.314977
2418.000000	6.312499
2417.000000	6.343353
2416.000000	6.346506
2415.000000	6.357654
2414.000000	6.369590
2413.000000	6.392786
2412.000000	6.401344
2411.000000	6.410803
2410.000000	6.432198
2409.000000	6.432986
2408.000000	6.443909
2407.000000	6.456746
2406.000000	6.469020
2405.000000	6.480393
2404.000000	6.487825
2403.000000	6.518453
2402.000000	6.548518
2401.000000	6.574980
2400.000000	6.586579
2399.000000	6.601105
2398.000000	6.613604
2397.000000	6.629143
2396.000000	6.667316
2395.000000	6.680829
2394.000000	6.676775
2393.000000	6.675536
2392.000000	6.699071
2391.000000	6.719452
2390.000000	6.724519
2389.000000	6.735892
2388.000000	6.751207
2387.000000	6.759427
2386.000000	6.760440
2385.000000	6.754923
2384.000000	6.779808
2383.000000	6.791519
2382.000000	6.793546
2381.000000	6.799627
2380.000000	6.800753
2379.000000	6.805144
2378.000000	6.794897
2377.000000	6.780709
2376.000000	6.780709
2375.000000	6.787127
2374.000000	6.781047
2373.000000	6.770462
2372.000000	6.774065
2371.000000	6.765620
2370.000000	6.757963
2369.000000	6.749968
2368.000000	6.724519
2367.000000	6.709430
2366.000000	6.704588
2365.000000	6.689725
2364.000000	6.668217
2363.000000	6.655268
2362.000000	6.635562
2361.000000	6.614955
2360.000000	6.578021
2359.000000	6.551221
2358.000000	6.561017
2357.000000	6.542888
2356.000000	6.514850
2355.000000	6.512147
2354.000000	6.508994
2353.000000	6.502238
2352.000000	6.488613
2351.000000	6.504377
2350.000000	6.508206
2349.000000	6.508319
2348.000000	6.531402
2347.000000	6.535569
2346.000000	6.554486
2345.000000	6.576444
2344.000000	6.599866
2343.000000	6.620923
2342.000000	6.638152
2341.000000	6.661010
2340.000000	6.678126
2339.000000	6.685446
2338.000000	6.693215
2337.000000	6.704025
2336.000000	6.697832
2335.000000	6.695130
2334.000000	6.700647
2333.000000	6.692877
2332.000000	6.674523
2331.000000	6.662249
2330.000000	6.653804
2329.000000	6.650876
2328.000000	6.637476
2327.000000	6.590970
2326.000000	6.574305
2325.000000	6.566535
2324.000000	6.522282
2323.000000	6.492892
2322.000000	6.475213
2321.000000	6.437152
2320.000000	6.397065
2319.000000	6.361370
2318.000000	6.322634
2317.000000	6.285587
2316.000000	6.256985
2315.000000	6.219600
2314.000000	6.178612
2313.000000	6.141340
2312.000000	6.116342
2311.000000	6.075354
2310.000000	6.059252
2309.000000	6.011845
2308.000000	5.997544
2307.000000	6.004075
2306.000000	6.002386
2305.000000	5.994054
2304.000000	5.998107
2303.000000	6.008354
2302.000000	6.020966
2301.000000	6.038420
2300.000000	6.081322
2299.000000	6.102492
2298.000000	6.111950
2297.000000	6.142804
2296.000000	6.192238
2295.000000	6.231537
2294.000000	6.246400
2293.000000	6.278493
2292.000000	6.302815
2291.000000	6.323422
2290.000000	6.334345
2289.000000	6.345267
2288.000000	6.336259
2287.000000	6.341213
2286.000000	6.347519
2285.000000	6.353262
2284.000000	6.330291
2283.000000	6.321733
2282.000000	6.295271
2281.000000	6.270948
2280.000000	6.255296
2279.000000	6.244261
2278.000000	6.225681
2277.000000	6.209353
2276.000000	6.205637
2275.000000	6.202034
2274.000000	6.185031
2273.000000	6.180076
2272.000000	6.169041
2271.000000	6.178162
2270.000000	6.177149
2269.000000	6.190323
2268.000000	6.188972
2267.000000	6.224780
2266.000000	6.261264
2265.000000	6.285812
2264.000000	6.350785
2263.000000	6.404159
2262.000000	6.482307
2261.000000	6.514962
2260.000000	6.612590
2259.000000	6.689387
2258.000000	6.803680
2257.000000	6.911781
2256.000000	7.001864
2255.000000	7.118635
2254.000000	7.229438
2253.000000	7.348686
2252.000000	7.454197
2251.000000	7.541803
2250.000000	7.670060
2249.000000	7.763409
2248.000000	7.887274
2247.000000	7.969813
2246.000000	8.041542
2245.000000	8.136243
2244.000000	8.207296
2243.000000	8.276548
2242.000000	8.363929
2241.000000	8.426875
2240.000000	8.488019
2239.000000	8.557384
2238.000000	8.610308
2237.000000	8.645778
2236.000000	8.690482
2235.000000	8.749149
2234.000000	8.805789
2233.000000	8.822342
2232.000000	8.844413
2231.000000	8.902292
2230.000000	8.905332
2229.000000	8.950937
2228.000000	8.958481
2227.000000	8.946658
2226.000000	8.975372
2225.000000	8.973232
2224.000000	8.995866
2223.000000	8.994965
2222.000000	8.991812
2221.000000	8.983367
2220.000000	8.993163
2219.000000	8.973683
2218.000000	8.958932
2217.000000	8.973795
2216.000000	8.941365
2215.000000	8.950374
2214.000000	8.950486
2213.000000	8.928641
2212.000000	8.895761
2211.000000	8.884387
2210.000000	8.885063
2209.000000	8.880784
2208.000000	8.864231
2207.000000	8.855335
2206.000000	8.842161
2205.000000	8.851845
2204.000000	8.838107
2203.000000	8.823581
2202.000000	8.827973
2201.000000	8.842724
2200.000000	8.829549
2199.000000	8.822005
2198.000000	8.831125
2197.000000	8.800047
2196.000000	8.798358
2195.000000	8.792615
2194.000000	8.767504
2193.000000	8.785633
2192.000000	8.782593
2191.000000	8.770094
2190.000000	8.786309
2189.000000	8.759396
2188.000000	8.757257
2187.000000	8.761874
2186.000000	8.759509
2185.000000	8.745433
2184.000000	8.746334
2183.000000	8.724489
2182.000000	8.722462
2181.000000	8.713679
2180.000000	8.698365
2179.000000	8.694311
2178.000000	8.684514
2177.000000	8.710976
2176.000000	8.701067
2175.000000	8.685640
2174.000000	8.688456
2173.000000	8.684064
2172.000000	8.668750
2171.000000	8.680573
2170.000000	8.689807
2169.000000	8.678434
2168.000000	8.697914
2167.000000	8.715255
2166.000000	8.717958
2165.000000	8.712553
2164.000000	8.728543
2163.000000	8.725165
2162.000000	8.752302
2161.000000	8.750050
2160.000000	8.763000
2159.000000	8.781579
2158.000000	8.788223
2157.000000	8.798020
2156.000000	8.836531
2155.000000	8.855786
2154.000000	8.853759
2153.000000	8.872114
2152.000000	8.887540
2151.000000	8.913102
2150.000000	8.920083
2149.000000	8.936749
2148.000000	8.960959
2147.000000	8.975034
2146.000000	9.005775
2145.000000	9.000483
2144.000000	9.021202
2143.000000	9.037530
2142.000000	9.051380
2141.000000	9.059262
2140.000000	9.079756
2139.000000	9.106556
2138.000000	9.115452
2137.000000	9.113538
2136.000000	9.124573
2135.000000	9.139437
2134.000000	9.133581
2133.000000	9.156440
2132.000000	9.172317
2131.000000	9.159255
2130.000000	9.164885
2129.000000	9.176596
2128.000000	9.183916
2127.000000	9.165674
2126.000000	9.169727
2125.000000	9.161395
2124.000000	9.149233
2123.000000	9.144504
2122.000000	9.143040
2121.000000	9.144729
2120.000000	9.141689
2119.000000	9.121420
2118.000000	9.110160
2117.000000	9.101489
2116.000000	9.085274
2115.000000	9.068721
2114.000000	9.033926
2113.000000	9.026720
2112.000000	9.041583
2111.000000	9.022891
2110.000000	8.984943
2109.000000	8.966251
2108.000000	8.959382
2107.000000	8.966589
2106.000000	8.952513
2105.000000	8.929091
2104.000000	8.906796
2103.000000	8.884725
2102.000000	8.862204
2101.000000	8.842386
2100.000000	8.841147
2099.000000	8.835292
2098.000000	8.817500
2097.000000	8.798358
2096.000000	8.802074
2095.000000	8.783719
2094.000000	8.771220
2093.000000	8.755455
2092.000000	8.740479
2091.000000	8.729331
2090.000000	8.723926
2089.000000	8.721336
2088.000000	8.711990
2087.000000	8.699829
2086.000000	8.687442
2085.000000	8.682600
2084.000000	8.653098
2083.000000	8.633955
2082.000000	8.627536
2081.000000	8.615938
2080.000000	8.614137
2079.000000	8.596232
2078.000000	8.571122
2077.000000	8.558397
2076.000000	8.545898
2075.000000	8.540155
2074.000000	8.521013
2073.000000	8.485429
2072.000000	8.462683
2071.000000	8.447707
2070.000000	8.428677
2069.000000	8.420569
2068.000000	8.394558
2067.000000	8.360326
2066.000000	8.346475
2065.000000	8.340958
2064.000000	8.333639
2063.000000	8.304474
2062.000000	8.290286
2061.000000	8.300420
2060.000000	8.277787
2059.000000	8.259432
2058.000000	8.255829
2057.000000	8.245920
2056.000000	8.256504
2055.000000	8.273395
2054.000000	8.284993
2053.000000	8.303573
2052.000000	8.322603
2051.000000	8.344561
2050.000000	8.375415
2049.000000	8.400751
2048.000000	8.437460
2047.000000	8.467300
2046.000000	8.485767
2045.000000	8.522026
2044.000000	8.575288
2043.000000	8.625622
2042.000000	8.668525
2041.000000	8.705346
2040.000000	8.756356
2039.000000	8.805339
2038.000000	8.843737
2037.000000	8.891482
2036.000000	8.939226
2035.000000	8.982128
2034.000000	9.005888
2033.000000	9.042372
2032.000000	9.075252
2031.000000	9.107570
2030.000000	9.132455
2029.000000	9.151598
2028.000000	9.158354
2027.000000	9.180875
2026.000000	9.206774
2025.000000	9.233574
2024.000000	9.240668
2023.000000	9.258009
2022.000000	9.274562
2021.000000	9.280418
2020.000000	9.291791
2019.000000	9.299560
2018.000000	9.318703
2017.000000	9.321744
2016.000000	9.336833
2015.000000	9.314537
2014.000000	9.315663
2013.000000	9.309695
2012.000000	9.314987
2011.000000	9.323095
2010.000000	9.310934
2009.000000	9.291566
2008.000000	9.301475
2007.000000	9.269270
2006.000000	9.246411
2005.000000	9.236052
2004.000000	9.213080
2003.000000	9.186618
2002.000000	9.163759
2001.000000	9.149233
2000.000000	9.120519
1999.000000	9.085049
1998.000000	9.053069
1997.000000	9.035052
1996.000000	8.989673
1995.000000	8.967602
1994.000000	8.943280
1993.000000	8.907697
1992.000000	8.853196
1991.000000	8.823694
1990.000000	8.779778
1989.000000	8.740591
1988.000000	8.703770
1987.000000	8.662556
1986.000000	8.619542
1985.000000	8.588125
1984.000000	8.555807
1983.000000	8.534300
1982.000000	8.477885
1981.000000	8.445905
1980.000000	8.422258
1979.000000	8.349741
1978.000000	8.330260
1977.000000	8.283417
1976.000000	8.223624
1975.000000	8.208985
1974.000000	8.166759
1973.000000	8.123181
1972.000000	8.087147
1971.000000	8.062599
1970.000000	8.009563
1969.000000	7.965985
1968.000000	7.966885
1967.000000	7.924096
1966.000000	7.889639
1965.000000	7.869595
1964.000000	7.826580
1963.000000	7.800343
1962.000000	7.776021
1961.000000	7.731880
1960.000000	7.702940
1959.000000	7.664655
1958.000000	7.655534
1957.000000	7.587746
1956.000000	7.575359
1955.000000	7.572882
1954.000000	7.519958
1953.000000	7.504756
1952.000000	7.485388
1951.000000	7.421654
1950.000000	7.423681
1949.000000	7.404426
1948.000000	7.384269
1947.000000	7.357582
1946.000000	7.325377
1945.000000	7.336075
1944.000000	7.320423
1943.000000	7.301505
1942.000000	7.294073
1941.000000	7.288330
1940.000000	7.269638
1939.000000	7.247455
1938.000000	7.266598
1937.000000	7.238559
1936.000000	7.239798
1935.000000	7.257026
1934.000000	7.273692
1933.000000	7.281574
1932.000000	7.285628
1931.000000	7.280898
1930.000000	7.334498
1929.000000	7.328643
1928.000000	7.360848
1927.000000	7.394066
1926.000000	7.391701
1925.000000	7.461516
1924.000000	7.509824
1923.000000	7.531331
1922.000000	7.600020
1921.000000	7.658236
1920.000000	7.713525
1919.000000	7.775908
1918.000000	7.823202
1917.000000	7.897746
1916.000000	7.982200
1915.000000	8.047285
1914.000000	8.111019
1913.000000	8.204819
1912.000000	8.285331
1911.000000	8.392418
1910.000000	8.460431
1909.000000	8.560199
1908.000000	8.679335
1907.000000	8.769869
1906.000000	8.899251
1905.000000	9.035953
1904.000000	9.163985
1903.000000	9.297083
1902.000000	9.438515
1901.000000	9.570825
1900.000000	9.728809
1899.000000	9.918548
1898.000000	10.060430
1897.000000	10.260528
1896.000000	10.426169
1895.000000	10.611629
1894.000000	10.796751
1893.000000	10.992570
1892.000000	11.193569
1891.000000	11.455150
1890.000000	11.708397
1889.000000	11.954551
1888.000000	12.220072
1887.000000	12.493139
1886.000000	12.804378
1885.000000	13.136899
1884.000000	13.517277
1883.000000	13.925131
1882.000000	14.339290
1881.000000	14.779462
1880.000000	15.218282
1879.000000	15.653048
1878.000000	16.082522
1877.000000	16.537894
1876.000000	16.960950
1875.000000	17.366101
1874.000000	17.753686
1873.000000	18.146225
1872.000000	18.553629
1871.000000	18.910923
1870.000000	19.261461
1869.000000	19.592744
1868.000000	19.922112
1867.000000	20.133921
1866.000000	20.339199
1865.000000	20.530852
1864.000000	20.733203
1863.000000	20.887921
1862.000000	21.019106
1861.000000	21.176977
1860.000000	21.306135
1859.000000	21.436756
1858.000000	21.517043
1857.000000	21.595416
1856.000000	21.658362
1855.000000	21.695183
1854.000000	21.735834
1853.000000	21.774232
1852.000000	21.770291
1851.000000	21.766012
1850.000000	21.783015
1849.000000	21.777385
1848.000000	21.761282
1847.000000	21.738874
1846.000000	21.707908
1845.000000	21.670073
1844.000000	21.636066
1843.000000	21.600370
1842.000000	21.617261
1841.000000	21.625031
1840.000000	21.601609
1839.000000	21.580890
1838.000000	21.523687
1837.000000	21.477406
1836.000000	21.444526
1835.000000	21.413334
1834.000000	21.369531
1833.000000	21.305909
1832.000000	21.238797
1831.000000	21.191165
1830.000000	21.134863
1829.000000	21.071917
1828.000000	20.992869
1827.000000	20.913483
1826.000000	20.852000
1825.000000	20.800428
1824.000000	20.740972
1823.000000	20.697957
1822.000000	20.667779
1821.000000	20.657082
1820.000000	20.619247
1819.000000	20.577020
1818.000000	20.546504
1817.000000	20.519592
1816.000000	20.506755
1815.000000	20.513061
1814.000000	20.498422
1813.000000	20.476014
1812.000000	20.456083
1811.000000	20.438066
1810.000000	20.408789
1809.000000	20.367801
1808.000000	20.329741
1807.000000	20.299900
1806.000000	20.259250
1805.000000	20.190223
1804.000000	20.129079
1803.000000	20.084150
1802.000000	20.047666
1801.000000	20.007691
1800.000000	19.948349
1799.000000	19.900154
1798.000000	19.845203
1797.000000	19.792504
1796.000000	19.744985
1795.000000	19.689133
1794.000000	19.644992
1793.000000	19.605693
1792.000000	19.551643
1791.000000	19.490837
1790.000000	19.426990
1789.000000	19.373840
1788.000000	19.318439
1787.000000	19.256619
1786.000000	19.194686
1785.000000	19.118341
1784.000000	19.043346
1783.000000	18.967000
1782.000000	18.898311
1781.000000	18.813070
1780.000000	18.742354
1779.000000	18.674904
1778.000000	18.602049
1777.000000	18.525928
1776.000000	18.431115
1775.000000	18.328983
1774.000000	18.237097
1773.000000	18.123704
1772.000000	18.016505
1771.000000	17.917638
1770.000000	17.810101
1769.000000	17.690853
1768.000000	17.585680
1767.000000	17.484561
1766.000000	17.392901
1765.000000	17.305520
1764.000000	17.257663
1763.000000	17.237957
1762.000000	17.223544
1761.000000	17.240322
1760.000000	17.271288
1759.000000	17.330856
1758.000000	17.402810
1757.000000	17.472512
1756.000000	17.511361
1755.000000	17.574982
1754.000000	17.639730
1753.000000	17.671372
1752.000000	17.681056
1751.000000	17.697158
1750.000000	17.667881
1749.000000	17.639843
1748.000000	17.623853
1747.000000	17.560006
1746.000000	17.495371
1745.000000	17.394365
1744.000000	17.290881
1743.000000	17.168255
1742.000000	17.004077
1741.000000	16.836972
1740.000000	16.644644
1739.000000	16.441392
1738.000000	16.257284
1737.000000	16.090629
1736.000000	15.935685
1735.000000	15.803825
1734.000000	15.731083
1733.000000	15.673204
1732.000000	15.667912
1731.000000	15.713742
1730.000000	15.792903
1729.000000	15.884901
1728.000000	15.975772
1727.000000	16.069572
1726.000000	16.168551
1725.000000	16.268544
1724.000000	16.322482
1723.000000	16.364371
1722.000000	16.430357
1721.000000	16.467404
1720.000000	16.497582
1719.000000	16.522242
1718.000000	16.551069
1717.000000	16.567172
1716.000000	16.608610
1715.000000	16.663223
1714.000000	16.754320
1713.000000	16.827851
1712.000000	16.871317
1711.000000	16.912980
1710.000000	16.960612
1709.000000	16.946086
1708.000000	16.949352
1707.000000	16.937303
1706.000000	16.905774
1705.000000	16.872668
1704.000000	16.835959
1703.000000	16.761752
1702.000000	16.660746
1701.000000	16.551520
1700.000000	16.438690
1699.000000	16.293092
1698.000000	16.169565
1697.000000	16.028134
1696.000000	15.928591
1695.000000	15.886590
1694.000000	15.890531
1693.000000	15.920821
1692.000000	16.004261
1691.000000	16.142765
1690.000000	16.285210
1689.000000	16.442856
1688.000000	16.568861
1687.000000	16.608723
1686.000000	16.650612
1685.000000	16.680114
1684.000000	16.741709
1683.000000	16.849584
1682.000000	17.045178
1681.000000	17.345044
1680.000000	17.724184
1679.000000	18.203766
1678.000000	18.701929
1677.000000	19.231508
1676.000000	19.688345
1675.000000	20.145294
1674.000000	20.504052
1673.000000	20.882066
1672.000000	21.153555
1671.000000	21.409055
1670.000000	21.641696
1669.000000	21.855870
1668.000000	22.020273
1667.000000	22.162718
1666.000000	22.281628
1665.000000	22.396822
1664.000000	22.485555
1663.000000	22.559761
1662.000000	22.651984
1661.000000	22.704120
1660.000000	22.752765
1659.000000	22.823706
1658.000000	22.856362
1657.000000	22.891607
1656.000000	22.907484
1655.000000	22.903543
1654.000000	22.898476
1653.000000	22.887778
1652.000000	22.876631
1651.000000	22.880121
1650.000000	22.840484
1649.000000	22.784633
1648.000000	22.750626
1647.000000	22.712340
1646.000000	22.676420
1645.000000	22.633630
1644.000000	22.584309
1643.000000	22.505711
1642.000000	22.458530
1641.000000	22.411461
1640.000000	22.314283
1639.000000	22.258882
1638.000000	22.195711
1637.000000	22.112609
1636.000000	22.076913
1635.000000	21.997977
1634.000000	21.927487
1633.000000	21.846974
1632.000000	21.775020
1631.000000	21.668721
1630.000000	21.587533
1629.000000	21.513102
1628.000000	21.418627
1627.000000	21.342619
1626.000000	21.251184
1625.000000	21.188463
1624.000000	21.071242
1623.000000	20.995909
1622.000000	20.935215
1621.000000	20.833308
1620.000000	20.774979
1619.000000	20.693003
1618.000000	20.610351
1617.000000	20.536708
1616.000000	20.455182
1615.000000	20.376584
1614.000000	20.322646
1613.000000	20.234702
1612.000000	20.151713
1611.000000	20.105995
1610.000000	20.010169
1609.000000	19.968505
1608.000000	19.876395
1607.000000	19.814349
1606.000000	19.748926
1605.000000	19.681589
1604.000000	19.613913
1603.000000	19.543761
1602.000000	19.496467
1601.000000	19.418094
1600.000000	19.353909
1599.000000	19.283194
1598.000000	19.203582
1597.000000	19.137709
1596.000000	19.084221
1595.000000	19.013731
1594.000000	18.957316
1593.000000	18.896510
1592.000000	18.832212
1591.000000	18.774671
1590.000000	18.735598
1589.000000	18.684025
1588.000000	18.638307
1587.000000	18.587748
1586.000000	18.538990
1585.000000	18.493610
1584.000000	18.440799
1583.000000	18.410621
1582.000000	18.382470
1581.000000	18.351166
1580.000000	18.310290
