PE UV       SUBTECH     SPECTRUM    ASCII       PEDS        4.00        
   -1
CICIMAUCR0009-1.Sample.ASC
24/04/17
11:03:30.00
24/04/17
11:03:30.00
Vinicio Soto Monge
C. kalinini
250,000000
1
Lambda 1050
1050L1511233
PerkinElmer UV WinLab 6.3.2.0749 / 2.02.05 Lambda 900 UV/VIS/NIR, Aug  7 2015 09:38:08

0
0
3350/servo 860,8/2
0
0
UV/VIS
1
1
1
DoubleDePol,CommonBeamDepol,RBeamAtt,SBeamAtt,60mm sphere, WB InGaAs Detector
0
0
0
0
Program
Program
3350/servo 860,8/2
3350/0,2 860,8/0,2
3350/0,2 860,8/0,2
0
15.00
 
 
 
0
 
860,8
319,2
860,8
Front
100
on
S:100 R:100
0
0
0
0
 
0
 
 
 
0
 
 
0
0
0
0
0
 
 
 
 
0
0


0
0
#HDR
-1
-1
#GR
nm
%R
1.0
0.0
2500,000000
-1,000000
2251
8
92,705800
4,951600
#DATA
2482.000000	6.495229
2481.000000	6.533056
2480.000000	6.475315
2479.000000	6.484060
2478.000000	6.507663
2477.000000	6.450554
2476.000000	6.438753
2475.000000	6.472892
2474.000000	6.470679
2473.000000	6.459194
2472.000000	6.406405
2471.000000	6.480794
2470.000000	6.453504
2469.000000	6.507030
2468.000000	6.453715
2467.000000	6.447709
2466.000000	6.468150
2465.000000	6.474683
2464.000000	6.476263
2463.000000	6.502816
2462.000000	6.493860
2461.000000	6.483534
2460.000000	6.542223
2459.000000	6.554762
2458.000000	6.589217
2457.000000	6.591113
2456.000000	6.621880
2455.000000	6.647695
2454.000000	6.665818
2453.000000	6.720820
2452.000000	6.759384
2451.000000	6.780984
2450.000000	6.826502
2449.000000	6.871599
2448.000000	6.919647
2447.000000	6.962742
2446.000000	6.984869
2445.000000	7.026594
2444.000000	7.067055
2443.000000	7.093291
2442.000000	7.125849
2441.000000	7.164203
2440.000000	7.222365
2439.000000	7.239962
2438.000000	7.266830
2437.000000	7.304025
2436.000000	7.352810
2435.000000	7.381996
2434.000000	7.409497
2433.000000	7.432572
2432.000000	7.478512
2431.000000	7.494528
2430.000000	7.527824
2429.000000	7.546684
2428.000000	7.565756
2427.000000	7.589042
2426.000000	7.593256
2425.000000	7.614330
2424.000000	7.620336
2423.000000	7.632242
2422.000000	7.615700
2421.000000	7.597893
2420.000000	7.597366
2419.000000	7.593994
2418.000000	7.610221
2417.000000	7.614330
2416.000000	7.618018
2415.000000	7.635825
2414.000000	7.636246
2413.000000	7.628133
2412.000000	7.631083
2411.000000	7.642147
2410.000000	7.659005
2409.000000	7.658162
2408.000000	7.668278
2407.000000	7.666486
2406.000000	7.677128
2405.000000	7.680184
2404.000000	7.677866
2403.000000	7.701995
2402.000000	7.722015
2401.000000	7.728126
2400.000000	7.714323
2399.000000	7.730023
2398.000000	7.761843
2397.000000	7.766901
2396.000000	7.774487
2395.000000	7.796193
2394.000000	7.800724
2393.000000	7.811155
2392.000000	7.818531
2391.000000	7.836232
2390.000000	7.845505
2389.000000	7.840974
2388.000000	7.855409
2387.000000	7.856357
2386.000000	7.847928
2385.000000	7.841501
2384.000000	7.834968
2383.000000	7.830016
2382.000000	7.826012
2381.000000	7.828962
2380.000000	7.823588
2379.000000	7.798406
2378.000000	7.801567
2377.000000	7.782917
2376.000000	7.761843
2375.000000	7.754257
2374.000000	7.737082
2373.000000	7.717168
2372.000000	7.693250
2371.000000	7.668488
2370.000000	7.641831
2369.000000	7.617807
2368.000000	7.591887
2367.000000	7.558696
2366.000000	7.525611
2365.000000	7.488733
2364.000000	7.437735
2363.000000	7.397274
2362.000000	7.352493
2361.000000	7.303814
2360.000000	7.264091
2359.000000	7.233113
2358.000000	7.179481
2357.000000	7.138493
2356.000000	7.124796
2355.000000	7.106041
2354.000000	7.082122
2353.000000	7.064737
2352.000000	7.063472
2351.000000	7.064737
2350.000000	7.072745
2349.000000	7.080226
2348.000000	7.100456
2347.000000	7.135965
2346.000000	7.157776
2345.000000	7.185909
2344.000000	7.214463
2343.000000	7.234377
2342.000000	7.254713
2341.000000	7.284743
2340.000000	7.288747
2339.000000	7.287587
2338.000000	7.290854
2337.000000	7.291591
2336.000000	7.288114
2335.000000	7.272099
2334.000000	7.255345
2333.000000	7.240489
2332.000000	7.212250
2331.000000	7.186541
2330.000000	7.140812
2329.000000	7.113311
2328.000000	7.065474
2327.000000	7.020377
2326.000000	6.971276
2325.000000	6.915116
2324.000000	6.872969
2323.000000	6.833773
2322.000000	6.780141
2321.000000	6.721768
2320.000000	6.669927
2319.000000	6.588584
2318.000000	6.523889
2317.000000	6.466991
2316.000000	6.401137
2315.000000	6.343080
2314.000000	6.296929
2313.000000	6.246669
2312.000000	6.178602
2311.000000	6.138563
2310.000000	6.096311
2309.000000	6.082613
2308.000000	6.076923
2307.000000	6.049633
2306.000000	6.039518
2305.000000	6.049739
2304.000000	6.078082
2303.000000	6.091780
2302.000000	6.129712
2301.000000	6.144569
2300.000000	6.186399
2299.000000	6.247828
2298.000000	6.272063
2297.000000	6.331489
2296.000000	6.372056
2295.000000	6.417574
2294.000000	6.444969
2293.000000	6.468572
2292.000000	6.487748
2291.000000	6.503237
2290.000000	6.533056
2289.000000	6.530843
2288.000000	6.533161
2287.000000	6.505871
2286.000000	6.509665
2285.000000	6.493860
2284.000000	6.474261
2283.000000	6.464778
2282.000000	6.419681
2281.000000	6.390706
2280.000000	6.373320
2279.000000	6.361414
2278.000000	6.337285
2277.000000	6.327169
2276.000000	6.296402
2275.000000	6.273538
2274.000000	6.276593
2273.000000	6.275540
2272.000000	6.277331
2271.000000	6.301776
2270.000000	6.284601
2269.000000	6.317792
2268.000000	6.329593
2267.000000	6.389336
2266.000000	6.432641
2265.000000	6.530211
2264.000000	6.569513
2263.000000	6.661603
2262.000000	6.741155
2261.000000	6.853687
2260.000000	6.992139
2259.000000	7.092554
2258.000000	7.230584
2257.000000	7.385789
2256.000000	7.541627
2255.000000	7.681975
2254.000000	7.808310
2253.000000	7.963726
2252.000000	8.106709
2251.000000	8.252115
2250.000000	8.377607
2249.000000	8.507313
2248.000000	8.631330
2247.000000	8.768834
2246.000000	8.855550
2245.000000	8.976301
2244.000000	9.074397
2243.000000	9.132770
2242.000000	9.257525
2241.000000	9.348667
2240.000000	9.414732
2239.000000	9.493546
2238.000000	9.564669
2237.000000	9.644537
2236.000000	9.714184
2235.000000	9.751379
2234.000000	9.829666
2233.000000	9.882139
2232.000000	9.912485
2231.000000	9.933242
2230.000000	9.981184
2229.000000	10.046195
2228.000000	10.044404
2227.000000	10.062316
2226.000000	10.104252
2225.000000	10.113946
2224.000000	10.108888
2223.000000	10.129962
2222.000000	10.148295
2221.000000	10.146715
2220.000000	10.115842
2219.000000	10.151667
2218.000000	10.132280
2217.000000	10.158727
2216.000000	10.138075
2215.000000	10.125747
2214.000000	10.117107
2213.000000	10.124166
2212.000000	10.131437
2211.000000	10.108467
2210.000000	10.107624
2209.000000	10.100248
2208.000000	10.095085
2207.000000	10.098246
2206.000000	10.101196
2205.000000	10.083073
2204.000000	10.080650
2203.000000	10.091608
2202.000000	10.097930
2201.000000	10.067795
2200.000000	10.072853
2199.000000	10.070113
2198.000000	10.089817
2197.000000	10.100143
2196.000000	10.104990
2195.000000	10.087815
2194.000000	10.093505
2193.000000	10.084865
2192.000000	10.084759
2191.000000	10.087393
2190.000000	10.084865
2189.000000	10.074539
2188.000000	10.069165
2187.000000	10.061473
2186.000000	10.056205
2185.000000	10.054835
2184.000000	10.060630
2183.000000	10.023330
2182.000000	10.040821
2181.000000	10.027650
2180.000000	10.023225
2179.000000	10.021855
2178.000000	10.018484
2177.000000	10.032708
2176.000000	10.044931
2175.000000	10.031022
2174.000000	10.035131
2173.000000	10.039241
2172.000000	10.039135
2171.000000	10.070008
2170.000000	10.091503
2169.000000	10.084022
2168.000000	10.101723
2167.000000	10.114578
2166.000000	10.132069
2165.000000	10.142816
2164.000000	10.172003
2163.000000	10.192760
2162.000000	10.203613
2161.000000	10.212885
2160.000000	10.248394
2159.000000	10.265569
2158.000000	10.284324
2157.000000	10.294123
2156.000000	10.316882
2155.000000	10.338588
2154.000000	10.366510
2153.000000	10.380313
2152.000000	10.405285
2151.000000	10.439108
2150.000000	10.462078
2149.000000	10.481254
2148.000000	10.504435
2147.000000	10.521715
2146.000000	10.551323
2145.000000	10.569657
2144.000000	10.582196
2143.000000	10.592627
2142.000000	10.608327
2141.000000	10.620549
2140.000000	10.629295
2139.000000	10.628241
2138.000000	10.641201
2137.000000	10.647102
2136.000000	10.655215
2135.000000	10.658692
2134.000000	10.678817
2133.000000	10.660273
2132.000000	10.664382
2131.000000	10.671020
2130.000000	10.664593
2129.000000	10.656269
2128.000000	10.648998
2127.000000	10.650368
2126.000000	10.641623
2125.000000	10.628241
2124.000000	10.622130
2123.000000	10.596315
2122.000000	10.586200
2121.000000	10.578297
2120.000000	10.553220
2119.000000	10.522664
2118.000000	10.507491
2117.000000	10.499694
2116.000000	10.464606
2115.000000	10.449223
2114.000000	10.430151
2113.000000	10.408130
2112.000000	10.379575
2111.000000	10.350916
2110.000000	10.343540
2109.000000	10.329632
2108.000000	10.295703
2107.000000	10.271364
2106.000000	10.242704
2105.000000	10.228690
2104.000000	10.211199
2103.000000	10.180011
2102.000000	10.157673
2101.000000	10.135967
2100.000000	10.118687
2099.000000	10.101723
2098.000000	10.092556
2097.000000	10.062421
2096.000000	10.027756
2095.000000	10.018589
2094.000000	10.014374
2093.000000	9.994355
2092.000000	9.981394
2091.000000	9.960532
2090.000000	9.943778
2089.000000	9.947045
2088.000000	9.939037
2087.000000	9.924075
2086.000000	9.920914
2085.000000	9.909745
2084.000000	9.887723
2083.000000	9.875606
2082.000000	9.868020
2081.000000	9.873499
2080.000000	9.882560
2079.000000	9.878346
2078.000000	9.845787
2077.000000	9.825452
2076.000000	9.827243
2075.000000	9.809857
2074.000000	9.809752
2073.000000	9.801849
2072.000000	9.788257
2071.000000	9.775824
2070.000000	9.777826
2069.000000	9.779301
2068.000000	9.764339
2067.000000	9.746953
2066.000000	9.737365
2065.000000	9.732097
2064.000000	9.736417
2063.000000	9.744846
2062.000000	9.739262
2061.000000	9.747796
2060.000000	9.754540
2059.000000	9.756542
2058.000000	9.756647
2057.000000	9.781408
2056.000000	9.826927
2055.000000	9.840730
2054.000000	9.859907
2053.000000	9.908270
2052.000000	9.960321
2051.000000	10.015639
2050.000000	10.076330
2049.000000	10.150824
2048.000000	10.239964
2047.000000	10.323836
2046.000000	10.411607
2045.000000	10.504646
2044.000000	10.597052
2043.000000	10.705686
2042.000000	10.802728
2041.000000	10.920212
2040.000000	11.024947
2039.000000	11.135793
2038.000000	11.249484
2037.000000	11.352321
2036.000000	11.460639
2035.000000	11.556838
2034.000000	11.653354
2033.000000	11.736805
2032.000000	11.819834
2031.000000	11.921407
2030.000000	12.015500
2029.000000	12.085253
2028.000000	12.172496
2027.000000	12.248255
2026.000000	12.336026
2025.000000	12.415472
2024.000000	12.446555
2023.000000	12.522630
2022.000000	12.597651
2021.000000	12.674674
2020.000000	12.749485
2019.000000	12.805645
2018.000000	12.889201
2017.000000	12.930821
2016.000000	13.012691
2015.000000	13.084973
2014.000000	13.101726
2013.000000	13.151564
2012.000000	13.191709
2011.000000	13.234699
2010.000000	13.290754
2009.000000	13.315410
2008.000000	13.337326
2007.000000	13.390642
2006.000000	13.389167
2005.000000	13.415614
2004.000000	13.420882
2003.000000	13.467770
2002.000000	13.443220
2001.000000	13.451017
2000.000000	13.449120
1999.000000	13.434896
1998.000000	13.438478
1997.000000	13.431840
1996.000000	13.423200
1995.000000	13.424675
1994.000000	13.377155
1993.000000	13.364616
1992.000000	13.327632
1991.000000	13.323312
1990.000000	13.296655
1989.000000	13.252400
1988.000000	13.202878
1987.000000	13.183701
1986.000000	13.140606
1985.000000	13.088028
1984.000000	13.043564
1983.000000	13.014061
1982.000000	12.960745
1981.000000	12.908167
1980.000000	12.856221
1979.000000	12.806278
1978.000000	12.759811
1977.000000	12.711869
1976.000000	12.652547
1975.000000	12.622413
1974.000000	12.576789
1973.000000	12.533483
1972.000000	12.459726
1971.000000	12.444343
1970.000000	12.399983
1969.000000	12.340030
1968.000000	12.304626
1967.000000	12.270698
1966.000000	12.238035
1965.000000	12.195150
1964.000000	12.140676
1963.000000	12.107696
1962.000000	12.071450
1961.000000	11.996850
1960.000000	11.984101
1959.000000	11.945536
1958.000000	11.876205
1957.000000	11.865774
1956.000000	11.814039
1955.000000	11.757562
1954.000000	11.723423
1953.000000	11.711306
1952.000000	11.650509
1951.000000	11.625116
1950.000000	11.598248
1949.000000	11.554415
1948.000000	11.540296
1947.000000	11.508264
1946.000000	11.478656
1945.000000	11.445887
1944.000000	11.429239
1943.000000	11.407744
1942.000000	11.409641
1941.000000	11.413118
1940.000000	11.431768
1939.000000	11.444412
1938.000000	11.455159
1937.000000	11.477919
1936.000000	11.502364
1935.000000	11.519960
1934.000000	11.576121
1933.000000	11.623430
1932.000000	11.678116
1931.000000	11.717312
1930.000000	11.792860
1929.000000	11.856396
1928.000000	11.932682
1927.000000	12.005912
1926.000000	12.098318
1925.000000	12.173761
1924.000000	12.272279
1923.000000	12.404830
1922.000000	12.501768
1921.000000	12.637059
1920.000000	12.771612
1919.000000	12.887621
1918.000000	13.019329
1917.000000	13.167264
1916.000000	13.310563
1915.000000	13.456496
1914.000000	13.623186
1913.000000	13.796936
1912.000000	13.962889
1911.000000	14.119569
1910.000000	14.287734
1909.000000	14.446838
1908.000000	14.627015
1907.000000	14.826580
1906.000000	15.049536
1905.000000	15.253632
1904.000000	15.427803
1903.000000	15.613143
1902.000000	15.804278
1901.000000	16.007742
1900.000000	16.214893
1899.000000	16.407503
1898.000000	16.603907
1897.000000	16.805157
1896.000000	16.976273
1895.000000	17.175838
1894.000000	17.394158
1893.000000	17.580868
1892.000000	17.782013
1891.000000	17.977890
1890.000000	18.179878
1889.000000	18.357631
1888.000000	18.586067
1887.000000	18.816082
1886.000000	19.080869
1885.000000	19.397601
1884.000000	19.758904
1883.000000	20.133799
1882.000000	20.511328
1881.000000	20.938590
1880.000000	21.379024
1879.000000	21.785950
1878.000000	22.167799
1877.000000	22.554074
1876.000000	22.882081
1875.000000	23.188382
1874.000000	23.477087
1873.000000	23.726490
1872.000000	23.953134
1871.000000	24.142162
1870.000000	24.268497
1869.000000	24.398414
1868.000000	24.523590
1867.000000	24.610201
1866.000000	24.649292
1865.000000	24.688594
1864.000000	24.733269
1863.000000	24.760349
1862.000000	24.780895
1861.000000	24.775943
1860.000000	24.757293
1859.000000	24.709667
1858.000000	24.657616
1857.000000	24.612624
1856.000000	24.551828
1855.000000	24.459210
1854.000000	24.369649
1853.000000	24.263966
1852.000000	24.152699
1851.000000	24.070196
1850.000000	24.017934
1849.000000	23.943335
1848.000000	23.810046
1847.000000	23.664007
1846.000000	23.525239
1845.000000	23.446636
1844.000000	23.418503
1843.000000	23.406596
1842.000000	23.368875
1841.000000	23.304496
1840.000000	23.234532
1839.000000	23.152452
1838.000000	23.075850
1837.000000	22.997879
1836.000000	22.909581
1835.000000	22.802107
1834.000000	22.698216
1833.000000	22.616135
1832.000000	22.537742
1831.000000	22.442174
1830.000000	22.334911
1829.000000	22.224170
1828.000000	22.105738
1827.000000	22.023552
1826.000000	21.942736
1825.000000	21.865713
1824.000000	21.804389
1823.000000	21.790481
1822.000000	21.795117
1821.000000	21.751495
1820.000000	21.699128
1819.000000	21.649289
1818.000000	21.633906
1817.000000	21.636013
1816.000000	21.642757
1815.000000	21.639701
1814.000000	21.626530
1813.000000	21.626003
1812.000000	21.599767
1811.000000	21.553722
1810.000000	21.505042
1809.000000	21.473748
1808.000000	21.461631
1807.000000	21.422751
1806.000000	21.344042
1805.000000	21.272498
1804.000000	21.222132
1803.000000	21.190628
1802.000000	21.142897
1801.000000	21.077359
1800.000000	21.003918
1799.000000	20.926895
1798.000000	20.889384
1797.000000	20.843760
1796.000000	20.799612
1795.000000	20.746296
1794.000000	20.688134
1793.000000	20.619540
1792.000000	20.550419
1791.000000	20.491835
1790.000000	20.426929
1789.000000	20.347378
1788.000000	20.268985
1787.000000	20.187641
1786.000000	20.105245
1785.000000	20.005568
1784.000000	19.900517
1783.000000	19.805687
1782.000000	19.706748
1781.000000	19.621822
1780.000000	19.507288
1779.000000	19.422047
1778.000000	19.306775
1777.000000	19.203516
1776.000000	19.082133
1775.000000	18.925242
1774.000000	18.768246
1773.000000	18.599343
1772.000000	18.446139
1771.000000	18.279555
1770.000000	18.135413
1769.000000	17.998015
1768.000000	17.838595
1767.000000	17.732701
1766.000000	17.604048
1765.000000	17.536087
1764.000000	17.476238
1763.000000	17.476660
1762.000000	17.494783
1761.000000	17.545148
1760.000000	17.599096
1759.000000	17.676857
1758.000000	17.730488
1757.000000	17.814782
1756.000000	17.873366
1755.000000	17.908031
1754.000000	17.928578
1753.000000	17.926365
1752.000000	17.879582
1751.000000	17.840491
1750.000000	17.790547
1749.000000	17.730488
1748.000000	17.636290
1747.000000	17.521230
1746.000000	17.392366
1745.000000	17.223885
1744.000000	17.033487
1743.000000	16.819593
1742.000000	16.578724
1741.000000	16.334379
1740.000000	16.079812
1739.000000	15.807334
1738.000000	15.583956
1737.000000	15.365953
1736.000000	15.218544
1735.000000	15.119394
1734.000000	15.053119
1733.000000	15.072822
1732.000000	15.120448
1731.000000	15.194942
1730.000000	15.324017
1729.000000	15.441079
1728.000000	15.579531
1727.000000	15.670146
1726.000000	15.798378
1725.000000	15.857699
1724.000000	15.928506
1723.000000	15.962329
1722.000000	15.984772
1721.000000	15.971285
1720.000000	15.954637
1719.000000	15.977291
1718.000000	15.994887
1717.000000	15.986879
1716.000000	16.042513
1715.000000	16.108578
1714.000000	16.149038
1713.000000	16.219107
1712.000000	16.252193
1711.000000	16.279377
1710.000000	16.301820
1709.000000	16.301083
1708.000000	16.297079
1707.000000	16.263045
1706.000000	16.246081
1705.000000	16.230065
1704.000000	16.149776
1703.000000	16.085713
1702.000000	15.990040
1701.000000	15.878878
1700.000000	15.711556
1699.000000	15.555929
1698.000000	15.427171
1697.000000	15.287349
1696.000000	15.258057
1695.000000	15.257846
1694.000000	15.305577
1693.000000	15.415791
1692.000000	15.575211
1691.000000	15.761710
1690.000000	15.959589
1689.000000	16.068011
1688.000000	16.117745
1687.000000	16.142822
1686.000000	16.110158
1685.000000	16.124488
1684.000000	16.167688
1683.000000	16.346707
1682.000000	16.677874
1681.000000	17.144438
1680.000000	17.716053
1679.000000	18.320332
1678.000000	18.937043
1677.000000	19.513400
1676.000000	20.052140
1675.000000	20.475293
1674.000000	20.856194
1673.000000	21.184095
1672.000000	21.476909
1671.000000	21.745805
1670.000000	21.953589
1669.000000	22.118277
1668.000000	22.299508
1667.000000	22.443228
1666.000000	22.551018
1665.000000	22.667659
1664.000000	22.751742
1663.000000	22.812222
1662.000000	22.882713
1661.000000	22.940243
1660.000000	22.974171
1659.000000	23.009364
1658.000000	23.040658
1657.000000	23.047085
1656.000000	23.055725
1655.000000	23.031701
1654.000000	23.030437
1653.000000	22.990819
1652.000000	22.978491
1651.000000	22.939716
1650.000000	22.895673
1649.000000	22.858478
1648.000000	22.801054
1647.000000	22.756378
1646.000000	22.694738
1645.000000	22.634363
1644.000000	22.552493
1643.000000	22.501917
1642.000000	22.428266
1641.000000	22.345658
1640.000000	22.269373
1639.000000	22.200252
1638.000000	22.106792
1637.000000	22.023025
1636.000000	21.923875
1635.000000	21.846852
1634.000000	21.754762
1633.000000	21.666148
1632.000000	21.557410
1631.000000	21.459418
1630.000000	21.369014
1629.000000	21.293571
1628.000000	21.194737
1627.000000	21.105175
1626.000000	21.008975
1625.000000	20.906980
1624.000000	20.822476
1623.000000	20.735865
1622.000000	20.633343
1621.000000	20.551789
1620.000000	20.462438
1619.000000	20.362234
1618.000000	20.273305
1617.000000	20.200707
1616.000000	20.110829
1615.000000	20.038442
1614.000000	19.965107
1613.000000	19.866694
1612.000000	19.792621
1611.000000	19.721077
1610.000000	19.660175
1609.000000	19.590633
1608.000000	19.529310
1607.000000	19.456712
1606.000000	19.396864
1605.000000	19.337437
1604.000000	19.276324
1603.000000	19.213631
1602.000000	19.138505
1601.000000	19.072966
1600.000000	19.011643
1599.000000	18.971604
1598.000000	18.926401
1597.000000	18.881199
1596.000000	18.816082
1595.000000	18.765612
1594.000000	18.715352
1593.000000	18.678579
