PE UV       SUBTECH     SPECTRUM    ASCII       PEDS        4.00        
   -1
CICIMAUCR0019-5.Sample.ASC
24/04/25
14:12:17.00
24/04/25
14:12:17.00
Vinicio Soto Monge
C. cupreomarginata
250,000000
1
Lambda 1050
1050L1511233
PerkinElmer UV WinLab 6.3.2.0749 / 2.02.05 Lambda 900 UV/VIS/NIR, Aug  7 2015 09:38:08

0
0
3350/servo 860,8/2
0
0
UV/VIS
1
1
1
DoubleDePol,CommonBeamDepol,RBeamAtt,SBeamAtt,60mm sphere, WB InGaAs Detector
0
0
0
0
Program
Program
3350/servo 860,8/2
3350/0,2 860,8/0,2
3350/0,2 860,8/0,2
0
15.00
 
 
 
0
 
860,8
319,2
860,8
Front
100
on
S:100 R:100
0
0
0
0
 
0
 
 
 
0
 
 
0
0
0
0
0
 
 
 
 
0
0


0
0
#HDR
-1
-1
#GR
nm
%R
1.0
0.0
2500,000000
-1,000000
2251
8
69,269700
4,960200
#DATA
2482.000000	7.003157
2481.000000	6.902332
2480.000000	6.957941
2479.000000	6.994202
2478.000000	6.923558
2477.000000	6.926211
2476.000000	6.943347
2475.000000	6.960262
2474.000000	6.938483
2473.000000	7.015981
2472.000000	6.944895
2471.000000	6.917367
2470.000000	6.893266
2469.000000	6.945890
2468.000000	6.965348
2467.000000	6.972534
2466.000000	6.991438
2465.000000	7.004042
2464.000000	7.028363
2463.000000	7.027147
2462.000000	7.056997
2461.000000	7.088947
2460.000000	7.089721
2459.000000	7.139139
2458.000000	7.162023
2457.000000	7.240074
2456.000000	7.234547
2455.000000	7.270919
2454.000000	7.340679
2453.000000	7.369312
2452.000000	7.391423
2451.000000	7.451343
2450.000000	7.484841
2449.000000	7.564440
2448.000000	7.569304
2447.000000	7.633094
2446.000000	7.712582
2445.000000	7.754704
2444.000000	7.808322
2443.000000	7.835076
2442.000000	7.875981
2441.000000	7.936897
2440.000000	8.001460
2439.000000	8.033742
2438.000000	8.094878
2437.000000	8.145070
2436.000000	8.174146
2435.000000	8.221463
2434.000000	8.283705
2433.000000	8.321514
2432.000000	8.349705
2431.000000	8.383535
2430.000000	8.433948
2429.000000	8.463687
2428.000000	8.497295
2427.000000	8.526150
2426.000000	8.564291
2425.000000	8.597125
2424.000000	8.601437
2423.000000	8.621005
2422.000000	8.676172
2421.000000	8.687448
2420.000000	8.714976
2419.000000	8.742725
2418.000000	8.756323
2417.000000	8.770143
2416.000000	8.808173
2415.000000	8.836143
2414.000000	8.847973
2413.000000	8.865882
2412.000000	8.897611
2411.000000	8.908998
2410.000000	8.926024
2409.000000	8.971904
2408.000000	9.027070
2407.000000	9.061342
2406.000000	9.104458
2405.000000	9.128006
2404.000000	9.151443
2403.000000	9.171122
2402.000000	9.181846
2401.000000	9.215565
2400.000000	9.252158
2399.000000	9.270842
2398.000000	9.306330
2397.000000	9.330209
2396.000000	9.368682
2395.000000	9.403949
2394.000000	9.413346
2393.000000	9.431477
2392.000000	9.456573
2391.000000	9.479900
2390.000000	9.497035
2389.000000	9.520473
2388.000000	9.536945
2387.000000	9.549880
2386.000000	9.555740
2385.000000	9.551539
2384.000000	9.558614
2383.000000	9.567237
2382.000000	9.555297
2381.000000	9.555408
2380.000000	9.575639
2379.000000	9.565247
2378.000000	9.552091
2377.000000	9.552202
2376.000000	9.547669
2375.000000	9.524563
2374.000000	9.520805
2373.000000	9.506433
2372.000000	9.484875
2371.000000	9.471829
2370.000000	9.458452
2369.000000	9.429155
2368.000000	9.391788
2367.000000	9.367687
2366.000000	9.340933
2365.000000	9.313516
2364.000000	9.279686
2363.000000	9.228057
2362.000000	9.188147
2361.000000	9.148348
2360.000000	9.117725
2359.000000	9.074166
2358.000000	9.029723
2357.000000	9.004628
2356.000000	8.974778
2355.000000	8.953883
2354.000000	8.930335
2353.000000	8.920164
2352.000000	8.917843
2351.000000	8.920054
2350.000000	8.942275
2349.000000	8.954215
2348.000000	8.977210
2347.000000	9.001311
2346.000000	9.037794
2345.000000	9.078478
2344.000000	9.112971
2343.000000	9.135192
2342.000000	9.168027
2341.000000	9.207384
2340.000000	9.235022
2339.000000	9.251827
2338.000000	9.263877
2337.000000	9.279133
2336.000000	9.276701
2335.000000	9.264209
2334.000000	9.264540
2333.000000	9.254369
2332.000000	9.247294
2331.000000	9.223083
2330.000000	9.198540
2329.000000	9.173444
2328.000000	9.115624
2327.000000	9.067312
2326.000000	9.031050
2325.000000	8.983512
2324.000000	8.939511
2323.000000	8.889430
2322.000000	8.831390
2321.000000	8.781861
2320.000000	8.711549
2319.000000	8.625759
2318.000000	8.568824
2317.000000	8.506139
2316.000000	8.425767
2315.000000	8.356670
2314.000000	8.291886
2313.000000	8.219362
2312.000000	8.159663
2311.000000	8.124728
2310.000000	8.073099
2309.000000	8.039822
2308.000000	8.000797
2307.000000	7.982334
2306.000000	7.966636
2305.000000	7.977802
2304.000000	7.989410
2303.000000	8.022797
2302.000000	8.064808
2301.000000	8.102728
2300.000000	8.147060
2299.000000	8.223342
2298.000000	8.271102
2297.000000	8.351585
2296.000000	8.409073
2295.000000	8.477727
2294.000000	8.519738
2293.000000	8.564291
2292.000000	8.610834
2291.000000	8.648865
2290.000000	8.667106
2289.000000	8.679820
2288.000000	8.687890
2287.000000	8.705247
2286.000000	8.682363
2285.000000	8.675729
2284.000000	8.658262
2283.000000	8.648201
2282.000000	8.597568
2281.000000	8.579879
2280.000000	8.536100
2279.000000	8.495637
2278.000000	8.481154
2277.000000	8.447877
2276.000000	8.417586
2275.000000	8.372148
2274.000000	8.385193
2273.000000	8.363856
2272.000000	8.353464
2271.000000	8.356670
2270.000000	8.371264
2269.000000	8.399234
2268.000000	8.455948
2267.000000	8.499506
2266.000000	8.557879
2265.000000	8.639578
2264.000000	8.735097
2263.000000	8.844435
2262.000000	8.966708
2261.000000	9.113081
2260.000000	9.286983
2259.000000	9.460663
2258.000000	9.614002
2257.000000	9.804597
2256.000000	9.993755
2255.000000	10.210109
2254.000000	10.395729
2253.000000	10.593842
2252.000000	10.783995
2251.000000	10.974922
2250.000000	11.145507
2249.000000	11.321730
2248.000000	11.488446
2247.000000	11.649302
2246.000000	11.821213
2245.000000	11.917285
2244.000000	12.042100
2243.000000	12.179740
2242.000000	12.285430
2241.000000	12.377853
2240.000000	12.503995
2239.000000	12.578509
2238.000000	12.653796
2237.000000	12.730852
2236.000000	12.834441
2235.000000	12.891819
2234.000000	12.953840
2233.000000	13.010996
2232.000000	13.073459
2231.000000	13.100987
2230.000000	13.154164
2229.000000	13.171078
2228.000000	13.211431
2227.000000	13.241944
2226.000000	13.239843
2225.000000	13.232325
2224.000000	13.261843
2223.000000	13.258858
2222.000000	13.245260
2221.000000	13.236637
2220.000000	13.225582
2219.000000	13.231883
2218.000000	13.187219
2217.000000	13.161350
2216.000000	13.135701
2215.000000	13.126967
2214.000000	13.099550
2213.000000	13.095238
2212.000000	13.065499
2211.000000	13.076223
2210.000000	13.053338
2209.000000	13.027137
2208.000000	12.982363
2207.000000	12.981368
2206.000000	12.968433
2205.000000	12.936262
2204.000000	12.944774
2203.000000	12.930955
2202.000000	12.933608
2201.000000	12.886954
2200.000000	12.874683
2199.000000	12.890713
2198.000000	12.865618
2197.000000	12.845607
2196.000000	12.831788
2195.000000	12.829909
2194.000000	12.847929
2193.000000	12.810119
2192.000000	12.810672
2191.000000	12.808129
2190.000000	12.779275
2189.000000	12.783586
2188.000000	12.765677
2187.000000	12.765124
2186.000000	12.737706
2185.000000	12.715264
2184.000000	12.710068
2183.000000	12.685967
2182.000000	12.680661
2181.000000	12.670711
2180.000000	12.659545
2179.000000	12.630358
2178.000000	12.626379
2177.000000	12.612228
2176.000000	12.619524
2175.000000	12.623946
2174.000000	12.630469
2173.000000	12.630690
2172.000000	12.610790
2171.000000	12.603383
2170.000000	12.624720
2169.000000	12.662751
2168.000000	12.672037
2167.000000	12.682540
2166.000000	12.702440
2165.000000	12.728199
2164.000000	12.723777
2163.000000	12.755285
2162.000000	12.759817
2161.000000	12.775405
2160.000000	12.810783
2159.000000	12.823386
2158.000000	12.835215
2157.000000	12.869376
2156.000000	12.900774
2155.000000	12.926533
2154.000000	12.953619
2153.000000	12.977056
2152.000000	13.000936
2151.000000	13.023157
2150.000000	13.059972
2149.000000	13.098113
2148.000000	13.128626
2147.000000	13.138686
2146.000000	13.155380
2145.000000	13.198385
2144.000000	13.221933
2143.000000	13.218174
2142.000000	13.248687
2141.000000	13.265160
2140.000000	13.268476
2139.000000	13.313140
2138.000000	13.325080
2137.000000	13.316125
2136.000000	13.311924
2135.000000	13.327512
2134.000000	13.334367
2133.000000	13.339784
2132.000000	13.337241
2131.000000	13.346085
2130.000000	13.330718
2129.000000	13.325743
2128.000000	13.324638
2127.000000	13.317452
2126.000000	13.304296
2125.000000	13.281632
2124.000000	13.276879
2123.000000	13.250898
2122.000000	13.208888
2121.000000	13.196174
2120.000000	13.185893
2119.000000	13.169199
2118.000000	13.140676
2117.000000	13.110163
2116.000000	13.069479
2115.000000	13.020725
2114.000000	12.988885
2113.000000	12.962352
2112.000000	12.921116
2111.000000	12.893367
2110.000000	12.866944
2109.000000	12.837647
2108.000000	12.814984
2107.000000	12.782039
2106.000000	12.746993
2105.000000	12.723887
2104.000000	12.699013
2103.000000	12.666510
2102.000000	12.632570
2101.000000	12.602941
2100.000000	12.580941
2099.000000	12.556177
2098.000000	12.520689
2097.000000	12.489955
2096.000000	12.463311
2095.000000	12.435120
2094.000000	12.410798
2093.000000	12.393331
2092.000000	12.382496
2091.000000	12.373873
2090.000000	12.356406
2089.000000	12.341812
2088.000000	12.312516
2087.000000	12.275591
2086.000000	12.257570
2085.000000	12.242424
2084.000000	12.227389
2083.000000	12.205831
2082.000000	12.178745
2081.000000	12.159067
2080.000000	12.144584
2079.000000	12.126232
2078.000000	12.087759
2077.000000	12.064543
2076.000000	12.029276
2075.000000	12.009929
2074.000000	11.992130
2073.000000	11.965929
2072.000000	11.931989
2071.000000	11.897385
2070.000000	11.870852
2069.000000	11.845756
2068.000000	11.832379
2067.000000	11.798660
2066.000000	11.760409
2065.000000	11.732991
2064.000000	11.710217
2063.000000	11.705021
2062.000000	11.687332
2061.000000	11.675282
2060.000000	11.665774
2059.000000	11.652950
2058.000000	11.651845
2057.000000	11.672518
2056.000000	11.668649
2055.000000	11.695845
2054.000000	11.718619
2053.000000	11.749685
2052.000000	11.785394
2051.000000	11.837907
2050.000000	11.883455
2049.000000	11.953104
2048.000000	12.029166
2047.000000	12.122031
2046.000000	12.191680
2045.000000	12.267299
2044.000000	12.354858
2043.000000	12.457452
2042.000000	12.537825
2041.000000	12.625384
2040.000000	12.717586
2039.000000	12.801938
2038.000000	12.873577
2037.000000	12.961800
2036.000000	13.033881
2035.000000	13.125972
2034.000000	13.194626
2033.000000	13.260627
2032.000000	13.301974
2031.000000	13.360568
2030.000000	13.441051
2029.000000	13.477976
2028.000000	13.536460
2027.000000	13.563214
2026.000000	13.604340
2025.000000	13.667687
2024.000000	13.688582
2023.000000	13.716552
2022.000000	13.743527
2021.000000	13.800352
2020.000000	13.819478
2019.000000	13.850654
2018.000000	13.890011
2017.000000	13.888353
2016.000000	13.916434
2015.000000	13.935781
2014.000000	13.934786
2013.000000	13.924504
2012.000000	13.931911
2011.000000	13.954907
2010.000000	13.934012
2009.000000	13.906373
2008.000000	13.915992
2007.000000	13.888132
2006.000000	13.868122
2005.000000	13.846785
2004.000000	13.813176
2003.000000	13.782111
2002.000000	13.745407
2001.000000	13.719979
2000.000000	13.669124
1999.000000	13.610973
1998.000000	13.564982
1997.000000	13.536681
1996.000000	13.480630
1995.000000	13.418941
1994.000000	13.358799
1993.000000	13.287713
1992.000000	13.253883
1991.000000	13.210546
1990.000000	13.150958
1989.000000	13.084736
1988.000000	13.014976
1987.000000	12.926533
1986.000000	12.894914
1985.000000	12.818743
1984.000000	12.730299
1983.000000	12.684309
1982.000000	12.602609
1981.000000	12.532076
1980.000000	12.459995
1979.000000	12.381722
1978.000000	12.323682
1977.000000	12.251379
1976.000000	12.177419
1975.000000	12.102242
1974.000000	12.047186
1973.000000	11.981296
1972.000000	11.924029
1971.000000	11.870852
1970.000000	11.787273
1969.000000	11.724810
1968.000000	11.679151
1967.000000	11.639241
1966.000000	11.553009
1965.000000	11.486677
1964.000000	11.459259
1963.000000	11.370042
1962.000000	11.338424
1961.000000	11.268664
1960.000000	11.212061
1959.000000	11.165407
1958.000000	11.111125
1957.000000	11.083818
1956.000000	10.997586
1955.000000	10.923957
1954.000000	10.914338
1953.000000	10.864257
1952.000000	10.820478
1951.000000	10.761000
1950.000000	10.737010
1949.000000	10.706607
1948.000000	10.655642
1947.000000	10.617280
1946.000000	10.615843
1945.000000	10.550837
1944.000000	10.550837
1943.000000	10.508605
1942.000000	10.524857
1941.000000	10.502746
1940.000000	10.509821
1939.000000	10.531490
1938.000000	10.482072
1937.000000	10.501861
1936.000000	10.496665
1935.000000	10.513359
1934.000000	10.560565
1933.000000	10.597933
1932.000000	10.639501
1931.000000	10.663049
1930.000000	10.726507
1929.000000	10.795493
1928.000000	10.857735
1927.000000	10.908037
1926.000000	10.968399
1925.000000	11.063365
1924.000000	11.167286
1923.000000	11.267227
1922.000000	11.370927
1921.000000	11.501491
1920.000000	11.596789
1919.000000	11.711875
1918.000000	11.850400
1917.000000	11.990582
1916.000000	12.124131
1915.000000	12.296596
1914.000000	12.470276
1913.000000	12.636328
1912.000000	12.793868
1911.000000	12.947870
1910.000000	13.169420
1909.000000	13.371845
1908.000000	13.577696
1907.000000	13.805438
1906.000000	14.030194
1905.000000	14.282257
1904.000000	14.519396
1903.000000	14.757640
1902.000000	15.008708
1901.000000	15.289957
1900.000000	15.560815
1899.000000	15.877773
1898.000000	16.154711
1897.000000	16.429659
1896.000000	16.716326
1895.000000	17.049757
1894.000000	17.380424
1893.000000	17.712971
1892.000000	18.122131
1891.000000	18.510729
1890.000000	18.890261
1889.000000	19.296878
1888.000000	19.751145
1887.000000	20.191150
1886.000000	20.700915
1885.000000	21.272922
1884.000000	21.877873
1883.000000	22.496755
1882.000000	23.114752
1881.000000	23.796539
1880.000000	24.405029
1879.000000	25.000252
1878.000000	25.617254
1877.000000	26.195673
1876.000000	26.764805
1875.000000	27.289052
1874.000000	27.798927
1873.000000	28.279064
1872.000000	28.680154
1871.000000	29.034037
1870.000000	29.366252
1869.000000	29.670939
1868.000000	29.896138
1867.000000	30.087839
1866.000000	30.238966
1865.000000	30.394958
1864.000000	30.520326
1863.000000	30.637403
1862.000000	30.787535
1861.000000	30.916220
1860.000000	30.991729
1859.000000	31.031970
1858.000000	31.057398
1857.000000	31.074091
1856.000000	31.076192
1855.000000	31.063810
1854.000000	31.002342
1853.000000	30.921416
1852.000000	30.860169
1851.000000	30.830099
1850.000000	30.819485
1849.000000	30.771394
1848.000000	30.680187
1847.000000	30.557804
1846.000000	30.428677
1845.000000	30.354937
1844.000000	30.333821
1843.000000	30.336585
1842.000000	30.320665
1841.000000	30.242504
1840.000000	30.171086
1839.000000	30.126975
1838.000000	30.068049
1837.000000	29.982702
1836.000000	29.879334
1835.000000	29.745784
1834.000000	29.634125
1833.000000	29.536284
1832.000000	29.438997
1831.000000	29.337619
1830.000000	29.230492
1829.000000	29.111536
1828.000000	28.993906
1827.000000	28.884237
1826.000000	28.759642
1825.000000	28.664566
1824.000000	28.610394
1823.000000	28.613490
1822.000000	28.583972
1821.000000	28.522504
1820.000000	28.465347
1819.000000	28.411286
1818.000000	28.384090
1817.000000	28.376794
1816.000000	28.360653
1815.000000	28.331135
1814.000000	28.314994
1813.000000	28.302722
1812.000000	28.266129
1811.000000	28.211294
1810.000000	28.160218
1809.000000	28.109695
1808.000000	28.056961
1807.000000	28.009201
1806.000000	27.926507
1805.000000	27.839390
1804.000000	27.773389
1803.000000	27.723530
1802.000000	27.652112
1801.000000	27.569970
1800.000000	27.486723
1799.000000	27.413536
1798.000000	27.360249
1797.000000	27.296349
1796.000000	27.226921
1795.000000	27.156387
1794.000000	27.088397
1793.000000	27.026155
1792.000000	26.944124
1791.000000	26.860545
1790.000000	26.772875
1789.000000	26.687085
1788.000000	26.616662
1787.000000	26.516943
1786.000000	26.410811
1785.000000	26.331765
1784.000000	26.219994
1783.000000	26.086003
1782.000000	25.984625
1781.000000	25.883357
1780.000000	25.769708
1779.000000	25.659707
1778.000000	25.552580
1777.000000	25.422126
1776.000000	25.258395
1775.000000	25.118876
1774.000000	24.949507
1773.000000	24.789646
1772.000000	24.626137
1771.000000	24.456547
1770.000000	24.292816
1769.000000	24.139809
1768.000000	23.986139
1767.000000	23.857786
1766.000000	23.748116
1765.000000	23.672276
1764.000000	23.620869
1763.000000	23.613240
1762.000000	23.629824
1761.000000	23.686869
1760.000000	23.771775
1759.000000	23.890731
1758.000000	23.981164
1757.000000	24.058552
1756.000000	24.113829
1755.000000	24.163026
1754.000000	24.194313
1753.000000	24.176734
1752.000000	24.157940
1751.000000	24.129086
1750.000000	24.050482
1749.000000	23.975526
1748.000000	23.879676
1747.000000	23.759946
1746.000000	23.603069
1745.000000	23.409158
1744.000000	23.211487
1743.000000	22.992369
1742.000000	22.740416
1741.000000	22.445016
1740.000000	22.154369
1739.000000	21.871572
1738.000000	21.608011
1737.000000	21.409456
1736.000000	21.244288
1735.000000	21.125000
1734.000000	21.089844
1733.000000	21.098799
1732.000000	21.189785
1731.000000	21.274912
1730.000000	21.419074
1729.000000	21.551628
1728.000000	21.704967
1727.000000	21.864165
1726.000000	21.970739
1725.000000	22.051775
1724.000000	22.141103
1723.000000	22.184772
1722.000000	22.206993
1721.000000	22.230651
1720.000000	22.232310
1719.000000	22.273878
1718.000000	22.311024
1717.000000	22.366522
1716.000000	22.434181
1715.000000	22.495981
1714.000000	22.579781
1713.000000	22.654405
1712.000000	22.723833
1711.000000	22.738868
1710.000000	22.762195
1709.000000	22.752024
1708.000000	22.729029
1707.000000	22.686797
1706.000000	22.633842
1705.000000	22.551479
1704.000000	22.465689
1703.000000	22.344412
1702.000000	22.226340
1701.000000	22.050227
1700.000000	21.839953
1699.000000	21.642504
1698.000000	21.452130
1697.000000	21.312279
1696.000000	21.256891
1695.000000	21.245062
1694.000000	21.340470
1693.000000	21.480100
1692.000000	21.677550
1691.000000	21.882738
1690.000000	22.063051
1689.000000	22.204118
1688.000000	22.294994
1687.000000	22.315557
1686.000000	22.330924
1685.000000	22.390955
1684.000000	22.532575
1683.000000	22.808075
1682.000000	23.252392
1681.000000	23.840208
1680.000000	24.503753
1679.000000	25.226777
1678.000000	25.930011
1677.000000	26.583496
1676.000000	27.172749
1675.000000	27.747299
1674.000000	28.178238
1673.000000	28.555449
1672.000000	28.876166
1671.000000	29.180632
1670.000000	29.441319
1669.000000	29.658336
1668.000000	29.838208
1667.000000	30.022170
1666.000000	30.137588
1665.000000	30.263841
1664.000000	30.374616
1663.000000	30.455541
1662.000000	30.525412
1661.000000	30.578478
1660.000000	30.627785
1659.000000	30.661393
1658.000000	30.696549
1657.000000	30.710037
1656.000000	30.695886
1655.000000	30.692901
1654.000000	30.669685
1653.000000	30.640056
1652.000000	30.605010
1651.000000	30.564990
1650.000000	30.531824
1649.000000	30.454215
1648.000000	30.396506
1647.000000	30.321439
1646.000000	30.238413
1645.000000	30.158262
1644.000000	30.080542
1643.000000	30.007797
1642.000000	29.917806
1641.000000	29.851142
1640.000000	29.748990
1639.000000	29.644738
1638.000000	29.568456
1637.000000	29.449168
1636.000000	29.354423
1635.000000	29.252161
1634.000000	29.127787
1633.000000	29.037022
1632.000000	28.941835
1631.000000	28.816909
1630.000000	28.714757
1629.000000	28.590495
1628.000000	28.465568
1627.000000	28.358220
1626.000000	28.250320
1625.000000	28.134791
1624.000000	28.018377
1623.000000	27.899753
1622.000000	27.791963
1621.000000	27.669911
1620.000000	27.556704
1619.000000	27.451014
1618.000000	27.339354
1617.000000	27.243614
1616.000000	27.143563
1615.000000	27.027371
1614.000000	26.932958
1613.000000	26.815549
1612.000000	26.709638
1611.000000	26.640763
1610.000000	26.555637
1609.000000	26.443535
1608.000000	26.334528
1607.000000	26.247633
1606.000000	26.146255
1605.000000	26.066103
1604.000000	25.984514
1603.000000	25.873850
1602.000000	25.778442
1601.000000	25.690993
1600.000000	25.627535
1599.000000	25.538208
1598.000000	25.451644
1597.000000	25.374035
1596.000000	25.287139
