PE UV       SUBTECH     SPECTRUM    ASCII       PEDS        4.00        
   -1
CICIMAUCR0225-2.Sample.ASC
24/05/27
15:32:39.00
24/05/27
15:32:39.00
Vinicio Soto Monge
C. resplendens, F
250,000000
1
Lambda 1050
1050L1511233
PerkinElmer UV WinLab 6.3.2.0749 / 2.02.05 Lambda 900 UV/VIS/NIR, Aug  7 2015 09:38:08

0
0
3350/servo 860,8/2
0
0
UV/VIS
1
1
1
DoubleDePol,CommonBeamDepol,RBeamAtt,SBeamAtt,60mm sphere, WB InGaAs Detector
0
0
0
0
Program
Program
3350/servo 860,8/2
3350/0,2 860,8/0,2
3350/0,2 860,8/0,2
0
15.00
 
 
 
0
 
860,8
319,2
860,8
Front
100
on
S:100 R:100
0
0
0
0
 
0
 
 
 
0
 
 
0
0
0
0
0
 
 
 
 
0
0


0
0
#HDR
-1
-1
#GR
nm
%R
1.0
0.0
2500,000000
-1,000000
2251
8
76,317000
5,348100
#DATA
2482.000000	8.636984
2481.000000	8.689332
2480.000000	8.740226
2479.000000	8.677907
2478.000000	8.607382
2477.000000	8.718726
2476.000000	8.739291
2475.000000	8.722984
2474.000000	8.678218
2473.000000	8.696083
2472.000000	8.699407
2471.000000	8.711663
2470.000000	8.700238
2469.000000	8.679672
2468.000000	8.740122
2467.000000	8.732228
2466.000000	8.769619
2465.000000	8.737941
2464.000000	8.818020
2463.000000	8.824668
2462.000000	8.840767
2461.000000	8.872965
2460.000000	8.907448
2459.000000	8.938815
2458.000000	8.997810
2457.000000	9.071658
2456.000000	9.095236
2455.000000	9.127122
2454.000000	9.205852
2453.000000	9.251033
2452.000000	9.304627
2451.000000	9.379825
2450.000000	9.456997
2449.000000	9.521705
2448.000000	9.585374
2447.000000	9.652678
2446.000000	9.706272
2445.000000	9.783652
2444.000000	9.841816
2443.000000	9.914418
2442.000000	9.987954
2441.000000	10.058582
2440.000000	10.121109
2439.000000	10.197034
2438.000000	10.232763
2437.000000	10.299237
2436.000000	10.366853
2435.000000	10.419097
2434.000000	10.479962
2433.000000	10.523377
2432.000000	10.599302
2431.000000	10.638459
2430.000000	10.684991
2429.000000	10.753022
2428.000000	10.791452
2427.000000	10.832271
2426.000000	10.880880
2425.000000	10.912766
2424.000000	10.966464
2423.000000	11.002506
2422.000000	11.026810
2421.000000	11.078950
2420.000000	11.113745
2419.000000	11.139088
2418.000000	11.155291
2417.000000	11.197044
2416.000000	11.223634
2415.000000	11.259259
2414.000000	11.304960
2413.000000	11.336846
2412.000000	11.349414
2411.000000	11.372576
2410.000000	11.398542
2409.000000	11.423781
2408.000000	11.443931
2407.000000	11.472390
2406.000000	11.505419
2405.000000	11.541045
2404.000000	11.547484
2403.000000	11.555897
2402.000000	11.599936
2401.000000	11.636600
2400.000000	11.668383
2399.000000	11.704528
2398.000000	11.726547
2397.000000	11.750644
2396.000000	11.778376
2395.000000	11.796656
2394.000000	11.806419
2393.000000	11.824388
2392.000000	11.852120
2391.000000	11.868530
2390.000000	11.891900
2389.000000	11.918178
2388.000000	11.918801
2387.000000	11.924617
2386.000000	11.949857
2385.000000	11.963775
2384.000000	11.972188
2383.000000	11.964190
2382.000000	11.951518
2381.000000	11.957543
2380.000000	11.956608
2379.000000	11.960451
2378.000000	11.951415
2377.000000	11.947156
2376.000000	11.933861
2375.000000	11.914646
2374.000000	11.900729
2373.000000	11.875801
2372.000000	11.849731
2371.000000	11.834255
2370.000000	11.806315
2369.000000	11.784088
2368.000000	11.749813
2367.000000	11.705670
2366.000000	11.664644
2365.000000	11.623513
2364.000000	11.572308
2363.000000	11.510301
2362.000000	11.462938
2361.000000	11.418796
2360.000000	11.355750
2359.000000	11.299663
2358.000000	11.251885
2357.000000	11.198083
2356.000000	11.148851
2355.000000	11.116445
2354.000000	11.085182
2353.000000	11.062539
2352.000000	11.040624
2351.000000	11.030445
2350.000000	11.032315
2349.000000	11.033561
2348.000000	11.051530
2347.000000	11.087363
2346.000000	11.119353
2345.000000	11.153317
2344.000000	11.195071
2343.000000	11.221037
2342.000000	11.259156
2341.000000	11.287822
2340.000000	11.317735
2339.000000	11.349933
2338.000000	11.367071
2337.000000	11.360424
2336.000000	11.351907
2335.000000	11.368733
2334.000000	11.371433
2333.000000	11.345987
2332.000000	11.310776
2331.000000	11.284810
2330.000000	11.248977
2329.000000	11.208469
2328.000000	11.138568
2327.000000	11.080716
2326.000000	11.032315
2325.000000	10.957740
2324.000000	10.859588
2323.000000	10.767771
2322.000000	10.688418
2321.000000	10.600029
2320.000000	10.502604
2319.000000	10.389599
2318.000000	10.273582
2317.000000	10.164628
2316.000000	10.050584
2315.000000	9.915041
2314.000000	9.803178
2313.000000	9.712193
2312.000000	9.616118
2311.000000	9.521393
2310.000000	9.446922
2309.000000	9.396651
2308.000000	9.324361
2307.000000	9.273052
2306.000000	9.257888
2305.000000	9.240750
2304.000000	9.237842
2303.000000	9.268274
2302.000000	9.309924
2301.000000	9.356248
2300.000000	9.430407
2299.000000	9.501451
2298.000000	9.570313
2297.000000	9.651224
2296.000000	9.731408
2295.000000	9.802244
2294.000000	9.893541
2293.000000	9.951497
2292.000000	10.001249
2291.000000	10.071669
2290.000000	10.110618
2289.000000	10.143336
2288.000000	10.160889
2287.000000	10.165874
2286.000000	10.164109
2285.000000	10.168055
2284.000000	10.161200
2283.000000	10.125263
2282.000000	10.094104
2281.000000	10.040198
2280.000000	10.018698
2279.000000	9.993666
2278.000000	9.941942
2277.000000	9.887620
2276.000000	9.831949
2275.000000	9.834338
2274.000000	9.780951
2273.000000	9.769526
2272.000000	9.738782
2271.000000	9.777316
2270.000000	9.759243
2269.000000	9.808372
2268.000000	9.862070
2267.000000	9.909120
2266.000000	10.006234
2265.000000	10.082367
2264.000000	10.183739
2263.000000	10.326138
2262.000000	10.477157
2261.000000	10.651650
2260.000000	10.835699
2259.000000	11.008218
2258.000000	11.227269
2257.000000	11.447982
2256.000000	11.682093
2255.000000	11.878917
2254.000000	12.110847
2253.000000	12.308502
2252.000000	12.534408
2251.000000	12.741826
2250.000000	12.943531
2249.000000	13.137655
2248.000000	13.323677
2247.000000	13.488406
2246.000000	13.643892
2245.000000	13.788576
2244.000000	13.930247
2243.000000	14.065064
2242.000000	14.179627
2241.000000	14.286712
2240.000000	14.368245
2239.000000	14.463801
2238.000000	14.547308
2237.000000	14.613574
2236.000000	14.680775
2235.000000	14.769683
2234.000000	14.822550
2233.000000	14.864927
2232.000000	14.902007
2231.000000	14.956224
2230.000000	14.959756
2229.000000	15.005768
2228.000000	15.022178
2227.000000	15.025087
2226.000000	15.042224
2225.000000	15.015843
2224.000000	15.025190
2223.000000	15.015116
2222.000000	14.998289
2221.000000	14.968376
2220.000000	14.978763
2219.000000	14.943864
2218.000000	14.921326
2217.000000	14.883415
2216.000000	14.866070
2215.000000	14.822862
2214.000000	14.796376
2213.000000	14.759816
2212.000000	14.719309
2211.000000	14.711207
2210.000000	14.700405
2209.000000	14.652108
2208.000000	14.664260
2207.000000	14.635905
2206.000000	14.612639
2205.000000	14.578987
2204.000000	14.575144
2203.000000	14.566108
2202.000000	14.536195
2201.000000	14.523523
2200.000000	14.481562
2199.000000	14.512098
2198.000000	14.513968
2197.000000	14.471072
2196.000000	14.456634
2195.000000	14.456738
2194.000000	14.443755
2193.000000	14.440328
2192.000000	14.410103
2191.000000	14.412803
2190.000000	14.396808
2189.000000	14.378840
2188.000000	14.376658
2187.000000	14.347161
2186.000000	14.357651
2185.000000	14.376347
2184.000000	14.349861
2183.000000	14.338436
2182.000000	14.320468
2181.000000	14.308004
2180.000000	14.312885
2179.000000	14.321922
2178.000000	14.295332
2177.000000	14.301668
2176.000000	14.293047
2175.000000	14.297513
2174.000000	14.307277
2173.000000	14.331581
2172.000000	14.315690
2171.000000	14.329608
2170.000000	14.335943
2169.000000	14.360767
2168.000000	14.393485
2167.000000	14.415088
2166.000000	14.441886
2165.000000	14.444067
2164.000000	14.476992
2163.000000	14.523004
2162.000000	14.552605
2161.000000	14.575871
2160.000000	14.604330
2159.000000	14.654705
2158.000000	14.688045
2157.000000	14.742782
2156.000000	14.788586
2155.000000	14.830132
2154.000000	14.879053
2153.000000	14.931089
2152.000000	14.976062
2151.000000	15.015843
2150.000000	15.038381
2149.000000	15.099558
2148.000000	15.159903
2147.000000	15.208720
2146.000000	15.252135
2145.000000	15.310923
2144.000000	15.354234
2143.000000	15.393807
2142.000000	15.429017
2141.000000	15.468382
2140.000000	15.494763
2139.000000	15.534751
2138.000000	15.574324
2137.000000	15.600498
2136.000000	15.628022
2135.000000	15.657000
2134.000000	15.695846
2133.000000	15.725655
2132.000000	15.736041
2131.000000	15.759826
2130.000000	15.770836
2129.000000	15.775302
2128.000000	15.784754
2127.000000	15.797218
2126.000000	15.796075
2125.000000	15.791090
2124.000000	15.781534
2123.000000	15.785169
2122.000000	15.785273
2121.000000	15.774160
2120.000000	15.754633
2119.000000	15.738015
2118.000000	15.712464
2117.000000	15.696780
2116.000000	15.683901
2115.000000	15.663544
2114.000000	15.631761
2113.000000	15.614727
2112.000000	15.591669
2111.000000	15.564353
2110.000000	15.534128
2109.000000	15.489674
2108.000000	15.463188
2107.000000	15.433795
2106.000000	15.417384
2105.000000	15.388821
2104.000000	15.343640
2103.000000	15.317570
2102.000000	15.295654
2101.000000	15.275609
2100.000000	15.235828
2099.000000	15.202799
2098.000000	15.191374
2097.000000	15.162396
2096.000000	15.133937
2095.000000	15.114203
2094.000000	15.095507
2093.000000	15.069852
2092.000000	15.056350
2091.000000	15.041393
2090.000000	15.011896
2089.000000	14.994239
2088.000000	14.975128
2087.000000	14.969415
2086.000000	14.955393
2085.000000	14.922676
2084.000000	14.887154
2083.000000	14.875625
2082.000000	14.852152
2081.000000	14.818292
2080.000000	14.785470
2079.000000	14.753272
2078.000000	14.722217
2077.000000	14.683371
2076.000000	14.633828
2075.000000	14.585634
2074.000000	14.544919
2073.000000	14.498803
2072.000000	14.449156
2071.000000	14.411869
2070.000000	14.364299
2069.000000	14.312678
2068.000000	14.260849
2067.000000	14.195414
2066.000000	14.145144
2065.000000	14.097781
2064.000000	14.047511
2063.000000	14.001291
2062.000000	13.961095
2061.000000	13.903243
2060.000000	13.847363
2059.000000	13.828875
2058.000000	13.786395
2057.000000	13.757105
2056.000000	13.754820
2055.000000	13.746199
2054.000000	13.735397
2053.000000	13.743083
2052.000000	13.765414
2051.000000	13.791588
2050.000000	13.827525
2049.000000	13.892648
2048.000000	13.963484
2047.000000	14.031723
2046.000000	14.094354
2045.000000	14.174226
2044.000000	14.282765
2043.000000	14.369596
2042.000000	14.466190
2041.000000	14.570262
2040.000000	14.659898
2039.000000	14.753999
2038.000000	14.846543
2037.000000	14.916548
2036.000000	15.011584
2035.000000	15.099973
2034.000000	15.165200
2033.000000	15.250266
2032.000000	15.319959
2031.000000	15.366075
2030.000000	15.421954
2029.000000	15.477314
2028.000000	15.524469
2027.000000	15.571104
2026.000000	15.618155
2025.000000	15.646302
2024.000000	15.676838
2023.000000	15.711425
2022.000000	15.732095
2021.000000	15.765227
2020.000000	15.793686
2019.000000	15.818718
2018.000000	15.857979
2017.000000	15.856421
2016.000000	15.861926
2015.000000	15.879686
2014.000000	15.889242
2013.000000	15.892566
2012.000000	15.902225
2011.000000	15.899317
2010.000000	15.894435
2009.000000	15.868469
2008.000000	15.855694
2007.000000	15.822872
2006.000000	15.815913
2005.000000	15.823288
2004.000000	15.785896
2003.000000	15.741650
2002.000000	15.706024
2001.000000	15.686082
2000.000000	15.645575
1999.000000	15.592292
1998.000000	15.535063
1997.000000	15.481157
1996.000000	15.429952
1995.000000	15.372411
1994.000000	15.319128
1993.000000	15.273116
1992.000000	15.203319
1991.000000	15.136014
1990.000000	15.059258
1989.000000	15.016466
1988.000000	14.924649
1987.000000	14.849867
1986.000000	14.775603
1985.000000	14.705183
1984.000000	14.627284
1983.000000	14.545231
1982.000000	14.453311
1981.000000	14.383306
1980.000000	14.321091
1979.000000	14.242050
1978.000000	14.149298
1977.000000	14.061844
1976.000000	13.987892
1975.000000	13.916953
1974.000000	13.815165
1973.000000	13.745680
1972.000000	13.664873
1971.000000	13.609928
1970.000000	13.529537
1969.000000	13.455481
1968.000000	13.380595
1967.000000	13.310070
1966.000000	13.227498
1965.000000	13.181070
1964.000000	13.091123
1963.000000	13.027870
1962.000000	12.967940
1961.000000	12.897623
1960.000000	12.801341
1959.000000	12.758964
1958.000000	12.674937
1957.000000	12.621031
1956.000000	12.538251
1955.000000	12.483826
1954.000000	12.437606
1953.000000	12.362927
1952.000000	12.293130
1951.000000	12.221048
1950.000000	12.155821
1949.000000	12.114794
1948.000000	12.070132
1947.000000	12.019342
1946.000000	11.961282
1945.000000	11.953180
1944.000000	11.894185
1943.000000	11.862506
1942.000000	11.828854
1941.000000	11.801330
1940.000000	11.765912
1939.000000	11.775675
1938.000000	11.779311
1937.000000	11.782946
1936.000000	11.819506
1935.000000	11.801122
1934.000000	11.804238
1933.000000	11.831035
1932.000000	11.857417
1931.000000	11.872270
1930.000000	11.925968
1929.000000	12.003347
1928.000000	12.075845
1927.000000	12.159871
1926.000000	12.221152
1925.000000	12.345062
1924.000000	12.400422
1923.000000	12.472089
1922.000000	12.557778
1921.000000	12.723130
1920.000000	12.885679
1919.000000	13.042722
1918.000000	13.173696
1917.000000	13.272679
1916.000000	13.387034
1915.000000	13.503155
1914.000000	13.677233
1913.000000	13.868967
1912.000000	14.101105
1911.000000	14.312262
1910.000000	14.472422
1909.000000	14.615444
1908.000000	14.764490
1907.000000	14.949577
1906.000000	15.172159
1905.000000	15.452594
1904.000000	15.744766
1903.000000	16.002662
1902.000000	16.229503
1901.000000	16.468704
1900.000000	16.745608
1899.000000	17.017318
1898.000000	17.341896
1897.000000	17.653075
1896.000000	17.917307
1895.000000	18.148614
1894.000000	18.381375
1893.000000	18.657344
1892.000000	18.958136
1891.000000	19.334335
1890.000000	19.715726
1889.000000	20.042900
1888.000000	20.366751
1887.000000	20.715633
1886.000000	21.058595
1885.000000	21.440090
1884.000000	21.868533
1883.000000	22.324707
1882.000000	22.769664
1881.000000	23.190316
1880.000000	23.616993
1879.000000	24.003786
1878.000000	24.397953
1877.000000	24.804168
1876.000000	25.162502
1875.000000	25.533403
1874.000000	25.871068
1873.000000	26.208213
1872.000000	26.554291
1871.000000	26.836699
1870.000000	27.123158
1869.000000	27.344702
1868.000000	27.579748
1867.000000	27.737000
1866.000000	27.874413
1865.000000	27.954389
1864.000000	28.059604
1863.000000	28.148200
1862.000000	28.227242
1861.000000	28.337234
1860.000000	28.432894
1859.000000	28.493135
1858.000000	28.577993
1857.000000	28.636053
1856.000000	28.668459
1855.000000	28.682377
1854.000000	28.704293
1853.000000	28.722365
1852.000000	28.699930
1851.000000	28.693802
1850.000000	28.704085
1849.000000	28.688505
1848.000000	28.678534
1847.000000	28.700554
1846.000000	28.655165
1845.000000	28.585575
1844.000000	28.554312
1843.000000	28.517024
1842.000000	28.513701
1841.000000	28.512766
1840.000000	28.500718
1839.000000	28.462184
1838.000000	28.436114
1837.000000	28.397476
1836.000000	28.372445
1835.000000	28.342428
1834.000000	28.278343
1833.000000	28.213116
1832.000000	28.132309
1831.000000	28.087336
1830.000000	28.054514
1829.000000	28.001959
1828.000000	27.940367
1827.000000	27.873893
1826.000000	27.808770
1825.000000	27.758603
1824.000000	27.706359
1823.000000	27.668553
1822.000000	27.650065
1821.000000	27.655362
1820.000000	27.642586
1819.000000	27.615374
1818.000000	27.573309
1817.000000	27.529997
1816.000000	27.523557
1815.000000	27.521272
1814.000000	27.477753
1813.000000	27.468509
1812.000000	27.476818
1811.000000	27.461135
1810.000000	27.430391
1809.000000	27.379808
1808.000000	27.346260
1807.000000	27.312504
1806.000000	27.279475
1805.000000	27.237202
1804.000000	27.181115
1803.000000	27.141750
1802.000000	27.108202
1801.000000	27.054400
1800.000000	27.006934
1799.000000	26.968296
1798.000000	26.915740
1797.000000	26.867651
1796.000000	26.822677
1795.000000	26.782066
1794.000000	26.744156
1793.000000	26.699701
1792.000000	26.652547
1791.000000	26.605808
1790.000000	26.552733
1789.000000	26.493737
1788.000000	26.436092
1787.000000	26.393612
1786.000000	26.360375
1785.000000	26.311455
1784.000000	26.238853
1783.000000	26.180689
1782.000000	26.107983
1781.000000	26.027281
1780.000000	25.970466
1779.000000	25.917184
1778.000000	25.847283
1777.000000	25.761906
1776.000000	25.682345
1775.000000	25.596969
1774.000000	25.504529
1773.000000	25.408558
1772.000000	25.307497
1771.000000	25.200724
1770.000000	25.084084
1769.000000	24.963289
1768.000000	24.858490
1767.000000	24.754936
1766.000000	24.655642
1765.000000	24.572550
1764.000000	24.518021
1763.000000	24.478864
1762.000000	24.461310
1761.000000	24.468269
1760.000000	24.501922
1759.000000	24.529134
1758.000000	24.569849
1757.000000	24.622509
1756.000000	24.668936
1755.000000	24.724919
1754.000000	24.752340
1753.000000	24.779864
1752.000000	24.796067
1751.000000	24.792743
1750.000000	24.781837
1749.000000	24.768543
1748.000000	24.716922
1747.000000	24.676622
1746.000000	24.608902
1745.000000	24.517397
1744.000000	24.419141
1743.000000	24.291180
1742.000000	24.129255
1741.000000	23.970965
1740.000000	23.780892
1739.000000	23.609307
1738.000000	23.412795
1737.000000	23.226773
1736.000000	23.059135
1735.000000	22.909778
1734.000000	22.799992
1733.000000	22.726352
1732.000000	22.701321
1731.000000	22.704748
1730.000000	22.747541
1729.000000	22.808821
1728.000000	22.880176
1727.000000	22.956932
1726.000000	23.016862
1725.000000	23.092787
1724.000000	23.140254
1723.000000	23.187720
1722.000000	23.227292
1721.000000	23.278705
1720.000000	23.313292
1719.000000	23.360551
1718.000000	23.418508
1717.000000	23.479268
1716.000000	23.550727
1715.000000	23.638389
1714.000000	23.741631
1713.000000	23.815271
1712.000000	23.902518
1711.000000	23.962552
1710.000000	24.003163
1709.000000	24.040139
1708.000000	24.066001
1707.000000	24.073168
1706.000000	24.059457
1705.000000	24.051252
1704.000000	24.036607
1703.000000	23.991738
1702.000000	23.919448
1701.000000	23.858791
1700.000000	23.775803
1699.000000	23.663940
1698.000000	23.544080
1697.000000	23.437930
1696.000000	23.353280
1695.000000	23.317966
1694.000000	23.281198
1693.000000	23.318278
1692.000000	23.409056
1691.000000	23.502846
1690.000000	23.609827
1689.000000	23.713691
1688.000000	23.809974
1687.000000	23.855051
1686.000000	23.924018
1685.000000	23.973977
1684.000000	24.022689
1683.000000	24.110040
1682.000000	24.277158
1681.000000	24.554997
1680.000000	24.882898
1679.000000	25.285270
1678.000000	25.694394
1677.000000	26.125744
1676.000000	26.505578
1675.000000	26.864639
1674.000000	27.163977
1673.000000	27.433818
1672.000000	27.685794
1671.000000	27.890719
1670.000000	28.063135
1669.000000	28.248222
1668.000000	28.373795
1667.000000	28.489604
1666.000000	28.581109
1665.000000	28.698269
1664.000000	28.791124
1663.000000	28.885329
1662.000000	28.942247
1661.000000	28.993556
1660.000000	29.069689
1659.000000	29.122453
1658.000000	29.161610
1657.000000	29.182383
1656.000000	29.210530
1655.000000	29.246675
1654.000000	29.246363
1653.000000	29.257581
1652.000000	29.233069
1651.000000	29.251556
1650.000000	29.236288
1649.000000	29.213334
1648.000000	29.193392
1647.000000	29.148938
1646.000000	29.123076
1645.000000	29.091605
1644.000000	29.041646
1643.000000	29.036349
1642.000000	28.988778
1641.000000	28.933522
1640.000000	28.902467
1639.000000	28.845964
1638.000000	28.793409
1637.000000	28.747397
1636.000000	28.697645
1635.000000	28.647686
1634.000000	28.571865
1633.000000	28.532085
1632.000000	28.480672
1631.000000	28.415652
1630.000000	28.355203
1629.000000	28.258505
1628.000000	28.217790
1627.000000	28.149343
1626.000000	28.082246
1625.000000	28.006321
1624.000000	27.942963
1623.000000	27.867142
1622.000000	27.803473
1621.000000	27.730871
1620.000000	27.670838
1619.000000	27.604468
1618.000000	27.558560
1617.000000	27.506316
1616.000000	27.418031
1615.000000	27.357374
1614.000000	27.301494
1613.000000	27.274282
1612.000000	27.182569
1611.000000	27.126897
1610.000000	27.059801
1609.000000	26.994989
1608.000000	26.949704
1607.000000	26.892163
1606.000000	26.828494
1605.000000	26.760462
1604.000000	26.695028
1603.000000	26.645796
