PE UV       SUBTECH     SPECTRUM    ASCII       PEDS        4.00        
   -1
CICIMAUCR0019-3.Sample.ASC
24/04/17
14:35:40.00
24/04/17
14:35:40.00
Vinicio Soto Monge
C. cupreomarginata
250,000000
1
Lambda 1050
1050L1511233
PerkinElmer UV WinLab 6.3.2.0749 / 2.02.05 Lambda 900 UV/VIS/NIR, Aug  7 2015 09:38:08

0
0
3350/servo 860,8/2
0
0
UV/VIS
1
1
1
DoubleDePol,CommonBeamDepol,RBeamAtt,SBeamAtt,60mm sphere, WB InGaAs Detector
0
0
0
0
Program
Program
3350/servo 860,8/2
3350/0,2 860,8/0,2
3350/0,2 860,8/0,2
0
15.00
 
 
 
0
 
860,8
319,2
860,8
Front
100
on
S:100 R:100
0
0
0
0
 
0
 
 
 
0
 
 
0
0
0
0
0
 
 
 
 
0
0


0
0
#HDR
-1
-1
#GR
nm
%R
1.0
0.0
2500,000000
-1,000000
2251
8
48,289000
3,625600
#DATA
2482.000000	8.671262
2481.000000	8.677396
2480.000000	8.727512
2479.000000	8.671262
2478.000000	8.669178
2477.000000	8.680405
2476.000000	8.629826
2475.000000	8.653438
2474.000000	8.689433
2473.000000	8.644178
2472.000000	8.673808
2471.000000	8.674503
2470.000000	8.659225
2469.000000	8.701123
2468.000000	8.702859
2467.000000	8.744411
2466.000000	8.742559
2465.000000	8.743253
2464.000000	8.753901
2463.000000	8.810036
2462.000000	8.851935
2461.000000	8.881333
2460.000000	8.907722
2459.000000	8.953440
2458.000000	9.034575
2457.000000	9.100548
2456.000000	9.131798
2455.000000	9.195919
2454.000000	9.244300
2453.000000	9.330064
2452.000000	9.389787
2451.000000	9.451246
2450.000000	9.498816
2449.000000	9.568724
2448.000000	9.627289
2447.000000	9.705183
2446.000000	9.768494
2445.000000	9.841990
2444.000000	9.886898
2443.000000	9.938519
2442.000000	10.016645
2441.000000	10.087247
2440.000000	10.132271
2439.000000	10.177063
2438.000000	10.238290
2437.000000	10.307967
2436.000000	10.366301
2435.000000	10.420584
2434.000000	10.449982
2433.000000	10.489450
2432.000000	10.536788
2431.000000	10.578340
2430.000000	10.620007
2429.000000	10.650563
2428.000000	10.687716
2427.000000	10.705656
2426.000000	10.745355
2425.000000	10.786907
2424.000000	10.812948
2423.000000	10.833898
2422.000000	10.860981
2421.000000	10.907510
2420.000000	10.951839
2419.000000	10.986330
2418.000000	11.044779
2417.000000	11.089108
2416.000000	11.121169
2415.000000	11.135637
2414.000000	11.162836
2413.000000	11.189109
2412.000000	11.250105
2411.000000	11.254272
2410.000000	11.290383
2409.000000	11.339458
2408.000000	11.347328
2407.000000	11.360870
2406.000000	11.400107
2405.000000	11.427769
2404.000000	11.460524
2403.000000	11.500108
2402.000000	11.529853
2401.000000	11.549298
2400.000000	11.569321
2399.000000	11.584020
2398.000000	11.626498
2397.000000	11.643396
2396.000000	11.671406
2395.000000	11.697795
2394.000000	11.710758
2393.000000	11.741661
2392.000000	11.749994
2391.000000	11.760643
2390.000000	11.773374
2389.000000	11.763536
2388.000000	11.756939
2387.000000	11.769555
2386.000000	11.780434
2385.000000	11.783907
2384.000000	11.776499
2383.000000	11.758328
2382.000000	11.738536
2381.000000	11.729971
2380.000000	11.730318
2379.000000	11.717355
2378.000000	11.695133
2377.000000	11.673257
2376.000000	11.667818
2375.000000	11.645132
2374.000000	11.611567
2373.000000	11.586335
2372.000000	11.551844
2371.000000	11.507399
2370.000000	11.470131
2369.000000	11.435524
2368.000000	11.404158
2367.000000	11.355546
2366.000000	11.278231
2365.000000	11.224642
2364.000000	11.172906
2363.000000	11.119201
2362.000000	11.065150
2361.000000	11.004617
2360.000000	10.954385
2359.000000	10.900334
2358.000000	10.854500
2357.000000	10.815611
2356.000000	10.782161
2355.000000	10.765494
2354.000000	10.746513
2353.000000	10.747207
2352.000000	10.756003
2351.000000	10.769777
2350.000000	10.799291
2349.000000	10.831236
2348.000000	10.848713
2347.000000	10.879037
2346.000000	10.921514
2345.000000	10.947325
2344.000000	10.977765
2343.000000	11.010173
2342.000000	11.041076
2341.000000	11.056701
2340.000000	11.072326
2339.000000	11.065034
2338.000000	11.054502
2337.000000	11.041770
2336.000000	11.024525
2335.000000	10.983436
2334.000000	10.953112
2333.000000	10.891074
2332.000000	10.841537
2331.000000	10.810518
2330.000000	10.773133
2329.000000	10.710285
2328.000000	10.648942
2327.000000	10.594775
2326.000000	10.534821
2325.000000	10.459704
2324.000000	10.359472
2323.000000	10.263638
2322.000000	10.191646
2321.000000	10.119886
2320.000000	10.012709
2319.000000	9.892569
2318.000000	9.794883
2317.000000	9.678100
2316.000000	9.568608
2315.000000	9.474626
2314.000000	9.397773
2313.000000	9.313282
2312.000000	9.220109
2311.000000	9.166058
2310.000000	9.105062
2309.000000	9.071728
2308.000000	9.058418
2307.000000	9.039668
2306.000000	9.050663
2305.000000	9.092099
2304.000000	9.115016
2303.000000	9.148234
2302.000000	9.198581
2301.000000	9.288166
2300.000000	9.359231
2299.000000	9.422889
2298.000000	9.487936
2297.000000	9.552983
2296.000000	9.617798
2295.000000	9.662243
2294.000000	9.712359
2293.000000	9.755647
2292.000000	9.798587
2291.000000	9.809351
2290.000000	9.809351
2289.000000	9.809004
2288.000000	9.785971
2287.000000	9.780647
2286.000000	9.742568
2285.000000	9.729374
2284.000000	9.678100
2283.000000	9.635507
2282.000000	9.577173
2281.000000	9.539094
2280.000000	9.500436
2279.000000	9.465482
2278.000000	9.420111
2277.000000	9.389671
2276.000000	9.353097
2275.000000	9.347310
2274.000000	9.301707
2273.000000	9.301592
2272.000000	9.298004
2271.000000	9.326245
2270.000000	9.338861
2269.000000	9.372773
2268.000000	9.450783
2267.000000	9.539788
2266.000000	9.637127
2265.000000	9.751712
2264.000000	9.882847
2263.000000	10.038288
2262.000000	10.223823
2261.000000	10.424635
2260.000000	10.599868
2259.000000	10.807740
2258.000000	11.035520
2257.000000	11.249642
2256.000000	11.467006
2255.000000	11.692355
2254.000000	11.884139
2253.000000	12.135530
2252.000000	12.308101
2251.000000	12.479978
2250.000000	12.700929
2249.000000	12.871417
2248.000000	13.008455
2247.000000	13.194568
2246.000000	13.312393
2245.000000	13.455913
2244.000000	13.577558
2243.000000	13.668415
2242.000000	13.787398
2241.000000	13.889945
2240.000000	13.983001
2239.000000	14.107539
2238.000000	14.172239
2237.000000	14.251638
2236.000000	14.331384
2235.000000	14.359509
2234.000000	14.425135
2233.000000	14.473631
2232.000000	14.502914
2231.000000	14.521895
2230.000000	14.570391
2229.000000	14.597475
2228.000000	14.591225
2227.000000	14.607544
2226.000000	14.602915
2225.000000	14.605114
2224.000000	14.621549
2223.000000	14.611827
2222.000000	14.559511
2221.000000	14.561710
2220.000000	14.563910
2219.000000	14.521548
2218.000000	14.520854
2217.000000	14.469811
2216.000000	14.462751
2215.000000	14.401755
2214.000000	14.408468
2213.000000	14.377681
2212.000000	14.343190
2211.000000	14.312750
2210.000000	14.279416
2209.000000	14.274439
2208.000000	14.267958
2207.000000	14.250828
2206.000000	14.227911
2205.000000	14.240758
2204.000000	14.196892
2203.000000	14.188443
2202.000000	14.193651
2201.000000	14.189948
2200.000000	14.182077
2199.000000	14.140642
2198.000000	14.122817
2197.000000	14.113790
2196.000000	14.117493
2195.000000	14.099438
2194.000000	14.105109
2193.000000	14.071197
2192.000000	14.044923
2191.000000	14.024668
2190.000000	14.016914
2189.000000	14.026173
2188.000000	13.990987
2187.000000	13.976983
2186.000000	13.977909
2185.000000	13.930223
2184.000000	13.926404
2183.000000	13.930339
2182.000000	13.907306
2181.000000	13.898047
2180.000000	13.888093
2179.000000	13.870500
2178.000000	13.889482
2177.000000	13.866102
2176.000000	13.849088
2175.000000	13.844690
2174.000000	13.867259
2173.000000	13.863556
2172.000000	13.885662
2171.000000	13.888903
2170.000000	13.893880
2169.000000	13.923047
2168.000000	13.919343
2167.000000	13.952330
2166.000000	13.968071
2165.000000	14.009390
2164.000000	14.040872
2163.000000	14.056382
2162.000000	14.095155
2161.000000	14.126868
2160.000000	14.146544
2159.000000	14.204300
2158.000000	14.239601
2157.000000	14.286824
2156.000000	14.352102
2155.000000	14.397357
2154.000000	14.434626
2153.000000	14.496895
2152.000000	14.540645
2151.000000	14.587289
2150.000000	14.628725
2149.000000	14.664721
2148.000000	14.700369
2147.000000	14.751527
2146.000000	14.791111
2145.000000	14.822014
2144.000000	14.873403
2143.000000	14.911135
2142.000000	14.953034
2141.000000	14.980580
2140.000000	15.023057
2139.000000	15.055812
2138.000000	15.064377
2137.000000	15.103266
2136.000000	15.156160
2135.000000	15.183244
2134.000000	15.218777
2133.000000	15.230698
2132.000000	15.222828
2131.000000	15.255467
2130.000000	15.281625
2129.000000	15.294125
2128.000000	15.309287
2127.000000	15.291926
2126.000000	15.286486
2125.000000	15.308014
2124.000000	15.311254
2123.000000	15.303500
2122.000000	15.273754
2121.000000	15.251184
2120.000000	15.247712
2119.000000	15.235907
2118.000000	15.220281
2117.000000	15.188221
2116.000000	15.172712
2115.000000	15.144471
2114.000000	15.122827
2113.000000	15.107202
2112.000000	15.079192
2111.000000	15.049562
2110.000000	15.037757
2109.000000	15.017386
2108.000000	14.982779
2107.000000	14.969122
2106.000000	14.961251
2105.000000	14.934399
2104.000000	14.899445
2103.000000	14.873982
2102.000000	14.852685
2101.000000	14.831157
2100.000000	14.808703
2099.000000	14.770740
2098.000000	14.748402
2097.000000	14.737291
2096.000000	14.715068
2095.000000	14.700485
2094.000000	14.699327
2093.000000	14.699327
2092.000000	14.671781
2091.000000	14.640994
2090.000000	14.646781
2089.000000	14.642151
2088.000000	14.631271
2087.000000	14.609280
2086.000000	14.590646
2085.000000	14.586479
2084.000000	14.559164
2083.000000	14.535784
2082.000000	14.531039
2081.000000	14.525946
2080.000000	14.505923
2079.000000	14.484048
2078.000000	14.449672
2077.000000	14.433353
2076.000000	14.412288
2075.000000	14.379996
2074.000000	14.359741
2073.000000	14.319810
2072.000000	14.294926
2071.000000	14.266916
2070.000000	14.228027
2069.000000	14.212749
2068.000000	14.182887
2067.000000	14.148859
2066.000000	14.141452
2065.000000	14.104414
2064.000000	14.072817
2063.000000	14.046775
2062.000000	14.022122
2061.000000	14.016566
2060.000000	13.994807
2059.000000	13.975825
2058.000000	13.969922
2057.000000	14.013210
2056.000000	14.045618
2055.000000	14.066798
2054.000000	14.107192
2053.000000	14.151521
2052.000000	14.208235
2051.000000	14.280342
2050.000000	14.358931
2049.000000	14.438098
2048.000000	14.547358
2047.000000	14.656966
2046.000000	14.763911
2045.000000	14.857894
2044.000000	14.980812
2043.000000	15.067502
2042.000000	15.189841
2041.000000	15.307898
2040.000000	15.459404
2039.000000	15.586836
2038.000000	15.686026
2037.000000	15.790773
2036.000000	15.889848
2035.000000	15.997835
2034.000000	16.095753
2033.000000	16.202351
2032.000000	16.297375
2031.000000	16.375616
2030.000000	16.444367
2029.000000	16.514854
2028.000000	16.601197
2027.000000	16.679902
2026.000000	16.739393
2025.000000	16.808954
2024.000000	16.884186
2023.000000	16.941131
2022.000000	16.992636
2021.000000	17.026433
2020.000000	17.074465
2019.000000	17.095993
2018.000000	17.151318
2017.000000	17.204791
2016.000000	17.255138
2015.000000	17.268333
2014.000000	17.285926
2013.000000	17.315671
2012.000000	17.325278
2011.000000	17.355834
2010.000000	17.368913
2009.000000	17.393566
2008.000000	17.349468
2007.000000	17.324699
2006.000000	17.333843
2005.000000	17.323195
2004.000000	17.295995
2003.000000	17.303634
2002.000000	17.268680
2001.000000	17.248194
2000.000000	17.217754
1999.000000	17.172267
1998.000000	17.117174
1997.000000	17.060808
1996.000000	17.017173
1995.000000	16.935112
1994.000000	16.906871
1993.000000	16.844139
1992.000000	16.786268
1991.000000	16.714971
1990.000000	16.649924
1989.000000	16.564738
1988.000000	16.505363
1987.000000	16.433487
1986.000000	16.360570
1985.000000	16.290315
1984.000000	16.185452
1983.000000	16.106632
1982.000000	16.003506
1981.000000	15.935682
1980.000000	15.834870
1979.000000	15.773296
1978.000000	15.709175
1977.000000	15.603387
1976.000000	15.531627
1975.000000	15.447714
1974.000000	15.368315
1973.000000	15.282203
1972.000000	15.218892
1971.000000	15.120975
1970.000000	15.064146
1969.000000	14.998404
1968.000000	14.905001
1967.000000	14.827801
1966.000000	14.736133
1965.000000	14.667498
1964.000000	14.592729
1963.000000	14.508816
1962.000000	14.464603
1961.000000	14.391917
1960.000000	14.298629
1959.000000	14.222818
1958.000000	14.165063
1957.000000	14.098627
1956.000000	13.991219
1955.000000	13.925130
1954.000000	13.888093
1953.000000	13.853602
1952.000000	13.740522
1951.000000	13.670846
1950.000000	13.583692
1949.000000	13.532881
1948.000000	13.486932
1947.000000	13.422348
1946.000000	13.392602
1945.000000	13.379408
1944.000000	13.276397
1943.000000	13.279870
1942.000000	13.222230
1941.000000	13.181836
1940.000000	13.168758
1939.000000	13.172461
1938.000000	13.223735
1937.000000	13.198272
1936.000000	13.239592
1935.000000	13.274661
1934.000000	13.264245
1933.000000	13.301861
1932.000000	13.298736
1931.000000	13.322810
1930.000000	13.370264
1929.000000	13.482071
1928.000000	13.611933
1927.000000	13.732305
1926.000000	13.875477
1925.000000	13.952098
1924.000000	14.010895
1923.000000	14.054877
1922.000000	14.184624
1921.000000	14.431617
1920.000000	14.689837
1919.000000	14.926992
1918.000000	15.055697
1917.000000	15.151184
1916.000000	15.205119
1915.000000	15.294472
1914.000000	15.568780
1913.000000	15.912186
1912.000000	16.292282
1911.000000	16.514391
1910.000000	16.707680
1909.000000	16.746685
1908.000000	16.798653
1907.000000	17.026780
1906.000000	17.351551
1905.000000	17.826787
1904.000000	18.233967
1903.000000	18.485937
1902.000000	18.677721
1901.000000	18.856542
1900.000000	19.187101
1899.000000	19.665346
1898.000000	20.123915
1897.000000	20.436765
1896.000000	20.615355
1895.000000	20.694638
1894.000000	20.832834
1893.000000	21.112119
1892.000000	21.520225
1891.000000	21.966178
1890.000000	22.376946
1889.000000	22.688986
1888.000000	22.987715
1887.000000	23.215495
1886.000000	23.492697
1885.000000	23.903812
1884.000000	24.414117
1883.000000	24.939701
1882.000000	25.467947
1881.000000	25.907881
1880.000000	26.251287
1879.000000	26.577564
1878.000000	26.947475
1877.000000	27.329423
1876.000000	27.667504
1875.000000	28.007554
1874.000000	28.333020
1873.000000	28.722028
1872.000000	29.124810
1871.000000	29.464975
1870.000000	29.908150
1869.000000	30.302946
1868.000000	30.551443
1867.000000	30.684199
1866.000000	30.680611
1865.000000	30.658042
1864.000000	30.586976
1863.000000	30.486860
1862.000000	30.445308
1861.000000	30.464521
1860.000000	30.532230
1859.000000	30.662671
1858.000000	30.816492
1857.000000	30.806654
1856.000000	30.688019
1855.000000	30.650634
1854.000000	30.728297
1853.000000	30.756538
1852.000000	30.722278
1851.000000	30.565680
1850.000000	30.255839
1849.000000	30.059888
1848.000000	30.222389
1847.000000	30.588481
1846.000000	30.716839
1845.000000	30.498897
1844.000000	30.137319
1843.000000	29.823427
1842.000000	29.800395
1841.000000	29.999702
1840.000000	30.103870
1839.000000	30.051786
1838.000000	29.937433
1837.000000	29.948081
1836.000000	30.047156
1835.000000	30.106763
1834.000000	30.011161
1833.000000	29.759075
1832.000000	29.549466
1831.000000	29.447035
1830.000000	29.473656
1829.000000	29.447845
1828.000000	29.339627
1827.000000	29.298307
1826.000000	29.307913
1825.000000	29.271107
1824.000000	29.131407
1823.000000	28.864391
1822.000000	28.748070
1821.000000	28.879206
1820.000000	29.079786
1819.000000	29.158259
1818.000000	29.045527
1817.000000	28.881289
1816.000000	28.883604
1815.000000	28.928859
1814.000000	28.924576
1813.000000	28.863117
1812.000000	28.829552
1811.000000	28.886613
1810.000000	28.883372
1809.000000	28.783371
1808.000000	28.684296
1807.000000	28.628856
1806.000000	28.636148
1805.000000	28.625731
1804.000000	28.552698
1803.000000	28.447952
1802.000000	28.398530
1801.000000	28.393900
1800.000000	28.383252
1799.000000	28.329895
1798.000000	28.263112
1797.000000	28.196560
1796.000000	28.141120
1795.000000	28.095865
1794.000000	28.049684
1793.000000	28.006628
1792.000000	27.951882
1791.000000	27.916118
1790.000000	27.868201
1789.000000	27.782899
1788.000000	27.725028
1787.000000	27.679310
1786.000000	27.603962
1785.000000	27.509633
1784.000000	27.418891
1783.000000	27.333589
1782.000000	27.248982
1781.000000	27.163680
1780.000000	27.093656
1779.000000	27.020045
1778.000000	26.935553
1777.000000	26.836478
1776.000000	26.737056
1775.000000	26.635898
1774.000000	26.516915
1773.000000	26.376752
1772.000000	26.233926
1771.000000	26.096888
1770.000000	25.951516
1769.000000	25.788552
1768.000000	25.636698
1767.000000	25.532415
1766.000000	25.458803
1765.000000	25.382645
1764.000000	25.339589
1763.000000	25.292829
1762.000000	25.297806
1761.000000	25.326279
1760.000000	25.376279
1759.000000	25.451280
1758.000000	25.499660
1757.000000	25.554753
1756.000000	25.625471
1755.000000	25.667370
1754.000000	25.691097
1753.000000	25.684847
1752.000000	25.655564
1751.000000	25.606490
1750.000000	25.550355
1749.000000	25.468525
1748.000000	25.372344
1747.000000	25.296765
1746.000000	25.180791
1745.000000	25.030443
1744.000000	24.865974
1743.000000	24.679398
1742.000000	24.456363
1741.000000	24.214116
1740.000000	23.953234
1739.000000	23.707977
1738.000000	23.457511
1737.000000	23.248366
1736.000000	23.089684
1735.000000	22.976257
1734.000000	22.904265
1733.000000	22.864103
1732.000000	22.922553
1731.000000	22.954613
1730.000000	23.071165
1729.000000	23.159129
1728.000000	23.270473
1727.000000	23.387372
1726.000000	23.494201
1725.000000	23.552767
1724.000000	23.604735
1723.000000	23.646055
1722.000000	23.658092
1721.000000	23.676611
1720.000000	23.685407
1719.000000	23.695824
1718.000000	23.761449
1717.000000	23.817584
1716.000000	23.834482
1715.000000	23.904275
1714.000000	23.978234
1713.000000	24.042586
1712.000000	24.090735
1711.000000	24.124300
1710.000000	24.149184
1709.000000	24.132865
1708.000000	24.130897
1707.000000	24.109716
1706.000000	24.085179
1705.000000	24.037378
1704.000000	23.975919
1703.000000	23.900224
1702.000000	23.791774
1701.000000	23.631008
1700.000000	23.473947
1699.000000	23.310172
1698.000000	23.124291
1697.000000	22.997553
1696.000000	22.929960
1695.000000	22.902182
1694.000000	22.914219
1693.000000	23.007276
1692.000000	23.160286
1691.000000	23.346283
1690.000000	23.506702
1689.000000	23.633670
1688.000000	23.727768
1687.000000	23.778348
1686.000000	23.781704
1685.000000	23.795940
1684.000000	23.871520
1683.000000	24.061568
1682.000000	24.388539
1681.000000	24.826158
1680.000000	25.350353
1679.000000	25.942835
1678.000000	26.508234
1677.000000	27.064952
1676.000000	27.534170
1675.000000	27.954544
1674.000000	28.344131
1673.000000	28.654203
1672.000000	28.917863
1671.000000	29.167055
1670.000000	29.376895
1669.000000	29.623194
1668.000000	29.736853
1667.000000	29.911854
1666.000000	30.040328
1665.000000	30.135120
1664.000000	30.200283
1663.000000	30.319381
1662.000000	30.366257
1661.000000	30.446697
1660.000000	30.496350
1659.000000	30.510355
1658.000000	30.550518
1657.000000	30.572161
1656.000000	30.599245
1655.000000	30.621004
1654.000000	30.626213
1653.000000	30.590911
1652.000000	30.563365
1651.000000	30.519614
1650.000000	30.518457
1649.000000	30.479452
1648.000000	30.447970
1647.000000	30.437322
1646.000000	30.400285
1645.000000	30.342529
1644.000000	30.280145
1643.000000	30.247042
1642.000000	30.210468
1641.000000	30.139750
1640.000000	30.089402
1639.000000	30.042758
1638.000000	29.959193
1637.000000	29.871576
1636.000000	29.837432
1635.000000	29.789168
1634.000000	29.714051
1633.000000	29.631759
1632.000000	29.564976
1631.000000	29.496457
1630.000000	29.435924
1629.000000	29.349928
1628.000000	29.271107
1627.000000	29.199810
1626.000000	29.114624
1625.000000	29.034878
1624.000000	28.952702
1623.000000	28.860571
1622.000000	28.821682
1621.000000	28.759644
1620.000000	28.674574
1619.000000	28.587073
1618.000000	28.515776
1617.000000	28.432905
1616.000000	28.383483
1615.000000	28.332441
1614.000000	28.259408
1613.000000	28.190889
1612.000000	28.139615
1611.000000	28.080008
1610.000000	28.009869
1609.000000	27.941465
1608.000000	27.874104
1607.000000	27.804080
1606.000000	27.741232
1605.000000	27.680583
1604.000000	27.627226
1603.000000	27.554888
1602.000000	27.485211
