PE UV       SUBTECH     SPECTRUM    ASCII       PEDS        4.00        
   -1
CICIMAUCR0070-1.ASC
24/04/03
14:43:34.00
24/04/03
14:43:34.00
Vinicio Soto Monge
C. resplendens
250,000000
1
Lambda 1050
1050L1511233
PerkinElmer UV WinLab 6.3.2.0749 / 2.02.05 Lambda 900 UV/VIS/NIR, Aug  7 2015 09:38:08

0
0
3350/servo 860,8/2
0
0
UV/VIS
1
1
1
DoubleDePol,CommonBeamDepol,RBeamAtt,SBeamAtt,60mm sphere, WB InGaAs Detector
0
0
0
0
Program
Program
3350/servo 860,8/2
3350/0,2 860,8/0,2
3350/0,2 860,8/0,2
0
15.00
 
 
 
0
 
860,8
319,2
860,8
Front
100
on
S:100 R:100
0
0
0
0
 
0
 
 
 
0
 
 
0
0
0
0
0
 
 
 
 
0
0


0
0
#HDR
-1
-1
#GR
nm
%R
1.0
0.0
2500,000000
-1,000000
2251
8
71,428400
5,238700
#DATA
2482.000000	14.919444
2481.000000	14.959172
2480.000000	15.001568
2479.000000	14.985954
2478.000000	15.074107
2477.000000	15.096738
2476.000000	15.223137
2475.000000	15.243002
2474.000000	15.266720
2473.000000	15.319889
2472.000000	15.436504
2471.000000	15.463582
2470.000000	15.546597
2469.000000	15.603521
2468.000000	15.615182
2467.000000	15.703335
2466.000000	15.761940
2465.000000	15.862841
2464.000000	15.917987
2463.000000	16.021853
2462.000000	16.087474
2461.000000	16.157542
2460.000000	16.260025
2459.000000	16.356678
2458.000000	16.449970
2457.000000	16.517369
2456.000000	16.645646
2455.000000	16.723620
2454.000000	16.832626
2453.000000	16.976913
2452.000000	17.061409
2451.000000	17.183855
2450.000000	17.292960
2449.000000	17.413034
2448.000000	17.552083
2447.000000	17.658816
2446.000000	17.756852
2445.000000	17.906673
2444.000000	18.034752
2443.000000	18.162633
2442.000000	18.283795
2441.000000	18.407624
2440.000000	18.523054
2439.000000	18.658051
2438.000000	18.809255
2437.000000	18.921324
2436.000000	19.045055
2435.000000	19.180349
2434.000000	19.307736
2433.000000	19.422375
2432.000000	19.555988
2431.000000	19.673493
2430.000000	19.792974
2429.000000	19.906822
2428.000000	20.010294
2427.000000	20.127700
2426.000000	20.241152
2425.000000	20.353419
2424.000000	20.465192
2423.000000	20.571530
2422.000000	20.671147
2421.000000	20.786181
2420.000000	20.902005
2419.000000	20.994013
2418.000000	21.092246
2417.000000	21.186626
2416.000000	21.270529
2415.000000	21.345736
2414.000000	21.445255
2413.000000	21.516805
2412.000000	21.584501
2411.000000	21.667812
2410.000000	21.745786
2409.000000	21.811209
2408.000000	21.878115
2407.000000	21.936620
2406.000000	21.998980
2405.000000	22.060746
2404.000000	22.102550
2403.000000	22.152062
2402.000000	22.210468
2401.000000	22.276485
2400.000000	22.330444
2399.000000	22.379165
2398.000000	22.402587
2397.000000	22.439351
2396.000000	22.503884
2395.000000	22.541834
2394.000000	22.572865
2393.000000	22.599351
2392.000000	22.629789
2391.000000	22.665070
2390.000000	22.697782
2389.000000	22.714780
2388.000000	22.729505
2387.000000	22.747591
2386.000000	22.769135
2385.000000	22.784354
2384.000000	22.803032
2383.000000	22.815386
2382.000000	22.809357
2381.000000	22.811729
2380.000000	22.811531
2379.000000	22.813113
2378.000000	22.810642
2377.000000	22.796114
2376.000000	22.797992
2375.000000	22.799573
2374.000000	22.790086
2373.000000	22.784947
2372.000000	22.777041
2371.000000	22.767553
2370.000000	22.765873
2369.000000	22.774768
2368.000000	22.772692
2367.000000	22.777337
2366.000000	22.783465
2365.000000	22.775756
2364.000000	22.776053
2363.000000	22.785046
2362.000000	22.776843
2361.000000	22.777930
2360.000000	22.781192
2359.000000	22.775361
2358.000000	22.773878
2357.000000	22.767158
2356.000000	22.766170
2355.000000	22.747986
2354.000000	22.724169
2353.000000	22.704107
2352.000000	22.693137
2351.000000	22.677325
2350.000000	22.641451
2349.000000	22.627417
2348.000000	22.617140
2347.000000	22.600043
2346.000000	22.570395
2345.000000	22.548257
2344.000000	22.541636
2343.000000	22.520388
2342.000000	22.488467
2341.000000	22.484218
2340.000000	22.482637
2339.000000	22.462278
2338.000000	22.443403
2337.000000	22.439845
2336.000000	22.427788
2335.000000	22.411383
2334.000000	22.408220
2333.000000	22.403180
2332.000000	22.407133
2331.000000	22.406244
2330.000000	22.401302
2329.000000	22.405058
2328.000000	22.416225
2327.000000	22.417510
2326.000000	22.430654
2325.000000	22.412569
2324.000000	22.433718
2323.000000	22.444786
2322.000000	22.438165
2321.000000	22.424033
2320.000000	22.408616
2319.000000	22.388949
2318.000000	22.353075
2317.000000	22.311963
2316.000000	22.267689
2315.000000	22.243476
2314.000000	22.186849
2313.000000	22.135163
2312.000000	22.077250
2311.000000	22.014100
2310.000000	21.948677
2309.000000	21.889282
2308.000000	21.838881
2307.000000	21.769307
2306.000000	21.712778
2305.000000	21.640635
2304.000000	21.576398
2303.000000	21.523229
2302.000000	21.469171
2301.000000	21.418275
2300.000000	21.353643
2299.000000	21.304822
2298.000000	21.264699
2297.000000	21.217657
2296.000000	21.165279
2295.000000	21.127429
2294.000000	21.067342
2293.000000	21.032358
2292.000000	21.002808
2291.000000	20.960906
2290.000000	20.930863
2289.000000	20.898250
2288.000000	20.862574
2287.000000	20.809998
2286.000000	20.795372
2285.000000	20.751196
2284.000000	20.740819
2283.000000	20.683796
2282.000000	20.659782
2281.000000	20.624204
2280.000000	20.609578
2279.000000	20.564612
2278.000000	20.524290
2277.000000	20.491085
2276.000000	20.426452
2275.000000	20.386922
2274.000000	20.350652
2273.000000	20.299361
2272.000000	20.229787
2271.000000	20.177607
2270.000000	20.126316
2269.000000	20.077496
2268.000000	20.049133
2267.000000	20.019880
2266.000000	19.981931
2265.000000	19.931430
2264.000000	19.928070
2263.000000	19.919571
2262.000000	19.902771
2261.000000	19.908601
2260.000000	19.923129
2259.000000	19.943784
2258.000000	19.997249
2257.000000	20.035593
2256.000000	20.052097
2255.000000	20.126415
2254.000000	20.175038
2253.000000	20.220992
2252.000000	20.289577
2251.000000	20.335334
2250.000000	20.393246
2249.000000	20.475668
2248.000000	20.535952
2247.000000	20.604933
2246.000000	20.649108
2245.000000	20.703364
2244.000000	20.749417
2243.000000	20.806440
2242.000000	20.823043
2241.000000	20.863364
2240.000000	20.870282
2239.000000	20.884908
2238.000000	20.912481
2237.000000	20.906551
2236.000000	20.899139
2235.000000	20.872061
2234.000000	20.832036
2233.000000	20.786181
2232.000000	20.729355
2231.000000	20.666403
2230.000000	20.582499
2229.000000	20.478040
2228.000000	20.388503
2227.000000	20.286316
2226.000000	20.147366
2225.000000	20.027490
2224.000000	19.866896
2223.000000	19.736149
2222.000000	19.565970
2221.000000	19.408638
2220.000000	19.251010
2219.000000	19.078854
2218.000000	18.925772
2217.000000	18.773776
2216.000000	18.636309
2215.000000	18.513270
2214.000000	18.399422
2213.000000	18.321250
2212.000000	18.258693
2211.000000	18.221929
2210.000000	18.204338
2209.000000	18.235172
2208.000000	18.266500
2207.000000	18.353072
2206.000000	18.465042
2205.000000	18.632356
2204.000000	18.795123
2203.000000	18.986155
2202.000000	19.216717
2201.000000	19.489280
2200.000000	19.738521
2199.000000	20.006242
2198.000000	20.296495
2197.000000	20.590702
2196.000000	20.839942
2195.000000	21.130393
2194.000000	21.407701
2193.000000	21.640734
2192.000000	21.852321
2191.000000	22.071222
2190.000000	22.278758
2189.000000	22.460796
2188.000000	22.625441
2187.000000	22.784354
2186.000000	22.915596
2185.000000	23.038338
2184.000000	23.137461
2183.000000	23.235497
2182.000000	23.327109
2181.000000	23.407258
2180.000000	23.465664
2179.000000	23.538796
2178.000000	23.582675
2177.000000	23.632187
2176.000000	23.704923
2175.000000	23.753842
2174.000000	23.776375
2173.000000	23.846047
2172.000000	23.908308
2171.000000	23.965627
2170.000000	24.018895
2169.000000	24.070087
2168.000000	24.123849
2167.000000	24.192928
2166.000000	24.258747
2165.000000	24.329210
2164.000000	24.403132
2163.000000	24.474386
2162.000000	24.548901
2161.000000	24.634386
2160.000000	24.725702
2159.000000	24.826900
2158.000000	24.916833
2157.000000	25.023466
2156.000000	25.153621
2155.000000	25.261935
2154.000000	25.374300
2153.000000	25.501589
2152.000000	25.624332
2151.000000	25.744801
2150.000000	25.892349
2149.000000	26.027445
2148.000000	26.144060
2147.000000	26.290818
2146.000000	26.426309
2145.000000	26.552313
2144.000000	26.669323
2143.000000	26.788211
2142.000000	26.904530
2141.000000	27.036068
2140.000000	27.141615
2139.000000	27.241034
2138.000000	27.354290
2137.000000	27.466260
2136.000000	27.572894
2135.000000	27.656699
2134.000000	27.742184
2133.000000	27.835772
2132.000000	27.923036
2131.000000	28.000417
2130.000000	28.081159
2129.000000	28.151424
2128.000000	28.214574
2127.000000	28.272783
2126.000000	28.329114
2125.000000	28.381097
2124.000000	28.438318
2123.000000	28.463815
2122.000000	28.506903
2121.000000	28.542975
2120.000000	28.578256
2119.000000	28.622333
2118.000000	28.642987
2117.000000	28.667595
2116.000000	28.684297
2115.000000	28.685977
2114.000000	28.698726
2113.000000	28.718590
2112.000000	28.724124
2111.000000	28.732228
2110.000000	28.732623
2109.000000	28.729164
2108.000000	28.733710
2107.000000	28.734995
2106.000000	28.725013
2105.000000	28.725804
2104.000000	28.729658
2103.000000	28.729856
2102.000000	28.724025
2101.000000	28.706731
2100.000000	28.703173
2099.000000	28.709596
2098.000000	28.693389
2097.000000	28.687558
2096.000000	28.703963
2095.000000	28.720369
2094.000000	28.732327
2093.000000	28.725013
2092.000000	28.720171
2091.000000	28.737070
2090.000000	28.751400
2089.000000	28.753574
2088.000000	28.759800
2087.000000	28.764742
2086.000000	28.754563
2085.000000	28.737466
2084.000000	28.728275
2083.000000	28.705248
2082.000000	28.677280
2081.000000	28.641011
2080.000000	28.593278
2079.000000	28.542777
2078.000000	28.492573
2077.000000	28.431597
2076.000000	28.355402
2075.000000	28.288694
2074.000000	28.212796
2073.000000	28.125235
2072.000000	28.021665
2071.000000	27.932919
2070.000000	27.817984
2069.000000	27.715797
2068.000000	27.620825
2067.000000	27.503320
2066.000000	27.380479
2065.000000	27.262579
2064.000000	27.142208
2063.000000	27.039132
2062.000000	26.944950
2061.000000	26.847903
2060.000000	26.759058
2059.000000	26.674561
2058.000000	26.592733
2057.000000	26.524641
2056.000000	26.485308
2055.000000	26.456055
2054.000000	26.437674
2053.000000	26.443702
2052.000000	26.470484
2051.000000	26.494598
2050.000000	26.550731
2049.000000	26.630484
2048.000000	26.716562
2047.000000	26.832189
2046.000000	26.943863
2045.000000	27.071547
2044.000000	27.185395
2043.000000	27.301319
2042.000000	27.445902
2041.000000	27.562517
2040.000000	27.685062
2039.000000	27.815414
2038.000000	27.932326
2037.000000	28.036291
2036.000000	28.156069
2035.000000	28.246298
2034.000000	28.349670
2033.000000	28.443753
2032.000000	28.538923
2031.000000	28.598021
2030.000000	28.692796
2029.000000	28.758318
2028.000000	28.833327
2027.000000	28.884322
2026.000000	28.941839
2025.000000	28.993822
2024.000000	29.039875
2023.000000	29.066558
2022.000000	29.118837
2021.000000	29.165187
2020.000000	29.185150
2019.000000	29.191870
2018.000000	29.212228
2017.000000	29.233772
2016.000000	29.239603
2015.000000	29.232685
2014.000000	29.225570
2013.000000	29.219541
2012.000000	29.216972
2011.000000	29.189498
2010.000000	29.169041
2009.000000	29.154513
2008.000000	29.124470
2007.000000	29.080295
2006.000000	29.030190
2005.000000	28.981567
2004.000000	28.944013
2003.000000	28.877602
2002.000000	28.788954
2001.000000	28.719578
2000.000000	28.673920
1999.000000	28.584877
1998.000000	28.503642
1997.000000	28.443259
1996.000000	28.338108
1995.000000	28.238985
1994.000000	28.156662
1993.000000	28.058132
1992.000000	27.972944
1991.000000	27.862851
1990.000000	27.766594
1989.000000	27.651263
1988.000000	27.567063
1987.000000	27.442344
1986.000000	27.329781
1985.000000	27.245679
1984.000000	27.124222
1983.000000	26.989422
1982.000000	26.916389
1981.000000	26.788409
1980.000000	26.679700
1979.000000	26.573066
1978.000000	26.470583
1977.000000	26.348038
1976.000000	26.234289
1975.000000	26.127457
1974.000000	26.031596
1973.000000	25.926444
1972.000000	25.825938
1971.000000	25.738674
1970.000000	25.606246
1969.000000	25.527284
1968.000000	25.416203
1967.000000	25.320242
1966.000000	25.212818
1965.000000	25.133263
1964.000000	25.022379
1963.000000	24.899933
1962.000000	24.810396
1961.000000	24.711372
1960.000000	24.604541
1959.000000	24.511249
1958.000000	24.417264
1957.000000	24.320711
1956.000000	24.222972
1955.000000	24.112484
1954.000000	24.039352
1953.000000	23.936276
1952.000000	23.836066
1951.000000	23.744750
1950.000000	23.654719
1949.000000	23.580204
1948.000000	23.508159
1947.000000	23.416251
1946.000000	23.375337
1945.000000	23.296177
1944.000000	23.236683
1943.000000	23.171359
1942.000000	23.141414
1941.000000	23.129654
1940.000000	23.078956
1939.000000	23.047430
1938.000000	23.020055
1937.000000	23.008987
1936.000000	22.996040
1935.000000	23.005725
1934.000000	23.029641
1933.000000	23.068184
1932.000000	23.092792
1931.000000	23.174225
1930.000000	23.232532
1929.000000	23.305960
1928.000000	23.380673
1927.000000	23.490865
1926.000000	23.578722
1925.000000	23.686541
1924.000000	23.841205
1923.000000	23.974818
1922.000000	24.125331
1921.000000	24.318438
1920.000000	24.507790
1919.000000	24.685183
1918.000000	24.896474
1917.000000	25.097883
1916.000000	25.342083
1915.000000	25.585592
1914.000000	25.883257
1913.000000	26.176278
1912.000000	26.470781
1911.000000	26.768248
1910.000000	27.098625
1909.000000	27.412894
1908.000000	27.773314
1907.000000	28.171190
1906.000000	28.616996
1905.000000	29.082765
1904.000000	29.533513
1903.000000	29.967065
1902.000000	30.455565
1901.000000	30.920543
1900.000000	31.445609
1899.000000	31.991526
1898.000000	32.547919
1897.000000	33.056975
1896.000000	33.558519
1895.000000	34.057989
1894.000000	34.598866
1893.000000	35.157236
1892.000000	35.742190
1891.000000	36.297892
1890.000000	36.817324
1889.000000	37.327071
1888.000000	37.844922
1887.000000	38.306540
1886.000000	38.771420
1885.000000	39.236103
1884.000000	39.694164
1883.000000	40.095696
1882.000000	40.467679
1881.000000	40.851422
1880.000000	41.169643
1879.000000	41.521565
1878.000000	41.861133
1877.000000	42.184592
1876.000000	42.482850
1875.000000	42.786939
1874.000000	43.060689
1873.000000	43.323666
1872.000000	43.565989
1871.000000	43.758602
1870.000000	43.894982
1869.000000	44.056366
1868.000000	44.202431
1867.000000	44.276650
1866.000000	44.357490
1865.000000	44.455526
1864.000000	44.542395
1863.000000	44.646755
1862.000000	44.765347
1861.000000	44.886904
1860.000000	45.001049
1859.000000	45.078528
1858.000000	45.138220
1857.000000	45.201963
1856.000000	45.256910
1855.000000	45.305434
1854.000000	45.341308
1853.000000	45.334292
1852.000000	45.364928
1851.000000	45.439641
1850.000000	45.520579
1849.000000	45.609326
1848.000000	45.619110
1847.000000	45.570882
1846.000000	45.522062
1845.000000	45.503680
1844.000000	45.510104
1843.000000	45.554872
1842.000000	45.599740
1841.000000	45.601420
1840.000000	45.582544
1839.000000	45.559616
1838.000000	45.539554
1837.000000	45.515441
1836.000000	45.470870
1835.000000	45.411673
1834.000000	45.350993
1833.000000	45.309881
1832.000000	45.308992
1831.000000	45.298813
1830.000000	45.262148
1829.000000	45.246435
1828.000000	45.204038
1827.000000	45.170536
1826.000000	45.155119
1825.000000	45.118751
1824.000000	45.120925
1823.000000	45.157886
1822.000000	45.214415
1821.000000	45.234674
1820.000000	45.203742
1819.000000	45.148695
1818.000000	45.121518
1817.000000	45.126459
1816.000000	45.128238
1815.000000	45.111932
1814.000000	45.105409
1813.000000	45.109461
1812.000000	45.094044
1811.000000	45.061234
1810.000000	45.021407
1809.000000	45.011623
1808.000000	45.017553
1807.000000	45.013204
1806.000000	44.974168
1805.000000	44.939084
1804.000000	44.926237
1803.000000	44.929004
1802.000000	44.927522
1801.000000	44.910425
1800.000000	44.854093
1799.000000	44.819504
1798.000000	44.814859
1797.000000	44.800826
1796.000000	44.789461
1795.000000	44.786496
1794.000000	44.775922
1793.000000	44.751116
1792.000000	44.731746
1791.000000	44.715341
1790.000000	44.715440
1789.000000	44.724532
1788.000000	44.732735
1787.000000	44.739059
1786.000000	44.735600
1785.000000	44.754575
1784.000000	44.742716
1783.000000	44.737972
1782.000000	44.736292
1781.000000	44.741530
1780.000000	44.742024
1779.000000	44.723445
1778.000000	44.701901
1777.000000	44.684804
1776.000000	44.664643
1775.000000	44.640431
1774.000000	44.617404
1773.000000	44.589041
1772.000000	44.576490
1771.000000	44.552376
1770.000000	44.526187
1769.000000	44.495551
1768.000000	44.477466
1767.000000	44.453550
1766.000000	44.438726
1765.000000	44.416589
1764.000000	44.407991
1763.000000	44.404927
1762.000000	44.409868
1761.000000	44.400183
1760.000000	44.403445
1759.000000	44.410560
1758.000000	44.418367
1757.000000	44.425779
1756.000000	44.420937
1755.000000	44.421135
1754.000000	44.425186
1753.000000	44.430622
1752.000000	44.430622
1751.000000	44.409473
1750.000000	44.411252
1749.000000	44.405619
1748.000000	44.358775
1747.000000	44.326459
1746.000000	44.299776
1745.000000	44.255304
1744.000000	44.216366
1743.000000	44.163691
1742.000000	44.088682
1741.000000	44.055081
1740.000000	43.991536
1739.000000	43.929571
1738.000000	43.890831
1737.000000	43.846162
1736.000000	43.789633
1735.000000	43.756427
1734.000000	43.715711
1733.000000	43.693080
1732.000000	43.676378
1731.000000	43.630127
1730.000000	43.604432
1729.000000	43.567175
1728.000000	43.526260
1727.000000	43.497996
1726.000000	43.475661
1725.000000	43.464000
1724.000000	43.466965
1723.000000	43.495427
1722.000000	43.557786
1721.000000	43.660566
1720.000000	43.804457
1719.000000	43.965445
1718.000000	44.135131
1717.000000	44.311239
1716.000000	44.482012
1715.000000	44.639146
1714.000000	44.797762
1713.000000	44.958355
1712.000000	45.086237
1711.000000	45.202259
1710.000000	45.293674
1709.000000	45.401592
1708.000000	45.481049
1707.000000	45.555366
1706.000000	45.615156
1705.000000	45.647572
1704.000000	45.691352
1703.000000	45.712599
1702.000000	45.734440
1701.000000	45.739283
1700.000000	45.751735
1699.000000	45.746695
1698.000000	45.741457
1697.000000	45.733155
1696.000000	45.711413
1695.000000	45.697281
1694.000000	45.646188
1693.000000	45.587189
1692.000000	45.536293
1691.000000	45.468201
1690.000000	45.413649
1689.000000	45.404557
1688.000000	45.399517
1687.000000	45.432624
1686.000000	45.527695
1685.000000	45.608337
1684.000000	45.755885
1683.000000	45.909363
1682.000000	46.065015
1681.000000	46.220271
1680.000000	46.370488
1679.000000	46.537010
1678.000000	46.678134
1677.000000	46.819951
1676.000000	46.942792
1675.000000	47.078382
1674.000000	47.201816
1673.000000	47.324954
1672.000000	47.432477
1671.000000	47.569055
1670.000000	47.685177
1669.000000	47.805943
1668.000000	47.940742
1667.000000	48.023163
1666.000000	48.131576
1665.000000	48.234553
1664.000000	48.321619
1663.000000	48.412243
1662.000000	48.493380
1661.000000	48.587660
1660.000000	48.662472
1659.000000	48.717518
1658.000000	48.785017
1657.000000	48.826821
1656.000000	48.878803
1655.000000	48.913195
1654.000000	48.945215
1653.000000	48.973677
1652.000000	48.993936
1651.000000	49.004906
1650.000000	49.008365
1649.000000	49.015085
1648.000000	49.012812
1647.000000	49.006388
1646.000000	48.993047
1645.000000	48.973183
1644.000000	48.969921
1643.000000	48.961027
1642.000000	48.946598
1641.000000	48.957074
1640.000000	48.956679
1639.000000	48.932565
1638.000000	48.917840
1637.000000	48.899162
1636.000000	48.888093
1635.000000	48.863090
1634.000000	48.862102
1633.000000	48.830774
1632.000000	48.808636
1631.000000	48.793220
1630.000000	48.756851
1629.000000	48.736691
1628.000000	48.708328
1627.000000	48.680656
1626.000000	48.646462
1625.000000	48.606932
1624.000000	48.577185
1623.000000	48.548130
1622.000000	48.514331
1621.000000	48.490119
1620.000000	48.465708
1619.000000	48.429241
1618.000000	48.405820
1617.000000	48.387141
1616.000000	48.360952
1615.000000	48.322509
1614.000000	48.303139
1613.000000	48.272898
1612.000000	48.236925
1611.000000	48.212515
1610.000000	48.167747
1609.000000	48.130687
1608.000000	48.093528
1607.000000	48.051329
1606.000000	48.008537
