PE UV       SUBTECH     SPECTRUM    ASCII       PEDS        4.00        
   -1
CICIMAUCR0260-1.ASC
24/07/01
14:34:09.00
24/07/01
14:34:09.00
Vinicio Soto Monge
C. resplendens. Sex F. Ventral
250,000000
1
Lambda 1050
1050L1511233
PerkinElmer UV WinLab 6.3.2.0749 / 2.02.05 Lambda 900 UV/VIS/NIR, Aug  7 2015 09:38:08

0
0
3350/servo 860,8/2
0
0
UV/VIS
1
1
1
DoubleDePol,CommonBeamDepol,RBeamAtt,SBeamAtt,60mm sphere, WB InGaAs Detector
0
0
0
0
Program
Program
3350/servo 860,8/2
3350/0,2 860,8/0,2
3350/0,2 860,8/0,2
0
15.00
 
 
 
0
 
860,8
319,2
860,8
Front
100
on
S:100 R:100
0
0
0
0
 
0
 
 
 
0
 
 
0
0
0
0
0
 
 
 
 
0
0


0
0
#HDR
-1
-1
#GR
nm
%R
1.0
0.0
2500,000000
-1,000000
2251
8
49,439300
3,886400
#DATA
2482.000000	5.608598
2481.000000	5.601526
2480.000000	5.541988
2479.000000	5.648747
2478.000000	5.627075
2477.000000	5.619662
2476.000000	5.630155
2475.000000	5.583277
2474.000000	5.562632
2473.000000	5.568792
2472.000000	5.625022
2471.000000	5.593542
2470.000000	5.581224
2469.000000	5.562975
2468.000000	5.566054
2467.000000	5.616012
2466.000000	5.625136
2465.000000	5.623882
2464.000000	5.590349
2463.000000	5.604378
2462.000000	5.655818
2461.000000	5.648176
2460.000000	5.654678
2459.000000	5.655704
2458.000000	5.679542
2457.000000	5.683648
2456.000000	5.692887
2455.000000	5.736800
2454.000000	5.754821
2453.000000	5.752654
2452.000000	5.767595
2451.000000	5.782195
2450.000000	5.789951
2449.000000	5.839795
2448.000000	5.858044
2447.000000	5.860097
2446.000000	5.907431
2445.000000	5.895341
2444.000000	5.953625
2443.000000	5.946667
2442.000000	5.962179
2441.000000	5.975410
2440.000000	6.008373
2439.000000	6.030044
2438.000000	6.056962
2437.000000	6.086503
2436.000000	6.136461
2435.000000	6.145357
2434.000000	6.165203
2433.000000	6.178092
2432.000000	6.174214
2431.000000	6.203413
2430.000000	6.233638
2429.000000	6.244702
2428.000000	6.254169
2427.000000	6.271278
2426.000000	6.295458
2425.000000	6.317814
2424.000000	6.337660
2423.000000	6.352259
2422.000000	6.369026
2421.000000	6.397769
2420.000000	6.395145
2419.000000	6.404498
2418.000000	6.422976
2417.000000	6.448068
2416.000000	6.444419
2415.000000	6.461641
2414.000000	6.491753
2413.000000	6.502360
2412.000000	6.502588
2411.000000	6.520610
2410.000000	6.519127
2409.000000	6.528480
2408.000000	6.544562
2407.000000	6.565663
2406.000000	6.580376
2405.000000	6.583228
2404.000000	6.604557
2403.000000	6.596915
2402.000000	6.592238
2401.000000	6.590185
2400.000000	6.616647
2399.000000	6.642538
2398.000000	6.635809
2397.000000	6.630562
2396.000000	6.643108
2395.000000	6.641626
2394.000000	6.654286
2393.000000	6.669456
2392.000000	6.685196
2391.000000	6.679151
2390.000000	6.681432
2389.000000	6.699339
2388.000000	6.705042
2387.000000	6.700366
2386.000000	6.691583
2385.000000	6.699567
2384.000000	6.700138
2383.000000	6.704472
2382.000000	6.709605
2381.000000	6.717361
2380.000000	6.722607
2379.000000	6.717132
2378.000000	6.718387
2377.000000	6.703445
2376.000000	6.685880
2375.000000	6.691127
2374.000000	6.697628
2373.000000	6.697628
2372.000000	6.685424
2371.000000	6.670939
2370.000000	6.673106
2369.000000	6.663183
2368.000000	6.657138
2367.000000	6.656681
2366.000000	6.640485
2365.000000	6.641854
2364.000000	6.629992
2363.000000	6.605697
2362.000000	6.603872
2361.000000	6.598854
2360.000000	6.589729
2359.000000	6.567716
2358.000000	6.551063
2357.000000	6.538289
2356.000000	6.525400
2355.000000	6.521294
2354.000000	6.514565
2353.000000	6.509888
2352.000000	6.491525
2351.000000	6.487761
2350.000000	6.493920
2349.000000	6.490156
2348.000000	6.480461
2347.000000	6.491639
2346.000000	6.496657
2345.000000	6.492095
2344.000000	6.517416
2343.000000	6.545931
2342.000000	6.561671
2341.000000	6.552090
2340.000000	6.561214
2339.000000	6.580148
2338.000000	6.589729
2337.000000	6.603872
2336.000000	6.606610
2335.000000	6.607408
2334.000000	6.596002
2333.000000	6.609005
2332.000000	6.609005
2331.000000	6.605583
2330.000000	6.605013
2329.000000	6.593493
2328.000000	6.579350
2327.000000	6.568172
2326.000000	6.557907
2325.000000	6.539543
2324.000000	6.521408
2323.000000	6.506238
2322.000000	6.484567
2321.000000	6.460159
2320.000000	6.462098
2319.000000	6.444989
2318.000000	6.393320
2317.000000	6.355225
2316.000000	6.322832
2315.000000	6.307092
2314.000000	6.273103
2313.000000	6.247325
2312.000000	6.225768
2311.000000	6.194174
2310.000000	6.152657
2309.000000	6.135776
2308.000000	6.153569
2307.000000	6.122546
2306.000000	6.082967
2305.000000	6.074527
2304.000000	6.089012
2303.000000	6.069280
2302.000000	6.080344
2301.000000	6.108174
2300.000000	6.113307
2299.000000	6.131328
2298.000000	6.159386
2297.000000	6.178092
2296.000000	6.211739
2295.000000	6.225540
2294.000000	6.230331
2293.000000	6.259530
2292.000000	6.293177
2291.000000	6.303556
2290.000000	6.314848
2289.000000	6.355339
2288.000000	6.357962
2287.000000	6.364806
2286.000000	6.357278
2285.000000	6.374273
2284.000000	6.365832
2283.000000	6.366174
2282.000000	6.348153
2281.000000	6.334352
2280.000000	6.317814
2279.000000	6.316901
2278.000000	6.282341
2277.000000	6.297853
2276.000000	6.306066
2275.000000	6.287018
2274.000000	6.283254
2273.000000	6.256792
2272.000000	6.243447
2271.000000	6.238315
2270.000000	6.233296
2269.000000	6.227023
2268.000000	6.278349
2267.000000	6.286333
2266.000000	6.302758
2265.000000	6.356708
2264.000000	6.365262
2263.000000	6.434495
2262.000000	6.474074
2261.000000	6.529620
2260.000000	6.617559
2259.000000	6.657708
2258.000000	6.736979
2257.000000	6.824005
2256.000000	6.872366
2255.000000	6.991671
2254.000000	7.081549
2253.000000	7.173709
2252.000000	7.249671
2251.000000	7.347191
2250.000000	7.445738
2249.000000	7.538353
2248.000000	7.609526
2247.000000	7.679444
2246.000000	7.773200
2245.000000	7.857489
2244.000000	7.889996
2243.000000	7.959571
2242.000000	8.010898
2241.000000	8.072718
2240.000000	8.132484
2239.000000	8.143320
2238.000000	8.218826
2237.000000	8.260002
2236.000000	8.285208
2235.000000	8.318628
2234.000000	8.326498
2233.000000	8.362768
2232.000000	8.378166
2231.000000	8.429949
2230.000000	8.439187
2229.000000	8.435994
2228.000000	8.475344
2227.000000	8.442495
2226.000000	8.482872
2225.000000	8.448996
2224.000000	8.457437
2223.000000	8.455954
2222.000000	8.444434
2221.000000	8.417744
2220.000000	8.401092
2219.000000	8.405882
2218.000000	8.377938
2217.000000	8.378965
2216.000000	8.370866
2215.000000	8.339728
2214.000000	8.337333
2213.000000	8.302431
2212.000000	8.309275
2211.000000	8.288744
2210.000000	8.300606
2209.000000	8.284182
2208.000000	8.274601
2207.000000	8.236391
2206.000000	8.215975
2205.000000	8.220765
2204.000000	8.217230
2203.000000	8.204455
2202.000000	8.233654
2201.000000	8.239357
2200.000000	8.194076
2199.000000	8.182784
2198.000000	8.177993
2197.000000	8.172405
2196.000000	8.167158
2195.000000	8.184951
2194.000000	8.153813
2193.000000	8.129747
2192.000000	8.142863
2191.000000	8.133739
2190.000000	8.130659
2189.000000	8.118113
2188.000000	8.121763
2187.000000	8.121078
2186.000000	8.110015
2185.000000	8.096214
2184.000000	8.088229
2183.000000	8.064049
2182.000000	8.082641
2181.000000	8.079333
2180.000000	8.047853
2179.000000	8.053670
2178.000000	8.061426
2177.000000	8.042264
2176.000000	8.044431
2175.000000	8.024471
2174.000000	8.017855
2173.000000	8.021619
2172.000000	8.021733
2171.000000	8.021049
2170.000000	8.027094
2169.000000	8.028805
2168.000000	8.028235
2167.000000	8.031200
2166.000000	8.034166
2165.000000	8.055381
2164.000000	8.058916
2163.000000	8.036219
2162.000000	8.050590
2161.000000	8.059373
2160.000000	8.067357
2159.000000	8.079903
2158.000000	8.099863
2157.000000	8.130887
2156.000000	8.151760
2155.000000	8.161911
2154.000000	8.178222
2153.000000	8.207763
2152.000000	8.223161
2151.000000	8.253614
2150.000000	8.284410
2149.000000	8.293078
2148.000000	8.310187
2147.000000	8.327410
2146.000000	8.350906
2145.000000	8.374060
2144.000000	8.390484
2143.000000	8.405312
2142.000000	8.418429
2141.000000	8.440100
2140.000000	8.457209
2139.000000	8.485951
2138.000000	8.487320
2137.000000	8.503174
2136.000000	8.541156
2135.000000	8.558036
2134.000000	8.548341
2133.000000	8.565450
2132.000000	8.593166
2131.000000	8.596246
2130.000000	8.596018
2129.000000	8.608336
2128.000000	8.614153
2127.000000	8.627156
2126.000000	8.607880
2125.000000	8.600010
2124.000000	8.598641
2123.000000	8.609477
2122.000000	8.618944
2121.000000	8.617689
2120.000000	8.606055
2119.000000	8.608564
2118.000000	8.606511
2117.000000	8.606511
2116.000000	8.599097
2115.000000	8.583700
2114.000000	8.585981
2113.000000	8.571495
2112.000000	8.553474
2111.000000	8.558264
2110.000000	8.541042
2109.000000	8.510018
2108.000000	8.503060
2107.000000	8.498498
2106.000000	8.490286
2105.000000	8.480477
2104.000000	8.462569
2103.000000	8.459946
2102.000000	8.452988
2101.000000	8.429492
2100.000000	8.416148
2099.000000	8.420482
2098.000000	8.416262
2097.000000	8.401776
2096.000000	8.398925
2095.000000	8.381816
2094.000000	8.363567
2093.000000	8.360601
2092.000000	8.356495
2091.000000	8.339044
2090.000000	8.324331
2089.000000	8.324102
2088.000000	8.319198
2087.000000	8.304370
2086.000000	8.299922
2085.000000	8.314293
2084.000000	8.307564
2083.000000	8.280532
2082.000000	8.261256
2081.000000	8.249280
2080.000000	8.242094
2079.000000	8.222704
2078.000000	8.185978
2077.000000	8.171036
2076.000000	8.159174
2075.000000	8.129062
2074.000000	8.120508
2073.000000	8.094959
2072.000000	8.061654
2071.000000	8.042834
2070.000000	8.021163
2069.000000	7.994017
2068.000000	7.959115
2067.000000	7.923415
2066.000000	7.896497
2065.000000	7.882354
2064.000000	7.860227
2063.000000	7.836388
2062.000000	7.804680
2061.000000	7.781184
2060.000000	7.771489
2059.000000	7.753354
2058.000000	7.737728
2057.000000	7.735104
2056.000000	7.719250
2055.000000	7.707958
2054.000000	7.705221
2053.000000	7.701457
2052.000000	7.707046
2051.000000	7.723584
2050.000000	7.737157
2049.000000	7.763505
2048.000000	7.783009
2047.000000	7.791107
2046.000000	7.824412
2045.000000	7.863306
2044.000000	7.899919
2043.000000	7.914404
2042.000000	7.968012
2041.000000	8.008845
2040.000000	8.023444
2039.000000	8.079105
2038.000000	8.102601
2037.000000	8.123930
2036.000000	8.153243
2035.000000	8.161227
2034.000000	8.202630
2033.000000	8.222362
2032.000000	8.242208
2031.000000	8.264678
2030.000000	8.279391
2029.000000	8.308134
2028.000000	8.303230
2027.000000	8.325471
2026.000000	8.330718
2025.000000	8.344177
2024.000000	8.352389
2023.000000	8.347370
2022.000000	8.376683
2021.000000	8.363110
2020.000000	8.366874
2019.000000	8.389344
2018.000000	8.369612
2017.000000	8.355811
2016.000000	8.371779
2015.000000	8.368129
2014.000000	8.355697
2013.000000	8.357636
2012.000000	8.324331
2011.000000	8.309617
2010.000000	8.317487
2009.000000	8.310415
2008.000000	8.299922
2007.000000	8.278935
2006.000000	8.264906
2005.000000	8.246543
2004.000000	8.223389
2003.000000	8.201604
2002.000000	8.169781
2001.000000	8.140126
2000.000000	8.118341
1999.000000	8.103855
1998.000000	8.076938
1997.000000	8.047853
1996.000000	8.020935
1995.000000	7.988086
1994.000000	7.968240
1993.000000	7.955693
1992.000000	7.926495
1991.000000	7.854752
1990.000000	7.826693
1989.000000	7.805478
1988.000000	7.779701
1987.000000	7.738640
1986.000000	7.704879
1985.000000	7.649218
1984.000000	7.651157
1983.000000	7.611807
1982.000000	7.563674
1981.000000	7.530027
1980.000000	7.503109
1979.000000	7.470375
1978.000000	7.419390
1977.000000	7.384945
1976.000000	7.353921
1975.000000	7.326319
1974.000000	7.315597
1973.000000	7.274422
1972.000000	7.231650
1971.000000	7.203706
1970.000000	7.172226
1969.000000	7.151581
1968.000000	7.121013
1967.000000	7.094552
1966.000000	7.066151
1965.000000	7.026003
1964.000000	6.983117
1963.000000	6.959164
1962.000000	6.945249
1961.000000	6.914111
1960.000000	6.894151
1959.000000	6.864952
1958.000000	6.804387
1957.000000	6.778838
1956.000000	6.767432
1955.000000	6.758992
1954.000000	6.751008
1953.000000	6.722151
1952.000000	6.677896
1951.000000	6.672992
1950.000000	6.633756
1949.000000	6.636949
1948.000000	6.600679
1947.000000	6.579464
1946.000000	6.570111
1945.000000	6.573647
1944.000000	6.540798
1943.000000	6.525172
1942.000000	6.489472
1941.000000	6.502018
1940.000000	6.503957
1939.000000	6.469625
1938.000000	6.460387
1937.000000	6.481944
1936.000000	6.490384
1935.000000	6.477039
1934.000000	6.477724
1933.000000	6.479320
1932.000000	6.482172
1931.000000	6.504071
1930.000000	6.515135
1929.000000	6.505668
1928.000000	6.556538
1927.000000	6.556766
1926.000000	6.609119
1925.000000	6.628509
1924.000000	6.647557
1923.000000	6.666376
1922.000000	6.723748
1921.000000	6.724318
1920.000000	6.813626
1919.000000	6.893467
1918.000000	6.903960
1917.000000	6.958024
1916.000000	7.023608
1915.000000	7.072196
1914.000000	7.109380
1913.000000	7.209637
1912.000000	7.303735
1911.000000	7.365327
1910.000000	7.443685
1909.000000	7.513033
1908.000000	7.566526
1907.000000	7.649332
1906.000000	7.746282
1905.000000	7.857717
1904.000000	7.984892
1903.000000	8.125869
1902.000000	8.252702
1901.000000	8.381018
1900.000000	8.467702
1899.000000	8.636280
1898.000000	8.803376
1897.000000	8.978342
1896.000000	9.130952
1895.000000	9.260294
1894.000000	9.400586
1893.000000	9.552170
1892.000000	9.722231
1891.000000	9.973274
1890.000000	10.213253
1889.000000	10.439431
1888.000000	10.668118
1887.000000	10.886883
1886.000000	11.119106
1885.000000	11.368323
1884.000000	11.657576
1883.000000	11.967473
1882.000000	12.306340
1881.000000	12.612473
1880.000000	12.929442
1879.000000	13.227363
1878.000000	13.491750
1877.000000	13.818756
1876.000000	14.132303
1875.000000	14.406727
1874.000000	14.737155
1873.000000	15.057431
1872.000000	15.374514
1871.000000	15.692737
1870.000000	16.017918
1869.000000	16.309679
1868.000000	16.604977
1867.000000	16.825338
1866.000000	17.023457
1865.000000	17.167627
1864.000000	17.351946
1863.000000	17.479121
1862.000000	17.595232
1861.000000	17.742026
1860.000000	17.902050
1859.000000	18.054546
1858.000000	18.177957
1857.000000	18.311063
1856.000000	18.403223
1855.000000	18.459454
1854.000000	18.520361
1853.000000	18.596894
1852.000000	18.653125
1851.000000	18.703881
1850.000000	18.723613
1849.000000	18.716427
1848.000000	18.767297
1847.000000	18.824327
1846.000000	18.890823
1845.000000	18.896754
1844.000000	18.848279
1843.000000	18.787030
1842.000000	18.774939
1841.000000	18.815316
1840.000000	18.851473
1839.000000	18.853982
1838.000000	18.829916
1837.000000	18.810069
1836.000000	18.790793
1835.000000	18.804024
1834.000000	18.804595
1833.000000	18.761138
1832.000000	18.695212
1831.000000	18.652783
1830.000000	18.620846
1829.000000	18.609440
1828.000000	18.587085
1827.000000	18.538496
1826.000000	18.506788
1825.000000	18.485459
1824.000000	18.429684
1823.000000	18.390676
1822.000000	18.352125
1821.000000	18.324865
1820.000000	18.338894
1819.000000	18.345737
1818.000000	18.308668
1817.000000	18.266923
1816.000000	18.233846
1815.000000	18.230994
1814.000000	18.223124
1813.000000	18.200427
1812.000000	18.204647
1811.000000	18.185371
1810.000000	18.158909
1809.000000	18.146819
1808.000000	18.104846
1807.000000	18.065724
1806.000000	18.037323
1805.000000	18.001281
1804.000000	17.984514
1803.000000	17.949498
1802.000000	17.909235
1801.000000	17.888477
1800.000000	17.850495
1799.000000	17.798257
1798.000000	17.755485
1797.000000	17.722978
1796.000000	17.700394
1795.000000	17.655569
1794.000000	17.620553
1793.000000	17.587248
1792.000000	17.552346
1791.000000	17.519840
1790.000000	17.472277
1789.000000	17.436349
1788.000000	17.409887
1787.000000	17.374301
1786.000000	17.327993
1785.000000	17.290240
1784.000000	17.263550
1783.000000	17.234351
1782.000000	17.183709
1781.000000	17.146184
1780.000000	17.102842
1779.000000	17.040338
1778.000000	17.007033
1777.000000	16.963006
1776.000000	16.916584
1775.000000	16.858415
1774.000000	16.800929
1773.000000	16.743330
1772.000000	16.688582
1771.000000	16.647977
1770.000000	16.572242
1769.000000	16.513958
1768.000000	16.453735
1767.000000	16.387239
1766.000000	16.333289
1765.000000	16.286868
1764.000000	16.240332
1763.000000	16.216608
1762.000000	16.212159
1761.000000	16.200639
1760.000000	16.222196
1759.000000	16.261547
1758.000000	16.309337
1757.000000	16.361462
1756.000000	16.404348
1755.000000	16.454191
1754.000000	16.483504
1753.000000	16.529698
1752.000000	16.574865
1751.000000	16.581937
1750.000000	16.592316
1749.000000	16.589008
1748.000000	16.580682
1747.000000	16.581367
1746.000000	16.557985
1745.000000	16.510080
1744.000000	16.446663
1743.000000	16.397504
1742.000000	16.326332
1741.000000	16.237024
1740.000000	16.122281
1739.000000	15.999440
1738.000000	15.890400
1737.000000	15.772350
1736.000000	15.676883
1735.000000	15.573432
1734.000000	15.482299
1733.000000	15.413294
1732.000000	15.390824
1731.000000	15.396071
1730.000000	15.410100
1729.000000	15.436676
1728.000000	15.488116
1727.000000	15.533853
1726.000000	15.589514
1725.000000	15.653501
1724.000000	15.720339
1723.000000	15.767331
1722.000000	15.811586
1721.000000	15.869413
1720.000000	15.892567
1719.000000	15.927583
1718.000000	15.992026
1717.000000	16.034684
1716.000000	16.091257
1715.000000	16.161745
1714.000000	16.250711
1713.000000	16.323937
1712.000000	16.381308
1711.000000	16.429213
1710.000000	16.484303
1709.000000	16.519547
1708.000000	16.536770
1707.000000	16.562661
1706.000000	16.568820
1705.000000	16.509053
1704.000000	16.503807
1703.000000	16.488979
1702.000000	16.434801
1701.000000	16.363287
1700.000000	16.318120
1699.000000	16.215353
1698.000000	16.107910
1697.000000	16.015865
1696.000000	15.922793
1695.000000	15.864395
1694.000000	15.834740
1693.000000	15.844207
1692.000000	15.852761
1691.000000	15.901236
1690.000000	15.980735
1689.000000	16.088634
1688.000000	16.146804
1687.000000	16.237138
1686.000000	16.294966
1685.000000	16.361234
1684.000000	16.416666
1683.000000	16.487040
1682.000000	16.591632
1681.000000	16.757017
1680.000000	16.993004
1679.000000	17.248267
1678.000000	17.564209
1677.000000	17.882090
1676.000000	18.209551
1675.000000	18.534618
1674.000000	18.813263
1673.000000	19.075369
1672.000000	19.282043
1671.000000	19.497614
1670.000000	19.649540
1669.000000	19.816407
1668.000000	19.956129
1667.000000	20.063800
1666.000000	20.164628
1665.000000	20.259296
1664.000000	20.342217
1663.000000	20.395710
1662.000000	20.483992
1661.000000	20.514331
1660.000000	20.555849
1659.000000	20.585960
1658.000000	20.624740
1657.000000	20.670363
1656.000000	20.672759
1655.000000	20.697851
1654.000000	20.698878
1653.000000	20.698079
1652.000000	20.680743
1651.000000	20.668424
1650.000000	20.658957
1649.000000	20.650175
1648.000000	20.610597
1647.000000	20.560069
1646.000000	20.541135
1645.000000	20.530642
1644.000000	20.479543
1643.000000	20.432665
1642.000000	20.422400
1641.000000	20.363546
1640.000000	20.306973
1639.000000	20.263859
1638.000000	20.228957
1637.000000	20.174893
1636.000000	20.141474
1635.000000	20.070758
1634.000000	20.009394
1633.000000	19.982248
1632.000000	19.920315
1631.000000	19.861460
1630.000000	19.808994
1629.000000	19.745805
1628.000000	19.674519
1627.000000	19.616007
1626.000000	19.549625
1625.000000	19.502632
1624.000000	19.428951
1623.000000	19.352646
1622.000000	19.298582
1621.000000	19.240184
1620.000000	19.195587
1619.000000	19.138444
1618.000000	19.055067
1617.000000	18.994274
1616.000000	18.949677
1615.000000	18.899833
1614.000000	18.841778
1613.000000	18.770149
1612.000000	18.716655
1611.000000	18.659056
1610.000000	18.629173
1609.000000	18.564387
1608.000000	18.483862
1607.000000	18.455119
1606.000000	18.385658
1605.000000	18.333077
1604.000000	18.266010
1603.000000	18.221756
1602.000000	18.145451
1601.000000	18.088307
1600.000000	18.027514
1599.000000	17.966379
1598.000000	17.905015
1597.000000	17.860418
1596.000000	17.794835
1595.000000	17.752063
1594.000000	17.697885
1593.000000	17.633784
1592.000000	17.588389
1591.000000	17.534211
1590.000000	17.485508
1589.000000	17.447869
1588.000000	17.392550
1587.000000	17.342821
1586.000000	17.303585
1585.000000	17.270850
1584.000000	17.229105
1583.000000	17.161240
1582.000000	17.127022
1581.000000	17.089383
1580.000000	17.042733
