PE UV       SUBTECH     SPECTRUM    ASCII       PEDS        4.00        
   -1
CICIMAUCR0260-3.ASC
24/07/01
16:48:21.00
24/07/01
16:48:21.00
Vinicio Soto Monge
C. resplendens. Sex F. Ventral
250,000000
1
Lambda 1050
1050L1511233
PerkinElmer UV WinLab 6.3.2.0749 / 2.02.05 Lambda 900 UV/VIS/NIR, Aug  7 2015 09:38:08

0
0
3350/servo 860,8/2
0
0
UV/VIS
1
1
1
DoubleDePol,CommonBeamDepol,RBeamAtt,SBeamAtt,60mm sphere, WB InGaAs Detector
0
0
0
0
Program
Program
3350/servo 860,8/2
3350/0,2 860,8/0,2
3350/0,2 860,8/0,2
0
15.00
 
 
 
0
 
860,8
319,2
860,8
Front
100
on
S:100 R:100
0
0
0
0
 
0
 
 
 
0
 
 
0
0
0
0
0
 
 
 
 
0
0


0
0
#HDR
-1
-1
#GR
nm
%R
1.0
0.0
2500,000000
-1,000000
2251
8
62,063100
4,168500
#DATA
2482.000000	5.716871
2481.000000	5.700831
2480.000000	5.712673
2479.000000	5.724729
2478.000000	5.732049
2477.000000	5.756808
2476.000000	5.708905
2475.000000	5.713641
2474.000000	5.692650
2473.000000	5.745828
2472.000000	5.722146
2471.000000	5.735063
2470.000000	5.752718
2469.000000	5.680916
2468.000000	5.680163
2467.000000	5.730865
2466.000000	5.717840
2465.000000	5.748519
2464.000000	5.737109
2463.000000	5.743029
2462.000000	5.754763
2461.000000	5.749165
2460.000000	5.775647
2459.000000	5.775862
2458.000000	5.797607
2457.000000	5.798791
2456.000000	5.841420
2455.000000	5.859074
2454.000000	5.851969
2453.000000	5.882326
2452.000000	5.913867
2451.000000	5.911606
2450.000000	5.923878
2449.000000	5.972535
2448.000000	6.002354
2447.000000	6.024960
2446.000000	6.030665
2445.000000	6.046167
2444.000000	6.077600
2443.000000	6.124534
2442.000000	6.122166
2441.000000	6.176421
2440.000000	6.224540
2439.000000	6.228200
2438.000000	6.238534
2437.000000	6.265984
2436.000000	6.300862
2435.000000	6.322499
2434.000000	6.344675
2433.000000	6.385043
2432.000000	6.392686
2431.000000	6.412386
2430.000000	6.444465
2429.000000	6.444034
2428.000000	6.465564
2427.000000	6.486125
2426.000000	6.549422
2425.000000	6.553405
2424.000000	6.541563
2423.000000	6.577087
2422.000000	6.609920
2421.000000	6.629297
2420.000000	6.629404
2419.000000	6.633926
2418.000000	6.654594
2417.000000	6.680537
2416.000000	6.688826
2415.000000	6.714123
2414.000000	6.733392
2413.000000	6.734146
2412.000000	6.764180
2411.000000	6.781726
2410.000000	6.782157
2409.000000	6.801103
2408.000000	6.808746
2407.000000	6.820265
2406.000000	6.836412
2405.000000	6.843624
2404.000000	6.862140
2403.000000	6.883023
2402.000000	6.891420
2401.000000	6.901862
2400.000000	6.938677
2399.000000	6.951703
2398.000000	6.941692
2397.000000	6.955901
2396.000000	6.976893
2395.000000	6.990994
2394.000000	6.994977
2393.000000	7.000683
2392.000000	7.004881
2391.000000	7.029425
2390.000000	7.052139
2389.000000	7.043527
2388.000000	7.047294
2387.000000	7.058490
2386.000000	7.076790
2385.000000	7.086155
2384.000000	7.082818
2383.000000	7.080881
2382.000000	7.088631
2381.000000	7.103056
2380.000000	7.114790
2379.000000	7.099504
2378.000000	7.103272
2377.000000	7.110592
2376.000000	7.091646
2375.000000	7.083787
2374.000000	7.084325
2373.000000	7.091000
2372.000000	7.088308
2371.000000	7.074960
2370.000000	7.071408
2369.000000	7.072054
2368.000000	7.066994
2367.000000	7.060966
2366.000000	7.051708
2365.000000	7.043527
2364.000000	7.033731
2363.000000	7.018660
2362.000000	7.008649
2361.000000	7.004881
2360.000000	6.992825
2359.000000	6.983890
2358.000000	6.962791
2357.000000	6.940830
2356.000000	6.936202
2355.000000	6.920054
2354.000000	6.907029
2353.000000	6.917578
2352.000000	6.923822
2351.000000	6.920593
2350.000000	6.922853
2349.000000	6.913057
2348.000000	6.925975
2347.000000	6.939862
2346.000000	6.947397
2345.000000	6.959238
2344.000000	6.961499
2343.000000	6.972910
2342.000000	7.009295
2341.000000	7.022212
2340.000000	7.005096
2339.000000	7.020705
2338.000000	7.041697
2337.000000	7.049017
2336.000000	7.048263
2335.000000	7.047833
2334.000000	7.061073
2333.000000	7.059997
2332.000000	7.052569
2331.000000	7.051062
2330.000000	7.049125
2329.000000	7.040728
2328.000000	7.019737
2327.000000	7.023181
2326.000000	7.023720
2325.000000	6.997453
2324.000000	6.974847
2323.000000	6.972048
2322.000000	6.945352
2321.000000	6.929312
2320.000000	6.916717
2319.000000	6.903046
2318.000000	6.872259
2317.000000	6.834905
2316.000000	6.792384
2315.000000	6.751908
2314.000000	6.751908
2313.000000	6.714339
2312.000000	6.696146
2311.000000	6.650826
2310.000000	6.624130
2309.000000	6.603138
2308.000000	6.594849
2307.000000	6.590543
2306.000000	6.561155
2305.000000	6.547484
2304.000000	6.555127
2303.000000	6.559648
2302.000000	6.570951
2301.000000	6.566753
2300.000000	6.575042
2299.000000	6.598617
2298.000000	6.632849
2297.000000	6.648027
2296.000000	6.682475
2295.000000	6.683444
2294.000000	6.728548
2293.000000	6.751154
2292.000000	6.774191
2291.000000	6.794429
2290.000000	6.826400
2289.000000	6.834689
2288.000000	6.849437
2287.000000	6.853205
2286.000000	6.853420
2285.000000	6.871182
2284.000000	6.873550
2283.000000	6.860956
2282.000000	6.860417
2281.000000	6.847822
2280.000000	6.834797
2279.000000	6.835766
2278.000000	6.829630
2277.000000	6.805517
2276.000000	6.769885
2275.000000	6.793998
2274.000000	6.796474
2273.000000	6.754922
2272.000000	6.762457
2271.000000	6.746095
2270.000000	6.751262
2269.000000	6.763642
2268.000000	6.771069
2267.000000	6.796367
2266.000000	6.819188
2265.000000	6.855896
2264.000000	6.896695
2263.000000	6.935771
2262.000000	6.971510
2261.000000	7.040297
2260.000000	7.126201
2259.000000	7.189928
2258.000000	7.274863
2257.000000	7.366256
2256.000000	7.450544
2255.000000	7.555286
2254.000000	7.649155
2253.000000	7.729999
2252.000000	7.837863
2251.000000	7.926349
2250.000000	8.026355
2249.000000	8.129266
2248.000000	8.225073
2247.000000	8.301503
2246.000000	8.370075
2245.000000	8.463298
2244.000000	8.552754
2243.000000	8.618958
2242.000000	8.668583
2241.000000	8.721331
2240.000000	8.766005
2239.000000	8.821982
2238.000000	8.868486
2237.000000	8.919511
2236.000000	8.950083
2235.000000	8.988729
2234.000000	9.032004
2233.000000	9.048258
2232.000000	9.092287
2231.000000	9.073663
2230.000000	9.115000
2229.000000	9.129963
2228.000000	9.139867
2227.000000	9.141912
2226.000000	9.133946
2225.000000	9.136745
2224.000000	9.147187
2223.000000	9.158275
2222.000000	9.122105
2221.000000	9.124473
2220.000000	9.095624
2219.000000	9.117369
2218.000000	9.051165
2217.000000	9.059777
2216.000000	9.028667
2215.000000	9.034049
2214.000000	9.009613
2213.000000	8.969675
2212.000000	8.954389
2211.000000	8.964185
2210.000000	8.915098
2209.000000	8.909069
2208.000000	8.905302
2207.000000	8.873761
2206.000000	8.875698
2205.000000	8.839529
2204.000000	8.844265
2203.000000	8.832962
2202.000000	8.840713
2201.000000	8.824781
2200.000000	8.797115
2199.000000	8.795501
2198.000000	8.782152
2197.000000	8.771387
2196.000000	8.758470
2195.000000	8.749965
2194.000000	8.757931
2193.000000	8.753625
2192.000000	8.748889
2191.000000	8.761376
2190.000000	8.740492
2189.000000	8.732634
2188.000000	8.736940
2187.000000	8.708951
2186.000000	8.717563
2185.000000	8.704000
2184.000000	8.705184
2183.000000	8.699478
2182.000000	8.693665
2181.000000	8.668906
2180.000000	8.662555
2179.000000	8.652867
2178.000000	8.654482
2177.000000	8.645977
2176.000000	8.638011
2175.000000	8.646085
2174.000000	8.604640
2173.000000	8.620357
2172.000000	8.640703
2171.000000	8.638442
2170.000000	8.619819
2169.000000	8.631552
2168.000000	8.659003
2167.000000	8.649207
2166.000000	8.642317
2165.000000	8.655450
2164.000000	8.656419
2163.000000	8.659864
2162.000000	8.678595
2161.000000	8.676011
2160.000000	8.714011
2159.000000	8.729728
2158.000000	8.748458
2157.000000	8.754164
2156.000000	8.770526
2155.000000	8.800668
2154.000000	8.836945
2153.000000	8.849432
2152.000000	8.882373
2151.000000	8.886894
2150.000000	8.913914
2149.000000	8.944916
2148.000000	8.959449
2147.000000	8.986038
2146.000000	9.001970
2145.000000	9.043091
2144.000000	9.069896
2143.000000	9.087981
2142.000000	9.119737
2141.000000	9.138252
2140.000000	9.153754
2139.000000	9.183034
2138.000000	9.200904
2137.000000	9.212314
2136.000000	9.255051
2135.000000	9.259141
2134.000000	9.276150
2133.000000	9.299832
2132.000000	9.309198
2131.000000	9.303708
2130.000000	9.308767
2129.000000	9.318132
2128.000000	9.340739
2127.000000	9.365605
2126.000000	9.361515
2125.000000	9.351073
2124.000000	9.355271
2123.000000	9.356132
2122.000000	9.356670
2121.000000	9.363560
2120.000000	9.363991
2119.000000	9.378738
2118.000000	9.356670
2117.000000	9.337079
2116.000000	9.338370
2115.000000	9.340523
2114.000000	9.338263
2113.000000	9.325130
2112.000000	9.305538
2111.000000	9.300693
2110.000000	9.289498
2109.000000	9.286053
2108.000000	9.278518
2107.000000	9.270014
2106.000000	9.256450
2105.000000	9.229753
2104.000000	9.216513
2103.000000	9.217697
2102.000000	9.203379
2101.000000	9.190677
2100.000000	9.176252
2099.000000	9.158706
2098.000000	9.153754
2097.000000	9.156553
2096.000000	9.135776
2095.000000	9.126196
2094.000000	9.124043
2093.000000	9.114462
2092.000000	9.097669
2091.000000	9.079046
2090.000000	9.083459
2089.000000	9.075063
2088.000000	9.049443
2087.000000	9.048689
2086.000000	9.048904
2085.000000	9.032434
2084.000000	9.006814
2083.000000	8.984854
2082.000000	8.977964
2081.000000	8.970644
2080.000000	8.949545
2079.000000	8.928338
2078.000000	8.914452
2077.000000	8.890877
2076.000000	8.856860
2075.000000	8.842973
2074.000000	8.813370
2073.000000	8.786028
2072.000000	8.757178
2071.000000	8.726068
2070.000000	8.701847
2069.000000	8.675904
2068.000000	8.645331
2067.000000	8.609485
2066.000000	8.566641
2065.000000	8.525627
2064.000000	8.497100
2063.000000	8.465344
2062.000000	8.431219
2061.000000	8.406891
2060.000000	8.390313
2059.000000	8.354466
2058.000000	8.333798
2057.000000	8.331106
2056.000000	8.327769
2055.000000	8.313345
2054.000000	8.298489
2053.000000	8.303979
2052.000000	8.298058
2051.000000	8.315928
2050.000000	8.321956
2049.000000	8.328738
2048.000000	8.356188
2047.000000	8.392143
2046.000000	8.433910
2045.000000	8.467604
2044.000000	8.502159
2043.000000	8.535423
2042.000000	8.561796
2041.000000	8.604317
2040.000000	8.643394
2039.000000	8.672566
2038.000000	8.715087
2037.000000	8.739093
2036.000000	8.761914
2035.000000	8.802282
2034.000000	8.846741
2033.000000	8.868271
2032.000000	8.892276
2031.000000	8.904441
2030.000000	8.918220
2029.000000	8.945132
2028.000000	8.951590
2027.000000	8.975058
2026.000000	8.989913
2025.000000	8.999386
2024.000000	9.019839
2023.000000	9.013488
2022.000000	9.015641
2021.000000	9.023176
2020.000000	9.018548
2019.000000	9.035879
2018.000000	9.038678
2017.000000	9.030174
2016.000000	9.025545
2015.000000	9.029958
2014.000000	9.022100
2013.000000	9.025329
2012.000000	9.029635
2011.000000	8.998633
2010.000000	8.967522
2009.000000	8.985177
2008.000000	8.962894
2007.000000	8.947930
2006.000000	8.928338
2005.000000	8.911330
2004.000000	8.897228
2003.000000	8.870962
2002.000000	8.842435
2001.000000	8.822305
2000.000000	8.805189
1999.000000	8.758685
1998.000000	8.734034
1997.000000	8.708198
1996.000000	8.672136
1995.000000	8.635751
1994.000000	8.624878
1993.000000	8.581604
1992.000000	8.536284
1991.000000	8.503236
1990.000000	8.474924
1989.000000	8.443599
1988.000000	8.410551
1987.000000	8.355112
1986.000000	8.316036
1985.000000	8.299135
1984.000000	8.271254
1983.000000	8.229702
1982.000000	8.175340
1981.000000	8.146059
1980.000000	8.118286
1979.000000	8.062201
1978.000000	8.037765
1977.000000	8.019788
1976.000000	7.974145
1975.000000	7.918706
1974.000000	7.891471
1973.000000	7.877908
1972.000000	7.829358
1971.000000	7.798894
1970.000000	7.774781
1969.000000	7.730537
1968.000000	7.705994
1967.000000	7.659597
1966.000000	7.645065
1965.000000	7.612770
1964.000000	7.596946
1963.000000	7.548612
1962.000000	7.522346
1961.000000	7.506091
1960.000000	7.465077
1959.000000	7.442363
1958.000000	7.393922
1957.000000	7.392953
1956.000000	7.351508
1955.000000	7.335576
1954.000000	7.303928
1953.000000	7.290364
1952.000000	7.243537
1951.000000	7.217917
1950.000000	7.216517
1949.000000	7.188959
1948.000000	7.173028
1947.000000	7.128999
1946.000000	7.108331
1945.000000	7.103487
1944.000000	7.075175
1943.000000	7.067748
1942.000000	7.084110
1941.000000	7.048694
1940.000000	7.039329
1939.000000	7.039006
1938.000000	7.034915
1937.000000	7.002513
1936.000000	7.011663
1935.000000	7.026949
1934.000000	7.030717
1933.000000	7.023181
1932.000000	7.039436
1931.000000	7.075175
1930.000000	7.050739
1929.000000	7.092507
1928.000000	7.122002
1927.000000	7.129753
1926.000000	7.155589
1925.000000	7.174319
1924.000000	7.216087
1923.000000	7.246121
1922.000000	7.298007
1921.000000	7.328256
1920.000000	7.394998
1919.000000	7.422448
1918.000000	7.462924
1917.000000	7.552380
1916.000000	7.618476
1915.000000	7.674022
1914.000000	7.732583
1913.000000	7.793834
1912.000000	7.898038
1911.000000	7.969086
1910.000000	8.020864
1909.000000	8.128620
1908.000000	8.241328
1907.000000	8.333475
1906.000000	8.428097
1905.000000	8.559751
1904.000000	8.676226
1903.000000	8.810464
1902.000000	8.949222
1901.000000	9.086581
1900.000000	9.236212
1899.000000	9.387027
1898.000000	9.553236
1897.000000	9.750986
1896.000000	9.906860
1895.000000	10.095245
1894.000000	10.281906
1893.000000	10.490098
1892.000000	10.702595
1891.000000	10.963212
1890.000000	11.197239
1889.000000	11.438694
1888.000000	11.696403
1887.000000	11.977042
1886.000000	12.266293
1885.000000	12.567492
1884.000000	12.899371
1883.000000	13.243523
1882.000000	13.605543
1881.000000	13.955400
1880.000000	14.320112
1879.000000	14.685900
1878.000000	15.069343
1877.000000	15.441913
1876.000000	15.795645
1875.000000	16.157989
1874.000000	16.543908
1873.000000	16.893549
1872.000000	17.239422
1871.000000	17.588525
1870.000000	17.921266
1869.000000	18.223649
1868.000000	18.545517
1867.000000	18.808610
1866.000000	19.040807
1865.000000	19.246738
1864.000000	19.464079
1863.000000	19.653971
1862.000000	19.833635
1861.000000	20.014269
1860.000000	20.189305
1859.000000	20.345718
1858.000000	20.504929
1857.000000	20.642288
1856.000000	20.754888
1855.000000	20.829273
1854.000000	20.911193
1853.000000	21.001941
1852.000000	21.045431
1851.000000	21.100870
1850.000000	21.149849
1849.000000	21.193985
1848.000000	21.215622
1847.000000	21.246733
1846.000000	21.251469
1845.000000	21.244257
1844.000000	21.226603
1843.000000	21.211424
1842.000000	21.257713
1841.000000	21.278704
1840.000000	21.272676
1839.000000	21.261265
1838.000000	21.253407
1837.000000	21.224880
1836.000000	21.195708
1835.000000	21.173317
1834.000000	21.138008
1833.000000	21.098609
1832.000000	21.061686
1831.000000	21.022932
1830.000000	20.987947
1829.000000	20.955006
1828.000000	20.913346
1827.000000	20.864582
1826.000000	20.796010
1825.000000	20.746922
1824.000000	20.703432
1823.000000	20.661773
1822.000000	20.647455
1821.000000	20.640781
1820.000000	20.605042
1819.000000	20.580391
1818.000000	20.539807
1817.000000	20.491366
1816.000000	20.469621
1815.000000	20.476510
1814.000000	20.459286
1813.000000	20.436573
1812.000000	20.427746
1811.000000	20.394482
1810.000000	20.364879
1809.000000	20.330755
1808.000000	20.284681
1807.000000	20.267457
1806.000000	20.242375
1805.000000	20.184676
1804.000000	20.138818
1803.000000	20.114059
1802.000000	20.072184
1801.000000	20.031708
1800.000000	19.989402
1799.000000	19.930303
1798.000000	19.880247
1797.000000	19.829329
1796.000000	19.784655
1795.000000	19.750531
1794.000000	19.715976
1793.000000	19.674424
1792.000000	19.630719
1791.000000	19.590135
1790.000000	19.549982
1789.000000	19.501648
1788.000000	19.454176
1787.000000	19.408102
1786.000000	19.351802
1785.000000	19.305944
1784.000000	19.261701
1783.000000	19.215950
1782.000000	19.162557
1781.000000	19.111101
1780.000000	19.056523
1779.000000	18.990427
1778.000000	18.944569
1777.000000	18.897419
1776.000000	18.835522
1775.000000	18.777930
1774.000000	18.724321
1773.000000	18.658010
1772.000000	18.565540
1771.000000	18.487172
1770.000000	18.414725
1769.000000	18.342708
1768.000000	18.282102
1767.000000	18.207502
1766.000000	18.137423
1765.000000	18.072189
1764.000000	18.034296
1763.000000	17.999418
1762.000000	17.963249
1761.000000	17.967554
1760.000000	18.001571
1759.000000	18.014381
1758.000000	18.059378
1757.000000	18.113633
1756.000000	18.177038
1755.000000	18.245071
1754.000000	18.282210
1753.000000	18.312890
1752.000000	18.351751
1751.000000	18.379309
1750.000000	18.382753
1749.000000	18.371127
1748.000000	18.364884
1747.000000	18.335819
1746.000000	18.308907
1745.000000	18.257128
1744.000000	18.195446
1743.000000	18.126120
1742.000000	18.024500
1741.000000	17.938705
1740.000000	17.807051
1739.000000	17.662480
1738.000000	17.509835
1737.000000	17.382702
1736.000000	17.246635
1735.000000	17.140494
1734.000000	17.057066
1733.000000	16.987203
1732.000000	16.960829
1731.000000	16.940914
1730.000000	16.950602
1729.000000	17.006902
1728.000000	17.058896
1727.000000	17.100126
1726.000000	17.188828
1725.000000	17.252125
1724.000000	17.325971
1723.000000	17.383886
1722.000000	17.429206
1721.000000	17.477432
1720.000000	17.528027
1719.000000	17.583574
1718.000000	17.635783
1717.000000	17.710168
1716.000000	17.779170
1715.000000	17.855493
1714.000000	17.929985
1713.000000	18.003294
1712.000000	18.093610
1711.000000	18.168426
1710.000000	18.217944
1709.000000	18.254114
1708.000000	18.282533
1707.000000	18.311490
1706.000000	18.286516
1705.000000	18.263802
1704.000000	18.226987
1703.000000	18.198029
1702.000000	18.144420
1701.000000	18.071435
1700.000000	17.983486
1699.000000	17.889187
1698.000000	17.792411
1697.000000	17.677981
1696.000000	17.564089
1695.000000	17.516078
1694.000000	17.486583
1693.000000	17.480447
1692.000000	17.494226
1691.000000	17.578191
1690.000000	17.674967
1689.000000	17.777448
1688.000000	17.881867
1687.000000	17.948070
1686.000000	18.034081
1685.000000	18.113633
1684.000000	18.181128
1683.000000	18.270369
1682.000000	18.398685
1681.000000	18.614951
1680.000000	18.870723
1679.000000	19.192806
1678.000000	19.557410
1677.000000	19.944621
1676.000000	20.307718
1675.000000	20.711398
1674.000000	21.045323
1673.000000	21.370743
1672.000000	21.615751
1671.000000	21.857528
1670.000000	22.053448
1669.000000	22.244847
1668.000000	22.411594
1667.000000	22.559287
1666.000000	22.690079
1665.000000	22.787609
1664.000000	22.905376
1663.000000	22.976746
1662.000000	23.061035
1661.000000	23.113890
1660.000000	23.184400
1659.000000	23.228320
1658.000000	23.278807
1657.000000	23.307011
1656.000000	23.323804
1655.000000	23.328648
1654.000000	23.334784
1653.000000	23.348994
1652.000000	23.334999
1651.000000	23.315085
1650.000000	23.289141
1649.000000	23.269980
1648.000000	23.235963
1647.000000	23.211204
1646.000000	23.184615
1645.000000	23.130037
1644.000000	23.071692
1643.000000	23.042519
1642.000000	22.995047
1641.000000	22.943806
1640.000000	22.891274
1639.000000	22.838849
1638.000000	22.792560
1637.000000	22.730663
1636.000000	22.671564
1635.000000	22.603638
1634.000000	22.552613
1633.000000	22.484041
1632.000000	22.398999
1631.000000	22.333441
1630.000000	22.260778
1629.000000	22.193068
1628.000000	22.124388
1627.000000	22.053986
1626.000000	21.970021
1625.000000	21.907585
1624.000000	21.822005
1623.000000	21.746220
1622.000000	21.660532
1621.000000	21.614567
1620.000000	21.540505
1619.000000	21.458800
1618.000000	21.383661
1617.000000	21.323809
1616.000000	21.246733
1615.000000	21.189787
1614.000000	21.111850
1613.000000	21.059533
1612.000000	20.995267
1611.000000	20.904196
1610.000000	20.827228
1609.000000	20.785460
1608.000000	20.716027
1607.000000	20.636798
1606.000000	20.565320
1605.000000	20.517094
1604.000000	20.449813
1603.000000	20.366601
1602.000000	20.276069
1601.000000	20.213741
1600.000000	20.141186
1599.000000	20.075198
1598.000000	20.005119
1597.000000	19.929012
1596.000000	19.864530
1595.000000	19.800049
1594.000000	19.729863
1593.000000	19.656554
1592.000000	19.597025
1591.000000	19.539864
1590.000000	19.484102
1589.000000	19.424572
1588.000000	19.378284
1587.000000	19.330811
1586.000000	19.284953
1585.000000	19.224777
1584.000000	19.166217
1583.000000	19.118206
1582.000000	19.064166
1581.000000	19.013033
1580.000000	18.957487
