PE UV       SUBTECH     SPECTRUM    ASCII       PEDS        4.00        
   -1
CICIMAUCR0260-1.Sample.ASC
24/07/01
10:53:39.00
24/07/01
10:53:39.00
Vinicio Soto Monge
C. resplendens. Sex F. Dorsal.
250,000000
1
Lambda 1050
1050L1511233
PerkinElmer UV WinLab 6.3.2.0749 / 2.02.05 Lambda 900 UV/VIS/NIR, Aug  7 2015 09:38:08

0
0
3350/servo 860,8/2
0
0
UV/VIS
1
1
1
DoubleDePol,CommonBeamDepol,RBeamAtt,SBeamAtt,60mm sphere, WB InGaAs Detector
0
0
0
0
Program
Program
3350/servo 860,8/2
3350/0,2 860,8/0,2
3350/0,2 860,8/0,2
0
15.00
 
 
 
0
 
860,8
319,2
860,8
Front
100
on
S:100 R:100
0
0
0
0
 
0
 
 
 
0
 
 
0
0
0
0
0
 
 
 
 
0
0


0
0
#HDR
-1
-1
#GR
nm
%R
1.0
0.0
2500,000000
-1,000000
2251
8
92,306800
5,246900
#DATA
2482.000000	8.007072
2481.000000	8.047195
2480.000000	7.996990
2479.000000	8.034027
2478.000000	8.036393
2477.000000	8.030220
2476.000000	8.069417
2475.000000	8.028677
2474.000000	8.048430
2473.000000	8.079808
2472.000000	8.059438
2471.000000	8.071269
2470.000000	8.129705
2469.000000	8.120446
2468.000000	8.149664
2467.000000	8.134335
2466.000000	8.129397
2465.000000	8.200178
2464.000000	8.237935
2463.000000	8.249046
2462.000000	8.220240
2461.000000	8.275795
2460.000000	8.317050
2459.000000	8.364581
2458.000000	8.364993
2457.000000	8.391536
2456.000000	8.468182
2455.000000	8.527543
2454.000000	8.565712
2453.000000	8.609128
2452.000000	8.677852
2451.000000	8.733098
2450.000000	8.794724
2449.000000	8.833510
2448.000000	8.885155
2447.000000	8.965608
2446.000000	9.008715
2445.000000	9.065093
2444.000000	9.111801
2443.000000	9.163961
2442.000000	9.261286
2441.000000	9.322397
2440.000000	9.389166
2439.000000	9.454186
2438.000000	9.513240
2437.000000	9.563960
2436.000000	9.627231
2435.000000	9.652437
2434.000000	9.714782
2433.000000	9.772292
2432.000000	9.824041
2431.000000	9.876304
2430.000000	9.946880
2429.000000	10.001304
2428.000000	10.059740
2427.000000	10.087621
2426.000000	10.123629
2425.000000	10.184637
2424.000000	10.234842
2423.000000	10.291632
2422.000000	10.333505
2421.000000	10.365603
2420.000000	10.402743
2419.000000	10.453463
2418.000000	10.492352
2417.000000	10.526508
2416.000000	10.582681
2415.000000	10.611796
2414.000000	10.642351
2413.000000	10.666528
2412.000000	10.707886
2411.000000	10.730623
2410.000000	10.766734
2409.000000	10.792659
2408.000000	10.823009
2407.000000	10.869202
2406.000000	10.890087
2405.000000	10.917556
2404.000000	10.954387
2403.000000	10.971465
2402.000000	10.979490
2401.000000	11.022082
2400.000000	11.057679
2399.000000	11.073317
2398.000000	11.096774
2397.000000	11.118276
2396.000000	11.158296
2395.000000	11.182473
2394.000000	11.203563
2393.000000	11.222493
2392.000000	11.241732
2391.000000	11.267966
2390.000000	11.294098
2389.000000	11.302020
2388.000000	11.314263
2387.000000	11.341011
2386.000000	11.356649
2385.000000	11.366732
2384.000000	11.390600
2383.000000	11.391011
2382.000000	11.387410
2381.000000	11.392452
2380.000000	11.401196
2379.000000	11.410147
2378.000000	11.402122
2377.000000	11.391731
2376.000000	11.407678
2375.000000	11.401917
2374.000000	11.391011
2373.000000	11.393583
2372.000000	11.387410
2371.000000	11.381855
2370.000000	11.376196
2369.000000	11.362513
2368.000000	11.344406
2367.000000	11.336279
2366.000000	11.317760
2365.000000	11.298728
2364.000000	11.270127
2363.000000	11.242246
2362.000000	11.240806
2361.000000	11.224037
2360.000000	11.191115
2359.000000	11.159633
2358.000000	11.125786
2357.000000	11.108811
2356.000000	11.087206
2355.000000	11.067864
2354.000000	11.052329
2353.000000	11.044922
2352.000000	11.042659
2351.000000	11.029387
2350.000000	11.027124
2349.000000	11.047700
2348.000000	11.061280
2347.000000	11.073831
2346.000000	11.096259
2345.000000	11.115806
2344.000000	11.148008
2343.000000	11.168378
2342.000000	11.191526
2341.000000	11.218172
2340.000000	11.247493
2339.000000	11.265703
2338.000000	11.290703
2337.000000	11.303975
2336.000000	11.306032
2335.000000	11.336279
2334.000000	11.343275
2333.000000	11.338851
2332.000000	11.322699
2331.000000	11.319407
2330.000000	11.321258
2329.000000	11.290497
2328.000000	11.280518
2327.000000	11.271156
2326.000000	11.233399
2325.000000	11.204695
2324.000000	11.175374
2323.000000	11.128769
2322.000000	11.095333
2321.000000	11.047082
2320.000000	10.990190
2319.000000	10.922494
2318.000000	10.866836
2317.000000	10.807268
2316.000000	10.742351
2315.000000	10.671158
2314.000000	10.586076
2313.000000	10.527022
2312.000000	10.446364
2311.000000	10.375480
2310.000000	10.319410
2309.000000	10.262414
2308.000000	10.209122
2307.000000	10.171880
2306.000000	10.151201
2305.000000	10.130830
2304.000000	10.134122
2303.000000	10.135974
2302.000000	10.153155
2301.000000	10.191735
2300.000000	10.221674
2299.000000	10.275068
2298.000000	10.330624
2297.000000	10.382681
2296.000000	10.451920
2295.000000	10.510253
2294.000000	10.579491
2293.000000	10.654080
2292.000000	10.706343
2291.000000	10.756343
2290.000000	10.795849
2289.000000	10.823626
2288.000000	10.854182
2287.000000	10.871671
2286.000000	10.893173
2285.000000	10.888852
2284.000000	10.877536
2283.000000	10.875684
2282.000000	10.876198
2281.000000	10.836486
2280.000000	10.820128
2279.000000	10.769408
2278.000000	10.739882
2277.000000	10.727022
2276.000000	10.677536
2275.000000	10.635767
2274.000000	10.594923
2273.000000	10.568072
2272.000000	10.535870
2271.000000	10.521673
2270.000000	10.509121
2269.000000	10.518998
2268.000000	10.543380
2267.000000	10.590397
2266.000000	10.627742
2265.000000	10.702330
2264.000000	10.755108
2263.000000	10.871569
2262.000000	10.988132
2261.000000	11.124037
2260.000000	11.252946
2259.000000	11.417040
2258.000000	11.594714
2257.000000	11.771771
2256.000000	11.927018
2255.000000	12.110659
2254.000000	12.295741
2253.000000	12.497695
2252.000000	12.669299
2251.000000	12.838229
2250.000000	13.010553
2249.000000	13.165285
2248.000000	13.314667
2247.000000	13.460655
2246.000000	13.594810
2245.000000	13.742752
2244.000000	13.837814
2243.000000	13.955509
2242.000000	14.044089
2241.000000	14.118368
2240.000000	14.199541
2239.000000	14.295734
2238.000000	14.365693
2237.000000	14.416001
2236.000000	14.446248
2235.000000	14.526906
2234.000000	14.553449
2233.000000	14.575671
2232.000000	14.611165
2231.000000	14.639354
2230.000000	14.638223
2229.000000	14.657667
2228.000000	14.670836
2227.000000	14.652935
2226.000000	14.643264
2225.000000	14.648716
2224.000000	14.624128
2223.000000	14.588429
2222.000000	14.578552
2221.000000	14.577935
2220.000000	14.524643
2219.000000	14.493264
2218.000000	14.463840
2217.000000	14.436680
2216.000000	14.396660
2215.000000	14.362092
2214.000000	14.320220
2213.000000	14.274129
2212.000000	14.261886
2211.000000	14.201393
2210.000000	14.179274
2209.000000	14.167751
2208.000000	14.158492
2207.000000	14.120014
2206.000000	14.077834
2205.000000	14.069192
2204.000000	14.037813
2203.000000	14.005920
2202.000000	13.981949
2201.000000	13.987196
2200.000000	13.961270
2199.000000	13.933698
2198.000000	13.932875
2197.000000	13.901188
2196.000000	13.907361
2195.000000	13.914768
2194.000000	13.882978
2193.000000	13.878040
2192.000000	13.868061
2191.000000	13.857361
2190.000000	13.847279
2189.000000	13.818267
2188.000000	13.817546
2187.000000	13.821662
2186.000000	13.790695
2185.000000	13.782567
2184.000000	13.784625
2183.000000	13.774645
2182.000000	13.740077
2181.000000	13.736580
2180.000000	13.710242
2179.000000	13.710962
2178.000000	13.685345
2177.000000	13.688946
2176.000000	13.712917
2175.000000	13.696353
2174.000000	13.669296
2173.000000	13.678246
2172.000000	13.696662
2171.000000	13.695325
2170.000000	13.692135
2169.000000	13.710962
2168.000000	13.712506
2167.000000	13.739769
2166.000000	13.754584
2165.000000	13.767752
2164.000000	13.776600
2163.000000	13.814254
2162.000000	13.830921
2161.000000	13.860550
2160.000000	13.878760
2159.000000	13.913945
2158.000000	13.951085
2157.000000	13.996764
2156.000000	14.014048
2155.000000	14.053965
2154.000000	14.097175
2153.000000	14.130303
2152.000000	14.174850
2151.000000	14.233183
2150.000000	14.277113
2149.000000	14.324643
2148.000000	14.362503
2147.000000	14.417030
2146.000000	14.457668
2145.000000	14.510651
2144.000000	14.552215
2143.000000	14.576803
2142.000000	14.621762
2141.000000	14.659930
2140.000000	14.679581
2139.000000	14.732358
2138.000000	14.762708
2137.000000	14.791309
2136.000000	14.828243
2135.000000	14.857975
2134.000000	14.873716
2133.000000	14.911370
2132.000000	14.939559
2131.000000	14.942234
2130.000000	14.962398
2129.000000	14.973201
2128.000000	14.981740
2127.000000	14.988839
2126.000000	15.006534
2125.000000	15.020217
2124.000000	15.019703
2123.000000	15.011472
2122.000000	14.988839
2121.000000	14.984724
2120.000000	14.985238
2119.000000	14.981946
2118.000000	14.980197
2117.000000	14.966308
2116.000000	14.933180
2115.000000	14.926596
2114.000000	14.925773
2113.000000	14.906637
2112.000000	14.881226
2111.000000	14.855300
2110.000000	14.828963
2109.000000	14.810650
2108.000000	14.775671
2107.000000	14.750259
2106.000000	14.746350
2105.000000	14.716206
2104.000000	14.679683
2103.000000	14.663325
2102.000000	14.649745
2101.000000	14.625260
2100.000000	14.584210
2099.000000	14.560034
2098.000000	14.535034
2097.000000	14.517853
2096.000000	14.500672
2095.000000	14.472482
2094.000000	14.450980
2093.000000	14.432565
2092.000000	14.412503
2091.000000	14.379273
2090.000000	14.364252
2089.000000	14.354582
2088.000000	14.338018
2087.000000	14.312401
2086.000000	14.283594
2085.000000	14.266825
2084.000000	14.246043
2083.000000	14.209932
2082.000000	14.190590
2081.000000	14.162504
2080.000000	14.109932
2079.000000	14.074233
2078.000000	14.044912
2077.000000	14.005097
2076.000000	13.954686
2075.000000	13.905921
2074.000000	13.859110
2073.000000	13.797382
2072.000000	13.753555
2071.000000	13.714357
2070.000000	13.648617
2069.000000	13.585963
2068.000000	13.536272
2067.000000	13.478453
2066.000000	13.403865
2065.000000	13.341210
2064.000000	13.298824
2063.000000	13.242548
2062.000000	13.175059
2061.000000	13.120635
2060.000000	13.083701
2059.000000	13.040800
2058.000000	12.990183
2057.000000	12.957261
2056.000000	12.933907
2055.000000	12.914772
2054.000000	12.892241
2053.000000	12.879278
2052.000000	12.884525
2051.000000	12.885862
2050.000000	12.904278
2049.000000	12.935039
2048.000000	12.967446
2047.000000	12.993166
2046.000000	13.041212
2045.000000	13.097384
2044.000000	13.139565
2043.000000	13.186684
2042.000000	13.234935
2041.000000	13.291416
2040.000000	13.329379
2039.000000	13.367136
2038.000000	13.407774
2037.000000	13.445222
2036.000000	13.482568
2035.000000	13.514564
2034.000000	13.548514
2033.000000	13.582773
2032.000000	13.594090
2031.000000	13.605613
2030.000000	13.622382
2029.000000	13.618987
2028.000000	13.645119
2027.000000	13.644810
2026.000000	13.644605
2025.000000	13.658288
2024.000000	13.657567
2023.000000	13.634317
2022.000000	13.637609
2021.000000	13.630819
2020.000000	13.616210
2019.000000	13.602526
2018.000000	13.593679
2017.000000	13.573720
2016.000000	13.549543
2015.000000	13.546971
2014.000000	13.524132
2013.000000	13.488947
2012.000000	13.465284
2011.000000	13.430202
2010.000000	13.405922
2009.000000	13.368680
2008.000000	13.335449
2007.000000	13.293371
2006.000000	13.249750
2005.000000	13.198618
2004.000000	13.165182
2003.000000	13.113536
2002.000000	13.063845
2001.000000	13.019915
2000.000000	12.945533
1999.000000	12.890698
1998.000000	12.837200
1997.000000	12.793887
1996.000000	12.731439
1995.000000	12.670637
1994.000000	12.590801
1993.000000	12.522798
1992.000000	12.466419
1991.000000	12.409321
1990.000000	12.327325
1989.000000	12.251296
1988.000000	12.200371
1987.000000	12.109939
1986.000000	12.036174
1985.000000	11.983396
1984.000000	11.893993
1983.000000	11.829899
1982.000000	11.762306
1981.000000	11.679076
1980.000000	11.596463
1979.000000	11.536896
1978.000000	11.469715
1977.000000	11.386793
1976.000000	11.319715
1975.000000	11.244407
1974.000000	11.176300
1973.000000	11.112103
1972.000000	11.042350
1971.000000	10.960972
1970.000000	10.892556
1969.000000	10.839984
1968.000000	10.758503
1967.000000	10.687516
1966.000000	10.641837
1965.000000	10.590705
1964.000000	10.519821
1963.000000	10.450788
1962.000000	10.380829
1961.000000	10.337723
1960.000000	10.271262
1959.000000	10.209122
1958.000000	10.134946
1957.000000	10.082682
1956.000000	10.039370
1955.000000	9.986078
1954.000000	9.889679
1953.000000	9.873012
1952.000000	9.788239
1951.000000	9.776408
1950.000000	9.716120
1949.000000	9.643280
1948.000000	9.608713
1947.000000	9.563137
1946.000000	9.561285
1945.000000	9.516326
1944.000000	9.477746
1943.000000	9.436697
1942.000000	9.404701
1941.000000	9.389372
1940.000000	9.383713
1939.000000	9.357993
1938.000000	9.366841
1937.000000	9.379084
1936.000000	9.364269
1935.000000	9.355524
1934.000000	9.366430
1933.000000	9.383816
1932.000000	9.412829
1931.000000	9.444824
1930.000000	9.477129
1929.000000	9.518384
1928.000000	9.575997
1927.000000	9.636285
1926.000000	9.680215
1925.000000	9.770852
1924.000000	9.852025
1923.000000	9.913238
1922.000000	9.997806
1921.000000	10.125995
1920.000000	10.221879
1919.000000	10.354389
1918.000000	10.451508
1917.000000	10.571158
1916.000000	10.678874
1915.000000	10.794203
1914.000000	10.928050
1913.000000	11.131033
1912.000000	11.310662
1911.000000	11.463233
1910.000000	11.626813
1909.000000	11.778561
1908.000000	11.928664
1907.000000	12.093890
1906.000000	12.300988
1905.000000	12.576398
1904.000000	12.826912
1903.000000	13.042755
1902.000000	13.269812
1901.000000	13.531539
1900.000000	13.788637
1899.000000	14.081434
1898.000000	14.406536
1897.000000	14.703243
1896.000000	15.009826
1895.000000	15.271862
1894.000000	15.544084
1893.000000	15.855194
1892.000000	16.188629
1891.000000	16.613422
1890.000000	17.028132
1889.000000	17.379366
1888.000000	17.768150
1887.000000	18.159610
1886.000000	18.551275
1885.000000	18.976583
1884.000000	19.405491
1883.000000	19.857650
1882.000000	20.320508
1881.000000	20.715569
1880.000000	21.135423
1879.000000	21.512685
1878.000000	21.907334
1877.000000	22.312374
1876.000000	22.670912
1875.000000	23.039120
1874.000000	23.422761
1873.000000	23.780270
1872.000000	24.149919
1871.000000	24.460823
1870.000000	24.761131
1869.000000	25.041892
1868.000000	25.317611
1867.000000	25.516581
1866.000000	25.690655
1865.000000	25.816477
1864.000000	25.956600
1863.000000	26.089625
1862.000000	26.228616
1861.000000	26.390035
1860.000000	26.534376
1859.000000	26.672030
1858.000000	26.821927
1857.000000	26.923881
1856.000000	26.997852
1855.000000	27.054951
1854.000000	27.132317
1853.000000	27.172028
1852.000000	27.218016
1851.000000	27.258962
1850.000000	27.282522
1849.000000	27.319147
1848.000000	27.363694
1847.000000	27.422542
1846.000000	27.427995
1845.000000	27.400834
1844.000000	27.378406
1843.000000	27.339209
1842.000000	27.356904
1841.000000	27.387974
1840.000000	27.412974
1839.000000	27.414929
1838.000000	27.402172
1837.000000	27.385814
1836.000000	27.363900
1835.000000	27.333345
1834.000000	27.298880
1833.000000	27.249292
1832.000000	27.192399
1831.000000	27.164827
1830.000000	27.149601
1829.000000	27.120074
1828.000000	27.077173
1827.000000	27.029848
1826.000000	26.992708
1825.000000	26.949704
1824.000000	26.907112
1823.000000	26.871824
1822.000000	26.859890
1821.000000	26.877585
1820.000000	26.865959
1819.000000	26.855157
1818.000000	26.815857
1817.000000	26.771001
1816.000000	26.753923
1815.000000	26.739005
1814.000000	26.713285
1813.000000	26.707832
1812.000000	26.689520
1811.000000	26.670178
1810.000000	26.652689
1809.000000	26.615755
1808.000000	26.583656
1807.000000	26.557524
1806.000000	26.535508
1805.000000	26.511640
1804.000000	26.475117
1803.000000	26.446002
1802.000000	26.427175
1801.000000	26.399706
1800.000000	26.350529
1799.000000	26.304233
1798.000000	26.269871
1797.000000	26.232320
1796.000000	26.207628
1795.000000	26.180262
1794.000000	26.147032
1793.000000	26.124090
1792.000000	26.093843
1791.000000	26.080263
1790.000000	26.052691
1789.000000	26.004028
1788.000000	25.978617
1787.000000	25.953308
1786.000000	25.930983
1785.000000	25.905263
1784.000000	25.867403
1783.000000	25.826251
1782.000000	25.802074
1781.000000	25.765860
1780.000000	25.720902
1779.000000	25.691684
1778.000000	25.661848
1777.000000	25.627178
1776.000000	25.584277
1775.000000	25.529338
1774.000000	25.481396
1773.000000	25.437775
1772.000000	25.391067
1771.000000	25.339318
1770.000000	25.288701
1769.000000	25.226767
1768.000000	25.170903
1767.000000	25.127282
1766.000000	25.071624
1765.000000	25.027180
1764.000000	25.003517
1763.000000	24.982838
1762.000000	24.980266
1761.000000	24.986748
1760.000000	25.002900
1759.000000	25.037673
1758.000000	25.076871
1757.000000	25.115039
1756.000000	25.170801
1755.000000	25.225739
1754.000000	25.258043
1753.000000	25.304545
1752.000000	25.329956
1751.000000	25.342508
1750.000000	25.348166
1749.000000	25.357631
1748.000000	25.368228
1747.000000	25.351150
1746.000000	25.313804
1745.000000	25.285821
1744.000000	25.223475
1743.000000	25.142714
1742.000000	25.072344
1741.000000	24.993538
1740.000000	24.882839
1739.000000	24.781090
1738.000000	24.669053
1737.000000	24.561852
1736.000000	24.442202
1735.000000	24.370392
1734.000000	24.303519
1733.000000	24.237779
1732.000000	24.213705
1731.000000	24.209487
1730.000000	24.223581
1729.000000	24.257326
1728.000000	24.307017
1727.000000	24.348787
1726.000000	24.392305
1725.000000	24.444671
1724.000000	24.472140
1723.000000	24.520597
1722.000000	24.572346
1721.000000	24.607634
1720.000000	24.664629
1719.000000	24.724506
1718.000000	24.778312
1717.000000	24.849197
1716.000000	24.938703
1715.000000	25.012365
1714.000000	25.095184
1713.000000	25.172344
1712.000000	25.241068
1711.000000	25.305368
1710.000000	25.357323
1709.000000	25.405676
1708.000000	25.433042
1707.000000	25.445491
1706.000000	25.445182
1705.000000	25.410615
1704.000000	25.392610
1703.000000	25.371623
1702.000000	25.333969
1701.000000	25.263599
1700.000000	25.189113
1699.000000	25.105677
1698.000000	25.047653
1697.000000	24.961439
1696.000000	24.867818
1695.000000	24.839217
1694.000000	24.815555
1693.000000	24.814526
1692.000000	24.835308
1691.000000	24.878003
1690.000000	24.949608
1689.000000	25.045595
1688.000000	25.128825
1687.000000	25.200430
1686.000000	25.269154
1685.000000	25.323578
1684.000000	25.419874
1683.000000	25.528515
1682.000000	25.654750
1681.000000	25.834584
1680.000000	26.050839
1679.000000	26.310303
1678.000000	26.609890
1677.000000	26.905157
1676.000000	27.180979
1675.000000	27.479743
1674.000000	27.710504
1673.000000	27.911429
1672.000000	28.121202
1671.000000	28.279741
1670.000000	28.439514
1669.000000	28.593320
1668.000000	28.717085
1667.000000	28.801241
1666.000000	28.868731
1665.000000	28.985500
1664.000000	29.056281
1663.000000	29.113791
1662.000000	29.170170
1661.000000	29.228400
1660.000000	29.241157
1659.000000	29.320169
1658.000000	29.353811
1657.000000	29.373256
1656.000000	29.384367
1655.000000	29.369449
1654.000000	29.392288
1653.000000	29.413996
1652.000000	29.409984
1651.000000	29.399387
1650.000000	29.389408
1649.000000	29.379017
1648.000000	29.341671
1647.000000	29.332927
1646.000000	29.313997
1645.000000	29.268729
1644.000000	29.241363
1643.000000	29.211631
1642.000000	29.177783
1641.000000	29.153298
1640.000000	29.116261
1639.000000	29.084471
1638.000000	29.048874
1637.000000	29.005870
1636.000000	28.978298
1635.000000	28.918730
1634.000000	28.867805
1633.000000	28.844862
1632.000000	28.789307
1631.000000	28.732517
1630.000000	28.695274
1629.000000	28.633958
1628.000000	28.573464
1627.000000	28.524493
1626.000000	28.470789
1625.000000	28.394555
1624.000000	28.346716
1623.000000	28.296510
1622.000000	28.246613
1621.000000	28.191161
1620.000000	28.154021
1619.000000	28.082828
1618.000000	28.028096
1617.000000	27.987355
1616.000000	27.943219
1615.000000	27.885812
1614.000000	27.830257
1613.000000	27.774290
1612.000000	27.728302
1611.000000	27.678302
1610.000000	27.620998
1609.000000	27.573570
1608.000000	27.512048
1607.000000	27.456287
1606.000000	27.399908
1605.000000	27.345793
1604.000000	27.304538
1603.000000	27.237666
