PE UV       SUBTECH     SPECTRUM    ASCII       PEDS        4.00        
   -1
BIOUCRA1.Sample.ASC
24/05/03
14:28:43.00
24/05/03
14:28:43.00
Vinicio Soto Monge
Desconocido, esp de prueba para Monteverde
250,000000
1
Lambda 1050
1050L1511233
PerkinElmer UV WinLab 6.3.2.0749 / 2.02.05 Lambda 900 UV/VIS/NIR, Aug  7 2015 09:38:08

0
0
3350/servo 860,8/2
0
0
UV/VIS
1
1
1
DoubleDePol,CommonBeamDepol,RBeamAtt,SBeamAtt,60mm sphere, WB InGaAs Detector
0
0
0
0
Program
Program
3350/servo 860,8/2
3350/0,2 860,8/0,2
3350/0,2 860,8/0,2
0
15.00
 
 
 
0
 
860,8
319,2
860,8
Front
100
on
S:100 R:100
0
0
0
0
 
0
 
 
 
0
 
 
0
0
0
0
0
 
 
 
 
0
0


0
0
#HDR
-1
-1
#GR
nm
%R
1.0
0.0
2500,000000
-1,000000
2251
8
95,340600
6,591900
#DATA
250.000000	7.702400
251.000000	7.712900
252.000000	7.664000
253.000000	7.699300
254.000000	7.690800
255.000000	7.582900
256.000000	7.612500
257.000000	7.620000
258.000000	7.593000
259.000000	7.571000
260.000000	7.552600
261.000000	7.499300
262.000000	7.449100
263.000000	7.421400
264.000000	7.391700
265.000000	7.414700
266.000000	7.328800
267.000000	7.284000
268.000000	7.335600
269.000000	7.276800
270.000000	7.274700
271.000000	7.214200
272.000000	7.194800
273.000000	7.205900
274.000000	7.211800
275.000000	7.164300
276.000000	7.155300
277.000000	7.190900
278.000000	7.188800
279.000000	7.067400
280.000000	7.108200
281.000000	7.068700
282.000000	7.042300
283.000000	7.059800
284.000000	7.044900
285.000000	7.048400
286.000000	7.012400
287.000000	6.993000
288.000000	6.990100
289.000000	6.979000
290.000000	6.957200
291.000000	6.991200
292.000000	6.951300
293.000000	6.950400
294.000000	6.905100
295.000000	6.863600
296.000000	6.928600
297.000000	6.864500
298.000000	6.859500
299.000000	6.900300
300.000000	6.879000
301.000000	6.817600
302.000000	6.835600
303.000000	6.826100
304.000000	6.860300
305.000000	6.793100
306.000000	6.821200
307.000000	6.834800
308.000000	6.785800
309.000000	6.810600
310.000000	6.794900
311.000000	6.750600
312.000000	6.767500
313.000000	6.746000
314.000000	6.794600
315.000000	6.738900
316.000000	6.844900
317.000000	7.628700
318.000000	7.443700
319.000000	7.482100
320.000000	7.815000
321.000000	7.353600
322.000000	7.572400
323.000000	7.474800
324.000000	7.141200
325.000000	6.961400
326.000000	7.343400
327.000000	6.986400
328.000000	7.291400
329.000000	6.982200
330.000000	6.997600
331.000000	7.226900
332.000000	7.129700
333.000000	7.334500
334.000000	7.408200
335.000000	7.170300
336.000000	7.047000
337.000000	6.933200
338.000000	6.861800
339.000000	6.914600
340.000000	6.994400
341.000000	7.194300
342.000000	6.773500
343.000000	6.792800
344.000000	7.105500
345.000000	6.969800
346.000000	7.256500
347.000000	7.091000
348.000000	6.848700
349.000000	6.901300
350.000000	6.980300
351.000000	6.910000
352.000000	6.835100
353.000000	6.847600
354.000000	6.980000
355.000000	6.967600
356.000000	6.878800
357.000000	6.768200
358.000000	6.993400
359.000000	6.926600
360.000000	6.897300
361.000000	6.856000
362.000000	6.892900
363.000000	6.951400
364.000000	6.952100
365.000000	6.898400
366.000000	6.739600
367.000000	6.765700
368.000000	6.836400
369.000000	6.852600
370.000000	6.770900
371.000000	6.886500
372.000000	6.970600
373.000000	6.772500
374.000000	6.591900
375.000000	6.674300
376.000000	6.817600
377.000000	6.838300
378.000000	6.816000
379.000000	6.832800
380.000000	6.852200
381.000000	6.881900
382.000000	6.883800
383.000000	6.870300
384.000000	6.917400
385.000000	6.944200
386.000000	6.959900
387.000000	6.988800
388.000000	7.002800
389.000000	7.020200
390.000000	7.051900
391.000000	7.094000
392.000000	7.125500
393.000000	7.151000
394.000000	7.191200
395.000000	7.256000
396.000000	7.310100
397.000000	7.358000
398.000000	7.424300
399.000000	7.504700
400.000000	7.587900
401.000000	7.679600
402.000000	7.774300
403.000000	7.901100
404.000000	8.008700
405.000000	8.134300
406.000000	8.280700
407.000000	8.428000
408.000000	8.589400
409.000000	8.767000
410.000000	8.951400
411.000000	9.151500
412.000000	9.348100
413.000000	9.553600
414.000000	9.781100
415.000000	10.043000
416.000000	10.303100
417.000000	10.547800
418.000000	10.797600
419.000000	11.072000
420.000000	11.341000
421.000000	11.627500
422.000000	11.907900
423.000000	12.177500
424.000000	12.440100
425.000000	12.746000
426.000000	13.038000
427.000000	13.306800
428.000000	13.579800
429.000000	13.861600
430.000000	14.154400
431.000000	14.426000
432.000000	14.679800
433.000000	14.945300
434.000000	15.228400
435.000000	15.507700
436.000000	15.769300
437.000000	15.998800
438.000000	16.235300
439.000000	16.482600
440.000000	16.728500
441.000000	16.964000
442.000000	17.205600
443.000000	17.428200
444.000000	17.639900
445.000000	17.870800
446.000000	18.072000
447.000000	18.238600
448.000000	18.412500
449.000000	18.578200
450.000000	18.742600
451.000000	18.908400
452.000000	19.078700
453.000000	19.236700
454.000000	19.360400
455.000000	19.479200
456.000000	19.594900
457.000000	19.679900
458.000000	19.765100
459.000000	19.837000
460.000000	19.888600
461.000000	19.911100
462.000000	19.938400
463.000000	19.967900
464.000000	19.971000
465.000000	19.963000
466.000000	19.935300
467.000000	19.912800
468.000000	19.900100
469.000000	19.872300
470.000000	19.846200
471.000000	19.845400
472.000000	19.853400
473.000000	19.876600
474.000000	19.917500
475.000000	19.975000
476.000000	20.062500
477.000000	20.205400
478.000000	20.382000
479.000000	20.614900
480.000000	20.895600
481.000000	21.200100
482.000000	21.560100
483.000000	21.986200
484.000000	22.444800
485.000000	22.939300
486.000000	23.462100
487.000000	24.003000
488.000000	24.601800
489.000000	25.218100
490.000000	25.861600
491.000000	26.492200
492.000000	27.146100
493.000000	27.795800
494.000000	28.425300
495.000000	29.067600
496.000000	29.690800
497.000000	30.284900
498.000000	30.890100
499.000000	31.465500
500.000000	32.013400
501.000000	32.560000
502.000000	33.107200
503.000000	33.647500
504.000000	34.174800
505.000000	34.721300
506.000000	35.284500
507.000000	35.834600
508.000000	36.356100
509.000000	36.888100
510.000000	37.434000
511.000000	37.971300
512.000000	38.541700
513.000000	39.156400
514.000000	39.756600
515.000000	40.364300
516.000000	41.039300
517.000000	41.736600
518.000000	42.461900
519.000000	43.206200
520.000000	43.998400
521.000000	44.796400
522.000000	45.586200
523.000000	46.428700
524.000000	47.286600
525.000000	48.155900
526.000000	49.008400
527.000000	49.866400
528.000000	50.696800
529.000000	51.543100
530.000000	52.340300
531.000000	53.144300
532.000000	53.926500
533.000000	54.714900
534.000000	55.454100
535.000000	56.179300
536.000000	56.858500
537.000000	57.509900
538.000000	58.131400
539.000000	58.737500
540.000000	59.295300
541.000000	59.836900
542.000000	60.378100
543.000000	60.902500
544.000000	61.415900
545.000000	61.952900
546.000000	62.427200
547.000000	62.909300
548.000000	63.396500
549.000000	63.895800
550.000000	64.376900
551.000000	64.843700
552.000000	65.330900
553.000000	65.800500
554.000000	66.282600
555.000000	66.777500
556.000000	67.201500
557.000000	67.642600
558.000000	68.117600
559.000000	68.562600
560.000000	69.008000
561.000000	69.425700
562.000000	69.841200
563.000000	70.221000
564.000000	70.560900
565.000000	70.914400
566.000000	71.216800
567.000000	71.523100
568.000000	71.746800
569.000000	72.020200
570.000000	72.230400
571.000000	72.446700
572.000000	72.699900
573.000000	72.876300
574.000000	73.056200
575.000000	73.263800
576.000000	73.467900
577.000000	73.725000
578.000000	73.836800
579.000000	74.061300
580.000000	74.166400
581.000000	74.436300
582.000000	74.626400
583.000000	74.715400
584.000000	74.864600
585.000000	74.918500
586.000000	75.016600
587.000000	75.088100
588.000000	75.117900
589.000000	75.143700
590.000000	75.252400
591.000000	75.173200
592.000000	75.113400
593.000000	75.026600
594.000000	74.974800
595.000000	74.842100
596.000000	74.722500
597.000000	74.566000
598.000000	74.401600
599.000000	74.158300
600.000000	73.912200
601.000000	73.768900
602.000000	73.483900
603.000000	73.267400
604.000000	73.023300
605.000000	72.762000
606.000000	72.483800
607.000000	72.207500
608.000000	72.021000
609.000000	71.807400
610.000000	71.537100
611.000000	71.248700
612.000000	71.015700
613.000000	70.709900
614.000000	70.368800
615.000000	70.095100
616.000000	69.702300
617.000000	69.336700
618.000000	68.910300
619.000000	68.499700
620.000000	67.956900
621.000000	67.403100
622.000000	66.878800
623.000000	66.327700
624.000000	65.748400
625.000000	65.135000
626.000000	64.558600
627.000000	64.005600
628.000000	63.410500
629.000000	62.736300
630.000000	62.170500
631.000000	61.579000
632.000000	60.954800
633.000000	60.378300
634.000000	59.821400
635.000000	59.185000
636.000000	58.640400
637.000000	58.093900
638.000000	57.550000
639.000000	57.043200
640.000000	56.528700
641.000000	56.033300
642.000000	55.524000
643.000000	55.088500
644.000000	54.674500
645.000000	54.273000
646.000000	54.047900
647.000000	53.823200
648.000000	53.605400
649.000000	53.486600
650.000000	53.404900
651.000000	53.358500
652.000000	53.422400
653.000000	53.492900
654.000000	53.587600
655.000000	53.812800
656.000000	53.982800
657.000000	54.259500
658.000000	54.554400
659.000000	54.900200
660.000000	55.217100
661.000000	55.602100
662.000000	56.038500
663.000000	56.509300
664.000000	57.048000
665.000000	57.581600
666.000000	58.118600
667.000000	58.704000
668.000000	59.265000
669.000000	59.882500
670.000000	60.480400
671.000000	61.179900
672.000000	61.805600
673.000000	62.461000
674.000000	63.158700
675.000000	63.811000
676.000000	64.469200
677.000000	65.108300
678.000000	65.790100
679.000000	66.422200
680.000000	67.094000
681.000000	67.775900
682.000000	68.391700
683.000000	69.084200
684.000000	69.709900
685.000000	70.374800
686.000000	71.069600
687.000000	71.694700
688.000000	72.354800
689.000000	73.103700
690.000000	73.759900
691.000000	74.389000
692.000000	75.058300
693.000000	75.749300
694.000000	76.390400
695.000000	76.901300
696.000000	77.415600
697.000000	77.979700
698.000000	78.428300
699.000000	78.903200
700.000000	79.299400
701.000000	79.602800
702.000000	79.977300
703.000000	80.318100
704.000000	80.593500
705.000000	80.835800
706.000000	80.984000
707.000000	81.238900
708.000000	81.406600
709.000000	81.478600
710.000000	81.473000
711.000000	81.575900
712.000000	81.684700
713.000000	81.709000
714.000000	81.687000
715.000000	81.664200
716.000000	81.733200
717.000000	81.652400
718.000000	81.555900
719.000000	81.617000
720.000000	81.598400
721.000000	81.492300
722.000000	81.498500
723.000000	81.472300
724.000000	81.479300
725.000000	81.480100
726.000000	81.465900
727.000000	81.500500
728.000000	81.632900
729.000000	81.721500
730.000000	81.883500
731.000000	81.990100
732.000000	82.156200
733.000000	82.411700
734.000000	82.552800
735.000000	82.720000
736.000000	82.932200
737.000000	83.137500
738.000000	83.414800
739.000000	83.671700
740.000000	83.941500
741.000000	84.219500
742.000000	84.476900
743.000000	84.788400
744.000000	85.098700
745.000000	85.455300
746.000000	85.860800
747.000000	86.213400
748.000000	86.561000
749.000000	86.903400
750.000000	87.231500
751.000000	87.525100
752.000000	87.820200
753.000000	88.203200
754.000000	88.522700
755.000000	88.732800
756.000000	89.095500
757.000000	89.506500
758.000000	89.831600
759.000000	90.084900
760.000000	90.418300
761.000000	90.796300
762.000000	91.062000
763.000000	91.274900
764.000000	91.552900
765.000000	91.792500
766.000000	92.109200
767.000000	92.390700
768.000000	92.542400
769.000000	92.768100
770.000000	92.909000
771.000000	93.021600
772.000000	93.084800
773.000000	93.211700
774.000000	93.352500
775.000000	93.462300
776.000000	93.530600
777.000000	93.675500
778.000000	93.768000
779.000000	93.763700
780.000000	93.807300
781.000000	93.854000
782.000000	94.069300
783.000000	94.104800
784.000000	94.087900
785.000000	94.277900
786.000000	94.389900
787.000000	94.476600
788.000000	94.499100
789.000000	94.686800
790.000000	94.690200
791.000000	94.788200
792.000000	94.915600
793.000000	95.027100
794.000000	95.104400
795.000000	95.073500
796.000000	95.046100
797.000000	95.039900
798.000000	95.233900
799.000000	95.293400
800.000000	95.288100
801.000000	95.243100
802.000000	95.267500
803.000000	95.265400
804.000000	95.246400
805.000000	95.340600
806.000000	95.255800
807.000000	95.291900
808.000000	95.085600
809.000000	95.127300
810.000000	95.089400
811.000000	94.814200
812.000000	94.698000
813.000000	94.605300
814.000000	94.363100
815.000000	94.202300
816.000000	94.033100
817.000000	93.909600
818.000000	93.676500
819.000000	93.475900
820.000000	93.185500
821.000000	93.127800
822.000000	92.829300
823.000000	92.591900
824.000000	92.578700
825.000000	92.422300
826.000000	92.265300
827.000000	92.028600
828.000000	91.762800
829.000000	91.531200
830.000000	91.160300
831.000000	91.236800
832.000000	90.866500
833.000000	90.515700
834.000000	90.408400
835.000000	89.970000
836.000000	89.859800
837.000000	89.889200
838.000000	89.414500
839.000000	89.407100
840.000000	89.215500
841.000000	88.784700
842.000000	88.301200
843.000000	87.963300
844.000000	87.995800
845.000000	87.845000
846.000000	87.432800
847.000000	87.329100
848.000000	87.250500
849.000000	87.313600
850.000000	87.025000
851.000000	86.847700
852.000000	86.195100
853.000000	86.129100
854.000000	85.967800
855.000000	85.913300
856.000000	85.557200
857.000000	84.833100
858.000000	85.434533
859.000000	85.256754
860.000000	85.025833
861.000000	84.814979
862.000000	84.585571
863.000000	84.363019
864.000000	84.159022
865.000000	83.961378
866.000000	83.779061
867.000000	83.602795
868.000000	83.409890
869.000000	83.191272
870.000000	83.024383
871.000000	82.837125
872.000000	82.748488
873.000000	82.661767
874.000000	82.587247
875.000000	82.494374
876.000000	82.309335
877.000000	82.176732
878.000000	82.003995
879.000000	81.821980
880.000000	81.634622
881.000000	81.447465
882.000000	81.283803
883.000000	81.085554
884.000000	80.887809
885.000000	80.712148
886.000000	80.524890
887.000000	80.339447
888.000000	80.167618
889.000000	79.992461
890.000000	79.837370
891.000000	79.666348
892.000000	79.505510
893.000000	79.318857
894.000000	79.178590
895.000000	79.022390
896.000000	78.857519
897.000000	78.692345
898.000000	78.522230
899.000000	78.373795
900.000000	78.203579
901.000000	78.033766
902.000000	77.885634
903.000000	77.731955
904.000000	77.579588
905.000000	77.431758
906.000000	77.286348
907.000000	77.142048
908.000000	76.994016
909.000000	76.865144
910.000000	76.728911
911.000000	76.609921
912.000000	76.520376
913.000000	76.359034
914.000000	76.215742
915.000000	76.097357
916.000000	76.003375
917.000000	75.900217
918.000000	75.751580
919.000000	75.648422
920.000000	75.525903
921.000000	75.414879
922.000000	75.299116
923.000000	75.192933
924.000000	75.069607
925.000000	74.982281
926.000000	74.853913
927.000000	74.740671
928.000000	74.627429
929.000000	74.528909
930.000000	74.430692
931.000000	74.309080
932.000000	74.175368
933.000000	74.071201
934.000000	73.966026
935.000000	73.831104
936.000000	73.701123
937.000000	73.571141
938.000000	73.476252
939.000000	73.366438
940.000000	73.222844
941.000000	73.105568
942.000000	72.977704
943.000000	72.888664
944.000000	72.755052
945.000000	72.643625
946.000000	72.533509
947.000000	72.438922
948.000000	72.303798
949.000000	72.200943
950.000000	72.111599
951.000000	71.978794
952.000000	71.888745
953.000000	71.803537
954.000000	71.685051
955.000000	71.591775
956.000000	71.502936
957.000000	71.409256
958.000000	71.290670
959.000000	71.227847
960.000000	71.113496
961.000000	71.057833
962.000000	70.941767
963.000000	70.847281
964.000000	70.768022
965.000000	70.699956
966.000000	70.607386
967.000000	70.519858
968.000000	70.451287
969.000000	70.387154
970.000000	70.296197
971.000000	70.260903
972.000000	70.193240
973.000000	70.131527
974.000000	70.078889
975.000000	70.013747
976.000000	69.952135
977.000000	69.910992
978.000000	69.871262
979.000000	69.831430
980.000000	69.790187
981.000000	69.724239
982.000000	69.688743
983.000000	69.647097
984.000000	69.643870
985.000000	69.602728
986.000000	69.567938
987.000000	69.534762
988.000000	69.523166
989.000000	69.495133
990.000000	69.461856
991.000000	69.465890
992.000000	69.467402
993.000000	69.445823
994.000000	69.432411
995.000000	69.435537
996.000000	69.438260
997.000000	69.438966
998.000000	69.429386
999.000000	69.409621
1000.000000	69.415974
1001.000000	69.430898
1002.000000	69.421520
1003.000000	69.421016
1004.000000	69.416781
1005.000000	69.426764
1006.000000	69.439571
1007.000000	69.442797
1008.000000	69.449049
1009.000000	69.454898
1010.000000	69.455604
1011.000000	69.473150
1012.000000	69.495334
1013.000000	69.506830
1014.000000	69.520746
1015.000000	69.548981
1016.000000	69.572577
1017.000000	69.602425
1018.000000	69.627030
1019.000000	69.652341
1020.000000	69.674122
1021.000000	69.706390
1022.000000	69.758524
1023.000000	69.789784
1024.000000	69.826893
1025.000000	69.867833
1026.000000	69.908572
1027.000000	69.950219
1028.000000	69.980269
1029.000000	70.015966
1030.000000	70.066990
1031.000000	70.116704
1032.000000	70.164098
1033.000000	70.201509
1034.000000	70.240231
1035.000000	70.293172
1036.000000	70.339860
1037.000000	70.381204
1038.000000	70.409540
1039.000000	70.447657
1040.000000	70.495152
1041.000000	70.543353
1042.000000	70.586512
1043.000000	70.628764
1044.000000	70.671721
1045.000000	70.696729
1046.000000	70.743317
1047.000000	70.794240
1048.000000	70.834273
1049.000000	70.884491
1050.000000	70.929263
1051.000000	70.966271
1052.000000	71.005195
1053.000000	71.057026
1054.000000	71.108051
1055.000000	71.151311
1056.000000	71.188318
1057.000000	71.224419
1058.000000	71.269393
1059.000000	71.308821
1060.000000	71.343409
1061.000000	71.394131
1062.000000	71.445558
1063.000000	71.497289
1064.000000	71.538834
1065.000000	71.583002
1066.000000	71.622934
1067.000000	71.670732
1068.000000	71.705118
1069.000000	71.745453
1070.000000	71.797083
1071.000000	71.838628
1072.000000	71.884913
1073.000000	71.930089
1074.000000	71.975164
1075.000000	72.025180
1076.000000	72.063701
1077.000000	72.095566
1078.000000	72.143263
1079.000000	72.178254
1080.000000	72.231497
1081.000000	72.281916
1082.000000	72.320033
1083.000000	72.359058
1084.000000	72.401511
1085.000000	72.438821
1086.000000	72.476636
1087.000000	72.521509
1088.000000	72.564467
1089.000000	72.612869
1090.000000	72.639491
1091.000000	72.672566
1092.000000	72.715120
1093.000000	72.762413
1094.000000	72.809707
1095.000000	72.842681
1096.000000	72.864664
1097.000000	72.909840
1098.000000	72.952797
1099.000000	72.992729
1100.000000	73.036393
1101.000000	73.054241
1102.000000	73.076527
1103.000000	73.120391
1104.000000	73.153668
1105.000000	73.184525
1106.000000	73.206810
1107.000000	73.234037
1108.000000	73.264490
1109.000000	73.295145
1110.000000	73.310170
1111.000000	73.342439
1112.000000	73.383581
1113.000000	73.417261
1114.000000	73.440051
1115.000000	73.438740
1116.000000	73.475445
1117.000000	73.503579
1118.000000	73.527276
1119.000000	73.533327
1120.000000	73.557528
1121.000000	73.577494
1122.000000	73.589292
1123.000000	73.589191
1124.000000	73.607847
1125.000000	73.576587
1126.000000	73.571040
1127.000000	73.513361
1128.000000	73.515377
1129.000000	73.485932
1130.000000	73.441462
1131.000000	73.388220
1132.000000	73.313095
1133.000000	73.259650
1134.000000	73.234440
1135.000000	73.215382
1136.000000	73.154576
1137.000000	73.081266
1138.000000	72.994040
1139.000000	72.907016
1140.000000	72.851152
1141.000000	72.819589
1142.000000	72.762313
1143.000000	72.727221
1144.000000	72.693036
1145.000000	72.656936
1146.000000	72.650583
1147.000000	72.642617
1148.000000	72.593307
1149.000000	72.562450
1150.000000	72.526249
1151.000000	72.490854
1152.000000	72.465443
1153.000000	72.399494
1154.000000	72.331731
1155.000000	72.249244
1156.000000	72.176640
1157.000000	72.096978
1158.000000	72.005718
1159.000000	71.893888
1160.000000	71.788209
1161.000000	71.682631
1162.000000	71.563842
1163.000000	71.467239
1164.000000	71.349358
1165.000000	71.248519
1166.000000	71.144655
