PE UV       SUBTECH     SPECTRUM    ASCII       PEDS        4.00        
   -1
CICIMAUCR0097-3.Sample.ASC
24/04/18
13:31:23.00
24/04/18
13:31:23.00
Vinicio Soto Monge
C. kalinini
250,000000
1
Lambda 1050
1050L1511233
PerkinElmer UV WinLab 6.3.2.0749 / 2.02.05 Lambda 900 UV/VIS/NIR, Aug  7 2015 09:38:08

0
0
3350/servo 860,8/2
0
0
UV/VIS
1
1
1
DoubleDePol,CommonBeamDepol,RBeamAtt,SBeamAtt,60mm sphere, WB InGaAs Detector
0
0
0
0
Program
Program
3350/servo 860,8/2
3350/0,2 860,8/0,2
3350/0,2 860,8/0,2
0
15.00
 
 
 
0
 
860,8
319,2
860,8
Front
100
on
S:100 R:100
0
0
0
0
 
0
 
 
 
0
 
 
0
0
0
0
0
 
 
 
 
0
0


0
0
#HDR
-1
-1
#GR
nm
%R
1.0
0.0
2500,000000
-1,000000
2251
8
97,988000
5,671400
#DATA
250.000000	5.846467
251.000000	5.821533
252.000000	5.819633
253.000000	5.814900
254.000000	5.776500
255.000000	5.778100
256.000000	5.768667
257.000000	5.780267
258.000000	5.763200
259.000000	5.719000
260.000000	5.697000
261.000000	5.673533
262.000000	5.627667
263.000000	5.627867
264.000000	5.608767
265.000000	5.607933
266.000000	5.604400
267.000000	5.532967
268.000000	5.504167
269.000000	5.478967
270.000000	5.457367
271.000000	5.481000
272.000000	5.442833
273.000000	5.420467
274.000000	5.395067
275.000000	5.385867
276.000000	5.402967
277.000000	5.346600
278.000000	5.325267
279.000000	5.329833
280.000000	5.344233
281.000000	5.323133
282.000000	5.294767
283.000000	5.315267
284.000000	5.295367
285.000000	5.284233
286.000000	5.263600
287.000000	5.277567
288.000000	5.280100
289.000000	5.261633
290.000000	5.258667
291.000000	5.252900
292.000000	5.231267
293.000000	5.265233
294.000000	5.233333
295.000000	5.232633
296.000000	5.253300
297.000000	5.269900
298.000000	5.242300
299.000000	5.237367
300.000000	5.238967
301.000000	5.211467
302.000000	5.193300
303.000000	5.208200
304.000000	5.240000
305.000000	5.214567
306.000000	5.227833
307.000000	5.199600
308.000000	5.207133
309.000000	5.187833
310.000000	5.182900
311.000000	5.202500
312.000000	5.180600
313.000000	5.228500
314.000000	5.187000
315.000000	5.200867
316.000000	5.241467
317.000000	5.476867
318.000000	5.350567
319.000000	5.332400
320.000000	5.309400
321.000000	5.385867
322.000000	5.348500
323.000000	5.434500
324.000000	5.313500
325.000000	5.160033
326.000000	5.254767
327.000000	5.417967
328.000000	5.296800
329.000000	5.275900
330.000000	5.307633
331.000000	5.359700
332.000000	5.299667
333.000000	5.352200
334.000000	5.305000
335.000000	5.304400
336.000000	5.371933
337.000000	5.406933
338.000000	5.349833
339.000000	5.382833
340.000000	5.610100
341.000000	5.378833
342.000000	5.329400
343.000000	5.368133
344.000000	5.386533
345.000000	5.347300
346.000000	5.356700
347.000000	5.391033
348.000000	5.323667
349.000000	5.359000
350.000000	5.426333
351.000000	5.401700
352.000000	5.445433
353.000000	5.466967
354.000000	5.546433
355.000000	5.558033
356.000000	5.527300
357.000000	5.557200
358.000000	5.540633
359.000000	5.583767
360.000000	5.650000
361.000000	5.621033
362.000000	5.646400
363.000000	5.691367
364.000000	5.688333
365.000000	5.725667
366.000000	5.687167
367.000000	5.699100
368.000000	5.737733
369.000000	5.796633
370.000000	5.775800
371.000000	5.790533
372.000000	5.848433
373.000000	5.895667
374.000000	5.897233
375.000000	5.921000
376.000000	5.994100
377.000000	5.909533
378.000000	5.939833
379.000000	5.984000
380.000000	6.022533
381.000000	6.057000
382.000000	6.091000
383.000000	6.138100
384.000000	6.191333
385.000000	6.230300
386.000000	6.270033
387.000000	6.325700
388.000000	6.382767
389.000000	6.434167
390.000000	6.491300
391.000000	6.549500
392.000000	6.614167
393.000000	6.693567
394.000000	6.770733
395.000000	6.860000
396.000000	6.961700
397.000000	7.054733
398.000000	7.147267
399.000000	7.253633
400.000000	7.375033
401.000000	7.501267
402.000000	7.633933
403.000000	7.779767
404.000000	7.932267
405.000000	8.094933
406.000000	8.271033
407.000000	8.457433
408.000000	8.653533
409.000000	8.860500
410.000000	9.084000
411.000000	9.323367
412.000000	9.572200
413.000000	9.835233
414.000000	10.110400
415.000000	10.399233
416.000000	10.697933
417.000000	11.008867
418.000000	11.337033
419.000000	11.669933
420.000000	12.017600
421.000000	12.381267
422.000000	12.757967
423.000000	13.140133
424.000000	13.531667
425.000000	13.925633
426.000000	14.321367
427.000000	14.719600
428.000000	15.122467
429.000000	15.525800
430.000000	15.931933
431.000000	16.353667
432.000000	16.764433
433.000000	17.168233
434.000000	17.575233
435.000000	17.975900
436.000000	18.363267
437.000000	18.744300
438.000000	19.118133
439.000000	19.486867
440.000000	19.849467
441.000000	20.205467
442.000000	20.555800
443.000000	20.890867
444.000000	21.214100
445.000000	21.526900
446.000000	21.831600
447.000000	22.121433
448.000000	22.398567
449.000000	22.664633
450.000000	22.921833
451.000000	23.166033
452.000000	23.409000
453.000000	23.639033
454.000000	23.848500
455.000000	24.053367
456.000000	24.248300
457.000000	24.428333
458.000000	24.602200
459.000000	24.771467
460.000000	24.928633
461.000000	25.075500
462.000000	25.213133
463.000000	25.343767
464.000000	25.462833
465.000000	25.579100
466.000000	25.680033
467.000000	25.773000
468.000000	25.854567
469.000000	25.919767
470.000000	25.986467
471.000000	26.044033
472.000000	26.083633
473.000000	26.117833
474.000000	26.143833
475.000000	26.154333
476.000000	26.145833
477.000000	26.139233
478.000000	26.130167
479.000000	26.103767
480.000000	26.086667
481.000000	26.065667
482.000000	26.036767
483.000000	25.989700
484.000000	25.930300
485.000000	25.866300
486.000000	25.821167
487.000000	25.773567
488.000000	25.714867
489.000000	25.667733
490.000000	25.640967
491.000000	25.621633
492.000000	25.620000
493.000000	25.625967
494.000000	25.657133
495.000000	25.707800
496.000000	25.792800
497.000000	25.902100
498.000000	26.025733
499.000000	26.200500
500.000000	26.423100
501.000000	26.661933
502.000000	26.941467
503.000000	27.248933
504.000000	27.604867
505.000000	27.988433
506.000000	28.389433
507.000000	28.829267
508.000000	29.292333
509.000000	29.784200
510.000000	30.298667
511.000000	30.834600
512.000000	31.391167
513.000000	31.963867
514.000000	32.550033
515.000000	33.138367
516.000000	33.741600
517.000000	34.357600
518.000000	34.978233
519.000000	35.587133
520.000000	36.224167
521.000000	36.863500
522.000000	37.508867
523.000000	38.167733
524.000000	38.835200
525.000000	39.497000
526.000000	40.145267
527.000000	40.807300
528.000000	41.466800
529.000000	42.134300
530.000000	42.808867
531.000000	43.474500
532.000000	44.139900
533.000000	44.809867
534.000000	45.476433
535.000000	46.147300
536.000000	46.806600
537.000000	47.464033
538.000000	48.118800
539.000000	48.770400
540.000000	49.436533
541.000000	50.086833
542.000000	50.729533
543.000000	51.376800
544.000000	52.024533
545.000000	52.647933
546.000000	53.265300
547.000000	53.868100
548.000000	54.475967
549.000000	55.056267
550.000000	55.621067
551.000000	56.190700
552.000000	56.724867
553.000000	57.269767
554.000000	57.777100
555.000000	58.296133
556.000000	58.788867
557.000000	59.270733
558.000000	59.713167
559.000000	60.163333
560.000000	60.583700
561.000000	60.988733
562.000000	61.396100
563.000000	61.807733
564.000000	62.167167
565.000000	62.534367
566.000000	62.897800
567.000000	63.227500
568.000000	63.570167
569.000000	63.872100
570.000000	64.167100
571.000000	64.470200
572.000000	64.757267
573.000000	65.039767
574.000000	65.271167
575.000000	65.517167
576.000000	65.716033
577.000000	65.932900
578.000000	66.133000
579.000000	66.330833
580.000000	66.502900
581.000000	66.687233
582.000000	66.879433
583.000000	67.037133
584.000000	67.191333
585.000000	67.297967
586.000000	67.442333
587.000000	67.581200
588.000000	67.683967
589.000000	67.795700
590.000000	67.906867
591.000000	67.970033
592.000000	68.075067
593.000000	68.075133
594.000000	68.133400
595.000000	68.175333
596.000000	68.202033
597.000000	68.184400
598.000000	68.178267
599.000000	68.109233
600.000000	68.068867
601.000000	68.005000
602.000000	67.881233
603.000000	67.760533
604.000000	67.620800
605.000000	67.453833
606.000000	67.292633
607.000000	67.065100
608.000000	66.852100
609.000000	66.610333
610.000000	66.350333
611.000000	66.100200
612.000000	65.800867
613.000000	65.525433
614.000000	65.187933
615.000000	64.849833
616.000000	64.565600
617.000000	64.207767
618.000000	63.890967
619.000000	63.547400
620.000000	63.199867
621.000000	62.840167
622.000000	62.490467
623.000000	62.115033
624.000000	61.740967
625.000000	61.400867
626.000000	61.010533
627.000000	60.637000
628.000000	60.239033
629.000000	59.850033
630.000000	59.468033
631.000000	59.132033
632.000000	58.767700
633.000000	58.404900
634.000000	58.070200
635.000000	57.770200
636.000000	57.466633
637.000000	57.221900
638.000000	57.000767
639.000000	56.782767
640.000000	56.622633
641.000000	56.518833
642.000000	56.407233
643.000000	56.369167
644.000000	56.344233
645.000000	56.353800
646.000000	56.411533
647.000000	56.458800
648.000000	56.576600
649.000000	56.698900
650.000000	56.831033
651.000000	56.968800
652.000000	57.129033
653.000000	57.258967
654.000000	57.425300
655.000000	57.598667
656.000000	57.744300
657.000000	57.924967
658.000000	58.090967
659.000000	58.259933
660.000000	58.408700
661.000000	58.567900
662.000000	58.753867
663.000000	58.941200
664.000000	59.110967
665.000000	59.278900
666.000000	59.474900
667.000000	59.681833
668.000000	59.873667
669.000000	60.082500
670.000000	60.282433
671.000000	60.521667
672.000000	60.753000
673.000000	60.985467
674.000000	61.192333
675.000000	61.427767
676.000000	61.661733
677.000000	61.879167
678.000000	62.116433
679.000000	62.312267
680.000000	62.549467
681.000000	62.764433
682.000000	62.970000
683.000000	63.190367
684.000000	63.445100
685.000000	63.681167
686.000000	63.888800
687.000000	64.141900
688.000000	64.368000
689.000000	64.602767
690.000000	64.865633
691.000000	65.160433
692.000000	65.432800
693.000000	65.706867
694.000000	66.029133
695.000000	66.343700
696.000000	66.638600
697.000000	66.941633
698.000000	67.256967
699.000000	67.585200
700.000000	67.908067
701.000000	68.231133
702.000000	68.613600
703.000000	68.986000
704.000000	69.314867
705.000000	69.682467
706.000000	70.013433
707.000000	70.348567
708.000000	70.725367
709.000000	71.108900
710.000000	71.496300
711.000000	71.855667
712.000000	72.233867
713.000000	72.610000
714.000000	73.024600
715.000000	73.457533
716.000000	73.868767
717.000000	74.225400
718.000000	74.649400
719.000000	75.104200
720.000000	75.535500
721.000000	76.010700
722.000000	76.453667
723.000000	76.904200
724.000000	77.393933
725.000000	77.882033
726.000000	78.337633
727.000000	78.724267
728.000000	79.181767
729.000000	79.644367
730.000000	80.075333
731.000000	80.547133
732.000000	80.996600
733.000000	81.411433
734.000000	81.810967
735.000000	82.200133
736.000000	82.570900
737.000000	82.973100
738.000000	83.359767
739.000000	83.696933
740.000000	84.006700
741.000000	84.318333
742.000000	84.642333
743.000000	84.912000
744.000000	85.169800
745.000000	85.444333
746.000000	85.703800
747.000000	85.950833
748.000000	86.197733
749.000000	86.421767
750.000000	86.596100
751.000000	86.766533
752.000000	86.967800
753.000000	87.155033
754.000000	87.326400
755.000000	87.511833
756.000000	87.650600
757.000000	87.758633
758.000000	87.928467
759.000000	88.073200
760.000000	88.140967
761.000000	88.248233
762.000000	88.376300
763.000000	88.466733
764.000000	88.525467
765.000000	88.525867
766.000000	88.542000
767.000000	88.589933
768.000000	88.621867
769.000000	88.639667
770.000000	88.703700
771.000000	88.767867
772.000000	88.779867
773.000000	88.773867
774.000000	88.816800
775.000000	88.807700
776.000000	88.821900
777.000000	88.865433
778.000000	88.888800
779.000000	88.937967
780.000000	89.041733
781.000000	89.100000
782.000000	89.117433
783.000000	89.154200
784.000000	89.196000
785.000000	89.252767
786.000000	89.292200
787.000000	89.336933
788.000000	89.407100
789.000000	89.431200
790.000000	89.468633
791.000000	89.529233
792.000000	89.488567
793.000000	89.585767
794.000000	89.626533
795.000000	89.604333
796.000000	89.709333
797.000000	89.700600
798.000000	89.712100
799.000000	89.785467
800.000000	89.813833
801.000000	89.817267
802.000000	89.939833
803.000000	90.021200
804.000000	89.978400
805.000000	89.972467
806.000000	89.983533
807.000000	89.961033
808.000000	89.968167
809.000000	90.007467
810.000000	89.924600
811.000000	89.921133
812.000000	89.914433
813.000000	89.951000
814.000000	90.010533
815.000000	89.967400
816.000000	89.842367
817.000000	89.924733
818.000000	89.820200
819.000000	89.794767
820.000000	89.726667
821.000000	89.603633
822.000000	89.478533
823.000000	89.513767
824.000000	89.449800
825.000000	89.322233
826.000000	89.104033
827.000000	89.007300
828.000000	88.753967
829.000000	88.692967
830.000000	88.554467
831.000000	88.374967
832.000000	88.240833
833.000000	88.125767
834.000000	87.775500
835.000000	87.599133
836.000000	87.279667
837.000000	87.132900
838.000000	86.944733
839.000000	86.638067
840.000000	86.256933
841.000000	86.178067
842.000000	85.945800
843.000000	85.539933
844.000000	85.127267
845.000000	84.804133
846.000000	84.536667
847.000000	84.337767
848.000000	84.087333
849.000000	83.596800
850.000000	83.201200
851.000000	82.877733
852.000000	82.479900
853.000000	82.331867
854.000000	81.858500
855.000000	81.335067
856.000000	81.192433
857.000000	80.781800
858.000000	81.103100
859.000000	79.878730
860.000000	79.971094
861.000000	80.058708
862.000000	80.172141
863.000000	80.194701
864.000000	80.172688
865.000000	80.140591
866.000000	80.105160
867.000000	80.052089
868.000000	79.994514
869.000000	79.941339
870.000000	79.884327
871.000000	79.770615
872.000000	79.734473
873.000000	79.604433
874.000000	79.538210
875.000000	79.448005
876.000000	79.364289
877.000000	79.267633
878.000000	79.112634
879.000000	78.958690
880.000000	78.844849
881.000000	78.692554
882.000000	78.600229
883.000000	78.497042
884.000000	78.350662
885.000000	78.236082
886.000000	78.083982
887.000000	77.938358
888.000000	77.781274
889.000000	77.667874
890.000000	77.526493
891.000000	77.397754
892.000000	77.243286
893.000000	77.137284
894.000000	77.005463
895.000000	76.857954
896.000000	76.713025
897.000000	76.572387
898.000000	76.458191
899.000000	76.299889
900.000000	76.159858
901.000000	76.027743
902.000000	75.898787
903.000000	75.751023
904.000000	75.617428
905.000000	75.475515
906.000000	75.376611
907.000000	75.246910
908.000000	75.093079
909.000000	74.949545
910.000000	74.845950
911.000000	74.672723
912.000000	74.543683
913.000000	74.422103
914.000000	74.309613
915.000000	74.188249
916.000000	74.021312
917.000000	73.887343
918.000000	73.769700
919.000000	73.613919
920.000000	73.482985
921.000000	73.326517
922.000000	73.189294
923.000000	73.044178
924.000000	72.876194
925.000000	72.742935
926.000000	72.593112
927.000000	72.449636
928.000000	72.279478
929.000000	72.139439
930.000000	71.967503
931.000000	71.834395
932.000000	71.640038
933.000000	71.495612
934.000000	71.329724
935.000000	71.146591
936.000000	70.952119
937.000000	70.778331
938.000000	70.602071
939.000000	70.436489
940.000000	70.279805
941.000000	70.074549
942.000000	69.895589
943.000000	69.721753
944.000000	69.520293
945.000000	69.364590
946.000000	69.175425
947.000000	68.980622
948.000000	68.812307
949.000000	68.629102
950.000000	68.460667
951.000000	68.269059
952.000000	68.068553
953.000000	67.884213
954.000000	67.723898
955.000000	67.541748
956.000000	67.360368
957.000000	67.163401
958.000000	66.970901
959.000000	66.793656
960.000000	66.613764
961.000000	66.424758
962.000000	66.225809
963.000000	66.030480
964.000000	65.859186
965.000000	65.673157
966.000000	65.461367
967.000000	65.260495
968.000000	65.085706
969.000000	64.898918
970.000000	64.689523
971.000000	64.509194
972.000000	64.320255
973.000000	64.129376
974.000000	63.951841
975.000000	63.749674
976.000000	63.550385
977.000000	63.360178
978.000000	63.181407
979.000000	62.988809
980.000000	62.785506
981.000000	62.583003
982.000000	62.402032
983.000000	62.213855
984.000000	62.018385
985.000000	61.830360
986.000000	61.654579
987.000000	61.473776
988.000000	61.280923
989.000000	61.078879
990.000000	60.902847
991.000000	60.726774
992.000000	60.550356
993.000000	60.372714
994.000000	60.197523
995.000000	60.022249
996.000000	59.850955
997.000000	59.690964
998.000000	59.529766
999.000000	59.366049
1000.000000	59.207427
1001.000000	59.052031
1002.000000	58.892123
1003.000000	58.726070
1004.000000	58.573410
1005.000000	58.428116
1006.000000	58.282514
1007.000000	58.141227
1008.000000	58.005215
1009.000000	57.869020
1010.000000	57.728868
1011.000000	57.590741
1012.000000	57.469388
1013.000000	57.351659
1014.000000	57.241032
1015.000000	57.123640
1016.000000	57.012374
1017.000000	56.909728
1018.000000	56.805630
1019.000000	56.703619
1020.000000	56.614198
1021.000000	56.533363
1022.000000	56.452321
1023.000000	56.375214
1024.000000	56.300418
1025.000000	56.234109
1026.000000	56.168297
1027.000000	56.100348
1028.000000	56.043206
1029.000000	55.995890
1030.000000	55.949861
1031.000000	55.910118
1032.000000	55.872436
1033.000000	55.827978
1034.000000	55.792845
1035.000000	55.776483
1036.000000	55.757761
1037.000000	55.732462
1038.000000	55.702532
1039.000000	55.680764
1040.000000	55.660728
1041.000000	55.649811
1042.000000	55.640745
1043.000000	55.633734
1044.000000	55.631165
1045.000000	55.625797
1046.000000	55.618284
1047.000000	55.617507
1048.000000	55.620296
1049.000000	55.620016
1050.000000	55.624497
1051.000000	55.637782
1052.000000	55.654339
1053.000000	55.667653
1054.000000	55.674421
1055.000000	55.693712
1056.000000	55.721075
1057.000000	55.750477
1058.000000	55.780117
1059.000000	55.800060
1060.000000	55.820345
1061.000000	55.847148
1062.000000	55.873552
1063.000000	55.902744
1064.000000	55.930595
1065.000000	55.963444
1066.000000	55.991337
1067.000000	56.019732
1068.000000	56.061081
1069.000000	56.103566
1070.000000	56.139234
1071.000000	56.183019
1072.000000	56.217021
1073.000000	56.252023
1074.000000	56.293874
1075.000000	56.333970
1076.000000	56.368869
1077.000000	56.402114
1078.000000	56.455344
1079.000000	56.496130
1080.000000	56.542171
1081.000000	56.587581
1082.000000	56.633136
1083.000000	56.673312
1084.000000	56.711156
1085.000000	56.766963
1086.000000	56.808615
1087.000000	56.859981
1088.000000	56.909809
1089.000000	56.948533
1090.000000	56.996103
1091.000000	57.048899
1092.000000	57.092917
1093.000000	57.146371
1094.000000	57.193163
1095.000000	57.240466
1096.000000	57.285345
1097.000000	57.330674
1098.000000	57.384824
1099.000000	57.432883
1100.000000	57.478399
1101.000000	57.514789
1102.000000	57.556334
1103.000000	57.607933
1104.000000	57.654730
1105.000000	57.687768
1106.000000	57.730460
1107.000000	57.782479
1108.000000	57.829107
1109.000000	57.873861
1110.000000	57.910924
1111.000000	57.951497
1112.000000	57.997484
1113.000000	58.039462
1114.000000	58.084481
1115.000000	58.122930
1116.000000	58.160975
1117.000000	58.207038
1118.000000	58.240859
1119.000000	58.277546
1120.000000	58.329114
1121.000000	58.362820
1122.000000	58.408464
1123.000000	58.430030
1124.000000	58.451585
1125.000000	58.468842
1126.000000	58.473025
1127.000000	58.487631
1128.000000	58.504466
1129.000000	58.516591
1130.000000	58.497648
1131.000000	58.470280
1132.000000	58.449969
1133.000000	58.438871
1134.000000	58.465558
1135.000000	58.421229
1136.000000	58.365103
1137.000000	58.305696
1138.000000	58.261186
1139.000000	58.217794
1140.000000	58.179244
1141.000000	58.144216
1142.000000	58.104107
1143.000000	58.082402
1144.000000	58.070706
1145.000000	58.056926
1146.000000	58.052493
1147.000000	58.058590
1148.000000	58.056380
1149.000000	58.069297
1150.000000	58.089919
1151.000000	58.121671
1152.000000	58.131549
1153.000000	58.136647
1154.000000	58.133490
1155.000000	58.110118
1156.000000	58.077392
1157.000000	58.030355
1158.000000	57.970677
1159.000000	57.915318
1160.000000	57.841653
1161.000000	57.773186
1162.000000	57.699672
1163.000000	57.625580
1164.000000	57.530431
1165.000000	57.432558
1166.000000	57.362496
1167.000000	57.290965
