PE UV       SUBTECH     SPECTRUM    ASCII       PEDS        4.00        
   -1
CICIMAUCR0018-5.Sample.ASC
24/04/25
10:17:18.00
24/04/25
10:17:18.00
Vinicio Soto Monge
C. cupreomarginata
250,000000
1
Lambda 1050
1050L1511233
PerkinElmer UV WinLab 6.3.2.0749 / 2.02.05 Lambda 900 UV/VIS/NIR, Aug  7 2015 09:38:08

0
0
3350/servo 860,8/2
0
0
UV/VIS
1
1
1
DoubleDePol,CommonBeamDepol,RBeamAtt,SBeamAtt,60mm sphere, WB InGaAs Detector
0
0
0
0
Program
Program
3350/servo 860,8/2
3350/0,2 860,8/0,2
3350/0,2 860,8/0,2
0
15.00
 
 
 
0
 
860,8
319,2
860,8
Front
100
on
S:100 R:100
0
0
0
0
 
0
 
 
 
0
 
 
0
0
0
0
0
 
 
 
 
0
0


0
0
#HDR
-1
-1
#GR
nm
%R
1.0
0.0
2500,000000
-1,000000
2251
8
70,377300
5,315300
#DATA
250.000000	4.079067
251.000000	4.080353
252.000000	4.059011
253.000000	4.048299
254.000000	4.013699
255.000000	4.028865
256.000000	3.998842
257.000000	4.010977
258.000000	3.997238
259.000000	3.977718
260.000000	3.952308
261.000000	3.949636
262.000000	3.932338
263.000000	3.914254
264.000000	3.871196
265.000000	3.864133
266.000000	3.859959
267.000000	3.841492
268.000000	3.826449
269.000000	3.809459
270.000000	3.819028
271.000000	3.800729
272.000000	3.767895
273.000000	3.759112
274.000000	3.771823
275.000000	3.737588
276.000000	3.752643
277.000000	3.716085
278.000000	3.726690
279.000000	3.740096
280.000000	3.713689
281.000000	3.699040
282.000000	3.693567
283.000000	3.692587
284.000000	3.680196
285.000000	3.699592
286.000000	3.694028
287.000000	3.687817
288.000000	3.702985
289.000000	3.698564
290.000000	3.695646
291.000000	3.690291
292.000000	3.694847
293.000000	3.692045
294.000000	3.679686
295.000000	3.694592
296.000000	3.685333
297.000000	3.679272
298.000000	3.673647
299.000000	3.669186
300.000000	3.673927
301.000000	3.672883
302.000000	3.666111
303.000000	3.664940
304.000000	3.692066
305.000000	3.688652
306.000000	3.681884
307.000000	3.678523
308.000000	3.674630
309.000000	3.670661
310.000000	3.672067
311.000000	3.665609
312.000000	3.677103
313.000000	3.665116
314.000000	3.648917
315.000000	3.653085
316.000000	3.704525
317.000000	4.047422
318.000000	3.966541
319.000000	3.953269
320.000000	4.050901
321.000000	3.849810
322.000000	3.865796
323.000000	3.925731
324.000000	3.925043
325.000000	3.842709
326.000000	3.850881
327.000000	3.777193
328.000000	3.706066
329.000000	3.811613
330.000000	3.756788
331.000000	3.700273
332.000000	3.765764
333.000000	3.771354
334.000000	3.726004
335.000000	3.780015
336.000000	3.824933
337.000000	3.789377
338.000000	3.788198
339.000000	3.746231
340.000000	3.793563
341.000000	3.744735
342.000000	3.826693
343.000000	3.748738
344.000000	3.783368
345.000000	3.796011
346.000000	3.718930
347.000000	3.767088
348.000000	3.826212
349.000000	3.776635
350.000000	3.804775
351.000000	3.835485
352.000000	3.804320
353.000000	3.810353
354.000000	3.807279
355.000000	3.806056
356.000000	3.820862
357.000000	3.847785
358.000000	3.866165
359.000000	3.897382
360.000000	3.877546
361.000000	3.912325
362.000000	3.913453
363.000000	3.898239
364.000000	3.935868
365.000000	3.951121
366.000000	3.964170
367.000000	4.007064
368.000000	4.050597
369.000000	4.045483
370.000000	4.002702
371.000000	4.022288
372.000000	4.071881
373.000000	4.078063
374.000000	4.019562
375.000000	4.133771
376.000000	4.297417
377.000000	4.319900
378.000000	4.368122
379.000000	4.411909
380.000000	4.463065
381.000000	4.514083
382.000000	4.572765
383.000000	4.639385
384.000000	4.701721
385.000000	4.769685
386.000000	4.844591
387.000000	4.921608
388.000000	4.999253
389.000000	5.081920
390.000000	5.178713
391.000000	5.267161
392.000000	5.371074
393.000000	5.475598
394.000000	5.582499
395.000000	5.690843
396.000000	5.800097
397.000000	5.913411
398.000000	6.030797
399.000000	6.153373
400.000000	6.272339
401.000000	6.393750
402.000000	6.517577
403.000000	6.644668
404.000000	6.773304
405.000000	6.895126
406.000000	7.017629
407.000000	7.135763
408.000000	7.249372
409.000000	7.368706
410.000000	7.492303
411.000000	7.605179
412.000000	7.714232
413.000000	7.823197
414.000000	7.928872
415.000000	8.027633
416.000000	8.121757
417.000000	8.219728
418.000000	8.312477
419.000000	8.401411
420.000000	8.489658
421.000000	8.573520
422.000000	8.654241
423.000000	8.735493
424.000000	8.813009
425.000000	8.885732
426.000000	8.956303
427.000000	9.029434
428.000000	9.101135
429.000000	9.171439
430.000000	9.238296
431.000000	9.303804
432.000000	9.370918
433.000000	9.431116
434.000000	9.487799
435.000000	9.547313
436.000000	9.602796
437.000000	9.656298
438.000000	9.707914
439.000000	9.758278
440.000000	9.802804
441.000000	9.844829
442.000000	9.881295
443.000000	9.910937
444.000000	9.938563
445.000000	9.953442
446.000000	9.963302
447.000000	9.970768
448.000000	9.970582
449.000000	9.977719
450.000000	9.984188
451.000000	9.980906
452.000000	9.983675
453.000000	9.991016
454.000000	10.001199
455.000000	10.016360
456.000000	10.033933
457.000000	10.057973
458.000000	10.088215
459.000000	10.130740
460.000000	10.183590
461.000000	10.247985
462.000000	10.323359
463.000000	10.406432
464.000000	10.502369
465.000000	10.610672
466.000000	10.729212
467.000000	10.855715
468.000000	10.990861
469.000000	11.138669
470.000000	11.301651
471.000000	11.477542
472.000000	11.663430
473.000000	11.848924
474.000000	12.044306
475.000000	12.249459
476.000000	12.456646
477.000000	12.664579
478.000000	12.874455
479.000000	13.082770
480.000000	13.305355
481.000000	13.536796
482.000000	13.766411
483.000000	13.979911
484.000000	14.184137
485.000000	14.375608
486.000000	14.565340
487.000000	14.754860
488.000000	14.942814
489.000000	15.131495
490.000000	15.329159
491.000000	15.529043
492.000000	15.724015
493.000000	15.930533
494.000000	16.137478
495.000000	16.346411
496.000000	16.571839
497.000000	16.802364
498.000000	17.040632
499.000000	17.284827
500.000000	17.545343
501.000000	17.817398
502.000000	18.101691
503.000000	18.389618
504.000000	18.689886
505.000000	19.002258
506.000000	19.327008
507.000000	19.658503
508.000000	19.994623
509.000000	20.357085
510.000000	20.729888
511.000000	21.097511
512.000000	21.481498
513.000000	21.880648
514.000000	22.301454
515.000000	22.714241
516.000000	23.142758
517.000000	23.574916
518.000000	24.017710
519.000000	24.475859
520.000000	24.938322
521.000000	25.424473
522.000000	25.909464
523.000000	26.397552
524.000000	26.893281
525.000000	27.401903
526.000000	27.913204
527.000000	28.421567
528.000000	28.934359
529.000000	29.464803
530.000000	30.000680
531.000000	30.544190
532.000000	31.101220
533.000000	31.645897
534.000000	32.190072
535.000000	32.727634
536.000000	33.265285
537.000000	33.773695
538.000000	34.284434
539.000000	34.790066
540.000000	35.266030
541.000000	35.713287
542.000000	36.163100
543.000000	36.587540
544.000000	36.966056
545.000000	37.308361
546.000000	37.628117
547.000000	37.938376
548.000000	38.187699
549.000000	38.441590
550.000000	38.662429
551.000000	38.858721
552.000000	39.024621
553.000000	39.187066
554.000000	39.331601
555.000000	39.451055
556.000000	39.548578
557.000000	39.672028
558.000000	39.769594
559.000000	39.859110
560.000000	39.873896
561.000000	39.946188
562.000000	40.026564
563.000000	40.085598
564.000000	40.137235
565.000000	40.194122
566.000000	40.212799
567.000000	40.226534
568.000000	40.230717
569.000000	40.218762
570.000000	40.199869
571.000000	40.165888
572.000000	40.125556
573.000000	40.102018
574.000000	40.060020
575.000000	40.017414
576.000000	39.980541
577.000000	39.939189
578.000000	39.893324
579.000000	39.862809
580.000000	39.830944
581.000000	39.779426
582.000000	39.748634
583.000000	39.716127
584.000000	39.693675
585.000000	39.643424
586.000000	39.602785
587.000000	39.575338
588.000000	39.510221
589.000000	39.447295
590.000000	39.360998
591.000000	39.257014
592.000000	39.138015
593.000000	39.018934
594.000000	38.892669
595.000000	38.759642
596.000000	38.615613
597.000000	38.477762
598.000000	38.324255
599.000000	38.171841
600.000000	38.019635
601.000000	37.862342
602.000000	37.693405
603.000000	37.535427
604.000000	37.387805
605.000000	37.208394
606.000000	37.037939
607.000000	36.869055
608.000000	36.690313
609.000000	36.514941
610.000000	36.301235
611.000000	36.079347
612.000000	35.835355
613.000000	35.573670
614.000000	35.318150
615.000000	35.043608
616.000000	34.765128
617.000000	34.464548
618.000000	34.149587
619.000000	33.833791
620.000000	33.528552
621.000000	33.221476
622.000000	32.899937
623.000000	32.597935
624.000000	32.294634
625.000000	32.018045
626.000000	31.747736
627.000000	31.504454
628.000000	31.272160
629.000000	31.073548
630.000000	30.891990
631.000000	30.729996
632.000000	30.582844
633.000000	30.472900
634.000000	30.383481
635.000000	30.347751
636.000000	30.322564
637.000000	30.320175
638.000000	30.358157
639.000000	30.433187
640.000000	30.514733
641.000000	30.626838
642.000000	30.762389
643.000000	30.912003
644.000000	31.101663
645.000000	31.261397
646.000000	31.451585
647.000000	31.662390
648.000000	31.852948
649.000000	32.049958
650.000000	32.272618
651.000000	32.464365
652.000000	32.659117
653.000000	32.841018
654.000000	32.999349
655.000000	33.151572
656.000000	33.294755
657.000000	33.429037
658.000000	33.543948
659.000000	33.653466
660.000000	33.768488
661.000000	33.840280
662.000000	33.912680
663.000000	33.981771
664.000000	34.056180
665.000000	34.105645
666.000000	34.149386
667.000000	34.191346
668.000000	34.236096
669.000000	34.276856
670.000000	34.315626
671.000000	34.332148
672.000000	34.346888
673.000000	34.368542
674.000000	34.383052
675.000000	34.390848
676.000000	34.402560
677.000000	34.408437
678.000000	34.396616
679.000000	34.395360
680.000000	34.379807
681.000000	34.373840
682.000000	34.382823
683.000000	34.389006
684.000000	34.393973
685.000000	34.404658
686.000000	34.436510
687.000000	34.458698
688.000000	34.479627
689.000000	34.520872
690.000000	34.567058
691.000000	34.635252
692.000000	34.696181
693.000000	34.759243
694.000000	34.833465
695.000000	34.920138
696.000000	34.991120
697.000000	35.073203
698.000000	35.153947
699.000000	35.237786
700.000000	35.322559
701.000000	35.400475
702.000000	35.495398
703.000000	35.592706
704.000000	35.675087
705.000000	35.756311
706.000000	35.845362
707.000000	35.941665
708.000000	36.036027
709.000000	36.128624
710.000000	36.210537
711.000000	36.295305
712.000000	36.398096
713.000000	36.484598
714.000000	36.575284
715.000000	36.668844
716.000000	36.766411
717.000000	36.849313
718.000000	36.921621
719.000000	36.997749
720.000000	37.081629
721.000000	37.153353
722.000000	37.224055
723.000000	37.298511
724.000000	37.379865
725.000000	37.461503
726.000000	37.527184
727.000000	37.574758
728.000000	37.621363
729.000000	37.679476
730.000000	37.755782
731.000000	37.822536
732.000000	37.894057
733.000000	37.955597
734.000000	38.003842
735.000000	38.061946
736.000000	38.133466
737.000000	38.198600
738.000000	38.263695
739.000000	38.317567
740.000000	38.382429
741.000000	38.453625
742.000000	38.489838
743.000000	38.543961
744.000000	38.607592
745.000000	38.648919
746.000000	38.685089
747.000000	38.731007
748.000000	38.782495
749.000000	38.834978
750.000000	38.886396
751.000000	38.934507
752.000000	38.984128
753.000000	39.025425
754.000000	39.084607
755.000000	39.156159
756.000000	39.212453
757.000000	39.265882
758.000000	39.337305
759.000000	39.408378
760.000000	39.453002
761.000000	39.503535
762.000000	39.551708
763.000000	39.603460
764.000000	39.669076
765.000000	39.737070
766.000000	39.814810
767.000000	39.880945
768.000000	39.942175
769.000000	40.006487
770.000000	40.070700
771.000000	40.130178
772.000000	40.197687
773.000000	40.272124
774.000000	40.349799
775.000000	40.416909
776.000000	40.498276
777.000000	40.556091
778.000000	40.633451
779.000000	40.698188
780.000000	40.759804
781.000000	40.819978
782.000000	40.885326
783.000000	41.005263
784.000000	41.070995
785.000000	41.109961
786.000000	41.205464
787.000000	41.269935
788.000000	41.343733
789.000000	41.436415
790.000000	41.491244
791.000000	41.566131
792.000000	41.635603
793.000000	41.727502
794.000000	41.800868
795.000000	41.876476
796.000000	41.945446
797.000000	42.042481
798.000000	42.131783
799.000000	42.191258
800.000000	42.236347
801.000000	42.322263
802.000000	42.386849
803.000000	42.444005
804.000000	42.542000
805.000000	42.594446
806.000000	42.665974
807.000000	42.713924
808.000000	42.772003
809.000000	42.853150
810.000000	42.913022
811.000000	43.009319
812.000000	43.057092
813.000000	43.083595
814.000000	43.103663
815.000000	43.107197
816.000000	43.198482
817.000000	43.263622
818.000000	43.275270
819.000000	43.326895
820.000000	43.378148
821.000000	43.359357
822.000000	43.433092
823.000000	43.436594
824.000000	43.490845
825.000000	43.534868
826.000000	43.541660
827.000000	43.546707
828.000000	43.553787
829.000000	43.607316
830.000000	43.663275
831.000000	43.684629
832.000000	43.662319
833.000000	43.703801
834.000000	43.701178
835.000000	43.747604
836.000000	43.733685
837.000000	43.774293
838.000000	43.745610
839.000000	43.823696
840.000000	43.820550
841.000000	43.759636
842.000000	43.782534
843.000000	43.868028
844.000000	43.861562
845.000000	43.844921
846.000000	43.766241
847.000000	43.801467
848.000000	43.729749
849.000000	43.881821
850.000000	43.824298
851.000000	43.800961
852.000000	43.811143
853.000000	43.639320
854.000000	43.619110
855.000000	43.724687
856.000000	43.724413
857.000000	43.917684
858.000000	44.855880
859.000000	43.654380
860.000000	43.692720
861.000000	43.736620
862.000000	43.776800
863.000000	43.834460
864.000000	43.882820
865.000000	43.918400
866.000000	43.943140
867.000000	44.005680
868.000000	44.116540
869.000000	44.327360
870.000000	44.557740
871.000000	44.762220
872.000000	44.959340
873.000000	45.156700
874.000000	45.349360
875.000000	45.551620
876.000000	45.711600
877.000000	45.866160
878.000000	46.023420
879.000000	46.165920
880.000000	46.309040
881.000000	46.428500
882.000000	46.578780
883.000000	46.682480
884.000000	46.816920
885.000000	46.953240
886.000000	47.084780
887.000000	47.205320
888.000000	47.284980
889.000000	47.353980
890.000000	47.438200
891.000000	47.528020
892.000000	47.593160
893.000000	47.678340
894.000000	47.765180
895.000000	47.819160
896.000000	47.861740
897.000000	47.898360
898.000000	47.927080
899.000000	47.958860
900.000000	47.990120
901.000000	48.020860
902.000000	48.052260
903.000000	48.065260
904.000000	48.070560
905.000000	48.097480
906.000000	48.126420
907.000000	48.146660
908.000000	48.138600
909.000000	48.161980
910.000000	48.182960
911.000000	48.187880
912.000000	48.179860
913.000000	48.214600
914.000000	48.239320
915.000000	48.296320
916.000000	48.315920
917.000000	48.321100
918.000000	48.344560
919.000000	48.371060
920.000000	48.399800
921.000000	48.437380
922.000000	48.486900
923.000000	48.470940
924.000000	48.484060
925.000000	48.516920
926.000000	48.535500
927.000000	48.556480
928.000000	48.591660
929.000000	48.585840
930.000000	48.605860
931.000000	48.614420
932.000000	48.627280
933.000000	48.635780
934.000000	48.620380
935.000000	48.632680
936.000000	48.639800
937.000000	48.640140
938.000000	48.665080
939.000000	48.683700
940.000000	48.723540
941.000000	48.768680
942.000000	48.798740
943.000000	48.793280
944.000000	48.804320
945.000000	48.825800
946.000000	48.831860
947.000000	48.835560
948.000000	48.853100
949.000000	48.857660
950.000000	48.850000
951.000000	48.864200
952.000000	48.858700
953.000000	48.856080
954.000000	48.852700
955.000000	48.818560
956.000000	48.810220
957.000000	48.788660
958.000000	48.777960
959.000000	48.775360
960.000000	48.753080
961.000000	48.717300
962.000000	48.701660
963.000000	48.697600
964.000000	48.682700
965.000000	48.658140
966.000000	48.624580
967.000000	48.611340
968.000000	48.603580
969.000000	48.591840
970.000000	48.566780
971.000000	48.549520
972.000000	48.522160
973.000000	48.502100
974.000000	48.473200
975.000000	48.450740
976.000000	48.435920
977.000000	48.430060
978.000000	48.407100
979.000000	48.379500
980.000000	48.368940
981.000000	48.369400
982.000000	48.356160
983.000000	48.335420
984.000000	48.320860
985.000000	48.311620
986.000000	48.302280
987.000000	48.305200
988.000000	48.308740
989.000000	48.305100
990.000000	48.298660
991.000000	48.290200
992.000000	48.304720
993.000000	48.311040
994.000000	48.312000
995.000000	48.314160
996.000000	48.321240
997.000000	48.339100
998.000000	48.353600
999.000000	48.371100
1000.000000	48.375020
1001.000000	48.386520
1002.000000	48.412380
1003.000000	48.428920
1004.000000	48.440780
1005.000000	48.447560
1006.000000	48.451920
1007.000000	48.457560
1008.000000	48.468260
1009.000000	48.487300
1010.000000	48.505620
1011.000000	48.512640
1012.000000	48.515760
1013.000000	48.520380
1014.000000	48.540260
1015.000000	48.576380
1016.000000	48.598580
1017.000000	48.616580
1018.000000	48.644500
1019.000000	48.675300
1020.000000	48.709780
1021.000000	48.737680
1022.000000	48.757180
1023.000000	48.776440
1024.000000	48.802880
1025.000000	48.828920
1026.000000	48.858980
1027.000000	48.888920
1028.000000	48.907600
1029.000000	48.928920
1030.000000	48.955680
1031.000000	48.973220
1032.000000	48.984340
1033.000000	49.007940
1034.000000	49.034440
1035.000000	49.043980
1036.000000	49.054660
1037.000000	49.076900
1038.000000	49.099060
1039.000000	49.114300
1040.000000	49.118440
1041.000000	49.129160
1042.000000	49.142640
1043.000000	49.148060
1044.000000	49.156060
1045.000000	49.171080
1046.000000	49.191900
1047.000000	49.204680
1048.000000	49.216260
1049.000000	49.239420
1050.000000	49.262720
1051.000000	49.278180
1052.000000	49.293980
1053.000000	49.309140
1054.000000	49.341180
1055.000000	49.365140
1056.000000	49.374760
1057.000000	49.393820
1058.000000	49.432220
1059.000000	49.468000
1060.000000	49.483680
1061.000000	49.510840
1062.000000	49.534760
1063.000000	49.570560
1064.000000	49.608540
1065.000000	49.630840
1066.000000	49.649120
1067.000000	49.669080
1068.000000	49.696560
1069.000000	49.726740
1070.000000	49.748800
1071.000000	49.781880
1072.000000	49.820220
1073.000000	49.859640
1074.000000	49.882620
1075.000000	49.904500
1076.000000	49.927660
1077.000000	49.961300
1078.000000	49.998620
1079.000000	50.032280
1080.000000	50.061460
1081.000000	50.093240
1082.000000	50.132520
1083.000000	50.164800
1084.000000	50.190140
1085.000000	50.221620
1086.000000	50.243940
1087.000000	50.277660
1088.000000	50.310340
1089.000000	50.340820
1090.000000	50.362640
1091.000000	50.411720
1092.000000	50.442720
1093.000000	50.464340
1094.000000	50.491580
1095.000000	50.499780
1096.000000	50.527760
1097.000000	50.551040
1098.000000	50.576340
1099.000000	50.605360
1100.000000	50.613620
1101.000000	50.638480
1102.000000	50.650280
1103.000000	50.664000
1104.000000	50.681460
1105.000000	50.702140
1106.000000	50.717900
1107.000000	50.728940
1108.000000	50.739140
1109.000000	50.749140
1110.000000	50.758460
1111.000000	50.765540
1112.000000	50.779520
1113.000000	50.798580
1114.000000	50.790480
1115.000000	50.799540
1116.000000	50.817120
1117.000000	50.818280
1118.000000	50.813940
1119.000000	50.805860
1120.000000	50.796760
1121.000000	50.795600
1122.000000	50.792360
1123.000000	50.756940
1124.000000	50.723560
1125.000000	50.688180
1126.000000	50.654880
1127.000000	50.612280
1128.000000	50.581300
1129.000000	50.514840
1130.000000	50.415560
1131.000000	50.311560
1132.000000	50.208380
1133.000000	50.123640
1134.000000	50.001160
1135.000000	49.830720
1136.000000	49.659180
1137.000000	49.505100
1138.000000	49.331540
1139.000000	49.180620
1140.000000	49.021960
1141.000000	48.877420
1142.000000	48.713560
1143.000000	48.581800
1144.000000	48.450320
1145.000000	48.321060
1146.000000	48.212740
1147.000000	48.141140
1148.000000	48.081360
1149.000000	48.045240
1150.000000	48.030000
1151.000000	48.008880
1152.000000	47.999740
1153.000000	47.976740
1154.000000	47.936400
1155.000000	47.885260
1156.000000	47.795180
1157.000000	47.685100
1158.000000	47.552680
1159.000000	47.407140
1160.000000	47.247440
1161.000000	47.078020
1162.000000	46.898360
1163.000000	46.729340
1164.000000	46.561980
1165.000000	46.376480
1166.000000	46.201180
1167.000000	46.018980
1168.000000	45.849340
1169.000000	45.673400
