PE UV       SUBTECH     SPECTRUM    ASCII       PEDS        4.00        
   -1
CICIMAUCR0014-5.Sample.ASC
24/04/23
11:16:56.00
24/04/23
11:16:56.00
Vinicio Soto Monge
C. cupreomarginata
250,000000
1
Lambda 1050
1050L1511233
PerkinElmer UV WinLab 6.3.2.0749 / 2.02.05 Lambda 900 UV/VIS/NIR, Aug  7 2015 09:38:08

0
0
3350/servo 860,8/2
0
0
UV/VIS
1
1
1
DoubleDePol,CommonBeamDepol,RBeamAtt,SBeamAtt,60mm sphere, WB InGaAs Detector
0
0
0
0
Program
Program
3350/servo 860,8/2
3350/0,2 860,8/0,2
3350/0,2 860,8/0,2
0
15.00
 
 
 
0
 
860,8
319,2
860,8
Front
100
on
S:100 R:100
0
0
0
0
 
0
 
 
 
0
 
 
0
0
0
0
0
 
 
 
 
0
0


0
0
#HDR
-1
-1
#GR
nm
%R
1.0
0.0
2500,000000
-1,000000
2251
8
75,082300
5,658100
#DATA
250.000000	6.627333
251.000000	6.592200
252.000000	6.599233
253.000000	6.566000
254.000000	6.547600
255.000000	6.528633
256.000000	6.500433
257.000000	6.494500
258.000000	6.452233
259.000000	6.408733
260.000000	6.390433
261.000000	6.387300
262.000000	6.356567
263.000000	6.310333
264.000000	6.278633
265.000000	6.278933
266.000000	6.235800
267.000000	6.208067
268.000000	6.188133
269.000000	6.144833
270.000000	6.142633
271.000000	6.112367
272.000000	6.110900
273.000000	6.080467
274.000000	6.096367
275.000000	6.034500
276.000000	6.029867
277.000000	6.029400
278.000000	5.996400
279.000000	6.010800
280.000000	5.984167
281.000000	6.005967
282.000000	5.983133
283.000000	5.954767
284.000000	5.965500
285.000000	5.932633
286.000000	5.957133
287.000000	5.939467
288.000000	5.942800
289.000000	5.918400
290.000000	5.905533
291.000000	5.920800
292.000000	5.925800
293.000000	5.915533
294.000000	5.897967
295.000000	5.898300
296.000000	5.881033
297.000000	5.878067
298.000000	5.894267
299.000000	5.859633
300.000000	5.841800
301.000000	5.827833
302.000000	5.840600
303.000000	5.856400
304.000000	5.839833
305.000000	5.831967
306.000000	5.813567
307.000000	5.824400
308.000000	5.830433
309.000000	5.807233
310.000000	5.822433
311.000000	5.802200
312.000000	5.800933
313.000000	5.793433
314.000000	5.781200
315.000000	5.776433
316.000000	5.798400
317.000000	5.891733
318.000000	5.857367
319.000000	5.800500
320.000000	5.790833
321.000000	5.719300
322.000000	5.657867
323.000000	5.755367
324.000000	5.791233
325.000000	5.753033
326.000000	5.789233
327.000000	5.815133
328.000000	5.722833
329.000000	5.713067
330.000000	5.723467
331.000000	5.759233
332.000000	5.767200
333.000000	5.777100
334.000000	5.721433
335.000000	5.791967
336.000000	5.724133
337.000000	5.733100
338.000000	5.799667
339.000000	5.739467
340.000000	5.750933
341.000000	5.780233
342.000000	5.792700
343.000000	5.781433
344.000000	5.805133
345.000000	5.812633
346.000000	5.792233
347.000000	5.783633
348.000000	5.801067
349.000000	5.777867
350.000000	5.815300
351.000000	5.840867
352.000000	5.808900
353.000000	5.830300
354.000000	5.847733
355.000000	5.838233
356.000000	5.844000
357.000000	5.882300
358.000000	5.896200
359.000000	5.907333
360.000000	5.927633
361.000000	5.934600
362.000000	5.906933
363.000000	5.884133
364.000000	5.912300
365.000000	5.929900
366.000000	5.954733
367.000000	5.927333
368.000000	5.961367
369.000000	5.973600
370.000000	5.972400
371.000000	5.991067
372.000000	5.999800
373.000000	6.002400
374.000000	6.019433
375.000000	6.042633
376.000000	6.073600
377.000000	6.107200
378.000000	6.128500
379.000000	6.150067
380.000000	6.175233
381.000000	6.197333
382.000000	6.231267
383.000000	6.257000
384.000000	6.284400
385.000000	6.319900
386.000000	6.359167
387.000000	6.407533
388.000000	6.444533
389.000000	6.490367
390.000000	6.540933
391.000000	6.597333
392.000000	6.658733
393.000000	6.723633
394.000000	6.795733
395.000000	6.879100
396.000000	6.966233
397.000000	7.057067
398.000000	7.153167
399.000000	7.253767
400.000000	7.368900
401.000000	7.495867
402.000000	7.627000
403.000000	7.768667
404.000000	7.913700
405.000000	8.066067
406.000000	8.228367
407.000000	8.397800
408.000000	8.585433
409.000000	8.777067
410.000000	8.979933
411.000000	9.188433
412.000000	9.400700
413.000000	9.630500
414.000000	9.862467
415.000000	10.104567
416.000000	10.352733
417.000000	10.593400
418.000000	10.844767
419.000000	11.105367
420.000000	11.376333
421.000000	11.648500
422.000000	11.919733
423.000000	12.194967
424.000000	12.470933
425.000000	12.746667
426.000000	13.031867
427.000000	13.311867
428.000000	13.596067
429.000000	13.880400
430.000000	14.157900
431.000000	14.440433
432.000000	14.725567
433.000000	15.004933
434.000000	15.289500
435.000000	15.570933
436.000000	15.841633
437.000000	16.116567
438.000000	16.391567
439.000000	16.659033
440.000000	16.914167
441.000000	17.168567
442.000000	17.425233
443.000000	17.680133
444.000000	17.920800
445.000000	18.142200
446.000000	18.351767
447.000000	18.562667
448.000000	18.769633
449.000000	18.965300
450.000000	19.163900
451.000000	19.347467
452.000000	19.509533
453.000000	19.669400
454.000000	19.822233
455.000000	19.958833
456.000000	20.088733
457.000000	20.213233
458.000000	20.324833
459.000000	20.422033
460.000000	20.520833
461.000000	20.613567
462.000000	20.694167
463.000000	20.765867
464.000000	20.822233
465.000000	20.879200
466.000000	20.933500
467.000000	20.975533
468.000000	21.024633
469.000000	21.059700
470.000000	21.089567
471.000000	21.126433
472.000000	21.156100
473.000000	21.176733
474.000000	21.202967
475.000000	21.228067
476.000000	21.256867
477.000000	21.289300
478.000000	21.325467
479.000000	21.367700
480.000000	21.432633
481.000000	21.509267
482.000000	21.613200
483.000000	21.725533
484.000000	21.845367
485.000000	21.991767
486.000000	22.155433
487.000000	22.352800
488.000000	22.578333
489.000000	22.822733
490.000000	23.109533
491.000000	23.426333
492.000000	23.761467
493.000000	24.122633
494.000000	24.518100
495.000000	24.934200
496.000000	25.361167
497.000000	25.818933
498.000000	26.288133
499.000000	26.760733
500.000000	27.245933
501.000000	27.746000
502.000000	28.260933
503.000000	28.782567
504.000000	29.318533
505.000000	29.849800
506.000000	30.384700
507.000000	30.921533
508.000000	31.441933
509.000000	31.984100
510.000000	32.529100
511.000000	33.096900
512.000000	33.660367
513.000000	34.229567
514.000000	34.792233
515.000000	35.377300
516.000000	35.957633
517.000000	36.537033
518.000000	37.133400
519.000000	37.743800
520.000000	38.361833
521.000000	38.995467
522.000000	39.648833
523.000000	40.303033
524.000000	40.984100
525.000000	41.675200
526.000000	42.371233
527.000000	43.085100
528.000000	43.818333
529.000000	44.592200
530.000000	45.376633
531.000000	46.189833
532.000000	47.024500
533.000000	47.883600
534.000000	48.755833
535.000000	49.628100
536.000000	50.528067
537.000000	51.431100
538.000000	52.317900
539.000000	53.211567
540.000000	54.106900
541.000000	55.009600
542.000000	55.876800
543.000000	56.743433
544.000000	57.602667
545.000000	58.413867
546.000000	59.213333
547.000000	59.959167
548.000000	60.672600
549.000000	61.365033
550.000000	61.991867
551.000000	62.583600
552.000000	63.149667
553.000000	63.636900
554.000000	64.098300
555.000000	64.524000
556.000000	64.907333
557.000000	65.282200
558.000000	65.602667
559.000000	65.915833
560.000000	66.213233
561.000000	66.478467
562.000000	66.739567
563.000000	67.006767
564.000000	67.212233
565.000000	67.450900
566.000000	67.632333
567.000000	67.801400
568.000000	67.951367
569.000000	68.101300
570.000000	68.203867
571.000000	68.317633
572.000000	68.383467
573.000000	68.410833
574.000000	68.449167
575.000000	68.467200
576.000000	68.475200
577.000000	68.477267
578.000000	68.458500
579.000000	68.441467
580.000000	68.415800
581.000000	68.383467
582.000000	68.354200
583.000000	68.311500
584.000000	68.287167
585.000000	68.212033
586.000000	68.156733
587.000000	68.058267
588.000000	67.969533
589.000000	67.845800
590.000000	67.703533
591.000000	67.546100
592.000000	67.387200
593.000000	67.198100
594.000000	67.020933
595.000000	66.765833
596.000000	66.545433
597.000000	66.336167
598.000000	66.081500
599.000000	65.844900
600.000000	65.593700
601.000000	65.356900
602.000000	65.090667
603.000000	64.841500
604.000000	64.555700
605.000000	64.299933
606.000000	64.037033
607.000000	63.757300
608.000000	63.461033
609.000000	63.155167
610.000000	62.817167
611.000000	62.468367
612.000000	62.107933
613.000000	61.712633
614.000000	61.316467
615.000000	60.895400
616.000000	60.448000
617.000000	60.004633
618.000000	59.529667
619.000000	59.043100
620.000000	58.515367
621.000000	57.994367
622.000000	57.487667
623.000000	56.937867
624.000000	56.357133
625.000000	55.813467
626.000000	55.282600
627.000000	54.716367
628.000000	54.161633
629.000000	53.584567
630.000000	53.036133
631.000000	52.453067
632.000000	51.862733
633.000000	51.286233
634.000000	50.678267
635.000000	50.123000
636.000000	49.505233
637.000000	48.969000
638.000000	48.409833
639.000000	47.884500
640.000000	47.391167
641.000000	46.920400
642.000000	46.454667
643.000000	46.056933
644.000000	45.713867
645.000000	45.403267
646.000000	45.152933
647.000000	44.965167
648.000000	44.823267
649.000000	44.746467
650.000000	44.732333
651.000000	44.769000
652.000000	44.855533
653.000000	44.975500
654.000000	45.113633
655.000000	45.303567
656.000000	45.503600
657.000000	45.732500
658.000000	45.942600
659.000000	46.183833
660.000000	46.449933
661.000000	46.678133
662.000000	46.926333
663.000000	47.138933
664.000000	47.364933
665.000000	47.568300
666.000000	47.783467
667.000000	47.990467
668.000000	48.209300
669.000000	48.436400
670.000000	48.652267
671.000000	48.862500
672.000000	49.069433
673.000000	49.261333
674.000000	49.476733
675.000000	49.697400
676.000000	49.881400
677.000000	50.073633
678.000000	50.252400
679.000000	50.458667
680.000000	50.603100
681.000000	50.781100
682.000000	50.946467
683.000000	51.080733
684.000000	51.183100
685.000000	51.277400
686.000000	51.372700
687.000000	51.439300
688.000000	51.476567
689.000000	51.566267
690.000000	51.635000
691.000000	51.663067
692.000000	51.686967
693.000000	51.762933
694.000000	51.832767
695.000000	51.903867
696.000000	51.979833
697.000000	52.085500
698.000000	52.203267
699.000000	52.307200
700.000000	52.409400
701.000000	52.541933
702.000000	52.702533
703.000000	52.871867
704.000000	53.013033
705.000000	53.160667
706.000000	53.366200
707.000000	53.536167
708.000000	53.683200
709.000000	53.888367
710.000000	54.049867
711.000000	54.247200
712.000000	54.436533
713.000000	54.628500
714.000000	54.839100
715.000000	55.033600
716.000000	55.221533
717.000000	55.430267
718.000000	55.630300
719.000000	55.831467
720.000000	56.045833
721.000000	56.282800
722.000000	56.526133
723.000000	56.760267
724.000000	57.023900
725.000000	57.231700
726.000000	57.461867
727.000000	57.730333
728.000000	57.985533
729.000000	58.222167
730.000000	58.424033
731.000000	58.682467
732.000000	58.949633
733.000000	59.224600
734.000000	59.460800
735.000000	59.694533
736.000000	59.915633
737.000000	60.083033
738.000000	60.307333
739.000000	60.572667
740.000000	60.755400
741.000000	60.918600
742.000000	61.119900
743.000000	61.301533
744.000000	61.486167
745.000000	61.644133
746.000000	61.814033
747.000000	61.989867
748.000000	62.137067
749.000000	62.310333
750.000000	62.512900
751.000000	62.685400
752.000000	62.867533
753.000000	63.020533
754.000000	63.155767
755.000000	63.336967
756.000000	63.502367
757.000000	63.669967
758.000000	63.821100
759.000000	64.005300
760.000000	64.166733
761.000000	64.277733
762.000000	64.418500
763.000000	64.552233
764.000000	64.699533
765.000000	64.853567
766.000000	64.989833
767.000000	65.096367
768.000000	65.208267
769.000000	65.339367
770.000000	65.407200
771.000000	65.526333
772.000000	65.648067
773.000000	65.790900
774.000000	65.886500
775.000000	65.977700
776.000000	66.130167
777.000000	66.225100
778.000000	66.324467
779.000000	66.459867
780.000000	66.569600
781.000000	66.666800
782.000000	66.790133
783.000000	66.875467
784.000000	66.974400
785.000000	67.119200
786.000000	67.238367
787.000000	67.301167
788.000000	67.439400
789.000000	67.562133
790.000000	67.653800
791.000000	67.774533
792.000000	67.877067
793.000000	68.000800
794.000000	68.118133
795.000000	68.271000
796.000000	68.294400
797.000000	68.358500
798.000000	68.501933
799.000000	68.662567
800.000000	68.785167
801.000000	68.881167
802.000000	68.947833
803.000000	69.090500
804.000000	69.223767
805.000000	69.261067
806.000000	69.389000
807.000000	69.561700
808.000000	69.706767
809.000000	69.846967
810.000000	70.011933
811.000000	70.117867
812.000000	70.180733
813.000000	70.385933
814.000000	70.527867
815.000000	70.706867
816.000000	70.839900
817.000000	70.900433
818.000000	70.977133
819.000000	71.137533
820.000000	71.379933
821.000000	71.536933
822.000000	71.685700
823.000000	71.753700
824.000000	71.887533
825.000000	72.055700
826.000000	72.196800
827.000000	72.337900
828.000000	72.443133
829.000000	72.636400
830.000000	72.853133
831.000000	72.951300
832.000000	72.978233
833.000000	73.089300
834.000000	73.305833
835.000000	73.529000
836.000000	73.622933
837.000000	73.708100
838.000000	73.780833
839.000000	74.018700
840.000000	74.006133
841.000000	74.068800
842.000000	74.237100
843.000000	74.351000
844.000000	74.428767
845.000000	74.446033
846.000000	74.603800
847.000000	74.745367
848.000000	74.884600
849.000000	74.857167
850.000000	74.872800
851.000000	75.167033
852.000000	75.321033
853.000000	75.085200
854.000000	75.441567
855.000000	75.090533
856.000000	75.496967
857.000000	75.249867
858.000000	75.279122
859.000000	74.036016
860.000000	74.321714
861.000000	74.631012
862.000000	74.997545
863.000000	75.413976
864.000000	75.771459
865.000000	76.197809
866.000000	76.582948
867.000000	76.992507
868.000000	77.384551
869.000000	77.710966
870.000000	78.054551
871.000000	78.367233
872.000000	78.664850
873.000000	78.897631
874.000000	79.217084
875.000000	79.473601
876.000000	79.782586
877.000000	80.006411
878.000000	80.229593
879.000000	80.462544
880.000000	80.652068
881.000000	80.869526
882.000000	81.018571
883.000000	81.233810
884.000000	81.403355
885.000000	81.507253
886.000000	81.602742
887.000000	81.775682
888.000000	81.883577
889.000000	81.947425
890.000000	82.015553
891.000000	82.121242
892.000000	82.190507
893.000000	82.252455
894.000000	82.290572
895.000000	82.345328
896.000000	82.371192
897.000000	82.395916
898.000000	82.417774
899.000000	82.423481
900.000000	82.449212
901.000000	82.450706
902.000000	82.468847
903.000000	82.475576
904.000000	82.471757
905.000000	82.443838
906.000000	82.454785
907.000000	82.432744
908.000000	82.435445
909.000000	82.462219
910.000000	82.463125
911.000000	82.455172
912.000000	82.477626
913.000000	82.475897
914.000000	82.495167
915.000000	82.530146
916.000000	82.556001
917.000000	82.571312
918.000000	82.553275
919.000000	82.548229
920.000000	82.558553
921.000000	82.535908
922.000000	82.531442
923.000000	82.529810
924.000000	82.506856
925.000000	82.509869
926.000000	82.469395
927.000000	82.432940
928.000000	82.425633
929.000000	82.422831
930.000000	82.376584
931.000000	82.335544
932.000000	82.322677
933.000000	82.259117
934.000000	82.193838
935.000000	82.150251
936.000000	82.106324
937.000000	82.071543
938.000000	81.966907
939.000000	81.922983
940.000000	81.883533
941.000000	81.836532
942.000000	81.760581
943.000000	81.706554
944.000000	81.659684
945.000000	81.598650
946.000000	81.520510
947.000000	81.471048
948.000000	81.365534
949.000000	81.309185
950.000000	81.245491
951.000000	81.153273
952.000000	81.054224
953.000000	80.976033
954.000000	80.869431
955.000000	80.775721
956.000000	80.700706
957.000000	80.588808
958.000000	80.481452
959.000000	80.352330
960.000000	80.256358
961.000000	80.141861
962.000000	80.014389
963.000000	79.892890
964.000000	79.781435
965.000000	79.676720
966.000000	79.560295
967.000000	79.461122
968.000000	79.345866
969.000000	79.251394
970.000000	79.139431
971.000000	79.043340
972.000000	78.929962
973.000000	78.833160
974.000000	78.744386
975.000000	78.637555
976.000000	78.522783
977.000000	78.425928
978.000000	78.340096
979.000000	78.254075
980.000000	78.154612
981.000000	78.060237
982.000000	77.956460
983.000000	77.866951
984.000000	77.772740
985.000000	77.677314
986.000000	77.589363
987.000000	77.498986
988.000000	77.396329
989.000000	77.315580
990.000000	77.215762
991.000000	77.144406
992.000000	77.071316
993.000000	77.000930
994.000000	76.910009
995.000000	76.830084
996.000000	76.775847
997.000000	76.701153
998.000000	76.619373
999.000000	76.549650
1000.000000	76.474614
1001.000000	76.406920
1002.000000	76.352051
1003.000000	76.275790
1004.000000	76.206291
1005.000000	76.138183
1006.000000	76.060181
1007.000000	75.987238
1008.000000	75.906738
1009.000000	75.831995
1010.000000	75.754920
1011.000000	75.683422
1012.000000	75.617226
1013.000000	75.560609
1014.000000	75.514844
1015.000000	75.480110
1016.000000	75.441444
1017.000000	75.406250
1018.000000	75.392271
1019.000000	75.374480
1020.000000	75.361228
1021.000000	75.349360
1022.000000	75.339322
1023.000000	75.338871
1024.000000	75.344809
1025.000000	75.352516
1026.000000	75.360762
1027.000000	75.360457
1028.000000	75.363606
1029.000000	75.371036
1030.000000	75.369934
1031.000000	75.378693
1032.000000	75.389959
1033.000000	75.395914
1034.000000	75.399779
1035.000000	75.390787
1036.000000	75.388332
1037.000000	75.400888
1038.000000	75.403090
1039.000000	75.396121
1040.000000	75.397085
1041.000000	75.400725
1042.000000	75.396672
1043.000000	75.395207
1044.000000	75.407863
1045.000000	75.411256
1046.000000	75.406155
1047.000000	75.409760
1048.000000	75.418474
1049.000000	75.440203
1050.000000	75.458220
1051.000000	75.479648
1052.000000	75.506430
1053.000000	75.538834
1054.000000	75.576066
1055.000000	75.607216
1056.000000	75.647385
1057.000000	75.689057
1058.000000	75.730635
1059.000000	75.773306
1060.000000	75.819568
1061.000000	75.871750
1062.000000	75.928308
1063.000000	75.961386
1064.000000	76.000125
1065.000000	76.040798
1066.000000	76.079171
1067.000000	76.119947
1068.000000	76.159360
1069.000000	76.202708
1070.000000	76.250285
1071.000000	76.302795
1072.000000	76.334913
1073.000000	76.371872
1074.000000	76.412836
1075.000000	76.457277
1076.000000	76.497187
1077.000000	76.537108
1078.000000	76.581253
1079.000000	76.627042
1080.000000	76.670398
1081.000000	76.710642
1082.000000	76.748202
1083.000000	76.798621
1084.000000	76.850058
1085.000000	76.883313
1086.000000	76.934739
1087.000000	76.993801
1088.000000	77.032349
1089.000000	77.071261
1090.000000	77.119303
1091.000000	77.160033
1092.000000	77.196412
1093.000000	77.236466
1094.000000	77.279938
1095.000000	77.315456
1096.000000	77.331033
1097.000000	77.371864
1098.000000	77.395865
1099.000000	77.418047
1100.000000	77.441650
1101.000000	77.459449
1102.000000	77.472601
1103.000000	77.495605
1104.000000	77.510458
1105.000000	77.519734
1106.000000	77.532308
1107.000000	77.540350
1108.000000	77.547442
1109.000000	77.553511
1110.000000	77.566698
1111.000000	77.587871
1112.000000	77.586520
1113.000000	77.598208
1114.000000	77.602075
1115.000000	77.614644
1116.000000	77.623850
1117.000000	77.631132
1118.000000	77.616422
1119.000000	77.607297
1120.000000	77.576609
1121.000000	77.541498
1122.000000	77.509355
1123.000000	77.449474
1124.000000	77.380228
1125.000000	77.287552
1126.000000	77.205793
1127.000000	77.076957
1128.000000	76.951514
1129.000000	76.784505
1130.000000	76.577953
1131.000000	76.305773
1132.000000	76.023023
1133.000000	75.709419
1134.000000	75.422743
1135.000000	75.064820
1136.000000	74.640983
1137.000000	74.204606
1138.000000	73.767748
1139.000000	73.350514
1140.000000	72.956081
1141.000000	72.572142
1142.000000	72.196733
1143.000000	71.823957
1144.000000	71.477378
1145.000000	71.192705
1146.000000	70.963272
1147.000000	70.811920
1148.000000	70.723353
1149.000000	70.692521
1150.000000	70.669063
1151.000000	70.665421
1152.000000	70.643009
1153.000000	70.600879
1154.000000	70.511337
1155.000000	70.358498
1156.000000	70.155333
1157.000000	69.864628
1158.000000	69.566457
1159.000000	69.194235
1160.000000	68.797637
1161.000000	68.419181
1162.000000	68.002234
1163.000000	67.579109
1164.000000	67.149565
1165.000000	66.716012
1166.000000	66.292812
1167.000000	65.859108
