PE UV       SUBTECH     SPECTRUM    ASCII       PEDS        4.00        
   -1
CICIMAUCR0019-7.Sample.ASC
24/04/25
16:57:29.00
24/04/25
16:57:29.00
Vinicio Soto Monge
C. cupreomarginata
250,000000
1
Lambda 1050
1050L1511233
PerkinElmer UV WinLab 6.3.2.0749 / 2.02.05 Lambda 900 UV/VIS/NIR, Aug  7 2015 09:38:08

0
0
3350/servo 860,8/2
0
0
UV/VIS
1
1
1
DoubleDePol,CommonBeamDepol,RBeamAtt,SBeamAtt,60mm sphere, WB InGaAs Detector
0
0
0
0
Program
Program
3350/servo 860,8/2
3350/0,2 860,8/0,2
3350/0,2 860,8/0,2
0
15.00
 
 
 
0
 
860,8
319,2
860,8
Front
100
on
S:100 R:100
0
0
0
0
 
0
 
 
 
0
 
 
0
0
0
0
0
 
 
 
 
0
0


0
0
#HDR
-1
-1
#GR
nm
%R
1.0
0.0
2500,000000
-1,000000
2251
8
70,963300
5,343700
#DATA
250.000000	6.042550
251.000000	6.031275
252.000000	6.023850
253.000000	5.988675
254.000000	5.980500
255.000000	5.962750
256.000000	5.943025
257.000000	5.905600
258.000000	5.931450
259.000000	5.899525
260.000000	5.878075
261.000000	5.866875
262.000000	5.814050
263.000000	5.793975
264.000000	5.778200
265.000000	5.733400
266.000000	5.717200
267.000000	5.687500
268.000000	5.660475
269.000000	5.652275
270.000000	5.638600
271.000000	5.614050
272.000000	5.593250
273.000000	5.564500
274.000000	5.562500
275.000000	5.567125
276.000000	5.567625
277.000000	5.519450
278.000000	5.515425
279.000000	5.528525
280.000000	5.503025
281.000000	5.500375
282.000000	5.498050
283.000000	5.473475
284.000000	5.432500
285.000000	5.434325
286.000000	5.408825
287.000000	5.458825
288.000000	5.437825
289.000000	5.412250
290.000000	5.424325
291.000000	5.422475
292.000000	5.413150
293.000000	5.378825
294.000000	5.368875
295.000000	5.379250
296.000000	5.394075
297.000000	5.372450
298.000000	5.340800
299.000000	5.371650
300.000000	5.334600
301.000000	5.358525
302.000000	5.326500
303.000000	5.323525
304.000000	5.298275
305.000000	5.308125
306.000000	5.312375
307.000000	5.323700
308.000000	5.306575
309.000000	5.292300
310.000000	5.294150
311.000000	5.270675
312.000000	5.289525
313.000000	5.277350
314.000000	5.305100
315.000000	5.287400
316.000000	5.319850
317.000000	6.066450
318.000000	5.728050
319.000000	5.691225
320.000000	5.888300
321.000000	5.546300
322.000000	5.746375
323.000000	5.626000
324.000000	5.584550
325.000000	5.394050
326.000000	5.448375
327.000000	5.475425
328.000000	5.431050
329.000000	5.469775
330.000000	5.391600
331.000000	5.446900
332.000000	5.491300
333.000000	5.471775
334.000000	5.349600
335.000000	5.290650
336.000000	5.327375
337.000000	5.318550
338.000000	5.323250
339.000000	5.310225
340.000000	5.351000
341.000000	5.401350
342.000000	5.322925
343.000000	5.286275
344.000000	5.343450
345.000000	5.398325
346.000000	5.388725
347.000000	5.350950
348.000000	5.378525
349.000000	5.432600
350.000000	5.443350
351.000000	5.454125
352.000000	5.446700
353.000000	5.392575
354.000000	5.413175
355.000000	5.433500
356.000000	5.417450
357.000000	5.431050
358.000000	5.443150
359.000000	5.399700
360.000000	5.513275
361.000000	5.564125
362.000000	5.526750
363.000000	5.520750
364.000000	5.610425
365.000000	5.648200
366.000000	5.614350
367.000000	5.643650
368.000000	5.716775
369.000000	5.741325
370.000000	5.788525
371.000000	5.820875
372.000000	5.720800
373.000000	5.733900
374.000000	5.746450
375.000000	5.918025
376.000000	6.194175
377.000000	6.346525
378.000000	6.440425
379.000000	6.538200
380.000000	6.647650
381.000000	6.760050
382.000000	6.875875
383.000000	6.998300
384.000000	7.136975
385.000000	7.285100
386.000000	7.428900
387.000000	7.576550
388.000000	7.725125
389.000000	7.888600
390.000000	8.050325
391.000000	8.216750
392.000000	8.403325
393.000000	8.574350
394.000000	8.741100
395.000000	8.929350
396.000000	9.110500
397.000000	9.283050
398.000000	9.458675
399.000000	9.638075
400.000000	9.812025
401.000000	9.988400
402.000000	10.161550
403.000000	10.325850
404.000000	10.483600
405.000000	10.660525
406.000000	10.824900
407.000000	10.981350
408.000000	11.130500
409.000000	11.271450
410.000000	11.410475
411.000000	11.542325
412.000000	11.677850
413.000000	11.809750
414.000000	11.932600
415.000000	12.055925
416.000000	12.179800
417.000000	12.286300
418.000000	12.380450
419.000000	12.479400
420.000000	12.564225
421.000000	12.637725
422.000000	12.726300
423.000000	12.809000
424.000000	12.880150
425.000000	12.956325
426.000000	13.018150
427.000000	13.074450
428.000000	13.129850
429.000000	13.184275
430.000000	13.231400
431.000000	13.273850
432.000000	13.325175
433.000000	13.368775
434.000000	13.404400
435.000000	13.448625
436.000000	13.489975
437.000000	13.529425
438.000000	13.572500
439.000000	13.612450
440.000000	13.660050
441.000000	13.713050
442.000000	13.766650
443.000000	13.819575
444.000000	13.880050
445.000000	13.963825
446.000000	14.049075
447.000000	14.133975
448.000000	14.235975
449.000000	14.346925
450.000000	14.464175
451.000000	14.591475
452.000000	14.730325
453.000000	14.884550
454.000000	15.058725
455.000000	15.237025
456.000000	15.431125
457.000000	15.640525
458.000000	15.849000
459.000000	16.071050
460.000000	16.315600
461.000000	16.568125
462.000000	16.823500
463.000000	17.087675
464.000000	17.365525
465.000000	17.657150
466.000000	17.937125
467.000000	18.223575
468.000000	18.518175
469.000000	18.824275
470.000000	19.130350
471.000000	19.432675
472.000000	19.738900
473.000000	20.041400
474.000000	20.355600
475.000000	20.663950
476.000000	20.966675
477.000000	21.280225
478.000000	21.589900
479.000000	21.907450
480.000000	22.234600
481.000000	22.550825
482.000000	22.870950
483.000000	23.197675
484.000000	23.537625
485.000000	23.879925
486.000000	24.230125
487.000000	24.586950
488.000000	24.946450
489.000000	25.329225
490.000000	25.712650
491.000000	26.116400
492.000000	26.535675
493.000000	26.968000
494.000000	27.415750
495.000000	27.888025
496.000000	28.374125
497.000000	28.862950
498.000000	29.366850
499.000000	29.881875
500.000000	30.413100
501.000000	30.971150
502.000000	31.533175
503.000000	32.135600
504.000000	32.749275
505.000000	33.368600
506.000000	34.004025
507.000000	34.648550
508.000000	35.328650
509.000000	36.036625
510.000000	36.759825
511.000000	37.495475
512.000000	38.254450
513.000000	39.043150
514.000000	39.849125
515.000000	40.667100
516.000000	41.517925
517.000000	42.393525
518.000000	43.274750
519.000000	44.179275
520.000000	45.100850
521.000000	46.063775
522.000000	47.039050
523.000000	48.020000
524.000000	49.026375
525.000000	50.036925
526.000000	51.049725
527.000000	52.050825
528.000000	53.048650
529.000000	54.045050
530.000000	55.039900
531.000000	56.016175
532.000000	56.978425
533.000000	57.916250
534.000000	58.844575
535.000000	59.722300
536.000000	60.572425
537.000000	61.388575
538.000000	62.165550
539.000000	62.895950
540.000000	63.577800
541.000000	64.243725
542.000000	64.852375
543.000000	65.401625
544.000000	65.917200
545.000000	66.392475
546.000000	66.811875
547.000000	67.199875
548.000000	67.562200
549.000000	67.881775
550.000000	68.157275
551.000000	68.404525
552.000000	68.655325
553.000000	68.845150
554.000000	69.043350
555.000000	69.186750
556.000000	69.325300
557.000000	69.432025
558.000000	69.535550
559.000000	69.618175
560.000000	69.720525
561.000000	69.802500
562.000000	69.851225
563.000000	69.898625
564.000000	69.919525
565.000000	69.933375
566.000000	69.944275
567.000000	69.930000
568.000000	69.914150
569.000000	69.857325
570.000000	69.801400
571.000000	69.680325
572.000000	69.591225
573.000000	69.450250
574.000000	69.293275
575.000000	69.128500
576.000000	68.944175
577.000000	68.733375
578.000000	68.526250
579.000000	68.304575
580.000000	68.035750
581.000000	67.794225
582.000000	67.531775
583.000000	67.266350
584.000000	66.966775
585.000000	66.698625
586.000000	66.385775
587.000000	66.056750
588.000000	65.776025
589.000000	65.429625
590.000000	65.104500
591.000000	64.782625
592.000000	64.414175
593.000000	64.060950
594.000000	63.689875
595.000000	63.253975
596.000000	62.844025
597.000000	62.407850
598.000000	61.934650
599.000000	61.442350
600.000000	60.931500
601.000000	60.384575
602.000000	59.824150
603.000000	59.204425
604.000000	58.606300
605.000000	57.955150
606.000000	57.317175
607.000000	56.671900
608.000000	56.023750
609.000000	55.380825
610.000000	54.756150
611.000000	54.124950
612.000000	53.525425
613.000000	52.930500
614.000000	52.355775
615.000000	51.787950
616.000000	51.269750
617.000000	50.765850
618.000000	50.289125
619.000000	49.842100
620.000000	49.440175
621.000000	49.062350
622.000000	48.680125
623.000000	48.336625
624.000000	48.050575
625.000000	47.757750
626.000000	47.526625
627.000000	47.369450
628.000000	47.225400
629.000000	47.138225
630.000000	47.091200
631.000000	47.099900
632.000000	47.151600
633.000000	47.224375
634.000000	47.369700
635.000000	47.540325
636.000000	47.749625
637.000000	47.967675
638.000000	48.204725
639.000000	48.444425
640.000000	48.703375
641.000000	48.939750
642.000000	49.167500
643.000000	49.401725
644.000000	49.637200
645.000000	49.827950
646.000000	50.041675
647.000000	50.206225
648.000000	50.399175
649.000000	50.559275
650.000000	50.721500
651.000000	50.895750
652.000000	51.052200
653.000000	51.216525
654.000000	51.366250
655.000000	51.511125
656.000000	51.660150
657.000000	51.731175
658.000000	51.847275
659.000000	51.953000
660.000000	52.031400
661.000000	52.124375
662.000000	52.196525
663.000000	52.288200
664.000000	52.343525
665.000000	52.403900
666.000000	52.465300
667.000000	52.528650
668.000000	52.604200
669.000000	52.684950
670.000000	52.773775
671.000000	52.841875
672.000000	52.936925
673.000000	53.040100
674.000000	53.153775
675.000000	53.273400
676.000000	53.400200
677.000000	53.532625
678.000000	53.685225
679.000000	53.815150
680.000000	53.954200
681.000000	54.125775
682.000000	54.306200
683.000000	54.434725
684.000000	54.600500
685.000000	54.764025
686.000000	54.902075
687.000000	55.076800
688.000000	55.244050
689.000000	55.392950
690.000000	55.533075
691.000000	55.715300
692.000000	55.890075
693.000000	56.045800
694.000000	56.223025
695.000000	56.398600
696.000000	56.550750
697.000000	56.696300
698.000000	56.867750
699.000000	57.038050
700.000000	57.192500
701.000000	57.329725
702.000000	57.441975
703.000000	57.587150
704.000000	57.706750
705.000000	57.810725
706.000000	57.910125
707.000000	58.001875
708.000000	58.082525
709.000000	58.189625
710.000000	58.279050
711.000000	58.355975
712.000000	58.449450
713.000000	58.534825
714.000000	58.591400
715.000000	58.669800
716.000000	58.728650
717.000000	58.771625
718.000000	58.842275
719.000000	58.874525
720.000000	58.931225
721.000000	58.994450
722.000000	59.021925
723.000000	59.052025
724.000000	59.105475
725.000000	59.139150
726.000000	59.156000
727.000000	59.211200
728.000000	59.232625
729.000000	59.234900
730.000000	59.273475
731.000000	59.307750
732.000000	59.335625
733.000000	59.399500
734.000000	59.438400
735.000000	59.464900
736.000000	59.533950
737.000000	59.587725
738.000000	59.630275
739.000000	59.681475
740.000000	59.729550
741.000000	59.775500
742.000000	59.814675
743.000000	59.866525
744.000000	59.933325
745.000000	60.004050
746.000000	60.047250
747.000000	60.111600
748.000000	60.174950
749.000000	60.227850
750.000000	60.337575
751.000000	60.433700
752.000000	60.472325
753.000000	60.530825
754.000000	60.622775
755.000000	60.717050
756.000000	60.749850
757.000000	60.792875
758.000000	60.893025
759.000000	60.957075
760.000000	61.021250
761.000000	61.069875
762.000000	61.154900
763.000000	61.236625
764.000000	61.284350
765.000000	61.298850
766.000000	61.365825
767.000000	61.428950
768.000000	61.447025
769.000000	61.522825
770.000000	61.607675
771.000000	61.668125
772.000000	61.737725
773.000000	61.776200
774.000000	61.834775
775.000000	61.876325
776.000000	61.895025
777.000000	61.957350
778.000000	62.039925
779.000000	62.092700
780.000000	62.120075
781.000000	62.141475
782.000000	62.218450
783.000000	62.300325
784.000000	62.383825
785.000000	62.457300
786.000000	62.503775
787.000000	62.589675
788.000000	62.703925
789.000000	62.793850
790.000000	62.836450
791.000000	62.897250
792.000000	62.969875
793.000000	63.035450
794.000000	63.074475
795.000000	63.169375
796.000000	63.241300
797.000000	63.360900
798.000000	63.448050
799.000000	63.450350
800.000000	63.534850
801.000000	63.616650
802.000000	63.709975
803.000000	63.829900
804.000000	63.903575
805.000000	63.998175
806.000000	64.097625
807.000000	64.092875
808.000000	64.227625
809.000000	64.305400
810.000000	64.396725
811.000000	64.485475
812.000000	64.629975
813.000000	64.654925
814.000000	64.839250
815.000000	64.933275
816.000000	64.982525
817.000000	65.051350
818.000000	65.155700
819.000000	65.211300
820.000000	65.352000
821.000000	65.449625
822.000000	65.534625
823.000000	65.637700
824.000000	65.728500
825.000000	65.772400
826.000000	65.859400
827.000000	65.996425
828.000000	66.040900
829.000000	66.093425
830.000000	66.108475
831.000000	66.217675
832.000000	66.402625
833.000000	66.383000
834.000000	66.430125
835.000000	66.461375
836.000000	66.456225
837.000000	66.539500
838.000000	66.513775
839.000000	66.624775
840.000000	66.733075
841.000000	66.753250
842.000000	66.797600
843.000000	66.765800
844.000000	66.650825
845.000000	66.638750
846.000000	66.713950
847.000000	66.605325
848.000000	66.655550
849.000000	66.771425
850.000000	66.569325
851.000000	66.498000
852.000000	66.577525
853.000000	66.726900
854.000000	66.608100
855.000000	66.529625
856.000000	66.422950
857.000000	66.424350
858.000000	66.458975
859.000000	64.605802
860.000000	64.575049
861.000000	64.545199
862.000000	64.492416
863.000000	64.426630
864.000000	64.369009
865.000000	64.376117
866.000000	64.563187
867.000000	65.003626
868.000000	65.478887
869.000000	66.026123
870.000000	66.513497
871.000000	67.027401
872.000000	67.425823
873.000000	67.818869
874.000000	68.091270
875.000000	68.440975
876.000000	68.694455
877.000000	69.005203
878.000000	69.221981
879.000000	69.501996
880.000000	69.685267
881.000000	69.914687
882.000000	70.090963
883.000000	70.230998
884.000000	70.420200
885.000000	70.530701
886.000000	70.665179
887.000000	70.768260
888.000000	70.862360
889.000000	70.932087
890.000000	71.000706
891.000000	71.069139
892.000000	71.121560
893.000000	71.141955
894.000000	71.186767
895.000000	71.176266
896.000000	71.162221
897.000000	71.145291
898.000000	71.150324
899.000000	71.118155
900.000000	71.098866
901.000000	71.066088
902.000000	71.025323
903.000000	71.004342
904.000000	70.948104
905.000000	70.888929
906.000000	70.845343
907.000000	70.805617
908.000000	70.780321
909.000000	70.740117
910.000000	70.713612
911.000000	70.682233
912.000000	70.658133
913.000000	70.653484
914.000000	70.598714
915.000000	70.585361
916.000000	70.585643
917.000000	70.528039
918.000000	70.501307
919.000000	70.490756
920.000000	70.462296
921.000000	70.384093
922.000000	70.354396
923.000000	70.304321
924.000000	70.255523
925.000000	70.216722
926.000000	70.185030
927.000000	70.102719
928.000000	70.064156
929.000000	70.033848
930.000000	69.982803
931.000000	69.947406
932.000000	69.861446
933.000000	69.828797
934.000000	69.757096
935.000000	69.712040
936.000000	69.679293
937.000000	69.605384
938.000000	69.570829
939.000000	69.537777
940.000000	69.494579
941.000000	69.449738
942.000000	69.427943
943.000000	69.389458
944.000000	69.349913
945.000000	69.315180
946.000000	69.296310
947.000000	69.254481
948.000000	69.223364
949.000000	69.198156
950.000000	69.168043
951.000000	69.130262
952.000000	69.111577
953.000000	69.079435
954.000000	69.042064
955.000000	69.005532
956.000000	68.976934
957.000000	68.941535
958.000000	68.905804
959.000000	68.855237
960.000000	68.816936
961.000000	68.773386
962.000000	68.722111
963.000000	68.698097
964.000000	68.646553
965.000000	68.615442
966.000000	68.579839
967.000000	68.557184
968.000000	68.530260
969.000000	68.506940
970.000000	68.471748
971.000000	68.456652
972.000000	68.425139
973.000000	68.391109
974.000000	68.361197
975.000000	68.345119
976.000000	68.326093
977.000000	68.293717
978.000000	68.262443
979.000000	68.241291
980.000000	68.197678
981.000000	68.178801
982.000000	68.172575
983.000000	68.138659
984.000000	68.106077
985.000000	68.079690
986.000000	68.061752
987.000000	68.034717
988.000000	68.014870
989.000000	67.994614
990.000000	67.971777
991.000000	67.957018
992.000000	67.939804
993.000000	67.938497
994.000000	67.932928
995.000000	67.913018
996.000000	67.900104
997.000000	67.896216
998.000000	67.892392
999.000000	67.887352
1000.000000	67.881485
1001.000000	67.873403
1002.000000	67.883595
1003.000000	67.886227
1004.000000	67.879851
1005.000000	67.875891
1006.000000	67.868647
1007.000000	67.864716
1008.000000	67.863793
1009.000000	67.857043
1010.000000	67.854024
1011.000000	67.865465
1012.000000	67.884277
1013.000000	67.897763
1014.000000	67.924788
1015.000000	67.959903
1016.000000	68.001277
1017.000000	68.052049
1018.000000	68.108505
1019.000000	68.160227
1020.000000	68.218247
1021.000000	68.282947
1022.000000	68.353358
1023.000000	68.415421
1024.000000	68.480393
1025.000000	68.556784
1026.000000	68.626422
1027.000000	68.693821
1028.000000	68.767506
1029.000000	68.831256
1030.000000	68.893383
1031.000000	68.962910
1032.000000	69.038158
1033.000000	69.093195
1034.000000	69.143709
1035.000000	69.210863
1036.000000	69.268071
1037.000000	69.323470
1038.000000	69.380927
1039.000000	69.439820
1040.000000	69.488549
1041.000000	69.535820
1042.000000	69.587244
1043.000000	69.637295
1044.000000	69.686642
1045.000000	69.735267
1046.000000	69.791539
1047.000000	69.837519
1048.000000	69.895062
1049.000000	69.956991
1050.000000	69.999752
1051.000000	70.054453
1052.000000	70.122863
1053.000000	70.183732
1054.000000	70.244311
1055.000000	70.309632
1056.000000	70.377748
1057.000000	70.448701
1058.000000	70.523300
1059.000000	70.584016
1060.000000	70.640538
1061.000000	70.710799
1062.000000	70.777256
1063.000000	70.842283
1064.000000	70.903537
1065.000000	70.959671
1066.000000	71.023788
1067.000000	71.079391
1068.000000	71.141513
1069.000000	71.199813
1070.000000	71.255378
1071.000000	71.312659
1072.000000	71.369490
1073.000000	71.419918
1074.000000	71.473285
1075.000000	71.533641
1076.000000	71.588897
1077.000000	71.644421
1078.000000	71.705602
1079.000000	71.754665
1080.000000	71.799756
1081.000000	71.853701
1082.000000	71.915482
1083.000000	71.970491
1084.000000	72.025559
1085.000000	72.079421
1086.000000	72.136125
1087.000000	72.199752
1088.000000	72.249561
1089.000000	72.294697
1090.000000	72.358723
1091.000000	72.405615
1092.000000	72.447968
1093.000000	72.498839
1094.000000	72.536187
1095.000000	72.574106
1096.000000	72.623780
1097.000000	72.663263
1098.000000	72.696330
1099.000000	72.729830
1100.000000	72.755615
1101.000000	72.787473
1102.000000	72.806892
1103.000000	72.841709
1104.000000	72.866045
1105.000000	72.887606
1106.000000	72.905941
1107.000000	72.932954
1108.000000	72.950515
1109.000000	72.961929
1110.000000	72.984587
1111.000000	73.004106
1112.000000	73.016427
1113.000000	73.032487
1114.000000	73.056940
1115.000000	73.071527
1116.000000	73.083116
1117.000000	73.105818
1118.000000	73.107579
1119.000000	73.101232
1120.000000	73.082728
1121.000000	73.055468
1122.000000	73.036605
1123.000000	72.999671
1124.000000	72.939365
1125.000000	72.864468
1126.000000	72.793687
1127.000000	72.688645
1128.000000	72.584328
1129.000000	72.437471
1130.000000	72.253294
1131.000000	72.037667
1132.000000	71.793965
1133.000000	71.516223
1134.000000	71.271805
1135.000000	70.958178
1136.000000	70.576494
1137.000000	70.211984
1138.000000	69.815174
1139.000000	69.447424
1140.000000	69.102467
1141.000000	68.753593
1142.000000	68.423409
1143.000000	68.080062
1144.000000	67.776543
1145.000000	67.524161
1146.000000	67.316041
1147.000000	67.174849
1148.000000	67.096015
1149.000000	67.069984
1150.000000	67.073740
1151.000000	67.065942
1152.000000	67.051492
1153.000000	67.022437
1154.000000	66.947147
1155.000000	66.816308
1156.000000	66.616461
1157.000000	66.379693
1158.000000	66.077518
1159.000000	65.751112
1160.000000	65.396372
1161.000000	65.026447
1162.000000	64.641048
1163.000000	64.263916
1164.000000	63.843939
1165.000000	63.437628
1166.000000	63.041610
