PE UV       SUBTECH     SPECTRUM    ASCII       PEDS        4.00        
   -1
CICIMAUCR0008-5.Sample.ASC
24/04/25
10:02:58.00
24/04/25
10:02:58.00
Vinicio Soto Monge
C. kalinini
250,000000
1
Lambda 1050
1050L1511233
PerkinElmer UV WinLab 6.3.2.0749 / 2.02.05 Lambda 900 UV/VIS/NIR, Aug  7 2015 09:38:08

0
0
3350/servo 860,8/2
0
0
UV/VIS
1
1
1
DoubleDePol,CommonBeamDepol,RBeamAtt,SBeamAtt,60mm sphere, WB InGaAs Detector
0
0
0
0
Program
Program
3350/servo 860,8/2
3350/0,2 860,8/0,2
3350/0,2 860,8/0,2
0
15.00
 
 
 
0
 
860,8
319,2
860,8
Front
100
on
S:100 R:100
0
0
0
0
 
0
 
 
 
0
 
 
0
0
0
0
0
 
 
 
 
0
0


0
0
#HDR
-1
-1
#GR
nm
%R
1.0
0.0
2500,000000
-1,000000
2251
8
95,184700
4,916500
#DATA
250.000000	4.028624
251.000000	4.016586
252.000000	4.002044
253.000000	4.011385
254.000000	3.999264
255.000000	4.015047
256.000000	4.001298
257.000000	3.993015
258.000000	3.982776
259.000000	3.975357
260.000000	3.959119
261.000000	3.968492
262.000000	3.949881
263.000000	3.934370
264.000000	3.911131
265.000000	3.894796
266.000000	3.885257
267.000000	3.883045
268.000000	3.879855
269.000000	3.872508
270.000000	3.842990
271.000000	3.826273
272.000000	3.834183
273.000000	3.829575
274.000000	3.818416
275.000000	3.809228
276.000000	3.802185
277.000000	3.811806
278.000000	3.785887
279.000000	3.805372
280.000000	3.783046
281.000000	3.787445
282.000000	3.774818
283.000000	3.778981
284.000000	3.769576
285.000000	3.764810
286.000000	3.745627
287.000000	3.766449
288.000000	3.740181
289.000000	3.754287
290.000000	3.761916
291.000000	3.732269
292.000000	3.778030
293.000000	3.751343
294.000000	3.763442
295.000000	3.740196
296.000000	3.753438
297.000000	3.763924
298.000000	3.762058
299.000000	3.759077
300.000000	3.712764
301.000000	3.734612
302.000000	3.745517
303.000000	3.738898
304.000000	3.750268
305.000000	3.739240
306.000000	3.733262
307.000000	3.739060
308.000000	3.758108
309.000000	3.746986
310.000000	3.736074
311.000000	3.740740
312.000000	3.728360
313.000000	3.733954
314.000000	3.726227
315.000000	3.734830
316.000000	3.797865
317.000000	4.169926
318.000000	4.028334
319.000000	4.055852
320.000000	3.971564
321.000000	4.058399
322.000000	4.063262
323.000000	4.061392
324.000000	4.071126
325.000000	4.072970
326.000000	3.928796
327.000000	3.967548
328.000000	3.954214
329.000000	3.957784
330.000000	3.944108
331.000000	3.992600
332.000000	3.995388
333.000000	4.013285
334.000000	4.007034
335.000000	3.979637
336.000000	3.993950
337.000000	4.011532
338.000000	3.990269
339.000000	3.989451
340.000000	4.076419
341.000000	4.069235
342.000000	3.979964
343.000000	4.032320
344.000000	4.069983
345.000000	4.074576
346.000000	4.057229
347.000000	4.104996
348.000000	4.130082
349.000000	4.122251
350.000000	4.146121
351.000000	4.182808
352.000000	4.160167
353.000000	4.188594
354.000000	4.282610
355.000000	4.253832
356.000000	4.269468
357.000000	4.308518
358.000000	4.353547
359.000000	4.376786
360.000000	4.374716
361.000000	4.430099
362.000000	4.483097
363.000000	4.480707
364.000000	4.523344
365.000000	4.529582
366.000000	4.604407
367.000000	4.594453
368.000000	4.634287
369.000000	4.684708
370.000000	4.683396
371.000000	4.732766
372.000000	4.819543
373.000000	4.866399
374.000000	4.886385
375.000000	4.976887
376.000000	5.123220
377.000000	5.095774
378.000000	5.176205
379.000000	5.267989
380.000000	5.354145
381.000000	5.457348
382.000000	5.552873
383.000000	5.655900
384.000000	5.770122
385.000000	5.894134
386.000000	6.022854
387.000000	6.163162
388.000000	6.301368
389.000000	6.442495
390.000000	6.603014
391.000000	6.766205
392.000000	6.934520
393.000000	7.114831
394.000000	7.310227
395.000000	7.500754
396.000000	7.691634
397.000000	7.899959
398.000000	8.111371
399.000000	8.321478
400.000000	8.544019
401.000000	8.783372
402.000000	9.015029
403.000000	9.255195
404.000000	9.504981
405.000000	9.755502
406.000000	10.003210
407.000000	10.256096
408.000000	10.510799
409.000000	10.768223
410.000000	11.024357
411.000000	11.285207
412.000000	11.551177
413.000000	11.816536
414.000000	12.078642
415.000000	12.336622
416.000000	12.582354
417.000000	12.830229
418.000000	13.073725
419.000000	13.309367
420.000000	13.547460
421.000000	13.775427
422.000000	13.997168
423.000000	14.208994
424.000000	14.413768
425.000000	14.607928
426.000000	14.792162
427.000000	14.975411
428.000000	15.138418
429.000000	15.297596
430.000000	15.459962
431.000000	15.610786
432.000000	15.753824
433.000000	15.885301
434.000000	16.009390
435.000000	16.136864
436.000000	16.252222
437.000000	16.357804
438.000000	16.466922
439.000000	16.566206
440.000000	16.660722
441.000000	16.751329
442.000000	16.836003
443.000000	16.921139
444.000000	16.994068
445.000000	17.039742
446.000000	17.081848
447.000000	17.129430
448.000000	17.169771
449.000000	17.212049
450.000000	17.261679
451.000000	17.305820
452.000000	17.340620
453.000000	17.375825
454.000000	17.407451
455.000000	17.434673
456.000000	17.466463
457.000000	17.497011
458.000000	17.533056
459.000000	17.569590
460.000000	17.607151
461.000000	17.653141
462.000000	17.701600
463.000000	17.756674
464.000000	17.814678
465.000000	17.882886
466.000000	17.965532
467.000000	18.065601
468.000000	18.166793
469.000000	18.278617
470.000000	18.415649
471.000000	18.561772
472.000000	18.719054
473.000000	18.896705
474.000000	19.085786
475.000000	19.292988
476.000000	19.514370
477.000000	19.752025
478.000000	20.003701
479.000000	20.261159
480.000000	20.559727
481.000000	20.892120
482.000000	21.226039
483.000000	21.558767
484.000000	21.878746
485.000000	22.194043
486.000000	22.507523
487.000000	22.831871
488.000000	23.151490
489.000000	23.469517
490.000000	23.784735
491.000000	24.100455
492.000000	24.402719
493.000000	24.694202
494.000000	24.982739
495.000000	25.267596
496.000000	25.549849
497.000000	25.825524
498.000000	26.103828
499.000000	26.373424
500.000000	26.647250
501.000000	26.929242
502.000000	27.226882
503.000000	27.526631
504.000000	27.850099
505.000000	28.167606
506.000000	28.482672
507.000000	28.813965
508.000000	29.157530
509.000000	29.522503
510.000000	29.893022
511.000000	30.285390
512.000000	30.679256
513.000000	31.091051
514.000000	31.519195
515.000000	31.957492
516.000000	32.405284
517.000000	32.839619
518.000000	33.292674
519.000000	33.740423
520.000000	34.197890
521.000000	34.657511
522.000000	35.109029
523.000000	35.557853
524.000000	36.006249
525.000000	36.452842
526.000000	36.878794
527.000000	37.314817
528.000000	37.756196
529.000000	38.179779
530.000000	38.582846
531.000000	38.965275
532.000000	39.355645
533.000000	39.743219
534.000000	40.116736
535.000000	40.467673
536.000000	40.819105
537.000000	41.161441
538.000000	41.488241
539.000000	41.804259
540.000000	42.099737
541.000000	42.384698
542.000000	42.667572
543.000000	42.921385
544.000000	43.190995
545.000000	43.431064
546.000000	43.642631
547.000000	43.865285
548.000000	44.079439
549.000000	44.290838
550.000000	44.488049
551.000000	44.676469
552.000000	44.836814
553.000000	44.996225
554.000000	45.150754
555.000000	45.281941
556.000000	45.413971
557.000000	45.524277
558.000000	45.633390
559.000000	45.721010
560.000000	45.584304
561.000000	45.652558
562.000000	45.729714
563.000000	45.800400
564.000000	45.860299
565.000000	45.901784
566.000000	45.923360
567.000000	45.946089
568.000000	45.951894
569.000000	45.974841
570.000000	45.987248
571.000000	45.989009
572.000000	45.989039
573.000000	45.988471
574.000000	45.958480
575.000000	45.912518
576.000000	45.871463
577.000000	45.808447
578.000000	45.723280
579.000000	45.658248
580.000000	45.582354
581.000000	45.490151
582.000000	45.380365
583.000000	45.265525
584.000000	45.150190
585.000000	45.006998
586.000000	44.857095
587.000000	44.703898
588.000000	44.531885
589.000000	44.365075
590.000000	44.204940
591.000000	44.032096
592.000000	43.868318
593.000000	43.670746
594.000000	43.520083
595.000000	43.357409
596.000000	43.190907
597.000000	43.016124
598.000000	42.845380
599.000000	42.650796
600.000000	42.454427
601.000000	42.282076
602.000000	42.088569
603.000000	41.913956
604.000000	41.726565
605.000000	41.553040
606.000000	41.377332
607.000000	41.234436
608.000000	41.091251
609.000000	40.962265
610.000000	40.848520
611.000000	40.739170
612.000000	40.638109
613.000000	40.532551
614.000000	40.446201
615.000000	40.356630
616.000000	40.306661
617.000000	40.269203
618.000000	40.233838
619.000000	40.199666
620.000000	40.198311
621.000000	40.189512
622.000000	40.184482
623.000000	40.201441
624.000000	40.238316
625.000000	40.302491
626.000000	40.365646
627.000000	40.466308
628.000000	40.582731
629.000000	40.715911
630.000000	40.874888
631.000000	41.045179
632.000000	41.235053
633.000000	41.435938
634.000000	41.648858
635.000000	41.879090
636.000000	42.114423
637.000000	42.348662
638.000000	42.601249
639.000000	42.868508
640.000000	43.131601
641.000000	43.398296
642.000000	43.652430
643.000000	43.936210
644.000000	44.204077
645.000000	44.466630
646.000000	44.731015
647.000000	44.954405
648.000000	45.214765
649.000000	45.439737
650.000000	45.682243
651.000000	45.903359
652.000000	46.128118
653.000000	46.356208
654.000000	46.562290
655.000000	46.773360
656.000000	46.970158
657.000000	47.180004
658.000000	47.373884
659.000000	47.568404
660.000000	47.768066
661.000000	47.953414
662.000000	48.159349
663.000000	48.364709
664.000000	48.569437
665.000000	48.783074
666.000000	49.004654
667.000000	49.229414
668.000000	49.475949
669.000000	49.724135
670.000000	49.993068
671.000000	50.285754
672.000000	50.559693
673.000000	50.860968
674.000000	51.162962
675.000000	51.484119
676.000000	51.802529
677.000000	52.126645
678.000000	52.451572
679.000000	52.776716
680.000000	53.113380
681.000000	53.434546
682.000000	53.748680
683.000000	54.086965
684.000000	54.420774
685.000000	54.748845
686.000000	55.060911
687.000000	55.334812
688.000000	55.579858
689.000000	55.859077
690.000000	56.130591
691.000000	56.387849
692.000000	56.660020
693.000000	56.901950
694.000000	57.117886
695.000000	57.327730
696.000000	57.544146
697.000000	57.713327
698.000000	57.877707
699.000000	58.048758
700.000000	58.224632
701.000000	58.374710
702.000000	58.548100
703.000000	58.707185
704.000000	58.854566
705.000000	58.993685
706.000000	59.123202
707.000000	59.231971
708.000000	59.337385
709.000000	59.463218
710.000000	59.578095
711.000000	59.669504
712.000000	59.756839
713.000000	59.884114
714.000000	60.000021
715.000000	60.103291
716.000000	60.188699
717.000000	60.269877
718.000000	60.338215
719.000000	60.427303
720.000000	60.520109
721.000000	60.620168
722.000000	60.706986
723.000000	60.786121
724.000000	60.866671
725.000000	60.909313
726.000000	60.989066
727.000000	61.074030
728.000000	61.105689
729.000000	61.147436
730.000000	61.225570
731.000000	61.281678
732.000000	61.337721
733.000000	61.359285
734.000000	61.372706
735.000000	61.398000
736.000000	61.423840
737.000000	61.454832
738.000000	61.473511
739.000000	61.483226
740.000000	61.497994
741.000000	61.507768
742.000000	61.514711
743.000000	61.511846
744.000000	61.479879
745.000000	61.437792
746.000000	61.422682
747.000000	61.408545
748.000000	61.379289
749.000000	61.333655
750.000000	61.294835
751.000000	61.232351
752.000000	61.156940
753.000000	61.089304
754.000000	61.019029
755.000000	60.956243
756.000000	60.847262
757.000000	60.762871
758.000000	60.708699
759.000000	60.626995
760.000000	60.514573
761.000000	60.389916
762.000000	60.255514
763.000000	60.130451
764.000000	60.006876
765.000000	59.858376
766.000000	59.713460
767.000000	59.553371
768.000000	59.400400
769.000000	59.292574
770.000000	59.156819
771.000000	58.952832
772.000000	58.748883
773.000000	58.570358
774.000000	58.376465
775.000000	58.205444
776.000000	57.999160
777.000000	57.804399
778.000000	57.615067
779.000000	57.401355
780.000000	57.168395
781.000000	56.933261
782.000000	56.700802
783.000000	56.459433
784.000000	56.219940
785.000000	55.947852
786.000000	55.733239
787.000000	55.528090
788.000000	55.276402
789.000000	55.039614
790.000000	54.779771
791.000000	54.538475
792.000000	54.276538
793.000000	54.008171
794.000000	53.777731
795.000000	53.564619
796.000000	53.293203
797.000000	53.036944
798.000000	52.814943
799.000000	52.594070
800.000000	52.388096
801.000000	52.148973
802.000000	51.843137
803.000000	51.656417
804.000000	51.446192
805.000000	51.195961
806.000000	50.965874
807.000000	50.762096
808.000000	50.542259
809.000000	50.329890
810.000000	50.104753
811.000000	49.911149
812.000000	49.712441
813.000000	49.545160
814.000000	49.371869
815.000000	49.174753
816.000000	49.006486
817.000000	48.862784
818.000000	48.709785
819.000000	48.523501
820.000000	48.418562
821.000000	48.313093
822.000000	48.187874
823.000000	48.038056
824.000000	47.976198
825.000000	47.849597
826.000000	47.711955
827.000000	47.659437
828.000000	47.607244
829.000000	47.541167
830.000000	47.513744
831.000000	47.456550
832.000000	47.339639
833.000000	47.266586
834.000000	47.262592
835.000000	47.187564
836.000000	47.165950
837.000000	47.077265
838.000000	47.015891
839.000000	46.984528
840.000000	46.940232
841.000000	46.881522
842.000000	46.774141
843.000000	46.676507
844.000000	46.540065
845.000000	46.522615
846.000000	46.510702
847.000000	46.354604
848.000000	46.361296
849.000000	46.278930
850.000000	46.083506
851.000000	46.094593
852.000000	45.939319
853.000000	45.833098
854.000000	45.575720
855.000000	45.553601
856.000000	45.564102
857.000000	45.561920
858.000000	46.110000
859.000000	45.524080
860.000000	45.391840
861.000000	45.254800
862.000000	45.131720
863.000000	44.995980
864.000000	44.874900
865.000000	44.750780
866.000000	44.599980
867.000000	44.469340
868.000000	44.382580
869.000000	44.384160
870.000000	44.422600
871.000000	44.457640
872.000000	44.502040
873.000000	44.517460
874.000000	44.529700
875.000000	44.526140
876.000000	44.513160
877.000000	44.493380
878.000000	44.486100
879.000000	44.468160
880.000000	44.440700
881.000000	44.418080
882.000000	44.396780
883.000000	44.382460
884.000000	44.372660
885.000000	44.350560
886.000000	44.277260
887.000000	44.222800
888.000000	44.212580
889.000000	44.175180
890.000000	44.138400
891.000000	44.104140
892.000000	44.070000
893.000000	43.994080
894.000000	43.927700
895.000000	43.867700
896.000000	43.824060
897.000000	43.779740
898.000000	43.703160
899.000000	43.638920
900.000000	43.573840
901.000000	43.496440
902.000000	43.435440
903.000000	43.365800
904.000000	43.305520
905.000000	43.253080
906.000000	43.191180
907.000000	43.127340
908.000000	43.063960
909.000000	43.018240
910.000000	42.982400
911.000000	42.947040
912.000000	42.905160
913.000000	42.855600
914.000000	42.832040
915.000000	42.814940
916.000000	42.799760
917.000000	42.784340
918.000000	42.727800
919.000000	42.706360
920.000000	42.690740
921.000000	42.665180
922.000000	42.645060
923.000000	42.616140
924.000000	42.604040
925.000000	42.577160
926.000000	42.573520
927.000000	42.572420
928.000000	42.555020
929.000000	42.548420
930.000000	42.549040
931.000000	42.534460
932.000000	42.521520
933.000000	42.503080
934.000000	42.493660
935.000000	42.471780
936.000000	42.463120
937.000000	42.454100
938.000000	42.450500
939.000000	42.452140
940.000000	42.449600
941.000000	42.458980
942.000000	42.456060
943.000000	42.458920
944.000000	42.475500
945.000000	42.483340
946.000000	42.509620
947.000000	42.515720
948.000000	42.525740
949.000000	42.533380
950.000000	42.550720
951.000000	42.564080
952.000000	42.571980
953.000000	42.581940
954.000000	42.590800
955.000000	42.614340
956.000000	42.606740
957.000000	42.617120
958.000000	42.614680
959.000000	42.632420
960.000000	42.641380
961.000000	42.653220
962.000000	42.654740
963.000000	42.664340
964.000000	42.686660
965.000000	42.706140
966.000000	42.727360
967.000000	42.742380
968.000000	42.762620
969.000000	42.796720
970.000000	42.819840
971.000000	42.840260
972.000000	42.861940
973.000000	42.879900
974.000000	42.905800
975.000000	42.926400
976.000000	42.957780
977.000000	42.981660
978.000000	43.006520
979.000000	43.029900
980.000000	43.057340
981.000000	43.077700
982.000000	43.100380
983.000000	43.127220
984.000000	43.145940
985.000000	43.171180
986.000000	43.205160
987.000000	43.225880
988.000000	43.246680
989.000000	43.268640
990.000000	43.294700
991.000000	43.323020
992.000000	43.346140
993.000000	43.380400
994.000000	43.414680
995.000000	43.433060
996.000000	43.470960
997.000000	43.507240
998.000000	43.532080
999.000000	43.556880
1000.000000	43.590020
1001.000000	43.625440
1002.000000	43.661780
1003.000000	43.698400
1004.000000	43.721360
1005.000000	43.749760
1006.000000	43.777600
1007.000000	43.805800
1008.000000	43.832580
1009.000000	43.859940
1010.000000	43.894480
1011.000000	43.929340
1012.000000	43.963260
1013.000000	44.000940
1014.000000	44.042980
1015.000000	44.096640
1016.000000	44.154600
1017.000000	44.201000
1018.000000	44.259300
1019.000000	44.321920
1020.000000	44.391060
1021.000000	44.458520
1022.000000	44.524300
1023.000000	44.593320
1024.000000	44.649540
1025.000000	44.717840
1026.000000	44.791100
1027.000000	44.857580
1028.000000	44.929020
1029.000000	44.992000
1030.000000	45.057760
1031.000000	45.127620
1032.000000	45.190560
1033.000000	45.249220
1034.000000	45.313780
1035.000000	45.370060
1036.000000	45.419300
1037.000000	45.483020
1038.000000	45.548520
1039.000000	45.601000
1040.000000	45.653060
1041.000000	45.708920
1042.000000	45.756740
1043.000000	45.809220
1044.000000	45.867900
1045.000000	45.924540
1046.000000	45.982080
1047.000000	46.041040
1048.000000	46.099460
1049.000000	46.152640
1050.000000	46.217100
1051.000000	46.281520
1052.000000	46.332640
1053.000000	46.385560
1054.000000	46.451580
1055.000000	46.523880
1056.000000	46.588140
1057.000000	46.650020
1058.000000	46.718240
1059.000000	46.787800
1060.000000	46.854160
1061.000000	46.913940
1062.000000	46.977500
1063.000000	47.048780
1064.000000	47.108640
1065.000000	47.172920
1066.000000	47.235480
1067.000000	47.293740
1068.000000	47.355740
1069.000000	47.418140
1070.000000	47.473500
1071.000000	47.531540
1072.000000	47.592380
1073.000000	47.654320
1074.000000	47.709060
1075.000000	47.762920
1076.000000	47.823540
1077.000000	47.880180
1078.000000	47.934720
1079.000000	47.988800
1080.000000	48.044040
1081.000000	48.099360
1082.000000	48.158240
1083.000000	48.217300
1084.000000	48.274300
1085.000000	48.330640
1086.000000	48.398840
1087.000000	48.457700
1088.000000	48.515220
1089.000000	48.574820
1090.000000	48.634060
1091.000000	48.685260
1092.000000	48.739220
1093.000000	48.789960
1094.000000	48.846240
1095.000000	48.896140
1096.000000	48.946260
1097.000000	49.000240
1098.000000	49.049480
1099.000000	49.090100
1100.000000	49.144500
1101.000000	49.179800
1102.000000	49.209940
1103.000000	49.243380
1104.000000	49.277720
1105.000000	49.314080
1106.000000	49.344760
1107.000000	49.380400
1108.000000	49.410080
1109.000000	49.436980
1110.000000	49.458900
1111.000000	49.489140
1112.000000	49.519420
1113.000000	49.545700
1114.000000	49.569320
1115.000000	49.596640
1116.000000	49.627520
1117.000000	49.649780
1118.000000	49.662600
1119.000000	49.666660
1120.000000	49.662460
1121.000000	49.656120
1122.000000	49.649900
1123.000000	49.627420
1124.000000	49.602240
1125.000000	49.563560
1126.000000	49.529720
1127.000000	49.477880
1128.000000	49.422560
1129.000000	49.333340
1130.000000	49.215900
1131.000000	49.082440
1132.000000	48.927740
1133.000000	48.778320
1134.000000	48.619060
1135.000000	48.406560
1136.000000	48.161760
1137.000000	47.917960
1138.000000	47.677680
1139.000000	47.442420
1140.000000	47.210720
1141.000000	46.987900
1142.000000	46.761960
1143.000000	46.561700
1144.000000	46.360200
1145.000000	46.187840
1146.000000	46.044500
1147.000000	45.949040
1148.000000	45.905260
1149.000000	45.884260
1150.000000	45.903100
1151.000000	45.910440
1152.000000	45.931800
1153.000000	45.925600
1154.000000	45.880040
1155.000000	45.823160
1156.000000	45.704840
1157.000000	45.563620
1158.000000	45.367580
1159.000000	45.150760
1160.000000	44.919440
1161.000000	44.680720
1162.000000	44.415060
1163.000000	44.164420
1164.000000	43.888960
1165.000000	43.616000
1166.000000	43.331920
1167.000000	43.058520
