PE UV       SUBTECH     SPECTRUM    ASCII       PEDS        4.00        
   -1
CICIMAUCR0113-6.Sample.ASC
24/04/25
11:40:20.00
24/04/25
11:40:20.00
Vinicio Soto Monge
C. kalinini
250,000000
1
Lambda 1050
1050L1511233
PerkinElmer UV WinLab 6.3.2.0749 / 2.02.05 Lambda 900 UV/VIS/NIR, Aug  7 2015 09:38:08

0
0
3350/servo 860,8/2
0
0
UV/VIS
1
1
1
DoubleDePol,CommonBeamDepol,RBeamAtt,SBeamAtt,60mm sphere, WB InGaAs Detector
0
0
0
0
Program
Program
3350/servo 860,8/2
3350/0,2 860,8/0,2
3350/0,2 860,8/0,2
0
15.00
 
 
 
0
 
860,8
319,2
860,8
Front
100
on
S:100 R:100
0
0
0
0
 
0
 
 
 
0
 
 
0
0
0
0
0
 
 
 
 
0
0


0
0
#HDR
-1
-1
#GR
nm
%R
1.0
0.0
2500,000000
-1,000000
2251
8
101,774400
5,807200
#DATA
250.000000	5.112041
251.000000	5.097337
252.000000	5.097221
253.000000	5.070637
254.000000	5.054837
255.000000	5.038284
256.000000	5.026469
257.000000	5.022258
258.000000	5.025378
259.000000	4.992810
260.000000	4.975920
261.000000	4.959826
262.000000	4.942234
263.000000	4.911194
264.000000	4.884223
265.000000	4.899433
266.000000	4.844260
267.000000	4.826161
268.000000	4.797055
269.000000	4.812015
270.000000	4.794094
271.000000	4.780560
272.000000	4.753909
273.000000	4.757175
274.000000	4.725326
275.000000	4.743150
276.000000	4.718524
277.000000	4.706306
278.000000	4.697229
279.000000	4.684931
280.000000	4.671430
281.000000	4.663484
282.000000	4.664004
283.000000	4.638085
284.000000	4.672549
285.000000	4.646793
286.000000	4.667061
287.000000	4.645775
288.000000	4.643709
289.000000	4.633821
290.000000	4.636571
291.000000	4.633222
292.000000	4.643740
293.000000	4.614158
294.000000	4.606056
295.000000	4.626219
296.000000	4.636142
297.000000	4.613510
298.000000	4.591339
299.000000	4.592507
300.000000	4.588516
301.000000	4.608027
302.000000	4.566878
303.000000	4.554422
304.000000	4.589512
305.000000	4.564562
306.000000	4.597226
307.000000	4.580322
308.000000	4.566305
309.000000	4.548230
310.000000	4.562440
311.000000	4.555033
312.000000	4.585159
313.000000	4.560598
314.000000	4.562372
315.000000	4.539638
316.000000	4.580777
317.000000	4.823619
318.000000	4.983209
319.000000	4.843761
320.000000	4.707413
321.000000	4.624626
322.000000	4.799280
323.000000	4.800312
324.000000	4.776011
325.000000	4.670758
326.000000	4.766477
327.000000	4.688899
328.000000	4.738281
329.000000	4.744114
330.000000	4.676276
331.000000	4.692283
332.000000	4.574962
333.000000	4.706374
334.000000	4.724999
335.000000	4.630071
336.000000	4.702473
337.000000	4.698457
338.000000	4.648893
339.000000	4.651586
340.000000	4.666764
341.000000	4.698355
342.000000	4.725402
343.000000	4.737114
344.000000	4.741696
345.000000	4.714742
346.000000	4.731367
347.000000	4.682708
348.000000	4.744496
349.000000	4.704182
350.000000	4.781704
351.000000	4.824748
352.000000	4.804565
353.000000	4.752880
354.000000	4.821450
355.000000	4.863331
356.000000	4.859420
357.000000	4.840098
358.000000	4.913274
359.000000	4.911789
360.000000	4.873571
361.000000	4.912584
362.000000	4.847707
363.000000	4.922679
364.000000	4.978142
365.000000	4.936479
366.000000	4.966481
367.000000	4.996163
368.000000	4.973306
369.000000	5.057895
370.000000	5.065686
371.000000	5.005395
372.000000	5.039141
373.000000	5.054853
374.000000	5.036894
375.000000	5.120954
376.000000	5.270690
377.000000	5.257807
378.000000	5.291403
379.000000	5.312785
380.000000	5.343221
381.000000	5.382095
382.000000	5.409466
383.000000	5.437992
384.000000	5.473826
385.000000	5.515467
386.000000	5.557694
387.000000	5.605944
388.000000	5.653965
389.000000	5.708354
390.000000	5.766397
391.000000	5.823607
392.000000	5.896094
393.000000	5.967730
394.000000	6.037095
395.000000	6.112984
396.000000	6.203730
397.000000	6.297265
398.000000	6.394912
399.000000	6.503629
400.000000	6.619152
401.000000	6.752863
402.000000	6.889659
403.000000	7.039271
404.000000	7.193935
405.000000	7.362971
406.000000	7.548822
407.000000	7.739059
408.000000	7.941190
409.000000	8.152822
410.000000	8.384362
411.000000	8.635223
412.000000	8.893860
413.000000	9.165393
414.000000	9.456136
415.000000	9.763463
416.000000	10.073612
417.000000	10.385458
418.000000	10.709892
419.000000	11.052276
420.000000	11.410942
421.000000	11.782154
422.000000	12.146296
423.000000	12.511763
424.000000	12.900212
425.000000	13.292869
426.000000	13.678525
427.000000	14.061211
428.000000	14.448064
429.000000	14.833835
430.000000	15.223642
431.000000	15.620538
432.000000	16.003342
433.000000	16.377925
434.000000	16.753953
435.000000	17.124758
436.000000	17.478945
437.000000	17.832735
438.000000	18.176195
439.000000	18.497102
440.000000	18.828268
441.000000	19.151158
442.000000	19.457723
443.000000	19.753395
444.000000	20.027304
445.000000	20.285608
446.000000	20.540876
447.000000	20.789457
448.000000	21.023903
449.000000	21.245888
450.000000	21.465430
451.000000	21.669269
452.000000	21.870565
453.000000	22.065222
454.000000	22.233434
455.000000	22.402509
456.000000	22.572165
457.000000	22.718048
458.000000	22.848435
459.000000	22.992144
460.000000	23.125627
461.000000	23.237182
462.000000	23.357364
463.000000	23.470134
464.000000	23.570673
465.000000	23.658291
466.000000	23.739916
467.000000	23.822819
468.000000	23.901734
469.000000	23.971545
470.000000	24.030285
471.000000	24.082405
472.000000	24.134027
473.000000	24.178782
474.000000	24.212700
475.000000	24.244603
476.000000	24.257967
477.000000	24.264307
478.000000	24.266592
479.000000	24.255364
480.000000	24.261291
481.000000	24.275450
482.000000	24.277658
483.000000	24.252916
484.000000	24.192458
485.000000	24.132705
486.000000	24.070819
487.000000	24.000126
488.000000	23.936886
489.000000	23.873469
490.000000	23.815256
491.000000	23.786390
492.000000	23.755369
493.000000	23.758023
494.000000	23.787321
495.000000	23.842667
496.000000	23.921657
497.000000	24.061604
498.000000	24.239484
499.000000	24.469612
500.000000	24.741092
501.000000	25.078131
502.000000	25.460343
503.000000	25.884475
504.000000	26.360064
505.000000	26.869912
506.000000	27.411703
507.000000	27.985474
508.000000	28.589739
509.000000	29.213203
510.000000	29.859722
511.000000	30.523764
512.000000	31.188855
513.000000	31.854083
514.000000	32.517978
515.000000	33.184360
516.000000	33.836259
517.000000	34.492806
518.000000	35.130749
519.000000	35.765891
520.000000	36.406528
521.000000	37.024937
522.000000	37.646773
523.000000	38.254523
524.000000	38.858855
525.000000	39.444956
526.000000	40.033524
527.000000	40.621430
528.000000	41.198478
529.000000	41.778251
530.000000	42.342460
531.000000	42.916577
532.000000	43.493338
533.000000	44.063081
534.000000	44.634760
535.000000	45.195473
536.000000	45.770980
537.000000	46.341626
538.000000	46.906356
539.000000	47.475520
540.000000	48.046713
541.000000	48.600132
542.000000	49.159948
543.000000	49.718718
544.000000	50.284671
545.000000	50.838723
546.000000	51.356460
547.000000	51.881672
548.000000	52.391737
549.000000	52.877484
550.000000	53.374181
551.000000	53.853076
552.000000	54.308801
553.000000	54.762327
554.000000	55.193272
555.000000	55.608857
556.000000	56.032442
557.000000	56.413286
558.000000	56.777490
559.000000	57.133813
560.000000	57.499795
561.000000	57.842895
562.000000	58.140941
563.000000	58.430173
564.000000	58.717942
565.000000	58.980574
566.000000	59.238039
567.000000	59.451583
568.000000	59.655347
569.000000	59.840510
570.000000	60.024394
571.000000	60.191522
572.000000	60.345816
573.000000	60.467728
574.000000	60.624124
575.000000	60.734287
576.000000	60.851440
577.000000	60.941732
578.000000	61.014751
579.000000	61.098260
580.000000	61.213662
581.000000	61.267188
582.000000	61.313261
583.000000	61.385930
584.000000	61.423542
585.000000	61.461397
586.000000	61.481818
587.000000	61.504072
588.000000	61.496559
589.000000	61.474038
590.000000	61.453145
591.000000	61.416860
592.000000	61.349754
593.000000	61.289239
594.000000	61.202592
595.000000	61.097930
596.000000	61.003268
597.000000	60.831094
598.000000	60.681308
599.000000	60.524609
600.000000	60.355305
601.000000	60.151747
602.000000	59.934441
603.000000	59.713913
604.000000	59.458390
605.000000	59.219715
606.000000	58.976135
607.000000	58.713203
608.000000	58.465849
609.000000	58.227678
610.000000	57.931516
611.000000	57.657398
612.000000	57.388811
613.000000	57.116993
614.000000	56.809096
615.000000	56.529021
616.000000	56.226178
617.000000	55.924974
618.000000	55.624398
619.000000	55.325770
620.000000	55.045848
621.000000	54.738136
622.000000	54.421798
623.000000	54.112589
624.000000	53.827335
625.000000	53.528900
626.000000	53.235524
627.000000	52.971324
628.000000	52.690360
629.000000	52.442493
630.000000	52.233224
631.000000	52.007122
632.000000	51.826278
633.000000	51.664235
634.000000	51.524919
635.000000	51.419494
636.000000	51.331231
637.000000	51.234844
638.000000	51.172895
639.000000	51.157008
640.000000	51.112266
641.000000	51.107213
642.000000	51.124812
643.000000	51.142255
644.000000	51.178484
645.000000	51.242813
646.000000	51.287724
647.000000	51.352037
648.000000	51.432924
649.000000	51.535808
650.000000	51.628284
651.000000	51.807263
652.000000	51.958041
653.000000	52.154768
654.000000	52.368079
655.000000	52.619610
656.000000	52.893170
657.000000	53.177742
658.000000	53.492130
659.000000	53.825732
660.000000	54.177819
661.000000	54.561636
662.000000	54.943818
663.000000	55.331678
664.000000	55.710593
665.000000	56.094288
666.000000	56.450180
667.000000	56.817704
668.000000	57.214103
669.000000	57.573807
670.000000	57.907924
671.000000	58.272114
672.000000	58.632507
673.000000	58.994463
674.000000	59.294419
675.000000	59.595360
676.000000	59.919458
677.000000	60.242375
678.000000	60.543235
679.000000	60.838038
680.000000	61.116701
681.000000	61.366143
682.000000	61.640535
683.000000	61.895250
684.000000	62.116783
685.000000	62.356755
686.000000	62.555544
687.000000	62.750907
688.000000	62.921998
689.000000	63.070224
690.000000	63.210887
691.000000	63.360135
692.000000	63.514422
693.000000	63.653983
694.000000	63.783449
695.000000	63.938958
696.000000	64.092974
697.000000	64.254701
698.000000	64.410352
699.000000	64.635918
700.000000	64.848878
701.000000	65.093969
702.000000	65.365566
703.000000	65.633596
704.000000	65.918909
705.000000	66.231845
706.000000	66.553791
707.000000	66.895395
708.000000	67.216442
709.000000	67.547636
710.000000	67.935912
711.000000	68.286622
712.000000	68.622468
713.000000	68.968348
714.000000	69.337208
715.000000	69.720440
716.000000	70.078333
717.000000	70.427768
718.000000	70.812000
719.000000	71.184609
720.000000	71.573273
721.000000	71.946433
722.000000	72.299021
723.000000	72.674090
724.000000	73.052529
725.000000	73.431163
726.000000	73.757592
727.000000	74.099134
728.000000	74.445448
729.000000	74.737698
730.000000	75.054262
731.000000	75.333482
732.000000	75.617438
733.000000	75.904421
734.000000	76.166395
735.000000	76.415639
736.000000	76.656993
737.000000	76.895113
738.000000	77.077355
739.000000	77.267560
740.000000	77.500292
741.000000	77.694133
742.000000	77.902880
743.000000	78.100203
744.000000	78.258407
745.000000	78.373680
746.000000	78.495163
747.000000	78.650247
748.000000	78.765669
749.000000	78.867811
750.000000	78.986929
751.000000	79.116465
752.000000	79.223661
753.000000	79.310610
754.000000	79.393587
755.000000	79.449355
756.000000	79.477610
757.000000	79.537587
758.000000	79.623610
759.000000	79.688667
760.000000	79.734300
761.000000	79.727158
762.000000	79.716404
763.000000	79.736217
764.000000	79.773680
765.000000	79.791321
766.000000	79.786960
767.000000	79.772821
768.000000	79.790826
769.000000	79.835077
770.000000	79.797996
771.000000	79.757325
772.000000	79.696862
773.000000	79.729648
774.000000	79.788107
775.000000	79.744490
776.000000	79.703189
777.000000	79.648300
778.000000	79.628610
779.000000	79.548600
780.000000	79.518813
781.000000	79.534991
782.000000	79.479043
783.000000	79.379123
784.000000	79.347441
785.000000	79.249791
786.000000	79.196079
787.000000	79.132132
788.000000	79.007392
789.000000	78.924532
790.000000	78.857888
791.000000	78.737002
792.000000	78.577136
793.000000	78.464541
794.000000	78.319543
795.000000	78.168446
796.000000	78.036736
797.000000	77.867204
798.000000	77.700798
799.000000	77.565597
800.000000	77.375545
801.000000	77.245298
802.000000	77.027011
803.000000	76.743376
804.000000	76.523340
805.000000	76.366428
806.000000	76.135053
807.000000	75.949805
808.000000	75.731945
809.000000	75.370420
810.000000	75.069767
811.000000	74.860704
812.000000	74.618444
813.000000	74.318275
814.000000	74.056689
815.000000	73.714887
816.000000	73.534267
817.000000	73.281426
818.000000	72.976338
819.000000	72.641188
820.000000	72.330118
821.000000	72.038385
822.000000	71.781458
823.000000	71.465536
824.000000	71.108951
825.000000	70.754866
826.000000	70.432328
827.000000	70.137160
828.000000	69.777902
829.000000	69.404449
830.000000	69.153181
831.000000	68.795923
832.000000	68.484204
833.000000	68.066831
834.000000	67.729103
835.000000	67.399209
836.000000	67.134630
837.000000	66.777012
838.000000	66.412870
839.000000	66.076947
840.000000	65.845654
841.000000	65.592315
842.000000	65.158335
843.000000	64.935207
844.000000	64.496068
845.000000	64.073586
846.000000	63.896998
847.000000	63.475053
848.000000	62.993412
849.000000	62.958061
850.000000	62.747013
851.000000	62.251580
852.000000	62.021897
853.000000	61.861197
854.000000	61.194234
855.000000	61.075949
856.000000	60.771304
857.000000	60.633007
858.000000	62.561633
859.000000	60.318300
860.000000	60.095033
861.000000	59.862433
862.000000	59.648567
863.000000	59.409300
864.000000	59.159833
865.000000	58.926933
866.000000	58.719467
867.000000	58.683200
868.000000	58.843900
869.000000	59.061800
870.000000	59.197467
871.000000	59.419200
872.000000	59.574267
873.000000	59.710633
874.000000	59.775800
875.000000	59.897200
876.000000	59.946600
877.000000	60.044033
878.000000	60.063400
879.000000	60.144900
880.000000	60.164800
881.000000	60.233367
882.000000	60.218700
883.000000	60.273233
884.000000	60.251400
885.000000	60.219533
886.000000	60.162200
887.000000	60.134333
888.000000	60.072267
889.000000	60.044833
890.000000	59.994567
891.000000	59.881567
892.000000	59.761033
893.000000	59.655800
894.000000	59.567600
895.000000	59.469567
896.000000	59.312700
897.000000	59.145133
898.000000	58.980100
899.000000	58.809800
900.000000	58.666733
901.000000	58.488533
902.000000	58.341700
903.000000	58.165067
904.000000	57.983600
905.000000	57.806033
906.000000	57.621533
907.000000	57.445800
908.000000	57.264733
909.000000	57.095233
910.000000	56.931233
911.000000	56.753700
912.000000	56.599700
913.000000	56.445367
914.000000	56.271833
915.000000	56.119967
916.000000	55.943633
917.000000	55.803633
918.000000	55.606333
919.000000	55.439100
920.000000	55.287933
921.000000	55.127700
922.000000	54.959300
923.000000	54.729967
924.000000	54.547500
925.000000	54.388433
926.000000	54.222100
927.000000	54.067233
928.000000	53.880767
929.000000	53.697033
930.000000	53.548733
931.000000	53.387333
932.000000	53.195767
933.000000	53.039400
934.000000	52.858600
935.000000	52.691767
936.000000	52.510600
937.000000	52.348667
938.000000	52.209967
939.000000	52.073467
940.000000	51.957100
941.000000	51.812700
942.000000	51.697167
943.000000	51.595633
944.000000	51.483033
945.000000	51.351133
946.000000	51.251367
947.000000	51.162700
948.000000	51.051000
949.000000	50.961500
950.000000	50.884467
951.000000	50.793933
952.000000	50.708933
953.000000	50.635467
954.000000	50.549933
955.000000	50.476533
956.000000	50.398733
957.000000	50.319233
958.000000	50.244400
959.000000	50.168100
960.000000	50.089767
961.000000	50.031167
962.000000	49.947333
963.000000	49.876167
964.000000	49.821533
965.000000	49.773600
966.000000	49.726200
967.000000	49.662200
968.000000	49.623333
969.000000	49.594367
970.000000	49.541267
971.000000	49.504533
972.000000	49.465133
973.000000	49.441300
974.000000	49.402800
975.000000	49.374600
976.000000	49.341100
977.000000	49.309500
978.000000	49.286067
979.000000	49.264867
980.000000	49.235867
981.000000	49.210100
982.000000	49.187500
983.000000	49.156367
984.000000	49.142333
985.000000	49.125033
986.000000	49.103800
987.000000	49.075733
988.000000	49.067100
989.000000	49.048700
990.000000	49.034200
991.000000	49.035533
992.000000	49.025500
993.000000	49.019033
994.000000	49.014033
995.000000	49.017833
996.000000	49.015567
997.000000	49.006367
998.000000	49.007800
999.000000	49.020200
1000.000000	49.027700
1001.000000	49.024800
1002.000000	49.040600
1003.000000	49.057300
1004.000000	49.069867
1005.000000	49.082167
1006.000000	49.086667
1007.000000	49.088033
1008.000000	49.091600
1009.000000	49.097067
1010.000000	49.108667
1011.000000	49.127567
1012.000000	49.140600
1013.000000	49.170400
1014.000000	49.211533
1015.000000	49.250067
1016.000000	49.302100
1017.000000	49.364467
1018.000000	49.423600
1019.000000	49.488467
1020.000000	49.562200
1021.000000	49.633767
1022.000000	49.708233
1023.000000	49.781000
1024.000000	49.854667
1025.000000	49.929633
1026.000000	50.006767
1027.000000	50.084133
1028.000000	50.164100
1029.000000	50.235033
1030.000000	50.299500
1031.000000	50.378233
1032.000000	50.444400
1033.000000	50.509600
1034.000000	50.575367
1035.000000	50.630667
1036.000000	50.698100
1037.000000	50.768133
1038.000000	50.818733
1039.000000	50.870600
1040.000000	50.926733
1041.000000	50.975700
1042.000000	51.029667
1043.000000	51.086333
1044.000000	51.147900
1045.000000	51.209700
1046.000000	51.262500
1047.000000	51.320433
1048.000000	51.385633
1049.000000	51.452067
1050.000000	51.509833
1051.000000	51.572767
1052.000000	51.640833
1053.000000	51.716100
1054.000000	51.796600
1055.000000	51.880133
1056.000000	51.961633
1057.000000	52.046333
1058.000000	52.128233
1059.000000	52.214000
1060.000000	52.297733
1061.000000	52.382333
1062.000000	52.459767
1063.000000	52.532867
1064.000000	52.609500
1065.000000	52.681833
1066.000000	52.747967
1067.000000	52.826967
1068.000000	52.900667
1069.000000	52.968933
1070.000000	53.038267
1071.000000	53.107067
1072.000000	53.178267
1073.000000	53.241300
1074.000000	53.312667
1075.000000	53.379500
1076.000000	53.445833
1077.000000	53.515433
1078.000000	53.583133
1079.000000	53.640267
1080.000000	53.705733
1081.000000	53.777533
1082.000000	53.838833
1083.000000	53.908667
1084.000000	53.974667
1085.000000	54.050267
1086.000000	54.118233
1087.000000	54.184000
1088.000000	54.252700
1089.000000	54.323133
1090.000000	54.393533
1091.000000	54.460100
1092.000000	54.531967
1093.000000	54.597667
1094.000000	54.664033
1095.000000	54.721267
1096.000000	54.780233
1097.000000	54.837700
1098.000000	54.886367
1099.000000	54.941800
1100.000000	54.998367
1101.000000	55.054533
1102.000000	55.087500
1103.000000	55.126833
1104.000000	55.176333
1105.000000	55.218500
1106.000000	55.259467
1107.000000	55.286967
1108.000000	55.322700
1109.000000	55.360433
1110.000000	55.396200
1111.000000	55.434700
1112.000000	55.449733
1113.000000	55.474400
1114.000000	55.508067
1115.000000	55.534200
1116.000000	55.561833
1117.000000	55.581500
1118.000000	55.593967
1119.000000	55.592033
1120.000000	55.576900
1121.000000	55.566067
1122.000000	55.547100
1123.000000	55.492200
1124.000000	55.435833
1125.000000	55.371133
1126.000000	55.305133
1127.000000	55.205633
1128.000000	55.097033
1129.000000	54.969033
1130.000000	54.789000
1131.000000	54.571567
1132.000000	54.320700
1133.000000	54.051767
1134.000000	53.800867
1135.000000	53.474033
1136.000000	53.084033
1137.000000	52.712833
1138.000000	52.322267
1139.000000	51.949667
1140.000000	51.586767
1141.000000	51.237633
1142.000000	50.893867
1143.000000	50.563167
1144.000000	50.272233
1145.000000	49.984200
1146.000000	49.773967
1147.000000	49.641267
1148.000000	49.593600
1149.000000	49.587567
1150.000000	49.618967
1151.000000	49.654100
1152.000000	49.680167
1153.000000	49.675667
1154.000000	49.624367
1155.000000	49.527700
1156.000000	49.355200
1157.000000	49.130867
1158.000000	48.843333
1159.000000	48.517600
1160.000000	48.182000
1161.000000	47.806500
1162.000000	47.435633
1163.000000	47.052767
1164.000000	46.641833
1165.000000	46.258900
1166.000000	45.842100
1167.000000	45.443267
