PE UV       SUBTECH     SPECTRUM    ASCII       PEDS        4.00        
   -1
CICIMAUCR0013-5.Sample.ASC
24/04/23
11:02:20.00
24/04/23
11:02:20.00
Vinicio Soto Monge
C. resplendens
250,000000
1
Lambda 1050
1050L1511233
PerkinElmer UV WinLab 6.3.2.0749 / 2.02.05 Lambda 900 UV/VIS/NIR, Aug  7 2015 09:38:08

0
0
3350/servo 860,8/2
0
0
UV/VIS
1
1
1
DoubleDePol,CommonBeamDepol,RBeamAtt,SBeamAtt,60mm sphere, WB InGaAs Detector
0
0
0
0
Program
Program
3350/servo 860,8/2
3350/0,2 860,8/0,2
3350/0,2 860,8/0,2
0
15.00
 
 
 
0
 
860,8
319,2
860,8
Front
100
on
S:100 R:100
0
0
0
0
 
0
 
 
 
0
 
 
0
0
0
0
0
 
 
 
 
0
0


0
0
#HDR
-1
-1
#GR
nm
%R
1.0
0.0
2500,000000
-1,000000
2251
8
89,800900
5,734500
#DATA
250.000000	4.685613
251.000000	4.686702
252.000000	4.662811
253.000000	4.670457
254.000000	4.653284
255.000000	4.635563
256.000000	4.637749
257.000000	4.629364
258.000000	4.619658
259.000000	4.614465
260.000000	4.586116
261.000000	4.570770
262.000000	4.566090
263.000000	4.544321
264.000000	4.505141
265.000000	4.497521
266.000000	4.483483
267.000000	4.471220
268.000000	4.440928
269.000000	4.427746
270.000000	4.424921
271.000000	4.422274
272.000000	4.414455
273.000000	4.415056
274.000000	4.388441
275.000000	4.378580
276.000000	4.363748
277.000000	4.365496
278.000000	4.352904
279.000000	4.359229
280.000000	4.345709
281.000000	4.342757
282.000000	4.337125
283.000000	4.334557
284.000000	4.317409
285.000000	4.319901
286.000000	4.320243
287.000000	4.330842
288.000000	4.304411
289.000000	4.309126
290.000000	4.302522
291.000000	4.295599
292.000000	4.288030
293.000000	4.295275
294.000000	4.299793
295.000000	4.297546
296.000000	4.289621
297.000000	4.305625
298.000000	4.301508
299.000000	4.299957
300.000000	4.292755
301.000000	4.300391
302.000000	4.303832
303.000000	4.298242
304.000000	4.292470
305.000000	4.281427
306.000000	4.264380
307.000000	4.277739
308.000000	4.290796
309.000000	4.279784
310.000000	4.280648
311.000000	4.288826
312.000000	4.303274
313.000000	4.280614
314.000000	4.276793
315.000000	4.271663
316.000000	4.389436
317.000000	4.499973
318.000000	4.408893
319.000000	4.418890
320.000000	4.433901
321.000000	4.464452
322.000000	4.415318
323.000000	4.369599
324.000000	4.415757
325.000000	4.379300
326.000000	4.422432
327.000000	4.404744
328.000000	4.418113
329.000000	4.374662
330.000000	4.354432
331.000000	4.371073
332.000000	4.376150
333.000000	4.395379
334.000000	4.446513
335.000000	4.457743
336.000000	4.458512
337.000000	4.445312
338.000000	4.408764
339.000000	4.418705
340.000000	4.432026
341.000000	4.477045
342.000000	4.473092
343.000000	4.468487
344.000000	4.477053
345.000000	4.490955
346.000000	4.491482
347.000000	4.518136
348.000000	4.542104
349.000000	4.558510
350.000000	4.599665
351.000000	4.642788
352.000000	4.666529
353.000000	4.706541
354.000000	4.741915
355.000000	4.762320
356.000000	4.812630
357.000000	4.871330
358.000000	4.926781
359.000000	5.007552
360.000000	5.044666
361.000000	5.062848
362.000000	5.148505
363.000000	5.230278
364.000000	5.305432
365.000000	5.370600
366.000000	5.432831
367.000000	5.519580
368.000000	5.579461
369.000000	5.683979
370.000000	5.775049
371.000000	5.877468
372.000000	5.988137
373.000000	6.076104
374.000000	6.182093
375.000000	6.359314
376.000000	6.489741
377.000000	6.658870
378.000000	6.823920
379.000000	7.002382
380.000000	7.192247
381.000000	7.396043
382.000000	7.600690
383.000000	7.827905
384.000000	8.057993
385.000000	8.294005
386.000000	8.542910
387.000000	8.784029
388.000000	9.035318
389.000000	9.300648
390.000000	9.581431
391.000000	9.847658
392.000000	10.124676
393.000000	10.409497
394.000000	10.681438
395.000000	10.951839
396.000000	11.225083
397.000000	11.490692
398.000000	11.745977
399.000000	12.007853
400.000000	12.267043
401.000000	12.509894
402.000000	12.748130
403.000000	12.982248
404.000000	13.209106
405.000000	13.421648
406.000000	13.631118
407.000000	13.836398
408.000000	14.024711
409.000000	14.208658
410.000000	14.374130
411.000000	14.546426
412.000000	14.698302
413.000000	14.849824
414.000000	14.989264
415.000000	15.114449
416.000000	15.236098
417.000000	15.355478
418.000000	15.450317
419.000000	15.546541
420.000000	15.639817
421.000000	15.716413
422.000000	15.774759
423.000000	15.833565
424.000000	15.888929
425.000000	15.929377
426.000000	15.957690
427.000000	15.990241
428.000000	16.006196
429.000000	16.004577
430.000000	15.997213
431.000000	15.980230
432.000000	15.947060
433.000000	15.913476
434.000000	15.872197
435.000000	15.833518
436.000000	15.779532
437.000000	15.712235
438.000000	15.663035
439.000000	15.621108
440.000000	15.563984
441.000000	15.528980
442.000000	15.505290
443.000000	15.495874
444.000000	15.497429
445.000000	15.514642
446.000000	15.561541
447.000000	15.623728
448.000000	15.716525
449.000000	15.835276
450.000000	15.987277
451.000000	16.168486
452.000000	16.367785
453.000000	16.611127
454.000000	16.864285
455.000000	17.132912
456.000000	17.412995
457.000000	17.718523
458.000000	18.033433
459.000000	18.349332
460.000000	18.668615
461.000000	18.996343
462.000000	19.312695
463.000000	19.622316
464.000000	19.933488
465.000000	20.220058
466.000000	20.484483
467.000000	20.729316
468.000000	20.975424
469.000000	21.194615
470.000000	21.397144
471.000000	21.591091
472.000000	21.756357
473.000000	21.917549
474.000000	22.066133
475.000000	22.187686
476.000000	22.306830
477.000000	22.421893
478.000000	22.536115
479.000000	22.637666
480.000000	22.758365
481.000000	22.890109
482.000000	23.026116
483.000000	23.187622
484.000000	23.359448
485.000000	23.552596
486.000000	23.772528
487.000000	24.011265
488.000000	24.276903
489.000000	24.573115
490.000000	24.889379
491.000000	25.237293
492.000000	25.611408
493.000000	26.003225
494.000000	26.423470
495.000000	26.864303
496.000000	27.329865
497.000000	27.810277
498.000000	28.292639
499.000000	28.800852
500.000000	29.323321
501.000000	29.863474
502.000000	30.432706
503.000000	31.018998
504.000000	31.611490
505.000000	32.220137
506.000000	32.852553
507.000000	33.484887
508.000000	34.147315
509.000000	34.850428
510.000000	35.547203
511.000000	36.289313
512.000000	37.032356
513.000000	37.800811
514.000000	38.587186
515.000000	39.399460
516.000000	40.214536
517.000000	41.032863
518.000000	41.873023
519.000000	42.726913
520.000000	43.575514
521.000000	44.432727
522.000000	45.290513
523.000000	46.144875
524.000000	46.966842
525.000000	47.794907
526.000000	48.602268
527.000000	49.369505
528.000000	50.108814
529.000000	50.826424
530.000000	51.517004
531.000000	52.185209
532.000000	52.816630
533.000000	53.416059
534.000000	53.976691
535.000000	54.506731
536.000000	55.024158
537.000000	55.511036
538.000000	55.954228
539.000000	56.383782
540.000000	56.796348
541.000000	57.185588
542.000000	57.565324
543.000000	57.923972
544.000000	58.251934
545.000000	58.562128
546.000000	58.827336
547.000000	59.082522
548.000000	59.330534
549.000000	59.553457
550.000000	59.765381
551.000000	59.945881
552.000000	60.135911
553.000000	60.300999
554.000000	60.418432
555.000000	60.562584
556.000000	60.704979
557.000000	60.816461
558.000000	60.940133
559.000000	61.001502
560.000000	60.961138
561.000000	61.055198
562.000000	61.120913
563.000000	61.177783
564.000000	61.250070
565.000000	61.287575
566.000000	61.319385
567.000000	61.330647
568.000000	61.347795
569.000000	61.326896
570.000000	61.295250
571.000000	61.246190
572.000000	61.181067
573.000000	61.106207
574.000000	61.015204
575.000000	60.920943
576.000000	60.814679
577.000000	60.710167
578.000000	60.594884
579.000000	60.467221
580.000000	60.343066
581.000000	60.218200
582.000000	60.076899
583.000000	59.924722
584.000000	59.749124
585.000000	59.588419
586.000000	59.415759
587.000000	59.225637
588.000000	59.028307
589.000000	58.818106
590.000000	58.609131
591.000000	58.368850
592.000000	58.109251
593.000000	57.882788
594.000000	57.634902
595.000000	57.361725
596.000000	57.141762
597.000000	56.885552
598.000000	56.615933
599.000000	56.359445
600.000000	56.082701
601.000000	55.812821
602.000000	55.526950
603.000000	55.228922
604.000000	54.918493
605.000000	54.601658
606.000000	54.256424
607.000000	53.893561
608.000000	53.518884
609.000000	53.115656
610.000000	52.708473
611.000000	52.270708
612.000000	51.828361
613.000000	51.386446
614.000000	50.933328
615.000000	50.462712
616.000000	49.983811
617.000000	49.516262
618.000000	49.033234
619.000000	48.567919
620.000000	48.062264
621.000000	47.565675
622.000000	47.060063
623.000000	46.548620
624.000000	46.028562
625.000000	45.507515
626.000000	44.982227
627.000000	44.495387
628.000000	44.012883
629.000000	43.542925
630.000000	43.090018
631.000000	42.681455
632.000000	42.302515
633.000000	41.977937
634.000000	41.702462
635.000000	41.492438
636.000000	41.323650
637.000000	41.216237
638.000000	41.181238
639.000000	41.211630
640.000000	41.285742
641.000000	41.399315
642.000000	41.584586
643.000000	41.814109
644.000000	42.084397
645.000000	42.403442
646.000000	42.753402
647.000000	43.105568
648.000000	43.487563
649.000000	43.902881
650.000000	44.329682
651.000000	44.777200
652.000000	45.234691
653.000000	45.697275
654.000000	46.143623
655.000000	46.584966
656.000000	47.030655
657.000000	47.452460
658.000000	47.854146
659.000000	48.259413
660.000000	48.654239
661.000000	49.052075
662.000000	49.410678
663.000000	49.744159
664.000000	50.081197
665.000000	50.397092
666.000000	50.688315
667.000000	50.965079
668.000000	51.216879
669.000000	51.463023
670.000000	51.722286
671.000000	51.942678
672.000000	52.156630
673.000000	52.392533
674.000000	52.604374
675.000000	52.774767
676.000000	52.975257
677.000000	53.145952
678.000000	53.288645
679.000000	53.442716
680.000000	53.567733
681.000000	53.652419
682.000000	53.730603
683.000000	53.771038
684.000000	53.816877
685.000000	53.829020
686.000000	53.821695
687.000000	53.791323
688.000000	53.717445
689.000000	53.655503
690.000000	53.592884
691.000000	53.485707
692.000000	53.406948
693.000000	53.323001
694.000000	53.234707
695.000000	53.128849
696.000000	53.010056
697.000000	52.898524
698.000000	52.809539
699.000000	52.702593
700.000000	52.580354
701.000000	52.460751
702.000000	52.368664
703.000000	52.282909
704.000000	52.192457
705.000000	52.131046
706.000000	52.092064
707.000000	52.069927
708.000000	52.050708
709.000000	52.063688
710.000000	52.099741
711.000000	52.190945
712.000000	52.308767
713.000000	52.439191
714.000000	52.550992
715.000000	52.746969
716.000000	52.961862
717.000000	53.173039
718.000000	53.398475
719.000000	53.643214
720.000000	53.908664
721.000000	54.158489
722.000000	54.464890
723.000000	54.765649
724.000000	55.087815
725.000000	55.397786
726.000000	55.740687
727.000000	56.075839
728.000000	56.422105
729.000000	56.763080
730.000000	57.102236
731.000000	57.433735
732.000000	57.814814
733.000000	58.173149
734.000000	58.487071
735.000000	58.832114
736.000000	59.153102
737.000000	59.432200
738.000000	59.744000
739.000000	60.021300
740.000000	60.264663
741.000000	60.543356
742.000000	60.782712
743.000000	61.029550
744.000000	61.263009
745.000000	61.468889
746.000000	61.661005
747.000000	61.848218
748.000000	62.015989
749.000000	62.175256
750.000000	62.304507
751.000000	62.461270
752.000000	62.606468
753.000000	62.726186
754.000000	62.864137
755.000000	62.961141
756.000000	63.043970
757.000000	63.164291
758.000000	63.267344
759.000000	63.369294
760.000000	63.494006
761.000000	63.580838
762.000000	63.692914
763.000000	63.777322
764.000000	63.888548
765.000000	63.958720
766.000000	64.050215
767.000000	64.182974
768.000000	64.286423
769.000000	64.360214
770.000000	64.464110
771.000000	64.532238
772.000000	64.600079
773.000000	64.642405
774.000000	64.669449
775.000000	64.721311
776.000000	64.666774
777.000000	64.684892
778.000000	64.644582
779.000000	64.605893
780.000000	64.604393
781.000000	64.504333
782.000000	64.480959
783.000000	64.423887
784.000000	64.364052
785.000000	64.349535
786.000000	64.287895
787.000000	64.206195
788.000000	64.184456
789.000000	64.149090
790.000000	64.236123
791.000000	64.213058
792.000000	64.132954
793.000000	64.151569
794.000000	64.156128
795.000000	64.174504
796.000000	64.187077
797.000000	64.172431
798.000000	64.245455
799.000000	64.304700
800.000000	64.394028
801.000000	64.421540
802.000000	64.455222
803.000000	64.575979
804.000000	64.526461
805.000000	64.604622
806.000000	64.651498
807.000000	64.686824
808.000000	64.741962
809.000000	64.749927
810.000000	64.735278
811.000000	64.723105
812.000000	64.721834
813.000000	64.611243
814.000000	64.526871
815.000000	64.401676
816.000000	64.227190
817.000000	64.118686
818.000000	64.037016
819.000000	63.828951
820.000000	63.713404
821.000000	63.540233
822.000000	63.380356
823.000000	63.191901
824.000000	63.047582
825.000000	62.892312
826.000000	62.688208
827.000000	62.572445
828.000000	62.378910
829.000000	62.195209
830.000000	62.076093
831.000000	61.845636
832.000000	61.673054
833.000000	61.515701
834.000000	61.360577
835.000000	61.166864
836.000000	61.077444
837.000000	60.947661
838.000000	60.625211
839.000000	60.362365
840.000000	60.166253
841.000000	60.052277
842.000000	59.863670
843.000000	59.627562
844.000000	59.469717
845.000000	59.253550
846.000000	59.102201
847.000000	58.844257
848.000000	58.560177
849.000000	58.330291
850.000000	58.031670
851.000000	57.893549
852.000000	57.609409
853.000000	57.481657
854.000000	57.230459
855.000000	57.089881
856.000000	56.895673
857.000000	56.774060
858.000000	55.922880
859.000000	56.988040
860.000000	56.986460
861.000000	57.217240
862.000000	57.221980
863.000000	56.984460
864.000000	57.028460
865.000000	57.142340
866.000000	57.137480
867.000000	57.289160
868.000000	57.167340
869.000000	57.205000
870.000000	57.040440
871.000000	57.006060
872.000000	57.060200
873.000000	56.823240
874.000000	56.899300
875.000000	56.739980
876.000000	56.481800
877.000000	56.633600
878.000000	56.753660
879.000000	56.617280
880.000000	56.558400
881.000000	56.396040
882.000000	56.184040
883.000000	56.112440
884.000000	56.184860
885.000000	56.010420
886.000000	55.887220
887.000000	55.764300
888.000000	55.855600
889.000000	55.690860
890.000000	55.606200
891.000000	55.545860
892.000000	55.407120
893.000000	55.283140
894.000000	55.211880
895.000000	55.140640
896.000000	55.034300
897.000000	54.858880
898.000000	54.873040
899.000000	54.762380
900.000000	54.640600
901.000000	54.498740
902.000000	54.398380
903.000000	54.316800
904.000000	54.173000
905.000000	53.999300
906.000000	53.843300
907.000000	53.764340
908.000000	53.715580
909.000000	53.652740
910.000000	53.512360
911.000000	53.412520
912.000000	53.423640
913.000000	53.304400
914.000000	53.225980
915.000000	53.245180
916.000000	53.168340
917.000000	53.127040
918.000000	53.123620
919.000000	52.962100
920.000000	52.851360
921.000000	52.860380
922.000000	52.832920
923.000000	52.785340
924.000000	52.728580
925.000000	52.654480
926.000000	52.611660
927.000000	52.580140
928.000000	52.538500
929.000000	52.467120
930.000000	52.434460
931.000000	52.411960
932.000000	52.384980
933.000000	52.353180
934.000000	52.297300
935.000000	52.234780
936.000000	52.192300
937.000000	52.155520
938.000000	52.129160
939.000000	52.069720
940.000000	51.977020
941.000000	51.926500
942.000000	51.885500
943.000000	51.800420
944.000000	51.752460
945.000000	51.702020
946.000000	51.667840
947.000000	51.596740
948.000000	51.541720
949.000000	51.509800
950.000000	51.457300
951.000000	51.404400
952.000000	51.319320
953.000000	51.277740
954.000000	51.225760
955.000000	51.168860
956.000000	51.135100
957.000000	51.072480
958.000000	51.027400
959.000000	50.982640
960.000000	50.913200
961.000000	50.876120
962.000000	50.827120
963.000000	50.800280
964.000000	50.754320
965.000000	50.712900
966.000000	50.691600
967.000000	50.669120
968.000000	50.647080
969.000000	50.628440
970.000000	50.599440
971.000000	50.585900
972.000000	50.558380
973.000000	50.545100
974.000000	50.493940
975.000000	50.449980
976.000000	50.411820
977.000000	50.383020
978.000000	50.330080
979.000000	50.294900
980.000000	50.259360
981.000000	50.224920
982.000000	50.202000
983.000000	50.165500
984.000000	50.090440
985.000000	50.022540
986.000000	50.000240
987.000000	49.978380
988.000000	49.933000
989.000000	49.885180
990.000000	49.842260
991.000000	49.816000
992.000000	49.786080
993.000000	49.755500
994.000000	49.755680
995.000000	49.744560
996.000000	49.696460
997.000000	49.678440
998.000000	49.657400
999.000000	49.639280
1000.000000	49.622940
1001.000000	49.590100
1002.000000	49.577800
1003.000000	49.602300
1004.000000	49.580260
1005.000000	49.599540
1006.000000	49.583820
1007.000000	49.561560
1008.000000	49.549920
1009.000000	49.555440
1010.000000	49.539460
1011.000000	49.527780
1012.000000	49.536500
1013.000000	49.557440
1014.000000	49.573420
1015.000000	49.579100
1016.000000	49.606100
1017.000000	49.641740
1018.000000	49.674200
1019.000000	49.697260
1020.000000	49.731020
1021.000000	49.777100
1022.000000	49.824700
1023.000000	49.869740
1024.000000	49.908160
1025.000000	49.974860
1026.000000	50.005080
1027.000000	50.053660
1028.000000	50.109620
1029.000000	50.172780
1030.000000	50.197080
1031.000000	50.219780
1032.000000	50.272740
1033.000000	50.305040
1034.000000	50.368800
1035.000000	50.415640
1036.000000	50.479180
1037.000000	50.506040
1038.000000	50.563480
1039.000000	50.607180
1040.000000	50.649980
1041.000000	50.689940
1042.000000	50.728000
1043.000000	50.777720
1044.000000	50.834920
1045.000000	50.858980
1046.000000	50.900020
1047.000000	50.939440
1048.000000	50.987340
1049.000000	51.018480
1050.000000	51.070840
1051.000000	51.134120
1052.000000	51.192320
1053.000000	51.231560
1054.000000	51.290840
1055.000000	51.326260
1056.000000	51.382120
1057.000000	51.441460
1058.000000	51.514200
1059.000000	51.575920
1060.000000	51.623560
1061.000000	51.676840
1062.000000	51.735720
1063.000000	51.777480
1064.000000	51.827680
1065.000000	51.891000
1066.000000	51.947280
1067.000000	51.992220
1068.000000	52.042760
1069.000000	52.106860
1070.000000	52.142100
1071.000000	52.195620
1072.000000	52.260480
1073.000000	52.298980
1074.000000	52.343740
1075.000000	52.394840
1076.000000	52.447080
1077.000000	52.488560
1078.000000	52.533820
1079.000000	52.595640
1080.000000	52.646200
1081.000000	52.685900
1082.000000	52.755820
1083.000000	52.804340
1084.000000	52.874440
1085.000000	52.923060
1086.000000	52.976940
1087.000000	53.027020
1088.000000	53.082840
1089.000000	53.137400
1090.000000	53.173300
1091.000000	53.222380
1092.000000	53.275140
1093.000000	53.339380
1094.000000	53.370140
1095.000000	53.416960
1096.000000	53.452220
1097.000000	53.481860
1098.000000	53.536400
1099.000000	53.567400
1100.000000	53.610240
1101.000000	53.638420
1102.000000	53.678700
1103.000000	53.692100
1104.000000	53.711080
1105.000000	53.748020
1106.000000	53.780800
1107.000000	53.804220
1108.000000	53.833060
1109.000000	53.847200
1110.000000	53.867120
1111.000000	53.880840
1112.000000	53.902920
1113.000000	53.925060
1114.000000	53.955340
1115.000000	53.987220
1116.000000	54.008560
1117.000000	54.030720
1118.000000	54.036340
1119.000000	54.052300
1120.000000	54.037300
1121.000000	54.026100
1122.000000	54.019360
1123.000000	54.003200
1124.000000	53.962380
1125.000000	53.905940
1126.000000	53.875580
1127.000000	53.807740
1128.000000	53.724900
1129.000000	53.638040
1130.000000	53.518060
1131.000000	53.340000
1132.000000	53.146920
1133.000000	52.939660
1134.000000	52.758900
1135.000000	52.560480
1136.000000	52.272280
1137.000000	51.974420
1138.000000	51.671060
1139.000000	51.400640
1140.000000	51.134620
1141.000000	50.892940
1142.000000	50.624360
1143.000000	50.378740
1144.000000	50.154020
1145.000000	49.953660
1146.000000	49.810720
1147.000000	49.720660
1148.000000	49.688140
1149.000000	49.711060
1150.000000	49.730320
1151.000000	49.741400
1152.000000	49.766140
1153.000000	49.764500
1154.000000	49.715340
1155.000000	49.616180
1156.000000	49.479900
1157.000000	49.287340
1158.000000	49.070140
1159.000000	48.811360
1160.000000	48.544940
1161.000000	48.266940
1162.000000	47.985060
1163.000000	47.688100
1164.000000	47.390520
1165.000000	47.096620
1166.000000	46.784360
