PE UV       SUBTECH     SPECTRUM    ASCII       PEDS        4.00        
   -1
CICIMAUCR0019-5.Sample.ASC
24/04/25
14:12:17.00
24/04/25
14:12:17.00
Vinicio Soto Monge
C. cupreomarginata
250,000000
1
Lambda 1050
1050L1511233
PerkinElmer UV WinLab 6.3.2.0749 / 2.02.05 Lambda 900 UV/VIS/NIR, Aug  7 2015 09:38:08

0
0
3350/servo 860,8/2
0
0
UV/VIS
1
1
1
DoubleDePol,CommonBeamDepol,RBeamAtt,SBeamAtt,60mm sphere, WB InGaAs Detector
0
0
0
0
Program
Program
3350/servo 860,8/2
3350/0,2 860,8/0,2
3350/0,2 860,8/0,2
0
15.00
 
 
 
0
 
860,8
319,2
860,8
Front
100
on
S:100 R:100
0
0
0
0
 
0
 
 
 
0
 
 
0
0
0
0
0
 
 
 
 
0
0


0
0
#HDR
-1
-1
#GR
nm
%R
1.0
0.0
2500,000000
-1,000000
2251
8
69,269700
4,960200
#DATA
250.000000	3.821014
251.000000	3.821208
252.000000	3.811372
253.000000	3.790305
254.000000	3.783469
255.000000	3.789794
256.000000	3.764758
257.000000	3.740850
258.000000	3.748046
259.000000	3.728971
260.000000	3.736122
261.000000	3.710246
262.000000	3.689650
263.000000	3.677952
264.000000	3.656198
265.000000	3.633905
266.000000	3.643492
267.000000	3.628314
268.000000	3.606561
269.000000	3.588727
270.000000	3.582755
271.000000	3.573284
272.000000	3.566009
273.000000	3.564747
274.000000	3.560379
275.000000	3.551364
276.000000	3.553553
277.000000	3.525481
278.000000	3.516819
279.000000	3.531036
280.000000	3.519594
281.000000	3.535725
282.000000	3.515210
283.000000	3.497863
284.000000	3.484622
285.000000	3.494922
286.000000	3.478523
287.000000	3.538540
288.000000	3.497963
289.000000	3.467091
290.000000	3.475730
291.000000	3.488705
292.000000	3.478757
293.000000	3.463613
294.000000	3.437672
295.000000	3.453774
296.000000	3.435652
297.000000	3.450113
298.000000	3.441868
299.000000	3.425839
300.000000	3.442984
301.000000	3.453772
302.000000	3.439037
303.000000	3.438598
304.000000	3.415082
305.000000	3.442335
306.000000	3.447749
307.000000	3.400941
308.000000	3.408027
309.000000	3.434282
310.000000	3.416610
311.000000	3.417922
312.000000	3.424428
313.000000	3.408313
314.000000	3.430027
315.000000	3.416272
316.000000	3.471146
317.000000	3.879605
318.000000	3.702366
319.000000	3.739287
320.000000	3.753156
321.000000	3.591018
322.000000	3.609026
323.000000	3.597411
324.000000	3.683133
325.000000	3.590827
326.000000	3.582750
327.000000	3.620816
328.000000	3.546967
329.000000	3.554988
330.000000	3.497225
331.000000	3.497202
332.000000	3.510104
333.000000	3.560745
334.000000	3.463768
335.000000	3.497496
336.000000	3.473278
337.000000	3.505773
338.000000	3.468137
339.000000	3.449835
340.000000	3.480563
341.000000	3.536773
342.000000	3.510552
343.000000	3.474946
344.000000	3.535461
345.000000	3.532477
346.000000	3.494368
347.000000	3.459297
348.000000	3.517339
349.000000	3.552569
350.000000	3.534672
351.000000	3.578206
352.000000	3.585515
353.000000	3.544878
354.000000	3.503533
355.000000	3.541286
356.000000	3.555256
357.000000	3.606684
358.000000	3.612454
359.000000	3.599069
360.000000	3.634162
361.000000	3.659845
362.000000	3.644325
363.000000	3.695420
364.000000	3.735804
365.000000	3.751599
366.000000	3.766379
367.000000	3.731327
368.000000	3.744464
369.000000	3.775897
370.000000	3.840063
371.000000	3.868177
372.000000	3.883224
373.000000	3.851616
374.000000	3.846348
375.000000	4.001235
376.000000	4.186908
377.000000	4.156848
378.000000	4.212317
379.000000	4.277306
380.000000	4.352513
381.000000	4.421340
382.000000	4.498567
383.000000	4.575738
384.000000	4.659068
385.000000	4.746611
386.000000	4.839643
387.000000	4.937118
388.000000	5.032882
389.000000	5.132070
390.000000	5.238545
391.000000	5.339943
392.000000	5.453266
393.000000	5.562473
394.000000	5.671593
395.000000	5.783443
396.000000	5.897443
397.000000	6.005182
398.000000	6.115673
399.000000	6.226551
400.000000	6.332537
401.000000	6.442112
402.000000	6.547207
403.000000	6.648915
404.000000	6.744104
405.000000	6.840049
406.000000	6.935730
407.000000	7.027461
408.000000	7.110944
409.000000	7.190758
410.000000	7.272756
411.000000	7.351434
412.000000	7.428673
413.000000	7.501386
414.000000	7.565495
415.000000	7.632138
416.000000	7.700326
417.000000	7.762615
418.000000	7.818017
419.000000	7.873071
420.000000	7.920933
421.000000	7.969248
422.000000	8.018378
423.000000	8.065405
424.000000	8.110756
425.000000	8.158420
426.000000	8.198027
427.000000	8.236698
428.000000	8.278662
429.000000	8.315013
430.000000	8.348886
431.000000	8.387593
432.000000	8.428118
433.000000	8.462479
434.000000	8.496847
435.000000	8.532876
436.000000	8.569141
437.000000	8.605953
438.000000	8.642456
439.000000	8.676777
440.000000	8.713317
441.000000	8.754236
442.000000	8.796611
443.000000	8.841859
444.000000	8.891111
445.000000	8.937653
446.000000	8.983277
447.000000	9.035175
448.000000	9.098801
449.000000	9.162637
450.000000	9.227680
451.000000	9.298180
452.000000	9.373660
453.000000	9.460069
454.000000	9.549784
455.000000	9.641809
456.000000	9.746932
457.000000	9.861469
458.000000	9.978141
459.000000	10.100881
460.000000	10.232408
461.000000	10.373777
462.000000	10.522866
463.000000	10.677875
464.000000	10.840275
465.000000	11.008092
466.000000	11.178354
467.000000	11.351059
468.000000	11.523904
469.000000	11.702726
470.000000	11.886693
471.000000	12.074989
472.000000	12.264131
473.000000	12.452154
474.000000	12.642164
475.000000	12.835838
476.000000	13.027333
477.000000	13.226993
478.000000	13.421195
479.000000	13.613949
480.000000	13.837302
481.000000	14.075425
482.000000	14.316093
483.000000	14.551504
484.000000	14.786615
485.000000	15.020194
486.000000	15.255155
487.000000	15.492646
488.000000	15.727272
489.000000	15.975954
490.000000	16.222642
491.000000	16.483013
492.000000	16.747231
493.000000	17.016886
494.000000	17.290655
495.000000	17.578489
496.000000	17.865108
497.000000	18.157779
498.000000	18.461763
499.000000	18.766602
500.000000	19.089077
501.000000	19.427514
502.000000	19.763978
503.000000	20.126421
504.000000	20.502954
505.000000	20.884929
506.000000	21.269281
507.000000	21.660678
508.000000	22.073588
509.000000	22.500429
510.000000	22.927626
511.000000	23.370709
512.000000	23.830391
513.000000	24.297114
514.000000	24.779172
515.000000	25.256888
516.000000	25.746987
517.000000	26.243816
518.000000	26.747585
519.000000	27.264475
520.000000	27.800593
521.000000	28.345641
522.000000	28.904488
523.000000	29.449606
524.000000	29.999959
525.000000	30.563299
526.000000	31.127340
527.000000	31.674937
528.000000	32.227226
529.000000	32.786349
530.000000	33.334034
531.000000	33.875887
532.000000	34.409572
533.000000	34.924417
534.000000	35.434498
535.000000	35.930135
536.000000	36.399411
537.000000	36.860521
538.000000	37.291009
539.000000	37.699679
540.000000	38.072929
541.000000	38.409561
542.000000	38.727700
543.000000	39.003176
544.000000	39.253039
545.000000	39.483023
546.000000	39.676208
547.000000	39.842640
548.000000	40.007457
549.000000	40.155246
550.000000	40.281674
551.000000	40.409496
552.000000	40.536461
553.000000	40.650113
554.000000	40.750868
555.000000	40.843260
556.000000	40.919287
557.000000	40.981936
558.000000	41.027824
559.000000	41.070622
560.000000	40.970532
561.000000	40.979462
562.000000	40.991228
563.000000	40.987205
564.000000	40.937724
565.000000	40.904973
566.000000	40.853951
567.000000	40.801641
568.000000	40.730054
569.000000	40.634360
570.000000	40.560590
571.000000	40.447509
572.000000	40.368849
573.000000	40.282855
574.000000	40.185632
575.000000	40.101070
576.000000	40.004554
577.000000	39.913345
578.000000	39.818410
579.000000	39.722686
580.000000	39.596100
581.000000	39.489647
582.000000	39.359571
583.000000	39.213631
584.000000	39.066003
585.000000	38.919743
586.000000	38.747808
587.000000	38.574382
588.000000	38.416668
589.000000	38.217290
590.000000	38.022805
591.000000	37.824659
592.000000	37.598584
593.000000	37.381384
594.000000	37.165974
595.000000	36.920967
596.000000	36.683729
597.000000	36.444520
598.000000	36.201056
599.000000	35.939293
600.000000	35.683656
601.000000	35.415307
602.000000	35.134753
603.000000	34.834000
604.000000	34.539469
605.000000	34.224721
606.000000	33.898042
607.000000	33.597700
608.000000	33.280448
609.000000	32.961541
610.000000	32.641512
611.000000	32.332967
612.000000	32.036816
613.000000	31.746718
614.000000	31.468051
615.000000	31.187872
616.000000	30.931654
617.000000	30.685895
618.000000	30.450033
619.000000	30.239340
620.000000	30.042171
621.000000	29.843671
622.000000	29.658396
623.000000	29.484520
624.000000	29.333931
625.000000	29.172516
626.000000	29.030041
627.000000	28.926532
628.000000	28.852759
629.000000	28.792373
630.000000	28.752044
631.000000	28.737222
632.000000	28.761759
633.000000	28.801423
634.000000	28.873589
635.000000	28.957485
636.000000	29.085857
637.000000	29.218505
638.000000	29.367313
639.000000	29.512748
640.000000	29.661684
641.000000	29.818841
642.000000	29.974971
643.000000	30.128597
644.000000	30.279400
645.000000	30.423768
646.000000	30.559749
647.000000	30.681908
648.000000	30.822487
649.000000	30.946114
650.000000	31.073249
651.000000	31.199338
652.000000	31.325050
653.000000	31.448895
654.000000	31.571078
655.000000	31.674839
656.000000	31.775971
657.000000	31.848759
658.000000	31.934731
659.000000	32.019958
660.000000	32.098692
661.000000	32.165765
662.000000	32.220676
663.000000	32.290700
664.000000	32.334717
665.000000	32.375956
666.000000	32.421781
667.000000	32.485951
668.000000	32.535268
669.000000	32.567837
670.000000	32.611893
671.000000	32.661972
672.000000	32.711163
673.000000	32.774850
674.000000	32.837344
675.000000	32.896847
676.000000	32.973064
677.000000	33.054605
678.000000	33.134124
679.000000	33.211165
680.000000	33.291058
681.000000	33.369773
682.000000	33.457706
683.000000	33.535972
684.000000	33.614464
685.000000	33.692552
686.000000	33.779930
687.000000	33.851728
688.000000	33.919815
689.000000	34.001871
690.000000	34.076226
691.000000	34.177335
692.000000	34.279329
693.000000	34.362079
694.000000	34.470018
695.000000	34.555267
696.000000	34.642267
697.000000	34.734041
698.000000	34.832711
699.000000	34.911421
700.000000	34.987630
701.000000	35.072686
702.000000	35.142363
703.000000	35.227284
704.000000	35.306865
705.000000	35.377497
706.000000	35.445367
707.000000	35.501207
708.000000	35.556788
709.000000	35.623286
710.000000	35.693874
711.000000	35.760993
712.000000	35.826816
713.000000	35.878585
714.000000	35.917052
715.000000	35.967875
716.000000	35.998040
717.000000	36.035220
718.000000	36.096246
719.000000	36.124903
720.000000	36.159319
721.000000	36.199593
722.000000	36.233913
723.000000	36.276231
724.000000	36.312156
725.000000	36.338660
726.000000	36.366250
727.000000	36.412796
728.000000	36.426591
729.000000	36.448717
730.000000	36.488024
731.000000	36.515762
732.000000	36.546786
733.000000	36.587725
734.000000	36.626047
735.000000	36.660774
736.000000	36.714544
737.000000	36.752333
738.000000	36.780626
739.000000	36.815190
740.000000	36.848893
741.000000	36.897586
742.000000	36.946667
743.000000	36.982760
744.000000	37.040112
745.000000	37.112492
746.000000	37.154597
747.000000	37.192574
748.000000	37.232439
749.000000	37.284737
750.000000	37.366683
751.000000	37.440624
752.000000	37.484234
753.000000	37.521419
754.000000	37.574468
755.000000	37.622913
756.000000	37.666464
757.000000	37.698808
758.000000	37.745792
759.000000	37.796001
760.000000	37.831210
761.000000	37.841141
762.000000	37.899273
763.000000	37.952201
764.000000	37.972087
765.000000	37.998024
766.000000	38.043695
767.000000	38.085028
768.000000	38.101090
769.000000	38.145162
770.000000	38.198023
771.000000	38.259904
772.000000	38.298234
773.000000	38.310172
774.000000	38.366074
775.000000	38.415112
776.000000	38.456737
777.000000	38.519637
778.000000	38.566218
779.000000	38.593958
780.000000	38.646304
781.000000	38.685239
782.000000	38.740730
783.000000	38.820730
784.000000	38.872831
785.000000	38.923621
786.000000	38.969980
787.000000	39.031202
788.000000	39.131184
789.000000	39.181890
790.000000	39.239486
791.000000	39.318610
792.000000	39.350796
793.000000	39.412289
794.000000	39.455146
795.000000	39.528628
796.000000	39.597395
797.000000	39.630509
798.000000	39.678502
799.000000	39.726706
800.000000	39.785315
801.000000	39.833664
802.000000	39.874082
803.000000	39.946992
804.000000	39.969615
805.000000	40.048891
806.000000	40.126926
807.000000	40.149772
808.000000	40.196247
809.000000	40.243865
810.000000	40.292428
811.000000	40.313980
812.000000	40.397813
813.000000	40.468795
814.000000	40.530492
815.000000	40.558893
816.000000	40.645042
817.000000	40.696018
818.000000	40.718907
819.000000	40.743552
820.000000	40.796073
821.000000	40.888755
822.000000	40.932613
823.000000	40.991258
824.000000	41.111735
825.000000	41.058495
826.000000	41.115334
827.000000	41.204817
828.000000	41.249987
829.000000	41.313305
830.000000	41.295195
831.000000	41.323205
832.000000	41.421332
833.000000	41.433815
834.000000	41.468627
835.000000	41.433851
836.000000	41.481425
837.000000	41.578498
838.000000	41.543763
839.000000	41.614655
840.000000	41.678565
841.000000	41.677443
842.000000	41.704855
843.000000	41.682338
844.000000	41.706180
845.000000	41.670637
846.000000	41.666235
847.000000	41.743851
848.000000	41.617781
849.000000	41.675142
850.000000	41.633288
851.000000	41.525919
852.000000	41.579494
853.000000	41.666336
854.000000	41.706077
855.000000	41.551071
856.000000	41.499407
857.000000	41.542616
858.000000	42.323280
859.000000	41.302660
860.000000	41.362380
861.000000	41.428000
862.000000	41.479100
863.000000	41.521380
864.000000	41.549040
865.000000	41.582200
866.000000	41.617380
867.000000	41.730420
868.000000	41.917240
869.000000	42.144700
870.000000	42.312200
871.000000	42.517120
872.000000	42.691420
873.000000	42.872120
874.000000	42.996560
875.000000	43.141040
876.000000	43.269240
877.000000	43.399220
878.000000	43.499340
879.000000	43.619560
880.000000	43.701660
881.000000	43.806400
882.000000	43.897860
883.000000	43.962260
884.000000	44.046740
885.000000	44.091460
886.000000	44.176780
887.000000	44.226200
888.000000	44.240900
889.000000	44.284160
890.000000	44.328880
891.000000	44.327300
892.000000	44.337640
893.000000	44.367440
894.000000	44.387540
895.000000	44.380320
896.000000	44.368100
897.000000	44.347560
898.000000	44.322660
899.000000	44.297140
900.000000	44.288720
901.000000	44.271280
902.000000	44.238240
903.000000	44.222920
904.000000	44.194460
905.000000	44.160060
906.000000	44.136060
907.000000	44.124100
908.000000	44.114560
909.000000	44.105180
910.000000	44.108700
911.000000	44.107840
912.000000	44.111580
913.000000	44.126140
914.000000	44.130420
915.000000	44.146100
916.000000	44.149500
917.000000	44.141940
918.000000	44.146700
919.000000	44.170160
920.000000	44.189740
921.000000	44.151700
922.000000	44.154980
923.000000	44.149460
924.000000	44.150560
925.000000	44.161160
926.000000	44.163600
927.000000	44.159260
928.000000	44.172600
929.000000	44.168580
930.000000	44.172280
931.000000	44.184200
932.000000	44.167100
933.000000	44.167760
934.000000	44.139340
935.000000	44.126160
936.000000	44.113040
937.000000	44.099600
938.000000	44.103740
939.000000	44.131400
940.000000	44.148820
941.000000	44.141440
942.000000	44.144780
943.000000	44.154200
944.000000	44.155860
945.000000	44.166320
946.000000	44.171120
947.000000	44.172440
948.000000	44.187660
949.000000	44.198540
950.000000	44.203860
951.000000	44.194040
952.000000	44.216260
953.000000	44.209700
954.000000	44.213020
955.000000	44.212420
956.000000	44.191080
957.000000	44.194320
958.000000	44.194800
959.000000	44.168440
960.000000	44.157220
961.000000	44.150260
962.000000	44.132780
963.000000	44.137540
964.000000	44.120200
965.000000	44.118620
966.000000	44.107300
967.000000	44.106280
968.000000	44.113280
969.000000	44.114380
970.000000	44.104820
971.000000	44.111340
972.000000	44.114760
973.000000	44.111380
974.000000	44.104300
975.000000	44.098960
976.000000	44.098840
977.000000	44.087720
978.000000	44.073220
979.000000	44.068820
980.000000	44.062080
981.000000	44.059720
982.000000	44.059960
983.000000	44.065500
984.000000	44.055620
985.000000	44.041620
986.000000	44.037840
987.000000	44.043080
988.000000	44.034200
989.000000	44.019300
990.000000	44.019380
991.000000	44.019840
992.000000	44.025520
993.000000	44.034660
994.000000	44.039520
995.000000	44.047820
996.000000	44.056780
997.000000	44.063420
998.000000	44.068840
999.000000	44.080820
1000.000000	44.085360
1001.000000	44.088260
1002.000000	44.096900
1003.000000	44.115100
1004.000000	44.134720
1005.000000	44.134160
1006.000000	44.133500
1007.000000	44.135020
1008.000000	44.143420
1009.000000	44.152120
1010.000000	44.164020
1011.000000	44.184240
1012.000000	44.211360
1013.000000	44.238620
1014.000000	44.266320
1015.000000	44.292180
1016.000000	44.329080
1017.000000	44.369120
1018.000000	44.418100
1019.000000	44.475180
1020.000000	44.527480
1021.000000	44.571900
1022.000000	44.623960
1023.000000	44.677900
1024.000000	44.738240
1025.000000	44.803220
1026.000000	44.850500
1027.000000	44.903520
1028.000000	44.964160
1029.000000	45.012240
1030.000000	45.060820
1031.000000	45.116920
1032.000000	45.171180
1033.000000	45.213680
1034.000000	45.255360
1035.000000	45.304140
1036.000000	45.349360
1037.000000	45.389260
1038.000000	45.426600
1039.000000	45.463460
1040.000000	45.495120
1041.000000	45.532360
1042.000000	45.571920
1043.000000	45.608100
1044.000000	45.643800
1045.000000	45.676520
1046.000000	45.714480
1047.000000	45.753020
1048.000000	45.793600
1049.000000	45.832820
1050.000000	45.871400
1051.000000	45.912740
1052.000000	45.949320
1053.000000	45.986420
1054.000000	46.033700
1055.000000	46.078660
1056.000000	46.120300
1057.000000	46.167380
1058.000000	46.224100
1059.000000	46.271980
1060.000000	46.314200
1061.000000	46.351080
1062.000000	46.403840
1063.000000	46.463980
1064.000000	46.515340
1065.000000	46.560360
1066.000000	46.601340
1067.000000	46.639140
1068.000000	46.684600
1069.000000	46.723560
1070.000000	46.764260
1071.000000	46.801480
1072.000000	46.842380
1073.000000	46.883340
1074.000000	46.925240
1075.000000	46.967420
1076.000000	47.004700
1077.000000	47.043820
1078.000000	47.090180
1079.000000	47.135260
1080.000000	47.169420
1081.000000	47.209020
1082.000000	47.253140
1083.000000	47.296820
1084.000000	47.338920
1085.000000	47.380000
1086.000000	47.422460
1087.000000	47.473920
1088.000000	47.512080
1089.000000	47.545760
1090.000000	47.594500
1091.000000	47.636800
1092.000000	47.669800
1093.000000	47.711300
1094.000000	47.739960
1095.000000	47.772740
1096.000000	47.813100
1097.000000	47.842820
1098.000000	47.880960
1099.000000	47.896460
1100.000000	47.918620
1101.000000	47.947060
1102.000000	47.977340
1103.000000	47.995060
1104.000000	48.007940
1105.000000	48.025560
1106.000000	48.043660
1107.000000	48.061720
1108.000000	48.079640
1109.000000	48.094460
1110.000000	48.108800
1111.000000	48.120720
1112.000000	48.137260
1113.000000	48.151200
1114.000000	48.163740
1115.000000	48.180840
1116.000000	48.190400
1117.000000	48.212660
1118.000000	48.215040
1119.000000	48.201680
1120.000000	48.201940
1121.000000	48.187620
1122.000000	48.162400
1123.000000	48.121980
1124.000000	48.076920
1125.000000	48.016640
1126.000000	47.962180
1127.000000	47.897860
1128.000000	47.830480
1129.000000	47.711740
1130.000000	47.570520
1131.000000	47.398660
1132.000000	47.250000
1133.000000	47.077700
1134.000000	46.880240
1135.000000	46.613120
1136.000000	46.326600
1137.000000	46.058980
1138.000000	45.791880
1139.000000	45.518300
1140.000000	45.267540
1141.000000	45.009080
1142.000000	44.767420
1143.000000	44.531320
1144.000000	44.314740
1145.000000	44.128400
1146.000000	43.964420
1147.000000	43.860640
1148.000000	43.825680
1149.000000	43.830660
1150.000000	43.841980
1151.000000	43.852640
1152.000000	43.841220
1153.000000	43.810500
1154.000000	43.757260
1155.000000	43.664020
1156.000000	43.505240
1157.000000	43.326540
1158.000000	43.102500
1159.000000	42.854480
1160.000000	42.582320
1161.000000	42.323880
1162.000000	42.043800
1163.000000	41.755500
1164.000000	41.458560
1165.000000	41.168560
1166.000000	40.876520
1167.000000	40.585660
1168.000000	40.308760
1169.000000	40.020380
