PE UV       SUBTECH     SPECTRUM    ASCII       PEDS        4.00        
   -1
CICIMAUCR0020-7.Sample.ASC
24/04/25
16:24:51.00
24/04/25
16:24:51.00
Vinicio Soto Monge
C. resplendens
250,000000
1
Lambda 1050
1050L1511233
PerkinElmer UV WinLab 6.3.2.0749 / 2.02.05 Lambda 900 UV/VIS/NIR, Aug  7 2015 09:38:08

0
0
3350/servo 860,8/2
0
0
UV/VIS
1
1
1
DoubleDePol,CommonBeamDepol,RBeamAtt,SBeamAtt,60mm sphere, WB InGaAs Detector
0
0
0
0
Program
Program
3350/servo 860,8/2
3350/0,2 860,8/0,2
3350/0,2 860,8/0,2
0
15.00
 
 
 
0
 
860,8
319,2
860,8
Front
100
on
S:100 R:100
0
0
0
0
 
0
 
 
 
0
 
 
0
0
0
0
0
 
 
 
 
0
0


0
0
#HDR
-1
-1
#GR
nm
%R
1.0
0.0
2500,000000
-1,000000
2251
8
81,082400
5,554700
#DATA
250.000000	5.691060
251.000000	5.661860
252.000000	5.673480
253.000000	5.679480
254.000000	5.647980
255.000000	5.611720
256.000000	5.588360
257.000000	5.593600
258.000000	5.597700
259.000000	5.602440
260.000000	5.557140
261.000000	5.522140
262.000000	5.509440
263.000000	5.491820
264.000000	5.472980
265.000000	5.428360
266.000000	5.433280
267.000000	5.411900
268.000000	5.419720
269.000000	5.375500
270.000000	5.371000
271.000000	5.368900
272.000000	5.370160
273.000000	5.342180
274.000000	5.342420
275.000000	5.346200
276.000000	5.312260
277.000000	5.343500
278.000000	5.308520
279.000000	5.329080
280.000000	5.327780
281.000000	5.323680
282.000000	5.322660
283.000000	5.303600
284.000000	5.318500
285.000000	5.336280
286.000000	5.313400
287.000000	5.327760
288.000000	5.326860
289.000000	5.295860
290.000000	5.325820
291.000000	5.317400
292.000000	5.280860
293.000000	5.314520
294.000000	5.313880
295.000000	5.291900
296.000000	5.319200
297.000000	5.272840
298.000000	5.274440
299.000000	5.292500
300.000000	5.305380
301.000000	5.313880
302.000000	5.283280
303.000000	5.282100
304.000000	5.319520
305.000000	5.269080
306.000000	5.275720
307.000000	5.298600
308.000000	5.281000
309.000000	5.284700
310.000000	5.265220
311.000000	5.279940
312.000000	5.266700
313.000000	5.274120
314.000000	5.228260
315.000000	5.287100
316.000000	5.331140
317.000000	6.007920
318.000000	5.779840
319.000000	5.759540
320.000000	5.778020
321.000000	5.860760
322.000000	5.727300
323.000000	5.721940
324.000000	5.699780
325.000000	5.510380
326.000000	5.531380
327.000000	5.512060
328.000000	5.559460
329.000000	5.357420
330.000000	5.474540
331.000000	5.526280
332.000000	5.431140
333.000000	5.516960
334.000000	5.484780
335.000000	5.533120
336.000000	5.532000
337.000000	5.506280
338.000000	5.477960
339.000000	5.520420
340.000000	5.530860
341.000000	5.538320
342.000000	5.579600
343.000000	5.500720
344.000000	5.542880
345.000000	5.643460
346.000000	5.596940
347.000000	5.575840
348.000000	5.627240
349.000000	5.579640
350.000000	5.698640
351.000000	5.735520
352.000000	5.702380
353.000000	5.813300
354.000000	5.813140
355.000000	5.805000
356.000000	5.830820
357.000000	5.893660
358.000000	5.905260
359.000000	5.926800
360.000000	5.978240
361.000000	6.003100
362.000000	5.998380
363.000000	6.029480
364.000000	6.055480
365.000000	6.100960
366.000000	6.075900
367.000000	6.149080
368.000000	6.187100
369.000000	6.218200
370.000000	6.187780
371.000000	6.209280
372.000000	6.242900
373.000000	6.290460
374.000000	6.309000
375.000000	6.372860
376.000000	6.685600
377.000000	6.722300
378.000000	6.791840
379.000000	6.864200
380.000000	6.934340
381.000000	7.016420
382.000000	7.116720
383.000000	7.218300
384.000000	7.309620
385.000000	7.419440
386.000000	7.536640
387.000000	7.654600
388.000000	7.774500
389.000000	7.908340
390.000000	8.051360
391.000000	8.194080
392.000000	8.352640
393.000000	8.517500
394.000000	8.701380
395.000000	8.879720
396.000000	9.059940
397.000000	9.268520
398.000000	9.476680
399.000000	9.687560
400.000000	9.915260
401.000000	10.153700
402.000000	10.404940
403.000000	10.660600
404.000000	10.925520
405.000000	11.216860
406.000000	11.507140
407.000000	11.803300
408.000000	12.101700
409.000000	12.410580
410.000000	12.738160
411.000000	13.068860
412.000000	13.403860
413.000000	13.735760
414.000000	14.082900
415.000000	14.438760
416.000000	14.790860
417.000000	15.136520
418.000000	15.485780
419.000000	15.837660
420.000000	16.183260
421.000000	16.523280
422.000000	16.869380
423.000000	17.204420
424.000000	17.525460
425.000000	17.849660
426.000000	18.175240
427.000000	18.484340
428.000000	18.777760
429.000000	19.072800
430.000000	19.353440
431.000000	19.624680
432.000000	19.894340
433.000000	20.146740
434.000000	20.391120
435.000000	20.625800
436.000000	20.846380
437.000000	21.048480
438.000000	21.245180
439.000000	21.444800
440.000000	21.628840
441.000000	21.793320
442.000000	21.959300
443.000000	22.113960
444.000000	22.245860
445.000000	22.351500
446.000000	22.441720
447.000000	22.522240
448.000000	22.588600
449.000000	22.654460
450.000000	22.710460
451.000000	22.747060
452.000000	22.768700
453.000000	22.772580
454.000000	22.765440
455.000000	22.762160
456.000000	22.751900
457.000000	22.719720
458.000000	22.677160
459.000000	22.634420
460.000000	22.584400
461.000000	22.522080
462.000000	22.445660
463.000000	22.366980
464.000000	22.288820
465.000000	22.207320
466.000000	22.124240
467.000000	22.038480
468.000000	21.965400
469.000000	21.899500
470.000000	21.832120
471.000000	21.777760
472.000000	21.744640
473.000000	21.725720
474.000000	21.727220
475.000000	21.747640
476.000000	21.787360
477.000000	21.861740
478.000000	21.966320
479.000000	22.097980
480.000000	22.273680
481.000000	22.496620
482.000000	22.757000
483.000000	23.043180
484.000000	23.373220
485.000000	23.729380
486.000000	24.127220
487.000000	24.572020
488.000000	25.052980
489.000000	25.572240
490.000000	26.123040
491.000000	26.709420
492.000000	27.336080
493.000000	27.976560
494.000000	28.641580
495.000000	29.321340
496.000000	30.004880
497.000000	30.683300
498.000000	31.373680
499.000000	32.079200
500.000000	32.792440
501.000000	33.498880
502.000000	34.206960
503.000000	34.910920
504.000000	35.607120
505.000000	36.305360
506.000000	36.985580
507.000000	37.652340
508.000000	38.318220
509.000000	39.000500
510.000000	39.674800
511.000000	40.348760
512.000000	41.021860
513.000000	41.692700
514.000000	42.370560
515.000000	43.040000
516.000000	43.704540
517.000000	44.364900
518.000000	45.030060
519.000000	45.697920
520.000000	46.357860
521.000000	47.028480
522.000000	47.696220
523.000000	48.379920
524.000000	49.091700
525.000000	49.774160
526.000000	50.469420
527.000000	51.180420
528.000000	51.897820
529.000000	52.640240
530.000000	53.397760
531.000000	54.178200
532.000000	54.965300
533.000000	55.771480
534.000000	56.593140
535.000000	57.412820
536.000000	58.244820
537.000000	59.074320
538.000000	59.895980
539.000000	60.733420
540.000000	61.577900
541.000000	62.375180
542.000000	63.153600
543.000000	63.932700
544.000000	64.694760
545.000000	65.420320
546.000000	66.141820
547.000000	66.796340
548.000000	67.414800
549.000000	68.002440
550.000000	68.558720
551.000000	69.100980
552.000000	69.587000
553.000000	70.047460
554.000000	70.478580
555.000000	70.873080
556.000000	71.236340
557.000000	71.577200
558.000000	71.871500
559.000000	72.176040
560.000000	72.406300
561.000000	72.657700
562.000000	72.914500
563.000000	73.141180
564.000000	73.340740
565.000000	73.508900
566.000000	73.665960
567.000000	73.823260
568.000000	73.973380
569.000000	74.084060
570.000000	74.215440
571.000000	74.294920
572.000000	74.389880
573.000000	74.477980
574.000000	74.597120
575.000000	74.692160
576.000000	74.768140
577.000000	74.837620
578.000000	74.869120
579.000000	74.913040
580.000000	74.971600
581.000000	75.010800
582.000000	75.051300
583.000000	75.074640
584.000000	75.065500
585.000000	75.087800
586.000000	75.071000
587.000000	75.050260
588.000000	74.987760
589.000000	74.929380
590.000000	74.843080
591.000000	74.745620
592.000000	74.575320
593.000000	74.432320
594.000000	74.237820
595.000000	74.020480
596.000000	73.838060
597.000000	73.595980
598.000000	73.314880
599.000000	73.002680
600.000000	72.666240
601.000000	72.325760
602.000000	71.964300
603.000000	71.582980
604.000000	71.181240
605.000000	70.788840
606.000000	70.342160
607.000000	69.919000
608.000000	69.472580
609.000000	69.014520
610.000000	68.565320
611.000000	68.103080
612.000000	67.610120
613.000000	67.132780
614.000000	66.658920
615.000000	66.205660
616.000000	65.735540
617.000000	65.272640
618.000000	64.813160
619.000000	64.316640
620.000000	63.805040
621.000000	63.306960
622.000000	62.786940
623.000000	62.267960
624.000000	61.733720
625.000000	61.199080
626.000000	60.630860
627.000000	60.067260
628.000000	59.470120
629.000000	58.880420
630.000000	58.258280
631.000000	57.633840
632.000000	57.011420
633.000000	56.367640
634.000000	55.757920
635.000000	55.180340
636.000000	54.614540
637.000000	54.086180
638.000000	53.614920
639.000000	53.132800
640.000000	52.730940
641.000000	52.350640
642.000000	52.040760
643.000000	51.759420
644.000000	51.562380
645.000000	51.417980
646.000000	51.291540
647.000000	51.295880
648.000000	51.312920
649.000000	51.374020
650.000000	51.499380
651.000000	51.700380
652.000000	51.917360
653.000000	52.208620
654.000000	52.524700
655.000000	52.866280
656.000000	53.242460
657.000000	53.661740
658.000000	54.105800
659.000000	54.581620
660.000000	55.092860
661.000000	55.612940
662.000000	56.132000
663.000000	56.710880
664.000000	57.311700
665.000000	57.883740
666.000000	58.475040
667.000000	59.088020
668.000000	59.674900
669.000000	60.291820
670.000000	60.878480
671.000000	61.490680
672.000000	62.075500
673.000000	62.654800
674.000000	63.216000
675.000000	63.719540
676.000000	64.268600
677.000000	64.725600
678.000000	65.237740
679.000000	65.698360
680.000000	66.120060
681.000000	66.524400
682.000000	66.910960
683.000000	67.290740
684.000000	67.641320
685.000000	67.980920
686.000000	68.288240
687.000000	68.565640
688.000000	68.814240
689.000000	69.082500
690.000000	69.313580
691.000000	69.535840
692.000000	69.785100
693.000000	69.987920
694.000000	70.166780
695.000000	70.318360
696.000000	70.470380
697.000000	70.601680
698.000000	70.750460
699.000000	70.867440
700.000000	70.963740
701.000000	71.065680
702.000000	71.127280
703.000000	71.203600
704.000000	71.264780
705.000000	71.293140
706.000000	71.325740
707.000000	71.349740
708.000000	71.371160
709.000000	71.367740
710.000000	71.380820
711.000000	71.363360
712.000000	71.357200
713.000000	71.335960
714.000000	71.325000
715.000000	71.288260
716.000000	71.265940
717.000000	71.250720
718.000000	71.238420
719.000000	71.229860
720.000000	71.220100
721.000000	71.193500
722.000000	71.211340
723.000000	71.234860
724.000000	71.246180
725.000000	71.264720
726.000000	71.251300
727.000000	71.297920
728.000000	71.349460
729.000000	71.377520
730.000000	71.447680
731.000000	71.504460
732.000000	71.557980
733.000000	71.650820
734.000000	71.728960
735.000000	71.837220
736.000000	71.963660
737.000000	72.067100
738.000000	72.207100
739.000000	72.346980
740.000000	72.481780
741.000000	72.645180
742.000000	72.796120
743.000000	72.958060
744.000000	73.114920
745.000000	73.277620
746.000000	73.455780
747.000000	73.637560
748.000000	73.805900
749.000000	73.962620
750.000000	74.120520
751.000000	74.279540
752.000000	74.468340
753.000000	74.664620
754.000000	74.835040
755.000000	74.987600
756.000000	75.117660
757.000000	75.282300
758.000000	75.453280
759.000000	75.591700
760.000000	75.742580
761.000000	75.848580
762.000000	76.008880
763.000000	76.148760
764.000000	76.229160
765.000000	76.367500
766.000000	76.464660
767.000000	76.506320
768.000000	76.596480
769.000000	76.730300
770.000000	76.841140
771.000000	76.900440
772.000000	76.941020
773.000000	76.991720
774.000000	77.027860
775.000000	77.091240
776.000000	77.135060
777.000000	77.144080
778.000000	77.138700
779.000000	77.153920
780.000000	77.186060
781.000000	77.198640
782.000000	77.176480
783.000000	77.199280
784.000000	77.234880
785.000000	77.184380
786.000000	77.182440
787.000000	77.126060
788.000000	77.096960
789.000000	77.084600
790.000000	77.041120
791.000000	76.992600
792.000000	76.885860
793.000000	76.840800
794.000000	76.773580
795.000000	76.717720
796.000000	76.632280
797.000000	76.541160
798.000000	76.451320
799.000000	76.374280
800.000000	76.225500
801.000000	76.163800
802.000000	76.010600
803.000000	75.874240
804.000000	75.814940
805.000000	75.700480
806.000000	75.591320
807.000000	75.429200
808.000000	75.328320
809.000000	75.263540
810.000000	75.019080
811.000000	74.923240
812.000000	74.759120
813.000000	74.658700
814.000000	74.488120
815.000000	74.337420
816.000000	74.199720
817.000000	73.988780
818.000000	73.958040
819.000000	73.839780
820.000000	73.710880
821.000000	73.542780
822.000000	73.444400
823.000000	73.293940
824.000000	73.076360
825.000000	73.008000
826.000000	72.909620
827.000000	72.788920
828.000000	72.634860
829.000000	72.541320
830.000000	72.353520
831.000000	72.285920
832.000000	72.253620
833.000000	72.151140
834.000000	72.007280
835.000000	71.920280
836.000000	71.713520
837.000000	71.575380
838.000000	71.521660
839.000000	71.496760
840.000000	71.391680
841.000000	71.270580
842.000000	71.244200
843.000000	71.162800
844.000000	70.829820
845.000000	70.778680
846.000000	70.745060
847.000000	70.717900
848.000000	70.547940
849.000000	70.463580
850.000000	70.461920
851.000000	70.243860
852.000000	69.969840
853.000000	69.863920
854.000000	69.705120
855.000000	69.595820
856.000000	69.319580
857.000000	69.352400
858.000000	69.422600
859.000000	67.592503
860.000000	67.378034
861.000000	67.175390
862.000000	66.941456
863.000000	66.714722
864.000000	66.471481
865.000000	66.257456
866.000000	66.157939
867.000000	66.212762
868.000000	66.348974
869.000000	66.578875
870.000000	66.797459
871.000000	67.009716
872.000000	67.182898
873.000000	67.271642
874.000000	67.373053
875.000000	67.462575
876.000000	67.529288
877.000000	67.595296
878.000000	67.654624
879.000000	67.706687
880.000000	67.775126
881.000000	67.785034
882.000000	67.822763
883.000000	67.881765
884.000000	67.921009
885.000000	67.964327
886.000000	67.975952
887.000000	67.969183
888.000000	67.975980
889.000000	68.004423
890.000000	68.043900
891.000000	68.064661
892.000000	68.085008
893.000000	68.114427
894.000000	68.122708
895.000000	68.129596
896.000000	68.144403
897.000000	68.133682
898.000000	68.160927
899.000000	68.153952
900.000000	68.161970
901.000000	68.195870
902.000000	68.196985
903.000000	68.181833
904.000000	68.179712
905.000000	68.165435
906.000000	68.162150
907.000000	68.165135
908.000000	68.180668
909.000000	68.188223
910.000000	68.210945
911.000000	68.201330
912.000000	68.173517
913.000000	68.183230
914.000000	68.191220
915.000000	68.184909
916.000000	68.185372
917.000000	68.199443
918.000000	68.165189
919.000000	68.110882
920.000000	68.082596
921.000000	68.040136
922.000000	68.004166
923.000000	67.965238
924.000000	67.918543
925.000000	67.863924
926.000000	67.795799
927.000000	67.723795
928.000000	67.666113
929.000000	67.586478
930.000000	67.509568
931.000000	67.432468
932.000000	67.353188
933.000000	67.277022
934.000000	67.164485
935.000000	67.067350
936.000000	66.955357
937.000000	66.854578
938.000000	66.775333
939.000000	66.666546
940.000000	66.594223
941.000000	66.509463
942.000000	66.435898
943.000000	66.359208
944.000000	66.248479
945.000000	66.150472
946.000000	66.052072
947.000000	65.962909
948.000000	65.875146
949.000000	65.784991
950.000000	65.704393
951.000000	65.612685
952.000000	65.514654
953.000000	65.427802
954.000000	65.355488
955.000000	65.273381
956.000000	65.187344
957.000000	65.109202
958.000000	65.025144
959.000000	64.943536
960.000000	64.874086
961.000000	64.796232
962.000000	64.723913
963.000000	64.656285
964.000000	64.588686
965.000000	64.520628
966.000000	64.459404
967.000000	64.386402
968.000000	64.327675
969.000000	64.255912
970.000000	64.205742
971.000000	64.143239
972.000000	64.087554
973.000000	64.033405
974.000000	63.982508
975.000000	63.927922
976.000000	63.871837
977.000000	63.826067
978.000000	63.782695
979.000000	63.743658
980.000000	63.696126
981.000000	63.648319
982.000000	63.617442
983.000000	63.584914
984.000000	63.546365
985.000000	63.507724
986.000000	63.476413
987.000000	63.449085
988.000000	63.424680
989.000000	63.399921
990.000000	63.373224
991.000000	63.342973
992.000000	63.322117
993.000000	63.295922
994.000000	63.264775
995.000000	63.249193
996.000000	63.229274
997.000000	63.187275
998.000000	63.152274
999.000000	63.127683
1000.000000	63.095119
1001.000000	63.054049
1002.000000	63.009185
1003.000000	62.970018
1004.000000	62.925270
1005.000000	62.870737
1006.000000	62.818386
1007.000000	62.753012
1008.000000	62.690605
1009.000000	62.622659
1010.000000	62.547103
1011.000000	62.475373
1012.000000	62.406739
1013.000000	62.342404
1014.000000	62.271745
1015.000000	62.204330
1016.000000	62.148253
1017.000000	62.089188
1018.000000	62.023720
1019.000000	61.967584
1020.000000	61.917007
1021.000000	61.864583
1022.000000	61.813154
1023.000000	61.762179
1024.000000	61.718438
1025.000000	61.689283
1026.000000	61.659562
1027.000000	61.623328
1028.000000	61.591430
1029.000000	61.558821
1030.000000	61.528675
1031.000000	61.516924
1032.000000	61.498231
1033.000000	61.472088
1034.000000	61.455809
1035.000000	61.442923
1036.000000	61.437179
1037.000000	61.437130
1038.000000	61.434528
1039.000000	61.429412
1040.000000	61.432868
1041.000000	61.435783
1042.000000	61.436637
1043.000000	61.441460
1044.000000	61.452982
1045.000000	61.468903
1046.000000	61.480169
1047.000000	61.497577
1048.000000	61.517865
1049.000000	61.534346
1050.000000	61.550138
1051.000000	61.579182
1052.000000	61.613576
1053.000000	61.638715
1054.000000	61.661345
1055.000000	61.693452
1056.000000	61.722842
1057.000000	61.752709
1058.000000	61.781269
1059.000000	61.808510
1060.000000	61.831277
1061.000000	61.849365
1062.000000	61.866084
1063.000000	61.883863
1064.000000	61.901767
1065.000000	61.922612
1066.000000	61.937301
1067.000000	61.954829
1068.000000	61.956560
1069.000000	61.961402
1070.000000	61.978216
1071.000000	61.982544
1072.000000	61.981437
1073.000000	61.980879
1074.000000	61.987048
1075.000000	61.992102
1076.000000	61.989169
1077.000000	61.991554
1078.000000	61.997862
1079.000000	61.993806
1080.000000	61.996996
1081.000000	61.999948
1082.000000	62.004077
1083.000000	62.009922
1084.000000	62.013338
1085.000000	62.010910
1086.000000	62.019524
1087.000000	62.029639
1088.000000	62.037373
1089.000000	62.035212
1090.000000	62.045379
1091.000000	62.049298
1092.000000	62.055382
1093.000000	62.072506
1094.000000	62.080791
1095.000000	62.084387
1096.000000	62.084477
1097.000000	62.092424
1098.000000	62.095473
1099.000000	62.102735
1100.000000	62.106740
1101.000000	62.102152
1102.000000	62.104638
1103.000000	62.107098
1104.000000	62.104230
1105.000000	62.108523
1106.000000	62.111518
1107.000000	62.111000
1108.000000	62.100319
1109.000000	62.105538
1110.000000	62.105113
1111.000000	62.094700
1112.000000	62.077004
1113.000000	62.083900
1114.000000	62.089575
1115.000000	62.088548
1116.000000	62.085178
1117.000000	62.081037
1118.000000	62.065946
1119.000000	62.047079
1120.000000	62.026809
1121.000000	62.004519
1122.000000	61.969108
1123.000000	61.917820
1124.000000	61.868445
1125.000000	61.809425
1126.000000	61.747356
1127.000000	61.670244
1128.000000	61.592063
1129.000000	61.477528
1130.000000	61.341497
1131.000000	61.197194
1132.000000	61.032723
1133.000000	60.864590
1134.000000	60.688969
1135.000000	60.464101
1136.000000	60.186790
1137.000000	59.927883
1138.000000	59.669957
1139.000000	59.422475
1140.000000	59.194225
1141.000000	58.966412
1142.000000	58.734294
1143.000000	58.525962
1144.000000	58.319824
1145.000000	58.136137
1146.000000	58.000980
1147.000000	57.889933
1148.000000	57.831602
1149.000000	57.813193
1150.000000	57.819509
1151.000000	57.821105
1152.000000	57.816910
1153.000000	57.799334
1154.000000	57.745602
1155.000000	57.666327
1156.000000	57.556646
1157.000000	57.388922
1158.000000	57.202581
1159.000000	56.980975
1160.000000	56.763151
1161.000000	56.524268
1162.000000	56.271369
1163.000000	56.010613
1164.000000	55.739229
1165.000000	55.470997
1166.000000	55.195497
1167.000000	54.936196
