PE UV       SUBTECH     SPECTRUM    ASCII       PEDS        4.00        
   -1
CICIMAUCR0014-5.Sample.ASC
24/04/23
11:16:56.00
24/04/23
11:16:56.00
Vinicio Soto Monge
C. cupreomarginata
250,000000
1
Lambda 1050
1050L1511233
PerkinElmer UV WinLab 6.3.2.0749 / 2.02.05 Lambda 900 UV/VIS/NIR, Aug  7 2015 09:38:08

0
0
3350/servo 860,8/2
0
0
UV/VIS
1
1
1
DoubleDePol,CommonBeamDepol,RBeamAtt,SBeamAtt,60mm sphere, WB InGaAs Detector
0
0
0
0
Program
Program
3350/servo 860,8/2
3350/0,2 860,8/0,2
3350/0,2 860,8/0,2
0
15.00
 
 
 
0
 
860,8
319,2
860,8
Front
100
on
S:100 R:100
0
0
0
0
 
0
 
 
 
0
 
 
0
0
0
0
0
 
 
 
 
0
0


0
0
#HDR
-1
-1
#GR
nm
%R
1.0
0.0
2500,000000
-1,000000
2251
8
75,082300
5,658100
#DATA
250.000000	5.848862
251.000000	5.817841
252.000000	5.824073
253.000000	5.794804
254.000000	5.779006
255.000000	5.761727
256.000000	5.737396
257.000000	5.732072
258.000000	5.694502
259.000000	5.656721
260.000000	5.640452
261.000000	5.638221
262.000000	5.611373
263.000000	5.569428
264.000000	5.541462
265.000000	5.542343
266.000000	5.503355
267.000000	5.479419
268.000000	5.462322
269.000000	5.423560
270.000000	5.421886
271.000000	5.395009
272.000000	5.393654
273.000000	5.366599
274.000000	5.381149
275.000000	5.325873
276.000000	5.322518
277.000000	5.321756
278.000000	5.292437
279.000000	5.305701
280.000000	5.281583
281.000000	5.301266
282.000000	5.280592
283.000000	5.256680
284.000000	5.265269
285.000000	5.236363
286.000000	5.257753
287.000000	5.242474
288.000000	5.245086
289.000000	5.223624
290.000000	5.212252
291.000000	5.225430
292.000000	5.229784
293.000000	5.220652
294.000000	5.204819
295.000000	5.205508
296.000000	5.190120
297.000000	5.188121
298.000000	5.202539
299.000000	5.171092
300.000000	5.155855
301.000000	5.143290
302.000000	5.154694
303.000000	5.168329
304.000000	5.154445
305.000000	5.146192
306.000000	5.131132
307.000000	5.140631
308.000000	5.146022
309.000000	5.124622
310.000000	5.138626
311.000000	5.121004
312.000000	5.119840
313.000000	5.113989
314.000000	5.102622
315.000000	5.098062
316.000000	5.116894
317.000000	5.201534
318.000000	5.171138
319.000000	5.122875
320.000000	5.111808
321.000000	5.048610
322.000000	4.994382
323.000000	5.081178
324.000000	5.111803
325.000000	5.077462
326.000000	5.110072
327.000000	5.133919
328.000000	5.049652
329.000000	5.042510
330.000000	5.051327
331.000000	5.085615
332.000000	5.090973
333.000000	5.098667
334.000000	5.049779
335.000000	5.112703
336.000000	5.051971
337.000000	5.060592
338.000000	5.119154
339.000000	5.064611
340.000000	5.075537
341.000000	5.102203
342.000000	5.111919
343.000000	5.102362
344.000000	5.123776
345.000000	5.130749
346.000000	5.112492
347.000000	5.104554
348.000000	5.120061
349.000000	5.099096
350.000000	5.132963
351.000000	5.154755
352.000000	5.126367
353.000000	5.146400
354.000000	5.162129
355.000000	5.152601
356.000000	5.157393
357.000000	5.191281
358.000000	5.203724
359.000000	5.213174
360.000000	5.232130
361.000000	5.237225
362.000000	5.212899
363.000000	5.193100
364.000000	5.217390
365.000000	5.232020
366.000000	5.254794
367.000000	5.230415
368.000000	5.260761
369.000000	5.271351
370.000000	5.270251
371.000000	5.286752
372.000000	5.293813
373.000000	5.295882
374.000000	5.311715
375.000000	5.332748
376.000000	5.360201
377.000000	5.389886
378.000000	5.408623
379.000000	5.427735
380.000000	5.449757
381.000000	5.469373
382.000000	5.499184
383.000000	5.521810
384.000000	5.546158
385.000000	5.577416
386.000000	5.611909
387.000000	5.654587
388.000000	5.687243
389.000000	5.727693
390.000000	5.772090
391.000000	5.821615
392.000000	5.875689
393.000000	5.932860
394.000000	5.996383
395.000000	6.069644
396.000000	6.146340
397.000000	6.226362
398.000000	6.310919
399.000000	6.399579
400.000000	6.500789
401.000000	6.612432
402.000000	6.727748
403.000000	6.852394
404.000000	6.979919
405.000000	7.114171
406.000000	7.257198
407.000000	7.406245
408.000000	7.571347
409.000000	7.740162
410.000000	7.918824
411.000000	8.102483
412.000000	8.289548
413.000000	8.492077
414.000000	8.696626
415.000000	8.909997
416.000000	9.128685
417.000000	9.340843
418.000000	9.562546
419.000000	9.792446
420.000000	10.031482
421.000000	10.271612
422.000000	10.511068
423.000000	10.754321
424.000000	10.998173
425.000000	11.241838
426.000000	11.493950
427.000000	11.741388
428.000000	11.992711
429.000000	12.244143
430.000000	12.489439
431.000000	12.739394
432.000000	12.991772
433.000000	13.239095
434.000000	13.490834
435.000000	13.739638
436.000000	13.979051
437.000000	14.222621
438.000000	14.466291
439.000000	14.703112
440.000000	14.929081
441.000000	15.154477
442.000000	15.381636
443.000000	15.607391
444.000000	15.820937
445.000000	16.017032
446.000000	16.202756
447.000000	16.389643
448.000000	16.573137
449.000000	16.746581
450.000000	16.922593
451.000000	17.085374
452.000000	17.229119
453.000000	17.370823
454.000000	17.506320
455.000000	17.627429
456.000000	17.742753
457.000000	17.853514
458.000000	17.952630
459.000000	18.039010
460.000000	18.126796
461.000000	18.209514
462.000000	18.281438
463.000000	18.345223
464.000000	18.395544
465.000000	18.446741
466.000000	18.495442
467.000000	18.533316
468.000000	18.577400
469.000000	18.609051
470.000000	18.635956
471.000000	18.669169
472.000000	18.696095
473.000000	18.715073
474.000000	18.739175
475.000000	18.761840
476.000000	18.787717
477.000000	18.817006
478.000000	18.849227
479.000000	18.886822
480.000000	18.944733
481.000000	19.012817
482.000000	19.104782
483.000000	19.204059
484.000000	19.309681
485.000000	19.438443
486.000000	19.582217
487.000000	19.755785
488.000000	19.954183
489.000000	20.168848
490.000000	20.420653
491.000000	20.698920
492.000000	20.993324
493.000000	21.310686
494.000000	21.658076
495.000000	22.023889
496.000000	22.399060
497.000000	22.801409
498.000000	23.213734
499.000000	23.629401
500.000000	24.056378
501.000000	24.496650
502.000000	24.950169
503.000000	25.409508
504.000000	25.881875
505.000000	26.350384
506.000000	26.822169
507.000000	27.295475
508.000000	27.754566
509.000000	28.233117
510.000000	28.714325
511.000000	29.215713
512.000000	29.713447
513.000000	30.216118
514.000000	30.712859
515.000000	31.229114
516.000000	31.741297
517.000000	32.252422
518.000000	32.778714
519.000000	33.317273
520.000000	33.862510
521.000000	34.421523
522.000000	34.997866
523.000000	35.574623
524.000000	36.174751
525.000000	36.783824
526.000000	37.397403
527.000000	38.026104
528.000000	38.672240
529.000000	39.353967
530.000000	40.045287
531.000000	40.761731
532.000000	41.497285
533.000000	42.254119
534.000000	43.022323
535.000000	43.790950
536.000000	44.584166
537.000000	45.379682
538.000000	46.161696
539.000000	46.949592
540.000000	47.739248
541.000000	48.535434
542.000000	49.301077
543.000000	50.066028
544.000000	50.824852
545.000000	51.541218
546.000000	52.248113
547.000000	52.907308
548.000000	53.538823
549.000000	54.151618
550.000000	54.706594
551.000000	55.230576
552.000000	55.731821
553.000000	56.164300
554.000000	56.573468
555.000000	56.951208
556.000000	57.291382
557.000000	57.624470
558.000000	57.908782
559.000000	58.187286
560.000000	58.451099
561.000000	58.687608
562.000000	58.920351
563.000000	59.157699
564.000000	59.341107
565.000000	59.553933
566.000000	59.715639
567.000000	59.867110
568.000000	60.000565
569.000000	60.134258
570.000000	60.225593
571.000000	60.326854
572.000000	60.385279
573.000000	60.409331
574.000000	60.443075
575.000000	60.458994
576.000000	60.465881
577.000000	60.467787
578.000000	60.451492
579.000000	60.436235
580.000000	60.412884
581.000000	60.384570
582.000000	60.357922
583.000000	60.320910
584.000000	60.299460
585.000000	60.234161
586.000000	60.186057
587.000000	60.100498
588.000000	60.022949
589.000000	59.914708
590.000000	59.791179
591.000000	59.653876
592.000000	59.515511
593.000000	59.350098
594.000000	59.195282
595.000000	58.972145
596.000000	58.778030
597.000000	58.594863
598.000000	58.370076
599.000000	58.162690
600.000000	57.941242
601.000000	57.731714
602.000000	57.497070
603.000000	57.277098
604.000000	57.025464
605.000000	56.798112
606.000000	56.566023
607.000000	56.319002
608.000000	56.057677
609.000000	55.787483
610.000000	55.489953
611.000000	55.182815
612.000000	54.865522
613.000000	54.516706
614.000000	54.168535
615.000000	53.798277
616.000000	53.403958
617.000000	53.014749
618.000000	52.597254
619.000000	52.169869
620.000000	51.706235
621.000000	51.248099
622.000000	50.803392
623.000000	50.319592
624.000000	49.808650
625.000000	49.330551
626.000000	48.863799
627.000000	48.365170
628.000000	47.876367
629.000000	47.368108
630.000000	46.884247
631.000000	46.370310
632.000000	45.849748
633.000000	45.341469
634.000000	44.805290
635.000000	44.315563
636.000000	43.770435
637.000000	43.297259
638.000000	42.803926
639.000000	42.339323
640.000000	41.903153
641.000000	41.487135
642.000000	41.074883
643.000000	40.722850
644.000000	40.418614
645.000000	40.142602
646.000000	39.919822
647.000000	39.751622
648.000000	39.623180
649.000000	39.552049
650.000000	39.535384
651.000000	39.564214
652.000000	39.636903
653.000000	39.738169
654.000000	39.855549
655.000000	40.019159
656.000000	40.191889
657.000000	40.389693
658.000000	40.572131
659.000000	40.782042
660.000000	41.014112
661.000000	41.213613
662.000000	41.430510
663.000000	41.616871
664.000000	41.814946
665.000000	41.993970
666.000000	42.182924
667.000000	42.365541
668.000000	42.558477
669.000000	42.758839
670.000000	42.950102
671.000000	43.136238
672.000000	43.319182
673.000000	43.488552
674.000000	43.679944
675.000000	43.875727
676.000000	44.039014
677.000000	44.209300
678.000000	44.367750
679.000000	44.550620
680.000000	44.678894
681.000000	44.836417
682.000000	44.982838
683.000000	45.103044
684.000000	45.193938
685.000000	45.278543
686.000000	45.363451
687.000000	45.423504
688.000000	45.458137
689.000000	45.538216
690.000000	45.600668
691.000000	45.626728
692.000000	45.648564
693.000000	45.717234
694.000000	45.779663
695.000000	45.843223
696.000000	45.911460
697.000000	46.005562
698.000000	46.109679
699.000000	46.202262
700.000000	46.293018
701.000000	46.410125
702.000000	46.551944
703.000000	46.701169
704.000000	46.825048
705.000000	46.954292
706.000000	47.134865
707.000000	47.283800
708.000000	47.412768
709.000000	47.592727
710.000000	47.734471
711.000000	47.907276
712.000000	48.072850
713.000000	48.242132
714.000000	48.426712
715.000000	48.597290
716.000000	48.762629
717.000000	48.946226
718.000000	49.122178
719.000000	49.299688
720.000000	49.487999
721.000000	49.696712
722.000000	49.911875
723.000000	50.118145
724.000000	50.350091
725.000000	50.532884
726.000000	50.736310
727.000000	50.973692
728.000000	51.199620
729.000000	51.409116
730.000000	51.587623
731.000000	51.815845
732.000000	52.052273
733.000000	52.294770
734.000000	52.502964
735.000000	52.710177
736.000000	52.905469
737.000000	53.053357
738.000000	53.252300
739.000000	53.486820
740.000000	53.648138
741.000000	53.792334
742.000000	53.970891
743.000000	54.131649
744.000000	54.294479
745.000000	54.434823
746.000000	54.585841
747.000000	54.741788
748.000000	54.872279
749.000000	55.025222
750.000000	55.204356
751.000000	55.357191
752.000000	55.518537
753.000000	55.655337
754.000000	55.775707
755.000000	55.935830
756.000000	56.082572
757.000000	56.231387
758.000000	56.365976
759.000000	56.529640
760.000000	56.671837
761.000000	56.769413
762.000000	56.895472
763.000000	57.014663
764.000000	57.144612
765.000000	57.281877
766.000000	57.402314
767.000000	57.496511
768.000000	57.596381
769.000000	57.712150
770.000000	57.772611
771.000000	57.878158
772.000000	57.984891
773.000000	58.111461
774.000000	58.197264
775.000000	58.278283
776.000000	58.413343
777.000000	58.497897
778.000000	58.586187
779.000000	58.707107
780.000000	58.803339
781.000000	58.889409
782.000000	58.999961
783.000000	59.075535
784.000000	59.163545
785.000000	59.292630
786.000000	59.397786
787.000000	59.453061
788.000000	59.576058
789.000000	59.684524
790.000000	59.764929
791.000000	59.870492
792.000000	59.961585
793.000000	60.069891
794.000000	60.172864
795.000000	60.308987
796.000000	60.329877
797.000000	60.386603
798.000000	60.513731
799.000000	60.654821
800.000000	60.762475
801.000000	60.847611
802.000000	60.905985
803.000000	61.031638
804.000000	61.148393
805.000000	61.181901
806.000000	61.295014
807.000000	61.449510
808.000000	61.575226
809.000000	61.698329
810.000000	61.844059
811.000000	61.937380
812.000000	61.993277
813.000000	62.174651
814.000000	62.298981
815.000000	62.456329
816.000000	62.574076
817.000000	62.628111
818.000000	62.696300
819.000000	62.836759
820.000000	63.050570
821.000000	63.189581
822.000000	63.321449
823.000000	63.382582
824.000000	63.502039
825.000000	63.649354
826.000000	63.773036
827.000000	63.898729
828.000000	63.991628
829.000000	64.161873
830.000000	64.351895
831.000000	64.438715
832.000000	64.462119
833.000000	64.560311
834.000000	64.752816
835.000000	64.947679
836.000000	65.032737
837.000000	65.107529
838.000000	65.173957
839.000000	65.383642
840.000000	65.367790
841.000000	65.425222
842.000000	65.573739
843.000000	65.673483
844.000000	65.743981
845.000000	65.760507
846.000000	65.903307
847.000000	66.025720
848.000000	66.146207
849.000000	66.125059
850.000000	66.140417
851.000000	66.398731
852.000000	66.532189
853.000000	66.325307
854.000000	66.643641
855.000000	66.337556
856.000000	66.692281
857.000000	66.476167
858.000000	67.203400
859.000000	66.101733
860.000000	66.358567
861.000000	66.636500
862.000000	66.965700
863.000000	67.336700
864.000000	67.655767
865.000000	68.034067
866.000000	68.376767
867.000000	68.740300
868.000000	69.088467
869.000000	69.378300
870.000000	69.683800
871.000000	69.961833
872.000000	70.225533
873.000000	70.432100
874.000000	70.715633
875.000000	70.943433
876.000000	71.218033
877.000000	71.417033
878.000000	71.614467
879.000000	71.821200
880.000000	71.990133
881.000000	72.183267
882.000000	72.315500
883.000000	72.506167
884.000000	72.657500
885.000000	72.750033
886.000000	72.835000
887.000000	72.988433
888.000000	73.084333
889.000000	73.141267
890.000000	73.202133
891.000000	73.296467
892.000000	73.358433
893.000000	73.413867
894.000000	73.448067
895.000000	73.496933
896.000000	73.520300
897.000000	73.542800
898.000000	73.562900
899.000000	73.568100
900.000000	73.591300
901.000000	73.593167
902.000000	73.610200
903.000000	73.616567
904.000000	73.614167
905.000000	73.588933
906.000000	73.599133
907.000000	73.580067
908.000000	73.583333
909.000000	73.608100
910.000000	73.609567
911.000000	73.602100
912.000000	73.622267
913.000000	73.622000
914.000000	73.639067
915.000000	73.670633
916.000000	73.694000
917.000000	73.707800
918.000000	73.692400
919.000000	73.688600
920.000000	73.698467
921.000000	73.677833
922.000000	73.674033
923.000000	73.673033
924.000000	73.652933
925.000000	73.656000
926.000000	73.620833
927.000000	73.588000
928.000000	73.581900
929.000000	73.579533
930.000000	73.539400
931.000000	73.502600
932.000000	73.491533
933.000000	73.435733
934.000000	73.377567
935.000000	73.338900
936.000000	73.300133
937.000000	73.269400
938.000000	73.176300
939.000000	73.137433
940.000000	73.102600
941.000000	73.061333
942.000000	72.993867
943.000000	72.945900
944.000000	72.904500
945.000000	72.850500
946.000000	72.780967
947.000000	72.737100
948.000000	72.643400
949.000000	72.593667
950.000000	72.537233
951.000000	72.454900
952.000000	72.366900
953.000000	72.297833
954.000000	72.203067
955.000000	72.119900
956.000000	72.053300
957.000000	71.953733
958.000000	71.858500
959.000000	71.744100
960.000000	71.659067
961.000000	71.557133
962.000000	71.443633
963.000000	71.335800
964.000000	71.236900
965.000000	71.144133
966.000000	71.040733
967.000000	70.952433
968.000000	70.850200
969.000000	70.766333
970.000000	70.666867
971.000000	70.581500
972.000000	70.480567
973.000000	70.394533
974.000000	70.315867
975.000000	70.220833
976.000000	70.118700
977.000000	70.032600
978.000000	69.956367
979.000000	69.879933
980.000000	69.791233
981.000000	69.707500
982.000000	69.615333
983.000000	69.535400
984.000000	69.451500
985.000000	69.366800
986.000000	69.288533
987.000000	69.208000
988.000000	69.116467
989.000000	69.044567
990.000000	68.955867
991.000000	68.892367
992.000000	68.827167
993.000000	68.764667
994.000000	68.683667
995.000000	68.612633
996.000000	68.564533
997.000000	68.497933
998.000000	68.425133
999.000000	68.363000
1000.000000	68.296200
1001.000000	68.235967
1002.000000	68.187167
1003.000000	68.119033
1004.000000	68.057067
1005.000000	67.996367
1006.000000	67.926800
1007.000000	67.861667
1008.000000	67.789900
1009.000000	67.723200
1010.000000	67.654367
1011.000000	67.590667
1012.000000	67.531500
1013.000000	67.480967
1014.000000	67.440233
1015.000000	67.409133
1016.000000	67.374500
1017.000000	67.343033
1018.000000	67.330600
1019.000000	67.314867
1020.000000	67.302967
1021.000000	67.292400
1022.000000	67.283433
1023.000000	67.282933
1024.000000	67.288300
1025.000000	67.295200
1026.000000	67.302733
1027.000000	67.302633
1028.000000	67.305567
1029.000000	67.312133
1030.000000	67.311267
1031.000000	67.319200
1032.000000	67.329333
1033.000000	67.334833
1034.000000	67.338400
1035.000000	67.330467
1036.000000	67.328367
1037.000000	67.339700
1038.000000	67.341767
1039.000000	67.335500
1040.000000	67.336600
1041.000000	67.340067
1042.000000	67.336433
1043.000000	67.335067
1044.000000	67.346433
1045.000000	67.349567
1046.000000	67.345133
1047.000000	67.348467
1048.000000	67.356567
1049.000000	67.376100
1050.000000	67.392100
1051.000000	67.411233
1052.000000	67.435200
1053.000000	67.464133
1054.000000	67.497433
1055.000000	67.525300
1056.000000	67.561333
1057.000000	67.598633
1058.000000	67.635667
1059.000000	67.673933
1060.000000	67.715233
1061.000000	67.761800
1062.000000	67.812333
1063.000000	67.842000
1064.000000	67.876567
1065.000000	67.913000
1066.000000	67.947400
1067.000000	67.983833
1068.000000	68.018933
1069.000000	68.057733
1070.000000	68.100167
1071.000000	68.147033
1072.000000	68.175700
1073.000000	68.208600
1074.000000	68.245133
1075.000000	68.284900
1076.000000	68.320533
1077.000000	68.356067
1078.000000	68.395433
1079.000000	68.436267
1080.000000	68.475000
1081.000000	68.510867
1082.000000	68.544233
1083.000000	68.589233
1084.000000	68.635200
1085.000000	68.664933
1086.000000	68.710800
1087.000000	68.763533
1088.000000	68.797633
1089.000000	68.832367
1090.000000	68.875533
1091.000000	68.911733
1092.000000	68.944033
1093.000000	68.979967
1094.000000	69.018700
1095.000000	69.050500
1096.000000	69.064533
1097.000000	69.101000
1098.000000	69.122367
1099.000000	69.142000
1100.000000	69.163067
1101.000000	69.179000
1102.000000	69.190833
1103.000000	69.211433
1104.000000	69.224667
1105.000000	69.232900
1106.000000	69.244100
1107.000000	69.251433
1108.000000	69.257833
1109.000000	69.263167
1110.000000	69.275233
1111.000000	69.294167
1112.000000	69.292900
1113.000000	69.303567
1114.000000	69.306900
1115.000000	69.318233
1116.000000	69.326700
1117.000000	69.333200
1118.000000	69.320233
1119.000000	69.312167
1120.000000	69.284833
1121.000000	69.253733
1122.000000	69.225233
1123.000000	69.171933
1124.000000	69.110300
1125.000000	69.027833
1126.000000	68.954967
1127.000000	68.839933
1128.000000	68.728467
1129.000000	68.579700
1130.000000	68.395967
1131.000000	68.153133
1132.000000	67.901100
1133.000000	67.621933
1134.000000	67.366867
1135.000000	67.048200
1136.000000	66.670167
1137.000000	66.281533
1138.000000	65.892133
1139.000000	65.520533
1140.000000	65.169400
1141.000000	64.827267
1142.000000	64.492933
1143.000000	64.160800
1144.000000	63.852200
1145.000000	63.598567
1146.000000	63.394533
1147.000000	63.259833
1148.000000	63.181233
1149.000000	63.154067
1150.000000	63.133533
1151.000000	63.130333
1152.000000	63.110633
1153.000000	63.073300
1154.000000	62.993533
1155.000000	62.857567
1156.000000	62.676567
1157.000000	62.417567
1158.000000	62.151733
1159.000000	61.820333
1160.000000	61.466667
1161.000000	61.129300
1162.000000	60.758033
1163.000000	60.380500
1164.000000	59.997833
1165.000000	59.611467
1166.000000	59.233967
1167.000000	58.847467
