PE UV       SUBTECH     SPECTRUM    ASCII       PEDS        4.00        
   -1
CICIMAUCR0100-3.Sample.ASC
24/04/18
17:00:45.00
24/04/18
17:00:45.00
Vinicio Soto Monge
C. cupreomarginata
250,000000
1
Lambda 1050
1050L1511233
PerkinElmer UV WinLab 6.3.2.0749 / 2.02.05 Lambda 900 UV/VIS/NIR, Aug  7 2015 09:38:08

0
0
3350/servo 860,8/2
0
0
UV/VIS
1
1
1
DoubleDePol,CommonBeamDepol,RBeamAtt,SBeamAtt,60mm sphere, WB InGaAs Detector
0
0
0
0
Program
Program
3350/servo 860,8/2
3350/0,2 860,8/0,2
3350/0,2 860,8/0,2
0
15.00
 
 
 
0
 
860,8
319,2
860,8
Front
100
on
S:100 R:100
0
0
0
0
 
0
 
 
 
0
 
 
0
0
0
0
0
 
 
 
 
0
0


0
0
#HDR
-1
-1
#GR
nm
%R
1.0
0.0
2500,000000
-1,000000
2251
8
64,613100
4,484200
#DATA
250.000000	5.191600
251.000000	5.191933
252.000000	5.193233
253.000000	5.187600
254.000000	5.191667
255.000000	5.183867
256.000000	5.172833
257.000000	5.142867
258.000000	5.138267
259.000000	5.122833
260.000000	5.120167
261.000000	5.128000
262.000000	5.098800
263.000000	5.051133
264.000000	5.046333
265.000000	5.038200
266.000000	5.026733
267.000000	4.991800
268.000000	4.950667
269.000000	4.962533
270.000000	4.955400
271.000000	4.969433
272.000000	4.918033
273.000000	4.932867
274.000000	4.920267
275.000000	4.901700
276.000000	4.898567
277.000000	4.862633
278.000000	4.844733
279.000000	4.888033
280.000000	4.853100
281.000000	4.835733
282.000000	4.832900
283.000000	4.805067
284.000000	4.812733
285.000000	4.783000
286.000000	4.788733
287.000000	4.801333
288.000000	4.804667
289.000000	4.747300
290.000000	4.778100
291.000000	4.761300
292.000000	4.772200
293.000000	4.743500
294.000000	4.748567
295.000000	4.759967
296.000000	4.746800
297.000000	4.723667
298.000000	4.750033
299.000000	4.735900
300.000000	4.705100
301.000000	4.704967
302.000000	4.708500
303.000000	4.709133
304.000000	4.695233
305.000000	4.656633
306.000000	4.687400
307.000000	4.711167
308.000000	4.686000
309.000000	4.680167
310.000000	4.700000
311.000000	4.697800
312.000000	4.665333
313.000000	4.706300
314.000000	4.698400
315.000000	4.684600
316.000000	4.751467
317.000000	5.000767
318.000000	5.016700
319.000000	4.933367
320.000000	4.924500
321.000000	4.923367
322.000000	4.869733
323.000000	4.860667
324.000000	4.872467
325.000000	4.907700
326.000000	4.880267
327.000000	4.899300
328.000000	4.863333
329.000000	4.954000
330.000000	4.846700
331.000000	4.875533
332.000000	4.799700
333.000000	4.818100
334.000000	4.756800
335.000000	4.874067
336.000000	4.841367
337.000000	4.839767
338.000000	4.793933
339.000000	4.884300
340.000000	4.828100
341.000000	4.835300
342.000000	4.834033
343.000000	4.861767
344.000000	4.853967
345.000000	4.832900
346.000000	4.858367
347.000000	4.885400
348.000000	4.863433
349.000000	4.841300
350.000000	4.834033
351.000000	4.850300
352.000000	4.917100
353.000000	4.938433
354.000000	4.900300
355.000000	4.922433
356.000000	4.938333
357.000000	4.945500
358.000000	4.967567
359.000000	4.983000
360.000000	4.968100
361.000000	5.003833
362.000000	5.041233
363.000000	5.008767
364.000000	5.028800
365.000000	5.066200
366.000000	5.091933
367.000000	5.089000
368.000000	5.143833
369.000000	5.150800
370.000000	5.179633
371.000000	5.186000
372.000000	5.199867
373.000000	5.212767
374.000000	5.220967
375.000000	5.320933
376.000000	5.452500
377.000000	5.484700
378.000000	5.543100
379.000000	5.619667
380.000000	5.682133
381.000000	5.759900
382.000000	5.847967
383.000000	5.933800
384.000000	6.024633
385.000000	6.132933
386.000000	6.245867
387.000000	6.342267
388.000000	6.459233
389.000000	6.600633
390.000000	6.742933
391.000000	6.882533
392.000000	7.028567
393.000000	7.191833
394.000000	7.357500
395.000000	7.530267
396.000000	7.702867
397.000000	7.875833
398.000000	8.061900
399.000000	8.253367
400.000000	8.445133
401.000000	8.644033
402.000000	8.841800
403.000000	9.044600
404.000000	9.243733
405.000000	9.447600
406.000000	9.650233
407.000000	9.856167
408.000000	10.054267
409.000000	10.246667
410.000000	10.438733
411.000000	10.636667
412.000000	10.826400
413.000000	11.013367
414.000000	11.211100
415.000000	11.398700
416.000000	11.575700
417.000000	11.752733
418.000000	11.926233
419.000000	12.101233
420.000000	12.281000
421.000000	12.459233
422.000000	12.640133
423.000000	12.810767
424.000000	12.972500
425.000000	13.144267
426.000000	13.301333
427.000000	13.457967
428.000000	13.612533
429.000000	13.761500
430.000000	13.912800
431.000000	14.057700
432.000000	14.215167
433.000000	14.367400
434.000000	14.510767
435.000000	14.658467
436.000000	14.797000
437.000000	14.923367
438.000000	15.051733
439.000000	15.182300
440.000000	15.307600
441.000000	15.422867
442.000000	15.532333
443.000000	15.639933
444.000000	15.738033
445.000000	15.822733
446.000000	15.909067
447.000000	15.986700
448.000000	16.057933
449.000000	16.138633
450.000000	16.226133
451.000000	16.314633
452.000000	16.399000
453.000000	16.485767
454.000000	16.586367
455.000000	16.688200
456.000000	16.790867
457.000000	16.904667
458.000000	17.037500
459.000000	17.167400
460.000000	17.307467
461.000000	17.463500
462.000000	17.619767
463.000000	17.781600
464.000000	17.951667
465.000000	18.128800
466.000000	18.314267
467.000000	18.500167
468.000000	18.682000
469.000000	18.874167
470.000000	19.072933
471.000000	19.278233
472.000000	19.479067
473.000000	19.670833
474.000000	19.881200
475.000000	20.097433
476.000000	20.310100
477.000000	20.523533
478.000000	20.740733
479.000000	20.972567
480.000000	21.203867
481.000000	21.441133
482.000000	21.688967
483.000000	21.941333
484.000000	22.201267
485.000000	22.470467
486.000000	22.742233
487.000000	23.030833
488.000000	23.347533
489.000000	23.667067
490.000000	23.995133
491.000000	24.337233
492.000000	24.704633
493.000000	25.076200
494.000000	25.449900
495.000000	25.829300
496.000000	26.223633
497.000000	26.622000
498.000000	27.014300
499.000000	27.425367
500.000000	27.832467
501.000000	28.237933
502.000000	28.665067
503.000000	29.085267
504.000000	29.512900
505.000000	29.954300
506.000000	30.374500
507.000000	30.820367
508.000000	31.264933
509.000000	31.730200
510.000000	32.210467
511.000000	32.708667
512.000000	33.239533
513.000000	33.801467
514.000000	34.366400
515.000000	34.949900
516.000000	35.570267
517.000000	36.209233
518.000000	36.883933
519.000000	37.586000
520.000000	38.316033
521.000000	39.080033
522.000000	39.873700
523.000000	40.703633
524.000000	41.556067
525.000000	42.418700
526.000000	43.292500
527.000000	44.184167
528.000000	45.069433
529.000000	45.962967
530.000000	46.868933
531.000000	47.766700
532.000000	48.669567
533.000000	49.544667
534.000000	50.402067
535.000000	51.221167
536.000000	52.025333
537.000000	52.795200
538.000000	53.519967
539.000000	54.237233
540.000000	54.918700
541.000000	55.572967
542.000000	56.176033
543.000000	56.739100
544.000000	57.281000
545.000000	57.791200
546.000000	58.257700
547.000000	58.708233
548.000000	59.102200
549.000000	59.496300
550.000000	59.825700
551.000000	60.121200
552.000000	60.421100
553.000000	60.675233
554.000000	60.873967
555.000000	61.084367
556.000000	61.258667
557.000000	61.393633
558.000000	61.527633
559.000000	61.615800
560.000000	61.590900
561.000000	61.647267
562.000000	61.704300
563.000000	61.743267
564.000000	61.807533
565.000000	61.834833
566.000000	61.874967
567.000000	61.917867
568.000000	61.925033
569.000000	61.925100
570.000000	61.937800
571.000000	61.909133
572.000000	61.859233
573.000000	61.794600
574.000000	61.712567
575.000000	61.630700
576.000000	61.486567
577.000000	61.361233
578.000000	61.226433
579.000000	61.042367
580.000000	60.879433
581.000000	60.686900
582.000000	60.499100
583.000000	60.294633
584.000000	60.110567
585.000000	59.922967
586.000000	59.726600
587.000000	59.552533
588.000000	59.367667
589.000000	59.197300
590.000000	59.004133
591.000000	58.841833
592.000000	58.645333
593.000000	58.469200
594.000000	58.264767
595.000000	58.037800
596.000000	57.832067
597.000000	57.614667
598.000000	57.379167
599.000000	57.106267
600.000000	56.842733
601.000000	56.565333
602.000000	56.264933
603.000000	55.943100
604.000000	55.622800
605.000000	55.311467
606.000000	54.985900
607.000000	54.617233
608.000000	54.293633
609.000000	53.927100
610.000000	53.544733
611.000000	53.160533
612.000000	52.779167
613.000000	52.388167
614.000000	51.971400
615.000000	51.573433
616.000000	51.191067
617.000000	50.755600
618.000000	50.365200
619.000000	49.969767
620.000000	49.577500
621.000000	49.167533
622.000000	48.799100
623.000000	48.468900
624.000000	48.140567
625.000000	47.834867
626.000000	47.573467
627.000000	47.325400
628.000000	47.112100
629.000000	46.930367
630.000000	46.783500
631.000000	46.671600
632.000000	46.607367
633.000000	46.571433
634.000000	46.566900
635.000000	46.611933
636.000000	46.691267
637.000000	46.806500
638.000000	46.954533
639.000000	47.083867
640.000000	47.291767
641.000000	47.507633
642.000000	47.709367
643.000000	47.940933
644.000000	48.161500
645.000000	48.401500
646.000000	48.608700
647.000000	48.807467
648.000000	49.011633
649.000000	49.199800
650.000000	49.362067
651.000000	49.541100
652.000000	49.699533
653.000000	49.843100
654.000000	49.989433
655.000000	50.113267
656.000000	50.208400
657.000000	50.332833
658.000000	50.425200
659.000000	50.502933
660.000000	50.565667
661.000000	50.606567
662.000000	50.655900
663.000000	50.677267
664.000000	50.707233
665.000000	50.741933
666.000000	50.748867
667.000000	50.783833
668.000000	50.773600
669.000000	50.767933
670.000000	50.755167
671.000000	50.755933
672.000000	50.740133
673.000000	50.723167
674.000000	50.724100
675.000000	50.729267
676.000000	50.739700
677.000000	50.729500
678.000000	50.726600
679.000000	50.746900
680.000000	50.750433
681.000000	50.765767
682.000000	50.792833
683.000000	50.832733
684.000000	50.851067
685.000000	50.890200
686.000000	50.935100
687.000000	50.979900
688.000000	51.002367
689.000000	51.049800
690.000000	51.119367
691.000000	51.181333
692.000000	51.236967
693.000000	51.334967
694.000000	51.394700
695.000000	51.451867
696.000000	51.532767
697.000000	51.653067
698.000000	51.736633
699.000000	51.821700
700.000000	51.946567
701.000000	52.039967
702.000000	52.139933
703.000000	52.251533
704.000000	52.332333
705.000000	52.422000
706.000000	52.523200
707.000000	52.612833
708.000000	52.689267
709.000000	52.772600
710.000000	52.858967
711.000000	52.939400
712.000000	53.024433
713.000000	53.106167
714.000000	53.184867
715.000000	53.249500
716.000000	53.333467
717.000000	53.416700
718.000000	53.498533
719.000000	53.553733
720.000000	53.617900
721.000000	53.717600
722.000000	53.777300
723.000000	53.808833
724.000000	53.867600
725.000000	53.956600
726.000000	54.010633
727.000000	54.026033
728.000000	54.046067
729.000000	54.107967
730.000000	54.187200
731.000000	54.230000
732.000000	54.283067
733.000000	54.367633
734.000000	54.408033
735.000000	54.428333
736.000000	54.494167
737.000000	54.572400
738.000000	54.623333
739.000000	54.689033
740.000000	54.731533
741.000000	54.786967
742.000000	54.879467
743.000000	54.949300
744.000000	54.995067
745.000000	55.019767
746.000000	55.094533
747.000000	55.212133
748.000000	55.274067
749.000000	55.351567
750.000000	55.447400
751.000000	55.514633
752.000000	55.607033
753.000000	55.732267
754.000000	55.823667
755.000000	55.908133
756.000000	56.028867
757.000000	56.143200
758.000000	56.254867
759.000000	56.375600
760.000000	56.486367
761.000000	56.593900
762.000000	56.730767
763.000000	56.855833
764.000000	56.955000
765.000000	57.088933
766.000000	57.212500
767.000000	57.330733
768.000000	57.458633
769.000000	57.613000
770.000000	57.752467
771.000000	57.904067
772.000000	58.028767
773.000000	58.139700
774.000000	58.247133
775.000000	58.433467
776.000000	58.608700
777.000000	58.695233
778.000000	58.830633
779.000000	58.960300
780.000000	59.107000
781.000000	59.233700
782.000000	59.383800
783.000000	59.567500
784.000000	59.705833
785.000000	59.826667
786.000000	59.969800
787.000000	60.139067
788.000000	60.281433
789.000000	60.442267
790.000000	60.510433
791.000000	60.625000
792.000000	60.788400
793.000000	60.909333
794.000000	61.057067
795.000000	61.166333
796.000000	61.270800
797.000000	61.416167
798.000000	61.526933
799.000000	61.595600
800.000000	61.721733
801.000000	61.873133
802.000000	61.942500
803.000000	62.028000
804.000000	62.135467
805.000000	62.222367
806.000000	62.328733
807.000000	62.461367
808.000000	62.541833
809.000000	62.551367
810.000000	62.652733
811.000000	62.711333
812.000000	62.802967
813.000000	62.875133
814.000000	62.947000
815.000000	63.070000
816.000000	63.118100
817.000000	63.101100
818.000000	63.140600
819.000000	63.250133
820.000000	63.277867
821.000000	63.286333
822.000000	63.353200
823.000000	63.479200
824.000000	63.441467
825.000000	63.505600
826.000000	63.607333
827.000000	63.640333
828.000000	63.667033
829.000000	63.718767
830.000000	63.760400
831.000000	63.803867
832.000000	63.818700
833.000000	63.812033
834.000000	63.813767
835.000000	63.832333
836.000000	63.913500
837.000000	64.021300
838.000000	64.095100
839.000000	64.114167
840.000000	64.145033
841.000000	64.238400
842.000000	64.052333
843.000000	64.291833
844.000000	64.259400
845.000000	64.327867
846.000000	64.430833
847.000000	64.400300
848.000000	64.213933
849.000000	64.428767
850.000000	64.259333
851.000000	64.326300
852.000000	64.032467
853.000000	64.210833
854.000000	64.314100
855.000000	64.334767
856.000000	64.304700
857.000000	64.222933
858.000000	64.287467
859.000000	63.931229
860.000000	64.130487
861.000000	64.334693
862.000000	64.495574
863.000000	64.626198
864.000000	64.727615
865.000000	64.838660
866.000000	64.918481
867.000000	65.013602
868.000000	65.091852
869.000000	65.160492
870.000000	65.215554
871.000000	65.286249
872.000000	65.341420
873.000000	65.408444
874.000000	65.441472
875.000000	65.493894
876.000000	65.530431
877.000000	65.555944
878.000000	65.586224
879.000000	65.610148
880.000000	65.647411
881.000000	65.653809
882.000000	65.702370
883.000000	65.722147
884.000000	65.709710
885.000000	65.721780
886.000000	65.724995
887.000000	65.735888
888.000000	65.725240
889.000000	65.724867
890.000000	65.703627
891.000000	65.696497
892.000000	65.679620
893.000000	65.658220
894.000000	65.648560
895.000000	65.647764
896.000000	65.639410
897.000000	65.623105
898.000000	65.605119
899.000000	65.583259
900.000000	65.559581
901.000000	65.553379
902.000000	65.536938
903.000000	65.525729
904.000000	65.513203
905.000000	65.504622
906.000000	65.494661
907.000000	65.503158
908.000000	65.492350
909.000000	65.484728
910.000000	65.508847
911.000000	65.525804
912.000000	65.530422
913.000000	65.553384
914.000000	65.572920
915.000000	65.552092
916.000000	65.573241
917.000000	65.580841
918.000000	65.579471
919.000000	65.574164
920.000000	65.568884
921.000000	65.557638
922.000000	65.558101
923.000000	65.530597
924.000000	65.537960
925.000000	65.511840
926.000000	65.502942
927.000000	65.488761
928.000000	65.455807
929.000000	65.454193
930.000000	65.430376
931.000000	65.387431
932.000000	65.363046
933.000000	65.343682
934.000000	65.307101
935.000000	65.261679
936.000000	65.235493
937.000000	65.203433
938.000000	65.160827
939.000000	65.153343
940.000000	65.101352
941.000000	65.093173
942.000000	65.062234
943.000000	65.021724
944.000000	64.999005
945.000000	64.978289
946.000000	64.938814
947.000000	64.917299
948.000000	64.898220
949.000000	64.861030
950.000000	64.836884
951.000000	64.820385
952.000000	64.779167
953.000000	64.773510
954.000000	64.748682
955.000000	64.723779
956.000000	64.697600
957.000000	64.677490
958.000000	64.648006
959.000000	64.628376
960.000000	64.607402
961.000000	64.582956
962.000000	64.553561
963.000000	64.539604
964.000000	64.519630
965.000000	64.507800
966.000000	64.491617
967.000000	64.466904
968.000000	64.461584
969.000000	64.448436
970.000000	64.436649
971.000000	64.415025
972.000000	64.396167
973.000000	64.384802
974.000000	64.376950
975.000000	64.363633
976.000000	64.347867
977.000000	64.331149
978.000000	64.315868
979.000000	64.309556
980.000000	64.289255
981.000000	64.267479
982.000000	64.250465
983.000000	64.228426
984.000000	64.218248
985.000000	64.203317
986.000000	64.177514
987.000000	64.157861
988.000000	64.143651
989.000000	64.121968
990.000000	64.101390
991.000000	64.089423
992.000000	64.067774
993.000000	64.054614
994.000000	64.041341
995.000000	64.034851
996.000000	64.021330
997.000000	64.003143
998.000000	63.990764
999.000000	63.977310
1000.000000	63.974721
1001.000000	63.968919
1002.000000	63.954882
1003.000000	63.944850
1004.000000	63.944788
1005.000000	63.943520
1006.000000	63.928531
1007.000000	63.915857
1008.000000	63.908407
1009.000000	63.905394
1010.000000	63.905399
1011.000000	63.905099
1012.000000	63.910559
1013.000000	63.921326
1014.000000	63.926855
1015.000000	63.941113
1016.000000	63.965363
1017.000000	63.994517
1018.000000	64.028814
1019.000000	64.063427
1020.000000	64.100656
1021.000000	64.143970
1022.000000	64.188903
1023.000000	64.233326
1024.000000	64.281081
1025.000000	64.322862
1026.000000	64.361002
1027.000000	64.415295
1028.000000	64.458737
1029.000000	64.496719
1030.000000	64.549195
1031.000000	64.591345
1032.000000	64.629562
1033.000000	64.668764
1034.000000	64.717109
1035.000000	64.760937
1036.000000	64.801108
1037.000000	64.840774
1038.000000	64.876914
1039.000000	64.910798
1040.000000	64.952754
1041.000000	64.992685
1042.000000	65.021582
1043.000000	65.054672
1044.000000	65.094821
1045.000000	65.130338
1046.000000	65.164614
1047.000000	65.193343
1048.000000	65.231258
1049.000000	65.282315
1050.000000	65.325845
1051.000000	65.361567
1052.000000	65.404179
1053.000000	65.445006
1054.000000	65.493860
1055.000000	65.543823
1056.000000	65.590675
1057.000000	65.636867
1058.000000	65.685843
1059.000000	65.737213
1060.000000	65.784663
1061.000000	65.828843
1062.000000	65.871762
1063.000000	65.922959
1064.000000	65.972320
1065.000000	66.022814
1066.000000	66.077984
1067.000000	66.120499
1068.000000	66.173057
1069.000000	66.220543
1070.000000	66.262762
1071.000000	66.311839
1072.000000	66.360384
1073.000000	66.403050
1074.000000	66.445263
1075.000000	66.493292
1076.000000	66.533798
1077.000000	66.584934
1078.000000	66.633586
1079.000000	66.678100
1080.000000	66.717635
1081.000000	66.768660
1082.000000	66.818189
1083.000000	66.863707
1084.000000	66.905831
1085.000000	66.949389
1086.000000	66.998269
1087.000000	67.048325
1088.000000	67.085893
1089.000000	67.126911
1090.000000	67.164128
1091.000000	67.194923
1092.000000	67.240479
1093.000000	67.270774
1094.000000	67.307077
1095.000000	67.347227
1096.000000	67.376292
1097.000000	67.406801
1098.000000	67.431691
1099.000000	67.456764
1100.000000	67.482735
1101.000000	67.505075
1102.000000	67.517176
1103.000000	67.537572
1104.000000	67.551580
1105.000000	67.572403
1106.000000	67.583624
1107.000000	67.598928
1108.000000	67.617051
1109.000000	67.633323
1110.000000	67.638999
1111.000000	67.646018
1112.000000	67.666122
1113.000000	67.669008
1114.000000	67.681663
1115.000000	67.692354
1116.000000	67.703199
1117.000000	67.706146
1118.000000	67.714991
1119.000000	67.693351
1120.000000	67.672159
1121.000000	67.655698
1122.000000	67.643752
1123.000000	67.593917
1124.000000	67.557533
1125.000000	67.504464
1126.000000	67.427576
1127.000000	67.350480
1128.000000	67.258927
1129.000000	67.148525
1130.000000	66.997849
1131.000000	66.823594
1132.000000	66.649592
1133.000000	66.489035
1134.000000	66.317917
1135.000000	66.089220
1136.000000	65.844127
1137.000000	65.583914
1138.000000	65.348796
1139.000000	65.117105
1140.000000	64.907081
1141.000000	64.700315
1142.000000	64.498918
1143.000000	64.305362
1144.000000	64.140158
1145.000000	64.004295
1146.000000	63.888057
1147.000000	63.816447
1148.000000	63.761283
1149.000000	63.728705
1150.000000	63.717513
1151.000000	63.698413
1152.000000	63.669731
1153.000000	63.616287
1154.000000	63.532672
1155.000000	63.421806
1156.000000	63.276636
1157.000000	63.088212
1158.000000	62.873791
1159.000000	62.649752
1160.000000	62.403440
1161.000000	62.148336
1162.000000	61.887967
1163.000000	61.609512
1164.000000	61.343043
1165.000000	61.065546
1166.000000	60.783306
1167.000000	60.514273
