PE UV       SUBTECH     SPECTRUM    ASCII       PEDS        4.00        
   -1
CICIMAUCR0012-3.Sample.ASC
24/04/12
09:39:08.00
24/04/12
09:39:08.00
Vinicio Soto Monge
C. cupreomarginata
250,000000
1
Lambda 1050
1050L1511233
PerkinElmer UV WinLab 6.3.2.0749 / 2.02.05 Lambda 900 UV/VIS/NIR, Aug  7 2015 09:38:08

0
0
3350/servo 860,8/2
0
0
UV/VIS
1
1
1
DoubleDePol,CommonBeamDepol,RBeamAtt,SBeamAtt,60mm sphere, WB InGaAs Detector
0
0
0
0
Program
Program
3350/servo 860,8/2
3350/0,2 860,8/0,2
3350/0,2 860,8/0,2
0
15.00
 
 
 
0
 
860,8
319,2
860,8
Front
100
on
S:100 R:100
0
0
0
0
 
0
 
 
 
0
 
 
0
0
0
0
0
 
 
 
 
0
0


0
0
#HDR
-1
-1
#GR
nm
%R
1.0
0.0
2500,000000
-1,000000
2251
8
59,329800
5,000400
#DATA
250.000000	4.707333
251.000000	4.727667
252.000000	4.693633
253.000000	4.685000
254.000000	4.715367
255.000000	4.668800
256.000000	4.683033
257.000000	4.673467
258.000000	4.673033
259.000000	4.650467
260.000000	4.648633
261.000000	4.632800
262.000000	4.591100
263.000000	4.560767
264.000000	4.522867
265.000000	4.513700
266.000000	4.506333
267.000000	4.496333
268.000000	4.491233
269.000000	4.491633
270.000000	4.484100
271.000000	4.480033
272.000000	4.439567
273.000000	4.444767
274.000000	4.430000
275.000000	4.414200
276.000000	4.395100
277.000000	4.397900
278.000000	4.391033
279.000000	4.384833
280.000000	4.365467
281.000000	4.368267
282.000000	4.365633
283.000000	4.370133
284.000000	4.346367
285.000000	4.355367
286.000000	4.359167
287.000000	4.390633
288.000000	4.370033
289.000000	4.334333
290.000000	4.342333
291.000000	4.372067
292.000000	4.360800
293.000000	4.332900
294.000000	4.351333
295.000000	4.333233
296.000000	4.302733
297.000000	4.306933
298.000000	4.312500
299.000000	4.305100
300.000000	4.326833
301.000000	4.320467
302.000000	4.315133
303.000000	4.295900
304.000000	4.327467
305.000000	4.325533
306.000000	4.293300
307.000000	4.293200
308.000000	4.324533
309.000000	4.313600
310.000000	4.294933
311.000000	4.310333
312.000000	4.288033
313.000000	4.295200
314.000000	4.309333
315.000000	4.301800
316.000000	4.407333
317.000000	4.621667
318.000000	4.413900
319.000000	4.430800
320.000000	4.500733
321.000000	4.496967
322.000000	4.482400
323.000000	4.504467
324.000000	4.400367
325.000000	4.445300
326.000000	4.528467
327.000000	4.457700
328.000000	4.389167
329.000000	4.421233
330.000000	4.446833
331.000000	4.359900
332.000000	4.353133
333.000000	4.371067
334.000000	4.322233
335.000000	4.339000
336.000000	4.369733
337.000000	4.327000
338.000000	4.293067
339.000000	4.327867
340.000000	4.309467
341.000000	4.340233
342.000000	4.338633
343.000000	4.325167
344.000000	4.308500
345.000000	4.299333
346.000000	4.318233
347.000000	4.325200
348.000000	4.315367
349.000000	4.305733
350.000000	4.358100
351.000000	4.332967
352.000000	4.388133
353.000000	4.394567
354.000000	4.414500
355.000000	4.398033
356.000000	4.429133
357.000000	4.433300
358.000000	4.452333
359.000000	4.452667
360.000000	4.449600
361.000000	4.495900
362.000000	4.530133
363.000000	4.494500
364.000000	4.528000
365.000000	4.552633
366.000000	4.597700
367.000000	4.660867
368.000000	4.633000
369.000000	4.624967
370.000000	4.679133
371.000000	4.731067
372.000000	4.765433
373.000000	4.783267
374.000000	4.837300
375.000000	4.982733
376.000000	5.048733
377.000000	5.089700
378.000000	5.146267
379.000000	5.226467
380.000000	5.316767
381.000000	5.399800
382.000000	5.481367
383.000000	5.574367
384.000000	5.674300
385.000000	5.775233
386.000000	5.889467
387.000000	5.995167
388.000000	6.109833
389.000000	6.237467
390.000000	6.361933
391.000000	6.485600
392.000000	6.628100
393.000000	6.774500
394.000000	6.901167
395.000000	7.039633
396.000000	7.188733
397.000000	7.334100
398.000000	7.474533
399.000000	7.629133
400.000000	7.779967
401.000000	7.933567
402.000000	8.081733
403.000000	8.224167
404.000000	8.378033
405.000000	8.520533
406.000000	8.664333
407.000000	8.804867
408.000000	8.949367
409.000000	9.094533
410.000000	9.233133
411.000000	9.368267
412.000000	9.493633
413.000000	9.626767
414.000000	9.749533
415.000000	9.869000
416.000000	9.988267
417.000000	10.096200
418.000000	10.211200
419.000000	10.308100
420.000000	10.410667
421.000000	10.514233
422.000000	10.612333
423.000000	10.706900
424.000000	10.795733
425.000000	10.890667
426.000000	10.974500
427.000000	11.052967
428.000000	11.135033
429.000000	11.207067
430.000000	11.287167
431.000000	11.370967
432.000000	11.453667
433.000000	11.532533
434.000000	11.610767
435.000000	11.697967
436.000000	11.782067
437.000000	11.853633
438.000000	11.945233
439.000000	12.038400
440.000000	12.125567
441.000000	12.220700
442.000000	12.300300
443.000000	12.388800
444.000000	12.492733
445.000000	12.567900
446.000000	12.626567
447.000000	12.712067
448.000000	12.795833
449.000000	12.872133
450.000000	12.951800
451.000000	13.033733
452.000000	13.119400
453.000000	13.211267
454.000000	13.300067
455.000000	13.401833
456.000000	13.503400
457.000000	13.611100
458.000000	13.715500
459.000000	13.832933
460.000000	13.960433
461.000000	14.091500
462.000000	14.237400
463.000000	14.394900
464.000000	14.567933
465.000000	14.749367
466.000000	14.941233
467.000000	15.139967
468.000000	15.348800
469.000000	15.574900
470.000000	15.815967
471.000000	16.062333
472.000000	16.322200
473.000000	16.603667
474.000000	16.896400
475.000000	17.186600
476.000000	17.507800
477.000000	17.825567
478.000000	18.161333
479.000000	18.487200
480.000000	18.867533
481.000000	19.278167
482.000000	19.689867
483.000000	20.077000
484.000000	20.438200
485.000000	20.805767
486.000000	21.168633
487.000000	21.543367
488.000000	21.912867
489.000000	22.278567
490.000000	22.671367
491.000000	23.069100
492.000000	23.464800
493.000000	23.849733
494.000000	24.252633
495.000000	24.686333
496.000000	25.110600
497.000000	25.530567
498.000000	25.964767
499.000000	26.421733
500.000000	26.885267
501.000000	27.354967
502.000000	27.832933
503.000000	28.341500
504.000000	28.859633
505.000000	29.371300
506.000000	29.891033
507.000000	30.428067
508.000000	30.981100
509.000000	31.546100
510.000000	32.135800
511.000000	32.722767
512.000000	33.325100
513.000000	33.926467
514.000000	34.536033
515.000000	35.129100
516.000000	35.740967
517.000000	36.350900
518.000000	36.932633
519.000000	37.531133
520.000000	38.124667
521.000000	38.723700
522.000000	39.326767
523.000000	39.894400
524.000000	40.449267
525.000000	41.005667
526.000000	41.531067
527.000000	42.013967
528.000000	42.499433
529.000000	42.943533
530.000000	43.386733
531.000000	43.795967
532.000000	44.188633
533.000000	44.560633
534.000000	44.891667
535.000000	45.195667
536.000000	45.447500
537.000000	45.673133
538.000000	45.896533
539.000000	46.084967
540.000000	46.255033
541.000000	46.389067
542.000000	46.505967
543.000000	46.604367
544.000000	46.683100
545.000000	46.745633
546.000000	46.767033
547.000000	46.761333
548.000000	46.757400
549.000000	46.763400
550.000000	46.738733
551.000000	46.671333
552.000000	46.621300
553.000000	46.556433
554.000000	46.461500
555.000000	46.373167
556.000000	46.282900
557.000000	46.138167
558.000000	45.998700
559.000000	45.833900
560.000000	45.571733
561.000000	45.429833
562.000000	45.282567
563.000000	45.141300
564.000000	44.964100
565.000000	44.804700
566.000000	44.640467
567.000000	44.450767
568.000000	44.263233
569.000000	44.074333
570.000000	43.874467
571.000000	43.684500
572.000000	43.500700
573.000000	43.302967
574.000000	43.086133
575.000000	42.879733
576.000000	42.666667
577.000000	42.456533
578.000000	42.236300
579.000000	42.024600
580.000000	41.787300
581.000000	41.565967
582.000000	41.353533
583.000000	41.129133
584.000000	40.901567
585.000000	40.683867
586.000000	40.488067
587.000000	40.274133
588.000000	40.089167
589.000000	39.914633
590.000000	39.742567
591.000000	39.559867
592.000000	39.390733
593.000000	39.211233
594.000000	39.042467
595.000000	38.897233
596.000000	38.737133
597.000000	38.596767
598.000000	38.455000
599.000000	38.302567
600.000000	38.149567
601.000000	37.981000
602.000000	37.830533
603.000000	37.665967
604.000000	37.485467
605.000000	37.323200
606.000000	37.181733
607.000000	37.042667
608.000000	36.881567
609.000000	36.753967
610.000000	36.637433
611.000000	36.522067
612.000000	36.429500
613.000000	36.338967
614.000000	36.266933
615.000000	36.220833
616.000000	36.191433
617.000000	36.148833
618.000000	36.133267
619.000000	36.131700
620.000000	36.143967
621.000000	36.130300
622.000000	36.132933
623.000000	36.151933
624.000000	36.191700
625.000000	36.240600
626.000000	36.300267
627.000000	36.355400
628.000000	36.434700
629.000000	36.535400
630.000000	36.631000
631.000000	36.750833
632.000000	36.869033
633.000000	37.007100
634.000000	37.148433
635.000000	37.293933
636.000000	37.454367
637.000000	37.628700
638.000000	37.828000
639.000000	38.001667
640.000000	38.156500
641.000000	38.344633
642.000000	38.515267
643.000000	38.682867
644.000000	38.861967
645.000000	39.040767
646.000000	39.192667
647.000000	39.331067
648.000000	39.472900
649.000000	39.619067
650.000000	39.760167
651.000000	39.898400
652.000000	40.036600
653.000000	40.159433
654.000000	40.246667
655.000000	40.370467
656.000000	40.488400
657.000000	40.595500
658.000000	40.693367
659.000000	40.792367
660.000000	40.873567
661.000000	40.990600
662.000000	41.095100
663.000000	41.185400
664.000000	41.263200
665.000000	41.345733
666.000000	41.420633
667.000000	41.504000
668.000000	41.578600
669.000000	41.662700
670.000000	41.742433
671.000000	41.782667
672.000000	41.859100
673.000000	41.955767
674.000000	42.029067
675.000000	42.093267
676.000000	42.137100
677.000000	42.195400
678.000000	42.251400
679.000000	42.320133
680.000000	42.393833
681.000000	42.472667
682.000000	42.552400
683.000000	42.637167
684.000000	42.712700
685.000000	42.783633
686.000000	42.886767
687.000000	42.953700
688.000000	42.989800
689.000000	43.059900
690.000000	43.143467
691.000000	43.222333
692.000000	43.308600
693.000000	43.383067
694.000000	43.462800
695.000000	43.536500
696.000000	43.610233
697.000000	43.679500
698.000000	43.744600
699.000000	43.805867
700.000000	43.861633
701.000000	43.939700
702.000000	44.023767
703.000000	44.098567
704.000000	44.163067
705.000000	44.217867
706.000000	44.250000
707.000000	44.344300
708.000000	44.405467
709.000000	44.475067
710.000000	44.546533
711.000000	44.600333
712.000000	44.670867
713.000000	44.725700
714.000000	44.787500
715.000000	44.832367
716.000000	44.888033
717.000000	44.940533
718.000000	44.981267
719.000000	45.041700
720.000000	45.090133
721.000000	45.120467
722.000000	45.216433
723.000000	45.290100
724.000000	45.349200
725.000000	45.404333
726.000000	45.481967
727.000000	45.537500
728.000000	45.603300
729.000000	45.669467
730.000000	45.743100
731.000000	45.815833
732.000000	45.919100
733.000000	45.968367
734.000000	46.036733
735.000000	46.090600
736.000000	46.181033
737.000000	46.247800
738.000000	46.305800
739.000000	46.347833
740.000000	46.422467
741.000000	46.518700
742.000000	46.606667
743.000000	46.638800
744.000000	46.742900
745.000000	46.812333
746.000000	46.901167
747.000000	46.936833
748.000000	47.024900
749.000000	47.070567
750.000000	47.132500
751.000000	47.252933
752.000000	47.291933
753.000000	47.378167
754.000000	47.409533
755.000000	47.490600
756.000000	47.570800
757.000000	47.614533
758.000000	47.719700
759.000000	47.789700
760.000000	47.837633
761.000000	47.851033
762.000000	47.948100
763.000000	47.972233
764.000000	47.980367
765.000000	48.106967
766.000000	48.166733
767.000000	48.229667
768.000000	48.276233
769.000000	48.344400
770.000000	48.427900
771.000000	48.480967
772.000000	48.537300
773.000000	48.621867
774.000000	48.657567
775.000000	48.760133
776.000000	48.815733
777.000000	48.845767
778.000000	48.952200
779.000000	48.945767
780.000000	49.059167
781.000000	49.075267
782.000000	49.078867
783.000000	49.204367
784.000000	49.260300
785.000000	49.270033
786.000000	49.312300
787.000000	49.408533
788.000000	49.374267
789.000000	49.420500
790.000000	49.461467
791.000000	49.473733
792.000000	49.536900
793.000000	49.577533
794.000000	49.606600
795.000000	49.680967
796.000000	49.694067
797.000000	49.681800
798.000000	49.694133
799.000000	49.698833
800.000000	49.680233
801.000000	49.696500
802.000000	49.660733
803.000000	49.714767
804.000000	49.726467
805.000000	49.690500
806.000000	49.696167
807.000000	49.633133
808.000000	49.548400
809.000000	49.542000
810.000000	49.602533
811.000000	49.599633
812.000000	49.545767
813.000000	49.534667
814.000000	49.516500
815.000000	49.522133
816.000000	49.551600
817.000000	49.398667
818.000000	49.428567
819.000000	49.366633
820.000000	49.284500
821.000000	49.232200
822.000000	49.231433
823.000000	49.192200
824.000000	49.145100
825.000000	49.161167
826.000000	49.072600
827.000000	48.998633
828.000000	48.926833
829.000000	48.923467
830.000000	48.860433
831.000000	48.760700
832.000000	48.695967
833.000000	48.615433
834.000000	48.536267
835.000000	48.503800
836.000000	48.544767
837.000000	48.376200
838.000000	48.284700
839.000000	48.275633
840.000000	48.216700
841.000000	47.989367
842.000000	48.011400
843.000000	47.890200
844.000000	47.876133
845.000000	47.666700
846.000000	47.607100
847.000000	47.453200
848.000000	47.375600
849.000000	47.383667
850.000000	47.215700
851.000000	47.150133
852.000000	47.040867
853.000000	46.932933
854.000000	46.898567
855.000000	46.881367
856.000000	46.790933
857.000000	46.652633
858.000000	46.774978
859.000000	47.058458
860.000000	46.545757
861.000000	46.747473
862.000000	47.092023
863.000000	46.814277
864.000000	46.460031
865.000000	46.499264
866.000000	46.769163
867.000000	46.787876
868.000000	46.827819
869.000000	46.915521
870.000000	46.704339
871.000000	46.707140
872.000000	46.712796
873.000000	47.012857
874.000000	46.578780
875.000000	46.784661
876.000000	47.049532
877.000000	46.803204
878.000000	46.330739
879.000000	46.242745
880.000000	46.658990
881.000000	46.520770
882.000000	46.456433
883.000000	46.295946
884.000000	46.383343
885.000000	46.450773
886.000000	46.477813
887.000000	46.623292
888.000000	46.764420
889.000000	46.519388
890.000000	46.417832
891.000000	46.447549
892.000000	46.372634
893.000000	46.466262
894.000000	46.425311
895.000000	46.437507
896.000000	46.362263
897.000000	46.379473
898.000000	46.337293
899.000000	46.521753
900.000000	46.486290
901.000000	46.361646
902.000000	46.332613
903.000000	46.279573
904.000000	46.274638
905.000000	46.401987
906.000000	46.341310
907.000000	46.311591
908.000000	46.301586
909.000000	46.389339
910.000000	46.479391
911.000000	46.520522
912.000000	46.583402
913.000000	46.612989
914.000000	46.703052
915.000000	46.714917
916.000000	46.747231
917.000000	46.781328
918.000000	46.829337
919.000000	46.929942
920.000000	47.030008
921.000000	46.992042
922.000000	47.030854
923.000000	47.160556
924.000000	47.134617
925.000000	47.190162
926.000000	47.304514
927.000000	47.327775
928.000000	47.370912
929.000000	47.388607
930.000000	47.411233
931.000000	47.503456
932.000000	47.598465
933.000000	47.623946
934.000000	47.656209
935.000000	47.727118
936.000000	47.764677
937.000000	47.769372
938.000000	47.773848
939.000000	47.814602
940.000000	47.912063
941.000000	47.974426
942.000000	48.058102
943.000000	48.108616
944.000000	48.175590
945.000000	48.249252
946.000000	48.252566
947.000000	48.273399
948.000000	48.320122
949.000000	48.377817
950.000000	48.416402
951.000000	48.467666
952.000000	48.583832
953.000000	48.627743
954.000000	48.640556
955.000000	48.727993
956.000000	48.777217
957.000000	48.796551
958.000000	48.824582
959.000000	48.845686
960.000000	48.948008
961.000000	48.958206
962.000000	49.003614
963.000000	49.015611
964.000000	49.008112
965.000000	49.081367
966.000000	49.145011
967.000000	49.196615
968.000000	49.240260
969.000000	49.272113
970.000000	49.318163
971.000000	49.340809
972.000000	49.392115
973.000000	49.472117
974.000000	49.549610
975.000000	49.595068
976.000000	49.635798
977.000000	49.683047
978.000000	49.733131
979.000000	49.738845
980.000000	49.808883
981.000000	49.849716
982.000000	49.891112
983.000000	49.932061
984.000000	49.984492
985.000000	50.024908
986.000000	50.054362
987.000000	50.081556
988.000000	50.140789
989.000000	50.176193
990.000000	50.226399
991.000000	50.269754
992.000000	50.332888
993.000000	50.362187
994.000000	50.444377
995.000000	50.448888
996.000000	50.496634
997.000000	50.549337
998.000000	50.582398
999.000000	50.649235
1000.000000	50.704623
1001.000000	50.757059
1002.000000	50.771846
1003.000000	50.800138
1004.000000	50.875061
1005.000000	50.902257
1006.000000	50.972684
1007.000000	51.005440
1008.000000	51.008657
1009.000000	51.024378
1010.000000	51.094380
1011.000000	51.168070
1012.000000	51.215584
1013.000000	51.242005
1014.000000	51.311159
1015.000000	51.366825
1016.000000	51.431108
1017.000000	51.490518
1018.000000	51.551706
1019.000000	51.610436
1020.000000	51.668934
1021.000000	51.713948
1022.000000	51.797258
1023.000000	51.875213
1024.000000	51.961612
1025.000000	52.009474
1026.000000	52.093487
1027.000000	52.166425
1028.000000	52.223182
1029.000000	52.271377
1030.000000	52.325510
1031.000000	52.411979
1032.000000	52.491206
1033.000000	52.534470
1034.000000	52.616463
1035.000000	52.650315
1036.000000	52.696132
1037.000000	52.764757
1038.000000	52.814878
1039.000000	52.872548
1040.000000	52.935005
1041.000000	52.971455
1042.000000	52.990453
1043.000000	53.039724
1044.000000	53.108536
1045.000000	53.160765
1046.000000	53.197029
1047.000000	53.230355
1048.000000	53.279725
1049.000000	53.327358
1050.000000	53.375757
1051.000000	53.438993
1052.000000	53.476710
1053.000000	53.535356
1054.000000	53.606929
1055.000000	53.665898
1056.000000	53.731575
1057.000000	53.799056
1058.000000	53.828813
1059.000000	53.903680
1060.000000	53.953069
1061.000000	54.003316
1062.000000	54.065595
1063.000000	54.105841
1064.000000	54.151985
1065.000000	54.192762
1066.000000	54.267906
1067.000000	54.324597
1068.000000	54.407316
1069.000000	54.444801
1070.000000	54.497023
1071.000000	54.556391
1072.000000	54.596783
1073.000000	54.643705
1074.000000	54.719506
1075.000000	54.768586
1076.000000	54.805362
1077.000000	54.881095
1078.000000	54.932037
1079.000000	54.976819
1080.000000	55.024366
1081.000000	55.096622
1082.000000	55.114613
1083.000000	55.173865
1084.000000	55.215781
1085.000000	55.286932
1086.000000	55.323951
1087.000000	55.379787
1088.000000	55.425039
1089.000000	55.491070
1090.000000	55.523683
1091.000000	55.580949
1092.000000	55.612404
1093.000000	55.636537
1094.000000	55.687947
1095.000000	55.729756
1096.000000	55.768249
1097.000000	55.817718
1098.000000	55.846792
1099.000000	55.888792
1100.000000	55.918306
1101.000000	55.944640
1102.000000	55.984852
1103.000000	56.014877
1104.000000	56.021673
1105.000000	56.051161
1106.000000	56.075963
1107.000000	56.107368
1108.000000	56.123563
1109.000000	56.140166
1110.000000	56.156096
1111.000000	56.182062
1112.000000	56.209998
1113.000000	56.219947
1114.000000	56.234569
1115.000000	56.240720
1116.000000	56.265920
1117.000000	56.278214
1118.000000	56.280205
1119.000000	56.289009
1120.000000	56.282672
1121.000000	56.264217
1122.000000	56.274450
1123.000000	56.261021
1124.000000	56.210612
1125.000000	56.149495
1126.000000	56.085149
1127.000000	56.019891
1128.000000	55.969591
1129.000000	55.865216
1130.000000	55.712835
1131.000000	55.572812
1132.000000	55.399175
1133.000000	55.198362
1134.000000	55.022941
1135.000000	54.795852
1136.000000	54.499749
1137.000000	54.224724
1138.000000	53.957030
1139.000000	53.718635
1140.000000	53.480327
1141.000000	53.233809
1142.000000	52.979853
1143.000000	52.758266
1144.000000	52.552221
1145.000000	52.375867
1146.000000	52.235593
1147.000000	52.143523
1148.000000	52.109152
1149.000000	52.089816
1150.000000	52.079252
1151.000000	52.059673
1152.000000	52.044395
1153.000000	52.025018
1154.000000	51.942038
1155.000000	51.816995
1156.000000	51.664887
1157.000000	51.478784
1158.000000	51.242321
1159.000000	50.989981
1160.000000	50.737367
1161.000000	50.474666
1162.000000	50.183254
1163.000000	49.889325
1164.000000	49.587961
1165.000000	49.308496
1166.000000	49.018210
1167.000000	48.719404
