PE UV       SUBTECH     SPECTRUM    ASCII       PEDS        4.00        
   -1
CICIMAUCR0098-5.Sample.ASC
24/04/25
11:55:07.00
24/04/25
11:55:07.00
Vinicio Soto Monge
C. cupreomarginata
250,000000
1
Lambda 1050
1050L1511233
PerkinElmer UV WinLab 6.3.2.0749 / 2.02.05 Lambda 900 UV/VIS/NIR, Aug  7 2015 09:38:08

0
0
3350/servo 860,8/2
0
0
UV/VIS
1
1
1
DoubleDePol,CommonBeamDepol,RBeamAtt,SBeamAtt,60mm sphere, WB InGaAs Detector
0
0
0
0
Program
Program
3350/servo 860,8/2
3350/0,2 860,8/0,2
3350/0,2 860,8/0,2
0
15.00
 
 
 
0
 
860,8
319,2
860,8
Front
100
on
S:100 R:100
0
0
0
0
 
0
 
 
 
0
 
 
0
0
0
0
0
 
 
 
 
0
0


0
0
#HDR
-1
-1
#GR
nm
%R
1.0
0.0
2500,000000
-1,000000
2251
8
65,296400
4,773000
#DATA
250.000000	5.605126
251.000000	5.595586
252.000000	5.580568
253.000000	5.576099
254.000000	5.542760
255.000000	5.548304
256.000000	5.529393
257.000000	5.518215
258.000000	5.522932
259.000000	5.501782
260.000000	5.467291
261.000000	5.432478
262.000000	5.421924
263.000000	5.418429
264.000000	5.364737
265.000000	5.339099
266.000000	5.328940
267.000000	5.292298
268.000000	5.269302
269.000000	5.273000
270.000000	5.245553
271.000000	5.247230
272.000000	5.225229
273.000000	5.211987
274.000000	5.206905
275.000000	5.181329
276.000000	5.142362
277.000000	5.163750
278.000000	5.164136
279.000000	5.131126
280.000000	5.138081
281.000000	5.077394
282.000000	5.110836
283.000000	5.087051
284.000000	5.103036
285.000000	5.094171
286.000000	5.068126
287.000000	5.071913
288.000000	5.054035
289.000000	5.077653
290.000000	5.047731
291.000000	5.049389
292.000000	5.034537
293.000000	5.027082
294.000000	5.029315
295.000000	5.019921
296.000000	5.012469
297.000000	5.003375
298.000000	5.018941
299.000000	4.954700
300.000000	4.966474
301.000000	4.985974
302.000000	4.979006
303.000000	5.002662
304.000000	4.956406
305.000000	4.958640
306.000000	4.945801
307.000000	4.965461
308.000000	4.985456
309.000000	4.976725
310.000000	4.962245
311.000000	4.947225
312.000000	4.931986
313.000000	4.932492
314.000000	4.965396
315.000000	4.931846
316.000000	4.947113
317.000000	5.237295
318.000000	5.343907
319.000000	5.349727
320.000000	5.233023
321.000000	5.180838
322.000000	5.084581
323.000000	5.084340
324.000000	5.117320
325.000000	5.103131
326.000000	5.143516
327.000000	5.033697
328.000000	5.059721
329.000000	5.115256
330.000000	5.031329
331.000000	5.089647
332.000000	4.961713
333.000000	4.996821
334.000000	5.093609
335.000000	4.959666
336.000000	4.971706
337.000000	4.937201
338.000000	4.938130
339.000000	4.915221
340.000000	4.977451
341.000000	4.984663
342.000000	4.937759
343.000000	4.911248
344.000000	4.900222
345.000000	4.885657
346.000000	4.942404
347.000000	4.902063
348.000000	4.871705
349.000000	4.881916
350.000000	4.832320
351.000000	4.880334
352.000000	4.908857
353.000000	4.881581
354.000000	4.893167
355.000000	4.860054
356.000000	4.855589
357.000000	4.850781
358.000000	4.872219
359.000000	4.891176
360.000000	4.880647
361.000000	4.873900
362.000000	4.876035
363.000000	4.899889
364.000000	4.854775
365.000000	4.888886
366.000000	4.887095
367.000000	4.886625
368.000000	4.881893
369.000000	4.850490
370.000000	4.830754
371.000000	4.816181
372.000000	4.846656
373.000000	4.820029
374.000000	4.755284
375.000000	4.763823
376.000000	4.926210
377.000000	4.961258
378.000000	4.978768
379.000000	4.994673
380.000000	5.007321
381.000000	5.014047
382.000000	5.024932
383.000000	5.043409
384.000000	5.059678
385.000000	5.065957
386.000000	5.085460
387.000000	5.099809
388.000000	5.108639
389.000000	5.129392
390.000000	5.150877
391.000000	5.169908
392.000000	5.186770
393.000000	5.215473
394.000000	5.239517
395.000000	5.268337
396.000000	5.295840
397.000000	5.320741
398.000000	5.360632
399.000000	5.398356
400.000000	5.441546
401.000000	5.490572
402.000000	5.546366
403.000000	5.602257
404.000000	5.666046
405.000000	5.736652
406.000000	5.812348
407.000000	5.896353
408.000000	5.987529
409.000000	6.086102
410.000000	6.187647
411.000000	6.297462
412.000000	6.418666
413.000000	6.548769
414.000000	6.687263
415.000000	6.835437
416.000000	6.990752
417.000000	7.156178
418.000000	7.328687
419.000000	7.509109
420.000000	7.704513
421.000000	7.909223
422.000000	8.118489
423.000000	8.328796
424.000000	8.551040
425.000000	8.777842
426.000000	9.011934
427.000000	9.250170
428.000000	9.490887
429.000000	9.736915
430.000000	9.988134
431.000000	10.247564
432.000000	10.504015
433.000000	10.763420
434.000000	11.038610
435.000000	11.307726
436.000000	11.566892
437.000000	11.836122
438.000000	12.106356
439.000000	12.363537
440.000000	12.623581
441.000000	12.887056
442.000000	13.147131
443.000000	13.399295
444.000000	13.643568
445.000000	13.895690
446.000000	14.144854
447.000000	14.378229
448.000000	14.606517
449.000000	14.825839
450.000000	15.032796
451.000000	15.244500
452.000000	15.452866
453.000000	15.649255
454.000000	15.841553
455.000000	16.030470
456.000000	16.204428
457.000000	16.377204
458.000000	16.541702
459.000000	16.707038
460.000000	16.870739
461.000000	17.023470
462.000000	17.172932
463.000000	17.318090
464.000000	17.459938
465.000000	17.593165
466.000000	17.725429
467.000000	17.855196
468.000000	17.975481
469.000000	18.091065
470.000000	18.200476
471.000000	18.308963
472.000000	18.417519
473.000000	18.515551
474.000000	18.606102
475.000000	18.704183
476.000000	18.794337
477.000000	18.874615
478.000000	18.951213
479.000000	19.030228
480.000000	19.100459
481.000000	19.161620
482.000000	19.209249
483.000000	19.272205
484.000000	19.342022
485.000000	19.416280
486.000000	19.505618
487.000000	19.599033
488.000000	19.707469
489.000000	19.824456
490.000000	19.963381
491.000000	20.125411
492.000000	20.309454
493.000000	20.519823
494.000000	20.762623
495.000000	21.023149
496.000000	21.320450
497.000000	21.642350
498.000000	21.992946
499.000000	22.372374
500.000000	22.774947
501.000000	23.212480
502.000000	23.666457
503.000000	24.145866
504.000000	24.647735
505.000000	25.159045
506.000000	25.689921
507.000000	26.229917
508.000000	26.779419
509.000000	27.354740
510.000000	27.940358
511.000000	28.545740
512.000000	29.163645
513.000000	29.791158
514.000000	30.431072
515.000000	31.086401
516.000000	31.745073
517.000000	32.419536
518.000000	33.105725
519.000000	33.811595
520.000000	34.528386
521.000000	35.267898
522.000000	36.013069
523.000000	36.780550
524.000000	37.567604
525.000000	38.358530
526.000000	39.156947
527.000000	39.965285
528.000000	40.784662
529.000000	41.616572
530.000000	42.470368
531.000000	43.328134
532.000000	44.188562
533.000000	45.052799
534.000000	45.927978
535.000000	46.784303
536.000000	47.622354
537.000000	48.446360
538.000000	49.236976
539.000000	49.997047
540.000000	50.725758
541.000000	51.460213
542.000000	52.145849
543.000000	52.806359
544.000000	53.418942
545.000000	54.015250
546.000000	54.565634
547.000000	55.080990
548.000000	55.584286
549.000000	56.025725
550.000000	56.418061
551.000000	56.784060
552.000000	57.116290
553.000000	57.413564
554.000000	57.646591
555.000000	57.869551
556.000000	58.072446
557.000000	58.247285
558.000000	58.409031
559.000000	58.543683
560.000000	58.741763
561.000000	58.857822
562.000000	58.965354
563.000000	59.059409
564.000000	59.120927
565.000000	59.178637
566.000000	59.219974
567.000000	59.231204
568.000000	59.248199
569.000000	59.230924
570.000000	59.191034
571.000000	59.150723
572.000000	59.097104
573.000000	59.048010
574.000000	58.973432
575.000000	58.915139
576.000000	58.836401
577.000000	58.776059
578.000000	58.719418
579.000000	58.629623
580.000000	58.563923
581.000000	58.448585
582.000000	58.338080
583.000000	58.227433
584.000000	58.077211
585.000000	57.903870
586.000000	57.720095
587.000000	57.478511
588.000000	57.205804
589.000000	56.922540
590.000000	56.611219
591.000000	56.260666
592.000000	55.921446
593.000000	55.565328
594.000000	55.201645
595.000000	54.838377
596.000000	54.458365
597.000000	54.065056
598.000000	53.682373
599.000000	53.282549
600.000000	52.854862
601.000000	52.450000
602.000000	51.994648
603.000000	51.534417
604.000000	51.083486
605.000000	50.606795
606.000000	50.105366
607.000000	49.578501
608.000000	49.064349
609.000000	48.496798
610.000000	47.941072
611.000000	47.344092
612.000000	46.758323
613.000000	46.161638
614.000000	45.573194
615.000000	45.042273
616.000000	44.502140
617.000000	44.006282
618.000000	43.551409
619.000000	43.156597
620.000000	42.779499
621.000000	42.464374
622.000000	42.184671
623.000000	41.977820
624.000000	41.800858
625.000000	41.673314
626.000000	41.581980
627.000000	41.521880
628.000000	41.516362
629.000000	41.531329
630.000000	41.591669
631.000000	41.656638
632.000000	41.766694
633.000000	41.900143
634.000000	42.046210
635.000000	42.218868
636.000000	42.406693
637.000000	42.611850
638.000000	42.795279
639.000000	43.020591
640.000000	43.230985
641.000000	43.430944
642.000000	43.622329
643.000000	43.828450
644.000000	44.005769
645.000000	44.182123
646.000000	44.320653
647.000000	44.436196
648.000000	44.569102
649.000000	44.670303
650.000000	44.752538
651.000000	44.814137
652.000000	44.895890
653.000000	44.949262
654.000000	44.992910
655.000000	45.043112
656.000000	45.044687
657.000000	45.069017
658.000000	45.115155
659.000000	45.123841
660.000000	45.134434
661.000000	45.188291
662.000000	45.227984
663.000000	45.236086
664.000000	45.273957
665.000000	45.317961
666.000000	45.379566
667.000000	45.442332
668.000000	45.526468
669.000000	45.598816
670.000000	45.682669
671.000000	45.784152
672.000000	45.891086
673.000000	45.998349
674.000000	46.124301
675.000000	46.243930
676.000000	46.367994
677.000000	46.527005
678.000000	46.672530
679.000000	46.851780
680.000000	47.015855
681.000000	47.216648
682.000000	47.405350
683.000000	47.617468
684.000000	47.806965
685.000000	48.027028
686.000000	48.227471
687.000000	48.439929
688.000000	48.660501
689.000000	48.846670
690.000000	49.033482
691.000000	49.216079
692.000000	49.408428
693.000000	49.580048
694.000000	49.757615
695.000000	49.923094
696.000000	50.085553
697.000000	50.243244
698.000000	50.382649
699.000000	50.531029
700.000000	50.690387
701.000000	50.819475
702.000000	50.934729
703.000000	51.069561
704.000000	51.200100
705.000000	51.330125
706.000000	51.417532
707.000000	51.496680
708.000000	51.599213
709.000000	51.678147
710.000000	51.754869
711.000000	51.849554
712.000000	51.926660
713.000000	52.001705
714.000000	52.072133
715.000000	52.150818
716.000000	52.220752
717.000000	52.283687
718.000000	52.342873
719.000000	52.415618
720.000000	52.475429
721.000000	52.524447
722.000000	52.577939
723.000000	52.633913
724.000000	52.684389
725.000000	52.738339
726.000000	52.801906
727.000000	52.843925
728.000000	52.903212
729.000000	52.971492
730.000000	53.024173
731.000000	53.104033
732.000000	53.183407
733.000000	53.247552
734.000000	53.325249
735.000000	53.398565
736.000000	53.470376
737.000000	53.546298
738.000000	53.635420
739.000000	53.688374
740.000000	53.737661
741.000000	53.798952
742.000000	53.879880
743.000000	53.943850
744.000000	54.016141
745.000000	54.095105
746.000000	54.165736
747.000000	54.230647
748.000000	54.310612
749.000000	54.402459
750.000000	54.485374
751.000000	54.582381
752.000000	54.671019
753.000000	54.768572
754.000000	54.882407
755.000000	54.968242
756.000000	55.020468
757.000000	55.094457
758.000000	55.196393
759.000000	55.249676
760.000000	55.340096
761.000000	55.449942
762.000000	55.499593
763.000000	55.546240
764.000000	55.636549
765.000000	55.693098
766.000000	55.748083
767.000000	55.845505
768.000000	55.951476
769.000000	56.020262
770.000000	56.055992
771.000000	56.138744
772.000000	56.247957
773.000000	56.349270
774.000000	56.425000
775.000000	56.477342
776.000000	56.545413
777.000000	56.608363
778.000000	56.641985
779.000000	56.689304
780.000000	56.750625
781.000000	56.833837
782.000000	56.896260
783.000000	56.947197
784.000000	57.015812
785.000000	57.081548
786.000000	57.154687
787.000000	57.208313
788.000000	57.277715
789.000000	57.362629
790.000000	57.424694
791.000000	57.527018
792.000000	57.628500
793.000000	57.691962
794.000000	57.766148
795.000000	57.804861
796.000000	57.912674
797.000000	58.028682
798.000000	58.099997
799.000000	58.146307
800.000000	58.239432
801.000000	58.318835
802.000000	58.394949
803.000000	58.489826
804.000000	58.578421
805.000000	58.671096
806.000000	58.797310
807.000000	58.859652
808.000000	58.933644
809.000000	59.041507
810.000000	59.175043
811.000000	59.281987
812.000000	59.370600
813.000000	59.501898
814.000000	59.626558
815.000000	59.743965
816.000000	59.772206
817.000000	59.923121
818.000000	60.051714
819.000000	60.054372
820.000000	60.219101
821.000000	60.399577
822.000000	60.515374
823.000000	60.577932
824.000000	60.644359
825.000000	60.707401
826.000000	60.791208
827.000000	60.868336
828.000000	60.944302
829.000000	60.988402
830.000000	60.997890
831.000000	61.174201
832.000000	61.229974
833.000000	61.277398
834.000000	61.295608
835.000000	61.390722
836.000000	61.384400
837.000000	61.350097
838.000000	61.441381
839.000000	61.520008
840.000000	61.574406
841.000000	61.583802
842.000000	61.563928
843.000000	61.610115
844.000000	61.617983
845.000000	61.696645
846.000000	61.575614
847.000000	61.603311
848.000000	61.650238
849.000000	61.618137
850.000000	61.610829
851.000000	61.665825
852.000000	61.473042
853.000000	61.636216
854.000000	61.658243
855.000000	61.506553
856.000000	61.605691
857.000000	61.673448
858.000000	62.053680
859.000000	61.538040
860.000000	61.591840
861.000000	61.622540
862.000000	61.642100
863.000000	61.633240
864.000000	61.632280
865.000000	61.613680
866.000000	61.619720
867.000000	61.668200
868.000000	61.745640
869.000000	61.818980
870.000000	61.899640
871.000000	61.973420
872.000000	62.025480
873.000000	62.083240
874.000000	62.111520
875.000000	62.133060
876.000000	62.162360
877.000000	62.173620
878.000000	62.195580
879.000000	62.193780
880.000000	62.189680
881.000000	62.186420
882.000000	62.168540
883.000000	62.165000
884.000000	62.153300
885.000000	62.145840
886.000000	62.111860
887.000000	62.059080
888.000000	62.024780
889.000000	62.001620
890.000000	61.960880
891.000000	61.907720
892.000000	61.854360
893.000000	61.797500
894.000000	61.719260
895.000000	61.647020
896.000000	61.565940
897.000000	61.489600
898.000000	61.407640
899.000000	61.326880
900.000000	61.236500
901.000000	61.150340
902.000000	61.055340
903.000000	60.950480
904.000000	60.863880
905.000000	60.770540
906.000000	60.694420
907.000000	60.602460
908.000000	60.534460
909.000000	60.470580
910.000000	60.418240
911.000000	60.352680
912.000000	60.308100
913.000000	60.243380
914.000000	60.206960
915.000000	60.168160
916.000000	60.119980
917.000000	60.065360
918.000000	60.014360
919.000000	59.980920
920.000000	59.937380
921.000000	59.873100
922.000000	59.826320
923.000000	59.763660
924.000000	59.700020
925.000000	59.652060
926.000000	59.588220
927.000000	59.536360
928.000000	59.485080
929.000000	59.432760
930.000000	59.378600
931.000000	59.319420
932.000000	59.266480
933.000000	59.211140
934.000000	59.169460
935.000000	59.110120
936.000000	59.071260
937.000000	59.038520
938.000000	58.978900
939.000000	58.925320
940.000000	58.879000
941.000000	58.814880
942.000000	58.772480
943.000000	58.723920
944.000000	58.674820
945.000000	58.625120
946.000000	58.586260
947.000000	58.529640
948.000000	58.478340
949.000000	58.421180
950.000000	58.377500
951.000000	58.336940
952.000000	58.286320
953.000000	58.244100
954.000000	58.194780
955.000000	58.146280
956.000000	58.083920
957.000000	58.026760
958.000000	57.974260
959.000000	57.924840
960.000000	57.858900
961.000000	57.793240
962.000000	57.732260
963.000000	57.678680
964.000000	57.639400
965.000000	57.587900
966.000000	57.536800
967.000000	57.495940
968.000000	57.452500
969.000000	57.415380
970.000000	57.377280
971.000000	57.332420
972.000000	57.305940
973.000000	57.271040
974.000000	57.237780
975.000000	57.202900
976.000000	57.175040
977.000000	57.140940
978.000000	57.114720
979.000000	57.077300
980.000000	57.043800
981.000000	57.021100
982.000000	56.990220
983.000000	56.961880
984.000000	56.929580
985.000000	56.898520
986.000000	56.878560
987.000000	56.866880
988.000000	56.842500
989.000000	56.817160
990.000000	56.809060
991.000000	56.798580
992.000000	56.783220
993.000000	56.776720
994.000000	56.772260
995.000000	56.766560
996.000000	56.763200
997.000000	56.761000
998.000000	56.753280
999.000000	56.747160
1000.000000	56.752020
1001.000000	56.765000
1002.000000	56.763120
1003.000000	56.761380
1004.000000	56.762400
1005.000000	56.759280
1006.000000	56.763860
1007.000000	56.766500
1008.000000	56.766520
1009.000000	56.769720
1010.000000	56.772460
1011.000000	56.779520
1012.000000	56.793940
1013.000000	56.815600
1014.000000	56.836860
1015.000000	56.868400
1016.000000	56.907980
1017.000000	56.949820
1018.000000	56.991620
1019.000000	57.034880
1020.000000	57.087200
1021.000000	57.141820
1022.000000	57.195840
1023.000000	57.251320
1024.000000	57.309500
1025.000000	57.364880
1026.000000	57.421060
1027.000000	57.485400
1028.000000	57.543100
1029.000000	57.597920
1030.000000	57.653860
1031.000000	57.703900
1032.000000	57.757320
1033.000000	57.805220
1034.000000	57.852860
1035.000000	57.904140
1036.000000	57.949320
1037.000000	57.996640
1038.000000	58.042540
1039.000000	58.091840
1040.000000	58.135520
1041.000000	58.171840
1042.000000	58.212040
1043.000000	58.245800
1044.000000	58.280620
1045.000000	58.323460
1046.000000	58.370600
1047.000000	58.414480
1048.000000	58.459680
1049.000000	58.501040
1050.000000	58.544180
1051.000000	58.591620
1052.000000	58.633360
1053.000000	58.677300
1054.000000	58.733780
1055.000000	58.790700
1056.000000	58.838540
1057.000000	58.886260
1058.000000	58.940460
1059.000000	59.001220
1060.000000	59.048920
1061.000000	59.092020
1062.000000	59.147420
1063.000000	59.194260
1064.000000	59.240080
1065.000000	59.283120
1066.000000	59.331320
1067.000000	59.379840
1068.000000	59.423420
1069.000000	59.465680
1070.000000	59.508520
1071.000000	59.551120
1072.000000	59.595360
1073.000000	59.640140
1074.000000	59.679160
1075.000000	59.719660
1076.000000	59.756220
1077.000000	59.797480
1078.000000	59.837120
1079.000000	59.879360
1080.000000	59.919680
1081.000000	59.958060
1082.000000	60.000940
1083.000000	60.041700
1084.000000	60.089000
1085.000000	60.127820
1086.000000	60.160300
1087.000000	60.202000
1088.000000	60.242980
1089.000000	60.286500
1090.000000	60.318580
1091.000000	60.360220
1092.000000	60.396500
1093.000000	60.428260
1094.000000	60.455120
1095.000000	60.480940
1096.000000	60.521760
1097.000000	60.557060
1098.000000	60.581720
1099.000000	60.606040
1100.000000	60.628140
1101.000000	60.646700
1102.000000	60.676020
1103.000000	60.690080
1104.000000	60.708480
1105.000000	60.722960
1106.000000	60.740300
1107.000000	60.750860
1108.000000	60.772600
1109.000000	60.793260
1110.000000	60.809920
1111.000000	60.826140
1112.000000	60.841280
1113.000000	60.845100
1114.000000	60.870880
1115.000000	60.884860
1116.000000	60.907760
1117.000000	60.919460
1118.000000	60.920760
1119.000000	60.909460
1120.000000	60.910400
1121.000000	60.898040
1122.000000	60.880120
1123.000000	60.855520
1124.000000	60.813200
1125.000000	60.758300
1126.000000	60.698540
1127.000000	60.618960
1128.000000	60.527640
1129.000000	60.424760
1130.000000	60.288640
1131.000000	60.109620
1132.000000	59.910220
1133.000000	59.717800
1134.000000	59.520000
1135.000000	59.272560
1136.000000	58.996220
1137.000000	58.694700
1138.000000	58.407620
1139.000000	58.140900
1140.000000	57.877480
1141.000000	57.630760
1142.000000	57.383160
1143.000000	57.145780
1144.000000	56.933340
1145.000000	56.744580
1146.000000	56.591900
1147.000000	56.498260
1148.000000	56.435380
1149.000000	56.411540
1150.000000	56.392980
1151.000000	56.377100
1152.000000	56.356580
1153.000000	56.312280
1154.000000	56.237380
1155.000000	56.117500
1156.000000	55.965400
1157.000000	55.781180
1158.000000	55.550340
1159.000000	55.318360
1160.000000	55.043900
1161.000000	54.775940
1162.000000	54.483140
1163.000000	54.201740
1164.000000	53.904360
1165.000000	53.600900
1166.000000	53.306080
1167.000000	53.021380
1168.000000	52.733440
