PE UV       SUBTECH     SPECTRUM    ASCII       PEDS        4.00        
   -1
CICIMAUCR0108-3.Sample.ASC
24/04/22
10:06:33.00
24/04/22
10:06:33.00
Vinicio Soto Monge
C. resplendens
250,000000
1
Lambda 1050
1050L1511233
PerkinElmer UV WinLab 6.3.2.0749 / 2.02.05 Lambda 900 UV/VIS/NIR, Aug  7 2015 09:38:08

0
0
3350/servo 860,8/2
0
0
UV/VIS
1
1
1
DoubleDePol,CommonBeamDepol,RBeamAtt,SBeamAtt,60mm sphere, WB InGaAs Detector
0
0
0
0
Program
Program
3350/servo 860,8/2
3350/0,2 860,8/0,2
3350/0,2 860,8/0,2
0
15.00
 
 
 
0
 
860,8
319,2
860,8
Front
100
on
S:100 R:100
0
0
0
0
 
0
 
 
 
0
 
 
0
0
0
0
0
 
 
 
 
0
0


0
0
#HDR
-1
-1
#GR
nm
%R
1.0
0.0
2500,000000
-1,000000
2251
8
82,967800
5,292400
#DATA
250.000000	5.711674
251.000000	5.729618
252.000000	5.715922
253.000000	5.704432
254.000000	5.682089
255.000000	5.684276
256.000000	5.652538
257.000000	5.666598
258.000000	5.631768
259.000000	5.620138
260.000000	5.616194
261.000000	5.600297
262.000000	5.592043
263.000000	5.536823
264.000000	5.547041
265.000000	5.516196
266.000000	5.495125
267.000000	5.475789
268.000000	5.450444
269.000000	5.423930
270.000000	5.422874
271.000000	5.403229
272.000000	5.388944
273.000000	5.386760
274.000000	5.370883
275.000000	5.348799
276.000000	5.320114
277.000000	5.322025
278.000000	5.335158
279.000000	5.303475
280.000000	5.296320
281.000000	5.329328
282.000000	5.291711
283.000000	5.309276
284.000000	5.283308
285.000000	5.245864
286.000000	5.274004
287.000000	5.247127
288.000000	5.245432
289.000000	5.282700
290.000000	5.251515
291.000000	5.229571
292.000000	5.192235
293.000000	5.237061
294.000000	5.220839
295.000000	5.257235
296.000000	5.218632
297.000000	5.250615
298.000000	5.185857
299.000000	5.208093
300.000000	5.238526
301.000000	5.222778
302.000000	5.197371
303.000000	5.221267
304.000000	5.229511
305.000000	5.226447
306.000000	5.188071
307.000000	5.200110
308.000000	5.173243
309.000000	5.200190
310.000000	5.176308
311.000000	5.207139
312.000000	5.196158
313.000000	5.215256
314.000000	5.195459
315.000000	5.183244
316.000000	5.222220
317.000000	5.606255
318.000000	5.529715
319.000000	5.308569
320.000000	5.347619
321.000000	5.497873
322.000000	5.320430
323.000000	5.383028
324.000000	5.313640
325.000000	5.323996
326.000000	5.379834
327.000000	5.272339
328.000000	5.335118
329.000000	5.315041
330.000000	5.200447
331.000000	5.298533
332.000000	5.304069
333.000000	5.337074
334.000000	5.341879
335.000000	5.392846
336.000000	5.273584
337.000000	5.340197
338.000000	5.290947
339.000000	5.284352
340.000000	5.261591
341.000000	5.241217
342.000000	5.274265
343.000000	5.310194
344.000000	5.320928
345.000000	5.317424
346.000000	5.380659
347.000000	5.343851
348.000000	5.339415
349.000000	5.289606
350.000000	5.327894
351.000000	5.354951
352.000000	5.401136
353.000000	5.422352
354.000000	5.442587
355.000000	5.458457
356.000000	5.453182
357.000000	5.504934
358.000000	5.517250
359.000000	5.578853
360.000000	5.597324
361.000000	5.599310
362.000000	5.622468
363.000000	5.665630
364.000000	5.706559
365.000000	5.726109
366.000000	5.707581
367.000000	5.763216
368.000000	5.798213
369.000000	5.813552
370.000000	5.823746
371.000000	5.863341
372.000000	5.869405
373.000000	5.892473
374.000000	5.889986
375.000000	5.912758
376.000000	6.033579
377.000000	6.064733
378.000000	6.100972
379.000000	6.143987
380.000000	6.186419
381.000000	6.229149
382.000000	6.276830
383.000000	6.322828
384.000000	6.380814
385.000000	6.438004
386.000000	6.500623
387.000000	6.558796
388.000000	6.615433
389.000000	6.687366
390.000000	6.751503
391.000000	6.832942
392.000000	6.921186
393.000000	7.014500
394.000000	7.107339
395.000000	7.218705
396.000000	7.318892
397.000000	7.430651
398.000000	7.559152
399.000000	7.683985
400.000000	7.826853
401.000000	7.984835
402.000000	8.148718
403.000000	8.334157
404.000000	8.524074
405.000000	8.723141
406.000000	8.935992
407.000000	9.166791
408.000000	9.411479
409.000000	9.675934
410.000000	9.948624
411.000000	10.238643
412.000000	10.545709
413.000000	10.869955
414.000000	11.217548
415.000000	11.574175
416.000000	11.944868
417.000000	12.325263
418.000000	12.719859
419.000000	13.128359
420.000000	13.554104
421.000000	13.990619
422.000000	14.443254
423.000000	14.902701
424.000000	15.362139
425.000000	15.829682
426.000000	16.301746
427.000000	16.767359
428.000000	17.242565
429.000000	17.717520
430.000000	18.190773
431.000000	18.660136
432.000000	19.133424
433.000000	19.604118
434.000000	20.060087
435.000000	20.500175
436.000000	20.940647
437.000000	21.362455
438.000000	21.763868
439.000000	22.163206
440.000000	22.544162
441.000000	22.913291
442.000000	23.282253
443.000000	23.641652
444.000000	23.960639
445.000000	24.284822
446.000000	24.595899
447.000000	24.881074
448.000000	25.152955
449.000000	25.406260
450.000000	25.645655
451.000000	25.868816
452.000000	26.078958
453.000000	26.286810
454.000000	26.474832
455.000000	26.635697
456.000000	26.787219
457.000000	26.946413
458.000000	27.083234
459.000000	27.198484
460.000000	27.312429
461.000000	27.416721
462.000000	27.509682
463.000000	27.596760
464.000000	27.664549
465.000000	27.721377
466.000000	27.773755
467.000000	27.824145
468.000000	27.870906
469.000000	27.890306
470.000000	27.905456
471.000000	27.922209
472.000000	27.929773
473.000000	27.937324
474.000000	27.947032
475.000000	27.958514
476.000000	27.969047
477.000000	27.993131
478.000000	28.031796
479.000000	28.071776
480.000000	28.106737
481.000000	28.157050
482.000000	28.224211
483.000000	28.303713
484.000000	28.389166
485.000000	28.487397
486.000000	28.596743
487.000000	28.732976
488.000000	28.875775
489.000000	29.044475
490.000000	29.235609
491.000000	29.449268
492.000000	29.704446
493.000000	29.972543
494.000000	30.245402
495.000000	30.532629
496.000000	30.854008
497.000000	31.198696
498.000000	31.553459
499.000000	31.926934
500.000000	32.340453
501.000000	32.770593
502.000000	33.214072
503.000000	33.695685
504.000000	34.201142
505.000000	34.711768
506.000000	35.246164
507.000000	35.792175
508.000000	36.367817
509.000000	36.953086
510.000000	37.545940
511.000000	38.157843
512.000000	38.792669
513.000000	39.479218
514.000000	40.179260
515.000000	40.898290
516.000000	41.650033
517.000000	42.441718
518.000000	43.282196
519.000000	44.153308
520.000000	45.079103
521.000000	46.046807
522.000000	47.045199
523.000000	48.085528
524.000000	49.180192
525.000000	50.281969
526.000000	51.429263
527.000000	52.573161
528.000000	53.766565
529.000000	54.985176
530.000000	56.225331
531.000000	57.496690
532.000000	58.786833
533.000000	60.070890
534.000000	61.376028
535.000000	62.665154
536.000000	63.910822
537.000000	65.126929
538.000000	66.339598
539.000000	67.495894
540.000000	68.624901
541.000000	69.724140
542.000000	70.770239
543.000000	71.755231
544.000000	72.705803
545.000000	73.568249
546.000000	74.379721
547.000000	75.162834
548.000000	75.905424
549.000000	76.555431
550.000000	77.218414
551.000000	77.841282
552.000000	78.387757
553.000000	78.932707
554.000000	79.431484
555.000000	79.905722
556.000000	80.343631
557.000000	80.746333
558.000000	81.097930
559.000000	81.489069
560.000000	81.856815
561.000000	82.165131
562.000000	82.484812
563.000000	82.761233
564.000000	83.009958
565.000000	83.256652
566.000000	83.490009
567.000000	83.726255
568.000000	83.891124
569.000000	84.093229
570.000000	84.276110
571.000000	84.454545
572.000000	84.582244
573.000000	84.700871
574.000000	84.823454
575.000000	84.936073
576.000000	85.027155
577.000000	85.114460
578.000000	85.185881
579.000000	85.239238
580.000000	85.261135
581.000000	85.270796
582.000000	85.318426
583.000000	85.305930
584.000000	85.310074
585.000000	85.278714
586.000000	85.231871
587.000000	85.187708
588.000000	85.138898
589.000000	85.074682
590.000000	84.990327
591.000000	84.922724
592.000000	84.783593
593.000000	84.661356
594.000000	84.491188
595.000000	84.312534
596.000000	84.114001
597.000000	83.900350
598.000000	83.690239
599.000000	83.437997
600.000000	83.138921
601.000000	82.817601
602.000000	82.465405
603.000000	82.108559
604.000000	81.712871
605.000000	81.328813
606.000000	80.909398
607.000000	80.476541
608.000000	80.015599
609.000000	79.508345
610.000000	78.982310
611.000000	78.449845
612.000000	77.858137
613.000000	77.232876
614.000000	76.584807
615.000000	75.945505
616.000000	75.215081
617.000000	74.460695
618.000000	73.694919
619.000000	72.876963
620.000000	71.998116
621.000000	71.140399
622.000000	70.218688
623.000000	69.284890
624.000000	68.319897
625.000000	67.338563
626.000000	66.358609
627.000000	65.359767
628.000000	64.369564
629.000000	63.374544
630.000000	62.357737
631.000000	61.340143
632.000000	60.324994
633.000000	59.351568
634.000000	58.411039
635.000000	57.469298
636.000000	56.566867
637.000000	55.701005
638.000000	54.883981
639.000000	54.100712
640.000000	53.369330
641.000000	52.693912
642.000000	52.105407
643.000000	51.591004
644.000000	51.152466
645.000000	50.802541
646.000000	50.556465
647.000000	50.406298
648.000000	50.349676
649.000000	50.365816
650.000000	50.496104
651.000000	50.693799
652.000000	50.978385
653.000000	51.317792
654.000000	51.724438
655.000000	52.185672
656.000000	52.724737
657.000000	53.281569
658.000000	53.871887
659.000000	54.499732
660.000000	55.132410
661.000000	55.807421
662.000000	56.475516
663.000000	57.174269
664.000000	57.840717
665.000000	58.513578
666.000000	59.129934
667.000000	59.781544
668.000000	60.368348
669.000000	60.919001
670.000000	61.461873
671.000000	61.975102
672.000000	62.439104
673.000000	62.880787
674.000000	63.268547
675.000000	63.640745
676.000000	63.966670
677.000000	64.254452
678.000000	64.532899
679.000000	64.783594
680.000000	64.953988
681.000000	65.155304
682.000000	65.306088
683.000000	65.438490
684.000000	65.541518
685.000000	65.596283
686.000000	65.668403
687.000000	65.740829
688.000000	65.736561
689.000000	65.753413
690.000000	65.754227
691.000000	65.730464
692.000000	65.711262
693.000000	65.685993
694.000000	65.634064
695.000000	65.578598
696.000000	65.518404
697.000000	65.463505
698.000000	65.401035
699.000000	65.308705
700.000000	65.255165
701.000000	65.209740
702.000000	65.144492
703.000000	65.068606
704.000000	64.980610
705.000000	64.936223
706.000000	64.919847
707.000000	64.885295
708.000000	64.876797
709.000000	64.872220
710.000000	64.872894
711.000000	64.879880
712.000000	64.959181
713.000000	65.018966
714.000000	65.080624
715.000000	65.184171
716.000000	65.330393
717.000000	65.509216
718.000000	65.679573
719.000000	65.904325
720.000000	66.125443
721.000000	66.373945
722.000000	66.651458
723.000000	66.921466
724.000000	67.269706
725.000000	67.615265
726.000000	67.908554
727.000000	68.237989
728.000000	68.607841
729.000000	68.938117
730.000000	69.286476
731.000000	69.673754
732.000000	70.047372
733.000000	70.412339
734.000000	70.764720
735.000000	71.094372
736.000000	71.439739
737.000000	71.777315
738.000000	72.097160
739.000000	72.459441
740.000000	72.757415
741.000000	73.032763
742.000000	73.320025
743.000000	73.597949
744.000000	73.874918
745.000000	74.110530
746.000000	74.316249
747.000000	74.502917
748.000000	74.716464
749.000000	74.964510
750.000000	75.154159
751.000000	75.284944
752.000000	75.458806
753.000000	75.649457
754.000000	75.781453
755.000000	75.923743
756.000000	76.088081
757.000000	76.183119
758.000000	76.299804
759.000000	76.437683
760.000000	76.520349
761.000000	76.644004
762.000000	76.734064
763.000000	76.751411
764.000000	76.854888
765.000000	76.971931
766.000000	77.034931
767.000000	77.060809
768.000000	77.085642
769.000000	77.161701
770.000000	77.234667
771.000000	77.276509
772.000000	77.297525
773.000000	77.344365
774.000000	77.331455
775.000000	77.337608
776.000000	77.382848
777.000000	77.405687
778.000000	77.378566
779.000000	77.370909
780.000000	77.375555
781.000000	77.362804
782.000000	77.331879
783.000000	77.338444
784.000000	77.354343
785.000000	77.401593
786.000000	77.394362
787.000000	77.407265
788.000000	77.358167
789.000000	77.403792
790.000000	77.447975
791.000000	77.451677
792.000000	77.554737
793.000000	77.586888
794.000000	77.631816
795.000000	77.618992
796.000000	77.720448
797.000000	77.800220
798.000000	77.897041
799.000000	78.021354
800.000000	78.074538
801.000000	78.090370
802.000000	78.188503
803.000000	78.302384
804.000000	78.478164
805.000000	78.527415
806.000000	78.716971
807.000000	78.881903
808.000000	78.986435
809.000000	79.072609
810.000000	79.290980
811.000000	79.436290
812.000000	79.578365
813.000000	79.692342
814.000000	79.795018
815.000000	79.790490
816.000000	79.880682
817.000000	80.101167
818.000000	80.120682
819.000000	80.118237
820.000000	80.225809
821.000000	80.210893
822.000000	80.169083
823.000000	80.174138
824.000000	80.154813
825.000000	80.056073
826.000000	80.042873
827.000000	80.090721
828.000000	80.018994
829.000000	79.825678
830.000000	79.844322
831.000000	79.746960
832.000000	79.734231
833.000000	79.533084
834.000000	79.455679
835.000000	79.384555
836.000000	79.260036
837.000000	79.173058
838.000000	79.059580
839.000000	78.810819
840.000000	78.690758
841.000000	78.421279
842.000000	78.409478
843.000000	78.313583
844.000000	78.225362
845.000000	77.839141
846.000000	77.895007
847.000000	77.757086
848.000000	77.518107
849.000000	77.385700
850.000000	77.217907
851.000000	77.021756
852.000000	76.794430
853.000000	76.786457
854.000000	76.533404
855.000000	76.638062
856.000000	76.251087
857.000000	75.845247
858.000000	76.059367
859.000000	75.756967
860.000000	75.803300
861.000000	75.874233
862.000000	75.884100
863.000000	75.892967
864.000000	75.830633
865.000000	75.789433
866.000000	75.714400
867.000000	75.618800
868.000000	75.515000
869.000000	75.412567
870.000000	75.301533
871.000000	75.187333
872.000000	75.048267
873.000000	74.911267
874.000000	74.797400
875.000000	74.658967
876.000000	74.526333
877.000000	74.376833
878.000000	74.219000
879.000000	74.059100
880.000000	73.922167
881.000000	73.767033
882.000000	73.600700
883.000000	73.467633
884.000000	73.309267
885.000000	73.141233
886.000000	72.956300
887.000000	72.784667
888.000000	72.626133
889.000000	72.466533
890.000000	72.295967
891.000000	72.111500
892.000000	71.945067
893.000000	71.758567
894.000000	71.568800
895.000000	71.365267
896.000000	71.171567
897.000000	70.984533
898.000000	70.779867
899.000000	70.580367
900.000000	70.369133
901.000000	70.148733
902.000000	69.923633
903.000000	69.699033
904.000000	69.485600
905.000000	69.267200
906.000000	69.049500
907.000000	68.831033
908.000000	68.607000
909.000000	68.397700
910.000000	68.214700
911.000000	68.016100
912.000000	67.818967
913.000000	67.602367
914.000000	67.402933
915.000000	67.214167
916.000000	67.036233
917.000000	66.844433
918.000000	66.654900
919.000000	66.458833
920.000000	66.263667
921.000000	66.084133
922.000000	65.872700
923.000000	65.689100
924.000000	65.503033
925.000000	65.332200
926.000000	65.163833
927.000000	64.998867
928.000000	64.821167
929.000000	64.672800
930.000000	64.520300
931.000000	64.379133
932.000000	64.247967
933.000000	64.123333
934.000000	63.964967
935.000000	63.829567
936.000000	63.707533
937.000000	63.581033
938.000000	63.461500
939.000000	63.322100
940.000000	63.199400
941.000000	63.093167
942.000000	62.964067
943.000000	62.850867
944.000000	62.745600
945.000000	62.643867
946.000000	62.531033
947.000000	62.429867
948.000000	62.313633
949.000000	62.215033
950.000000	62.111867
951.000000	61.999433
952.000000	61.889633
953.000000	61.785933
954.000000	61.684500
955.000000	61.561567
956.000000	61.446467
957.000000	61.334367
958.000000	61.213067
959.000000	61.085900
960.000000	60.951033
961.000000	60.826800
962.000000	60.689867
963.000000	60.562067
964.000000	60.433300
965.000000	60.308267
966.000000	60.184933
967.000000	60.058200
968.000000	59.933833
969.000000	59.809933
970.000000	59.686433
971.000000	59.572067
972.000000	59.452633
973.000000	59.332933
974.000000	59.217700
975.000000	59.110267
976.000000	58.987300
977.000000	58.885100
978.000000	58.777300
979.000000	58.663667
980.000000	58.553533
981.000000	58.453000
982.000000	58.348133
983.000000	58.239433
984.000000	58.143600
985.000000	58.037267
986.000000	57.943867
987.000000	57.851900
988.000000	57.776500
989.000000	57.700300
990.000000	57.626567
991.000000	57.561367
992.000000	57.508400
993.000000	57.446733
994.000000	57.401433
995.000000	57.365433
996.000000	57.331933
997.000000	57.294933
998.000000	57.260200
999.000000	57.232833
1000.000000	57.209033
1001.000000	57.194567
1002.000000	57.184400
1003.000000	57.167533
1004.000000	57.155567
1005.000000	57.145167
1006.000000	57.136533
1007.000000	57.126533
1008.000000	57.122700
1009.000000	57.122600
1010.000000	57.119200
1011.000000	57.112000
1012.000000	57.116733
1013.000000	57.122733
1014.000000	57.144133
1015.000000	57.173467
1016.000000	57.197667
1017.000000	57.220833
1018.000000	57.246333
1019.000000	57.279833
1020.000000	57.321400
1021.000000	57.364600
1022.000000	57.394000
1023.000000	57.415967
1024.000000	57.440733
1025.000000	57.483067
1026.000000	57.522033
1027.000000	57.553933
1028.000000	57.582867
1029.000000	57.603733
1030.000000	57.627733
1031.000000	57.647667
1032.000000	57.659733
1033.000000	57.678633
1034.000000	57.695067
1035.000000	57.708200
1036.000000	57.722067
1037.000000	57.733167
1038.000000	57.741300
1039.000000	57.753767
1040.000000	57.762767
1041.000000	57.773533
1042.000000	57.792133
1043.000000	57.807367
1044.000000	57.822300
1045.000000	57.833900
1046.000000	57.848833
1047.000000	57.870567
1048.000000	57.886933
1049.000000	57.912767
1050.000000	57.945767
1051.000000	57.973200
1052.000000	58.005367
1053.000000	58.045267
1054.000000	58.089967
1055.000000	58.129067
1056.000000	58.176700
1057.000000	58.240233
1058.000000	58.291167
1059.000000	58.345467
1060.000000	58.406267
1061.000000	58.464100
1062.000000	58.519233
1063.000000	58.578467
1064.000000	58.636867
1065.000000	58.691667
1066.000000	58.751300
1067.000000	58.807067
1068.000000	58.869100
1069.000000	58.931667
1070.000000	58.985133
1071.000000	59.047233
1072.000000	59.103000
1073.000000	59.161667
1074.000000	59.229200
1075.000000	59.290367
1076.000000	59.342267
1077.000000	59.404600
1078.000000	59.470700
1079.000000	59.531833
1080.000000	59.581100
1081.000000	59.638300
1082.000000	59.698933
1083.000000	59.754367
1084.000000	59.818233
1085.000000	59.875533
1086.000000	59.934567
1087.000000	59.990567
1088.000000	60.052200
1089.000000	60.099367
1090.000000	60.144367
1091.000000	60.200800
1092.000000	60.253433
1093.000000	60.303667
1094.000000	60.342767
1095.000000	60.384133
1096.000000	60.428600
1097.000000	60.468767
1098.000000	60.503667
1099.000000	60.529767
1100.000000	60.571700
1101.000000	60.593900
1102.000000	60.628667
1103.000000	60.656733
1104.000000	60.670167
1105.000000	60.703467
1106.000000	60.726733
1107.000000	60.736500
1108.000000	60.770967
1109.000000	60.784000
1110.000000	60.804667
1111.000000	60.821133
1112.000000	60.843267
1113.000000	60.857767
1114.000000	60.876633
1115.000000	60.900900
1116.000000	60.909433
1117.000000	60.918300
1118.000000	60.936833
1119.000000	60.949967
1120.000000	60.929700
1121.000000	60.917800
1122.000000	60.904100
1123.000000	60.879667
1124.000000	60.853900
1125.000000	60.795033
1126.000000	60.753533
1127.000000	60.678500
1128.000000	60.603667
1129.000000	60.509167
1130.000000	60.392167
1131.000000	60.218900
1132.000000	60.041767
1133.000000	59.835100
1134.000000	59.667467
1135.000000	59.460567
1136.000000	59.191967
1137.000000	58.909533
1138.000000	58.634533
1139.000000	58.374400
1140.000000	58.117600
1141.000000	57.883633
1142.000000	57.640033
1143.000000	57.412433
1144.000000	57.198333
1145.000000	57.030167
1146.000000	56.907700
1147.000000	56.817000
1148.000000	56.784733
1149.000000	56.794100
1150.000000	56.811133
1151.000000	56.829367
1152.000000	56.847700
1153.000000	56.837967
1154.000000	56.798867
1155.000000	56.724900
1156.000000	56.601100
1157.000000	56.434633
1158.000000	56.229033
1159.000000	55.989900
1160.000000	55.752933
1161.000000	55.501667
1162.000000	55.246567
1163.000000	54.984267
1164.000000	54.695033
1165.000000	54.409200
1166.000000	54.141833
1167.000000	53.883767
