PE UV       SUBTECH     SPECTRUM    ASCII       PEDS        4.00        
   -1
CICIMAUCR0108-3.Sample.ASC
24/04/22
10:06:33.00
24/04/22
10:06:33.00
Vinicio Soto Monge
C. resplendens
250,000000
1
Lambda 1050
1050L1511233
PerkinElmer UV WinLab 6.3.2.0749 / 2.02.05 Lambda 900 UV/VIS/NIR, Aug  7 2015 09:38:08

0
0
3350/servo 860,8/2
0
0
UV/VIS
1
1
1
DoubleDePol,CommonBeamDepol,RBeamAtt,SBeamAtt,60mm sphere, WB InGaAs Detector
0
0
0
0
Program
Program
3350/servo 860,8/2
3350/0,2 860,8/0,2
3350/0,2 860,8/0,2
0
15.00
 
 
 
0
 
860,8
319,2
860,8
Front
100
on
S:100 R:100
0
0
0
0
 
0
 
 
 
0
 
 
0
0
0
0
0
 
 
 
 
0
0


0
0
#HDR
-1
-1
#GR
nm
%R
1.0
0.0
2500,000000
-1,000000
2251
8
82,967800
5,292400
#DATA
250.000000	5.869533
251.000000	5.887500
252.000000	5.873467
253.000000	5.862267
254.000000	5.839167
255.000000	5.841033
256.000000	5.808967
257.000000	5.823600
258.000000	5.788367
259.000000	5.775667
260.000000	5.771333
261.000000	5.754167
262.000000	5.746633
263.000000	5.689600
264.000000	5.700133
265.000000	5.668467
266.000000	5.647033
267.000000	5.626933
268.000000	5.600600
269.000000	5.574900
270.000000	5.572500
271.000000	5.551833
272.000000	5.537667
273.000000	5.535400
274.000000	5.519067
275.000000	5.496533
276.000000	5.467667
277.000000	5.468567
278.000000	5.482300
279.000000	5.449500
280.000000	5.442700
281.000000	5.476533
282.000000	5.438800
283.000000	5.456000
284.000000	5.428267
285.000000	5.390167
286.000000	5.419800
287.000000	5.391367
288.000000	5.390700
289.000000	5.427700
290.000000	5.396033
291.000000	5.373500
292.000000	5.335967
293.000000	5.381000
294.000000	5.364600
295.000000	5.401800
296.000000	5.362400
297.000000	5.395100
298.000000	5.328367
299.000000	5.351767
300.000000	5.382300
301.000000	5.366933
302.000000	5.340967
303.000000	5.364633
304.000000	5.372967
305.000000	5.370567
306.000000	5.331100
307.000000	5.342500
308.000000	5.315633
309.000000	5.343033
310.000000	5.318833
311.000000	5.349700
312.000000	5.338833
313.000000	5.358700
314.000000	5.338033
315.000000	5.325233
316.000000	5.364667
317.000000	5.749867
318.000000	5.672500
319.000000	5.448833
320.000000	5.491200
321.000000	5.643100
322.000000	5.463467
323.000000	5.525633
324.000000	5.456100
325.000000	5.467000
326.000000	5.524133
327.000000	5.414567
328.000000	5.478233
329.000000	5.459433
330.000000	5.342667
331.000000	5.444000
332.000000	5.447067
333.000000	5.480467
334.000000	5.486367
335.000000	5.538233
336.000000	5.417200
337.000000	5.483967
338.000000	5.434533
339.000000	5.428367
340.000000	5.404767
341.000000	5.384600
342.000000	5.418700
343.000000	5.453500
344.000000	5.466267
345.000000	5.462833
346.000000	5.525500
347.000000	5.488700
348.000000	5.485267
349.000000	5.434967
350.000000	5.473833
351.000000	5.502167
352.000000	5.548233
353.000000	5.570300
354.000000	5.591633
355.000000	5.607567
356.000000	5.603167
357.000000	5.656067
358.000000	5.669833
359.000000	5.732667
360.000000	5.751433
361.000000	5.754567
362.000000	5.777600
363.000000	5.820933
364.000000	5.862967
365.000000	5.883933
366.000000	5.865700
367.000000	5.923167
368.000000	5.958633
369.000000	5.974500
370.000000	5.985367
371.000000	6.025867
372.000000	6.032333
373.000000	6.056833
374.000000	6.054133
375.000000	6.077767
376.000000	6.201633
377.000000	6.232167
378.000000	6.269433
379.000000	6.313700
380.000000	6.357167
381.000000	6.401100
382.000000	6.450467
383.000000	6.497667
384.000000	6.557300
385.000000	6.616300
386.000000	6.680867
387.000000	6.740900
388.000000	6.799400
389.000000	6.873367
390.000000	6.939433
391.000000	7.023433
392.000000	7.114600
393.000000	7.210633
394.000000	7.306367
395.000000	7.421200
396.000000	7.524367
397.000000	7.640033
398.000000	7.772533
399.000000	7.901100
400.000000	8.048867
401.000000	8.211967
402.000000	8.381000
403.000000	8.572367
404.000000	8.768333
405.000000	8.973600
406.000000	9.193367
407.000000	9.431467
408.000000	9.683767
409.000000	9.956533
410.000000	10.237800
411.000000	10.536833
412.000000	10.853567
413.000000	11.188067
414.000000	11.546200
415.000000	11.913633
416.000000	12.295733
417.000000	12.687800
418.000000	13.094133
419.000000	13.514833
420.000000	13.953233
421.000000	14.402600
422.000000	14.868800
423.000000	15.341800
424.000000	15.814267
425.000000	16.295067
426.000000	16.780800
427.000000	17.259733
428.000000	17.748200
429.000000	18.236633
430.000000	18.723067
431.000000	19.205500
432.000000	19.692167
433.000000	20.176000
434.000000	20.644333
435.000000	21.096367
436.000000	21.549367
437.000000	21.983000
438.000000	22.395133
439.000000	22.805333
440.000000	23.196600
441.000000	23.575567
442.000000	23.954633
443.000000	24.323967
444.000000	24.651467
445.000000	24.984033
446.000000	25.303667
447.000000	25.596767
448.000000	25.875800
449.000000	26.135967
450.000000	26.381833
451.000000	26.610733
452.000000	26.826067
453.000000	27.038867
454.000000	27.231633
455.000000	27.396700
456.000000	27.552000
457.000000	27.714867
458.000000	27.855133
459.000000	27.972867
460.000000	28.089400
461.000000	28.196200
462.000000	28.290967
463.000000	28.379867
464.000000	28.448367
465.000000	28.506300
466.000000	28.559667
467.000000	28.610833
468.000000	28.658333
469.000000	28.677600
470.000000	28.692700
471.000000	28.709200
472.000000	28.716400
473.000000	28.723600
474.000000	28.733067
475.000000	28.744633
476.000000	28.755600
477.000000	28.780567
478.000000	28.820300
479.000000	28.861700
480.000000	28.898567
481.000000	28.951500
482.000000	29.021533
483.000000	29.104267
484.000000	29.193300
485.000000	29.295900
486.000000	29.409867
487.000000	29.551467
488.000000	29.700100
489.000000	29.875567
490.000000	30.073400
491.000000	30.294933
492.000000	30.559100
493.000000	30.836200
494.000000	31.118467
495.000000	31.415333
496.000000	31.747333
497.000000	32.102633
498.000000	32.468367
499.000000	32.853433
500.000000	33.279833
501.000000	33.722933
502.000000	34.179667
503.000000	34.675833
504.000000	35.196667
505.000000	35.722767
506.000000	36.273367
507.000000	36.836200
508.000000	37.430100
509.000000	38.033267
510.000000	38.644567
511.000000	39.276267
512.000000	39.931567
513.000000	40.640467
514.000000	41.363300
515.000000	42.105767
516.000000	42.881967
517.000000	43.699367
518.000000	44.567000
519.000000	45.466333
520.000000	46.421867
521.000000	47.420167
522.000000	48.449800
523.000000	49.522100
524.000000	50.650233
525.000000	51.785100
526.000000	52.966667
527.000000	54.143933
528.000000	55.371933
529.000000	56.625100
530.000000	57.899733
531.000000	59.206733
532.000000	60.532267
533.000000	61.851867
534.000000	63.192067
535.000000	64.515767
536.000000	65.795067
537.000000	67.044433
538.000000	68.289933
539.000000	69.477533
540.000000	70.636467
541.000000	71.765400
542.000000	72.839433
543.000000	73.850667
544.000000	74.825800
545.000000	75.710833
546.000000	76.544367
547.000000	77.347300
548.000000	78.109767
549.000000	78.776500
550.000000	79.456733
551.000000	80.096633
552.000000	80.656367
553.000000	81.215533
554.000000	81.727567
555.000000	82.214100
556.000000	82.663833
557.000000	83.077400
558.000000	83.438333
559.000000	83.840200
560.000000	84.218000
561.000000	84.534900
562.000000	84.863900
563.000000	85.147633
564.000000	85.402733
565.000000	85.656233
566.000000	85.896067
567.000000	86.138067
568.000000	86.307400
569.000000	86.515233
570.000000	86.703733
571.000000	86.886267
572.000000	87.017067
573.000000	87.139567
574.000000	87.263733
575.000000	87.379433
576.000000	87.472433
577.000000	87.561633
578.000000	87.634867
579.000000	87.689567
580.000000	87.711267
581.000000	87.720767
582.000000	87.768600
583.000000	87.754833
584.000000	87.758533
585.000000	87.725767
586.000000	87.677667
587.000000	87.632267
588.000000	87.581233
589.000000	87.514800
590.000000	87.428133
591.000000	87.358433
592.000000	87.214767
593.000000	87.088067
594.000000	86.911167
595.000000	86.726967
596.000000	86.521333
597.000000	86.300900
598.000000	86.084367
599.000000	85.822800
600.000000	85.513700
601.000000	85.181400
602.000000	84.817733
603.000000	84.449267
604.000000	84.039800
605.000000	83.642267
606.000000	83.209867
607.000000	82.762600
608.000000	82.287333
609.000000	81.765200
610.000000	81.222100
611.000000	80.673400
612.000000	80.063000
613.000000	79.419900
614.000000	78.751667
615.000000	78.093600
616.000000	77.340167
617.000000	76.562433
618.000000	75.772500
619.000000	74.929967
620.000000	74.023033
621.000000	73.139533
622.000000	72.188667
623.000000	71.225933
624.000000	70.230600
625.000000	69.218400
626.000000	68.208633
627.000000	67.178833
628.000000	66.158067
629.000000	65.133367
630.000000	64.086633
631.000000	63.039133
632.000000	61.993967
633.000000	60.992133
634.000000	60.026400
635.000000	59.058933
636.000000	58.132400
637.000000	57.244033
638.000000	56.405467
639.000000	55.603833
640.000000	54.854100
641.000000	54.163667
642.000000	53.562133
643.000000	53.037200
644.000000	52.589267
645.000000	52.233500
646.000000	51.984100
647.000000	51.834000
648.000000	51.779800
649.000000	51.800200
650.000000	51.938200
651.000000	52.145267
652.000000	52.441733
653.000000	52.794400
654.000000	53.216067
655.000000	53.692967
656.000000	54.249600
657.000000	54.824833
658.000000	55.432600
659.000000	56.079300
660.000000	56.730967
661.000000	57.425467
662.000000	58.113167
663.000000	58.831867
664.000000	59.516967
665.000000	60.207867
666.000000	60.841767
667.000000	61.511267
668.000000	62.113300
669.000000	62.678867
670.000000	63.236300
671.000000	63.762000
672.000000	64.238867
673.000000	64.691533
674.000000	65.089867
675.000000	65.471800
676.000000	65.806467
677.000000	66.102000
678.000000	66.387533
679.000000	66.645767
680.000000	66.820633
681.000000	67.026233
682.000000	67.181000
683.000000	67.316633
684.000000	67.421267
685.000000	67.476400
686.000000	67.550533
687.000000	67.624367
688.000000	67.619533
689.000000	67.635967
690.000000	67.636300
691.000000	67.611667
692.000000	67.591067
693.000000	67.564833
694.000000	67.510800
695.000000	67.452733
696.000000	67.391433
697.000000	67.334867
698.000000	67.270233
699.000000	67.175067
700.000000	67.119667
701.000000	67.073967
702.000000	67.007533
703.000000	66.928767
704.000000	66.837600
705.000000	66.792367
706.000000	66.776767
707.000000	66.740967
708.000000	66.732300
709.000000	66.728067
710.000000	66.729533
711.000000	66.737800
712.000000	66.819800
713.000000	66.881200
714.000000	66.945033
715.000000	67.053400
716.000000	67.205000
717.000000	67.388467
718.000000	67.563133
719.000000	67.795500
720.000000	68.024100
721.000000	68.280333
722.000000	68.566600
723.000000	68.844600
724.000000	69.203700
725.000000	69.559967
726.000000	69.860867
727.000000	70.199700
728.000000	70.580800
729.000000	70.921833
730.000000	71.280700
731.000000	71.679400
732.000000	72.062467
733.000000	72.437267
734.000000	72.800933
735.000000	73.140300
736.000000	73.494767
737.000000	73.842600
738.000000	74.172733
739.000000	74.546067
740.000000	74.851733
741.000000	75.134767
742.000000	75.430367
743.000000	75.716467
744.000000	76.000833
745.000000	76.243133
746.000000	76.454800
747.000000	76.644633
748.000000	76.863967
749.000000	77.120167
750.000000	77.315233
751.000000	77.449567
752.000000	77.628367
753.000000	77.824433
754.000000	77.959767
755.000000	78.105567
756.000000	78.273367
757.000000	78.369767
758.000000	78.490333
759.000000	78.632067
760.000000	78.716300
761.000000	78.843067
762.000000	78.935300
763.000000	78.952233
764.000000	79.058133
765.000000	79.176933
766.000000	79.241267
767.000000	79.268533
768.000000	79.293367
769.000000	79.369967
770.000000	79.443033
771.000000	79.485567
772.000000	79.507400
773.000000	79.555767
774.000000	79.544467
775.000000	79.548833
776.000000	79.593100
777.000000	79.617333
778.000000	79.590133
779.000000	79.580167
780.000000	79.584333
781.000000	79.572800
782.000000	79.540800
783.000000	79.548033
784.000000	79.563400
785.000000	79.611033
786.000000	79.605733
787.000000	79.618267
788.000000	79.566333
789.000000	79.614800
790.000000	79.659367
791.000000	79.660800
792.000000	79.767167
793.000000	79.801467
794.000000	79.847633
795.000000	79.834667
796.000000	79.935767
797.000000	80.018267
798.000000	80.120733
799.000000	80.247100
800.000000	80.301400
801.000000	80.317867
802.000000	80.414967
803.000000	80.533333
804.000000	80.712667
805.000000	80.762167
806.000000	80.957967
807.000000	81.125300
808.000000	81.231667
809.000000	81.320233
810.000000	81.543400
811.000000	81.691367
812.000000	81.837633
813.000000	81.954967
814.000000	82.060400
815.000000	82.053300
816.000000	82.148700
817.000000	82.372100
818.000000	82.391400
819.000000	82.387133
820.000000	82.497833
821.000000	82.481000
822.000000	82.437533
823.000000	82.443267
824.000000	82.422233
825.000000	82.319167
826.000000	82.301967
827.000000	82.352067
828.000000	82.276100
829.000000	82.081367
830.000000	82.098533
831.000000	81.996800
832.000000	81.982867
833.000000	81.779533
834.000000	81.697400
835.000000	81.620967
836.000000	81.490400
837.000000	81.406500
838.000000	81.288533
839.000000	81.034433
840.000000	80.909467
841.000000	80.627400
842.000000	80.611600
843.000000	80.511600
844.000000	80.418033
845.000000	80.020200
846.000000	80.077500
847.000000	79.933967
848.000000	79.688067
849.000000	79.554033
850.000000	79.376367
851.000000	79.173900
852.000000	78.937800
853.000000	78.928933
854.000000	78.671300
855.000000	78.778500
856.000000	78.375967
857.000000	77.959200
858.000000	78.371222
859.000000	78.049341
860.000000	78.100861
861.000000	78.176991
862.000000	78.187741
863.000000	78.198106
864.000000	78.135178
865.000000	78.094427
866.000000	78.017839
867.000000	77.920662
868.000000	77.814791
869.000000	77.710534
870.000000	77.596672
871.000000	77.480263
872.000000	77.337584
873.000000	77.196597
874.000000	77.080671
875.000000	76.938275
876.000000	76.802494
877.000000	76.648844
878.000000	76.486204
879.000000	76.321303
880.000000	76.181035
881.000000	76.021448
882.000000	75.849941
883.000000	75.713749
884.000000	75.550446
885.000000	75.376906
886.000000	75.186108
887.000000	75.009036
888.000000	74.845481
889.000000	74.680937
890.000000	74.505148
891.000000	74.313853
892.000000	74.142269
893.000000	73.949549
894.000000	73.753311
895.000000	73.542523
896.000000	73.342118
897.000000	73.149344
898.000000	72.937320
899.000000	72.731110
900.000000	72.512292
901.000000	72.284152
902.000000	72.051496
903.000000	71.819176
904.000000	71.598661
905.000000	71.372915
906.000000	71.148240
907.000000	70.922582
908.000000	70.689881
909.000000	70.473967
910.000000	70.285983
911.000000	70.081332
912.000000	69.877889
913.000000	69.653409
914.000000	69.448124
915.000000	69.253233
916.000000	69.069721
917.000000	68.872059
918.000000	68.676486
919.000000	68.474420
920.000000	68.273166
921.000000	68.087644
922.000000	67.868230
923.000000	67.678982
924.000000	67.486957
925.000000	67.310404
926.000000	67.136561
927.000000	66.965787
928.000000	66.781585
929.000000	66.627923
930.000000	66.470087
931.000000	66.323199
932.000000	66.187294
933.000000	66.058461
934.000000	65.894092
935.000000	65.753854
936.000000	65.627016
937.000000	65.495463
938.000000	65.371504
939.000000	65.226330
940.000000	65.099466
941.000000	64.989035
942.000000	64.854355
943.000000	64.737129
944.000000	64.627686
945.000000	64.521986
946.000000	64.404355
947.000000	64.299033
948.000000	64.177874
949.000000	64.075134
950.000000	63.967810
951.000000	63.849951
952.000000	63.736019
953.000000	63.628076
954.000000	63.522154
955.000000	63.393899
956.000000	63.273519
957.000000	63.156811
958.000000	63.030423
959.000000	62.898105
960.000000	62.757334
961.000000	62.627838
962.000000	62.485181
963.000000	62.352051
964.000000	62.218007
965.000000	62.087587
966.000000	61.959139
967.000000	61.827066
968.000000	61.697720
969.000000	61.568385
970.000000	61.440012
971.000000	61.321079
972.000000	61.196777
973.000000	61.072086
974.000000	60.952126
975.000000	60.840520
976.000000	60.712480
977.000000	60.606213
978.000000	60.494157
979.000000	60.376270
980.000000	60.261741
981.000000	60.157220
982.000000	60.047849
983.000000	59.935132
984.000000	59.835702
985.000000	59.725197
986.000000	59.628041
987.000000	59.532289
988.000000	59.453727
989.000000	59.374554
990.000000	59.298002
991.000000	59.230358
992.000000	59.174878
993.000000	59.110617
994.000000	59.063616
995.000000	59.025961
996.000000	58.990897
997.000000	58.952095
998.000000	58.915909
999.000000	58.887079
1000.000000	58.861946
1001.000000	58.846855
1002.000000	58.835612
1003.000000	58.817737
1004.000000	58.805172
1005.000000	58.793754
1006.000000	58.784210
1007.000000	58.773471
1008.000000	58.768946
1009.000000	58.768142
1010.000000	58.764287
1011.000000	58.756218
1012.000000	58.760412
1013.000000	58.765804
1014.000000	58.787146
1015.000000	58.816970
1016.000000	58.841351
1017.000000	58.864693
1018.000000	58.890385
1019.000000	58.923978
1020.000000	58.966267
1021.000000	59.010378
1022.000000	59.040051
1023.000000	59.062005
1024.000000	59.086793
1025.000000	59.129973
1026.000000	59.169680
1027.000000	59.202013
1028.000000	59.231350
1029.000000	59.252017
1030.000000	59.276056
1031.000000	59.296187
1032.000000	59.307694
1033.000000	59.326494
1034.000000	59.342973
1035.000000	59.355922
1036.000000	59.369494
1037.000000	59.380270
1038.000000	59.388192
1039.000000	59.400593
1040.000000	59.409304
1041.000000	59.419906
1042.000000	59.438900
1043.000000	59.454213
1044.000000	59.469055
1045.000000	59.480720
1046.000000	59.495862
1047.000000	59.517810
1048.000000	59.534195
1049.000000	59.560831
1050.000000	59.594893
1051.000000	59.622970
1052.000000	59.655875
1053.000000	59.696778
1054.000000	59.742742
1055.000000	59.783222
1056.000000	59.832098
1057.000000	59.897307
1058.000000	59.949943
1059.000000	60.005825
1060.000000	60.068393
1061.000000	60.127852
1062.000000	60.184744
1063.000000	60.245625
1064.000000	60.305699
1065.000000	60.362114
1066.000000	60.423502
1067.000000	60.480782
1068.000000	60.544486
1069.000000	60.608778
1070.000000	60.663705
1071.000000	60.727340
1072.000000	60.784654
1073.000000	60.844928
1074.000000	60.914227
1075.000000	60.977140
1076.000000	61.030472
1077.000000	61.094487
1078.000000	61.162418
1079.000000	61.225082
1080.000000	61.275265
1081.000000	61.334081
1082.000000	61.396302
1083.000000	61.453064
1084.000000	61.518624
1085.000000	61.577478
1086.000000	61.638108
1087.000000	61.695684
1088.000000	61.758819
1089.000000	61.807221
1090.000000	61.853723
1091.000000	61.911584
1092.000000	61.965702
1093.000000	62.016906
1094.000000	62.056860
1095.000000	62.099516
1096.000000	62.145192
1097.000000	62.186381
1098.000000	62.221986
1099.000000	62.248577
1100.000000	62.291813
1101.000000	62.314330
1102.000000	62.349840
1103.000000	62.378677
1104.000000	62.392132
1105.000000	62.426322
1106.000000	62.450348
1107.000000	62.459853
1108.000000	62.495242
1109.000000	62.508250
1110.000000	62.529579
1111.000000	62.546272
1112.000000	62.569098
1113.000000	62.583861
1114.000000	62.603107
1115.000000	62.627865
1116.000000	62.636524
1117.000000	62.645284
1118.000000	62.663907
1119.000000	62.677160
1120.000000	62.656318
1121.000000	62.643752
1122.000000	62.629413
1123.000000	62.603428
1124.000000	62.576504
1125.000000	62.515589
1126.000000	62.472289
1127.000000	62.394632
1128.000000	62.317130
1129.000000	62.218828
1130.000000	62.097659
1131.000000	61.917787
1132.000000	61.734316
1133.000000	61.520012
1134.000000	61.345787
1135.000000	61.130983
1136.000000	60.852098
1137.000000	60.559385
1138.000000	60.274339
1139.000000	60.003978
1140.000000	59.737894
1141.000000	59.494649
1142.000000	59.241599
1143.000000	59.005284
1144.000000	58.782781
1145.000000	58.607753
1146.000000	58.480307
1147.000000	58.386177
1148.000000	58.352688
1149.000000	58.362711
1150.000000	58.380757
1151.000000	58.400094
1152.000000	58.419187
1153.000000	58.409160
1154.000000	58.369072
1155.000000	58.293015
1156.000000	58.164389
1157.000000	57.992087
1158.000000	57.779060
1159.000000	57.530786
1160.000000	57.285639
1161.000000	57.025326
1162.000000	56.760636
1163.000000	56.488622
1164.000000	56.189175
1165.000000	55.893070
1166.000000	55.615793
1167.000000	55.348299
