PE UV       SUBTECH     SPECTRUM    ASCII       PEDS        4.00        
   -1
CICIMAUCR0001-5.Sample.ASC
24/04/23
10:47:46.00
24/04/23
10:47:46.00
Vinicio Soto Monge
C. kalinini
250,000000
1
Lambda 1050
1050L1511233
PerkinElmer UV WinLab 6.3.2.0749 / 2.02.05 Lambda 900 UV/VIS/NIR, Aug  7 2015 09:38:08

0
0
3350/servo 860,8/2
0
0
UV/VIS
1
1
1
DoubleDePol,CommonBeamDepol,RBeamAtt,SBeamAtt,60mm sphere, WB InGaAs Detector
0
0
0
0
Program
Program
3350/servo 860,8/2
3350/0,2 860,8/0,2
3350/0,2 860,8/0,2
0
15.00
 
 
 
0
 
860,8
319,2
860,8
Front
100
on
S:100 R:100
0
0
0
0
 
0
 
 
 
0
 
 
0
0
0
0
0
 
 
 
 
0
0


0
0
#HDR
-1
-1
#GR
nm
%R
1.0
0.0
2500,000000
-1,000000
2251
8
101,472100
5,465400
#DATA
250.000000	4.631305
251.000000	4.637421
252.000000	4.628807
253.000000	4.596969
254.000000	4.587441
255.000000	4.593823
256.000000	4.578790
257.000000	4.559205
258.000000	4.547433
259.000000	4.535813
260.000000	4.502713
261.000000	4.495762
262.000000	4.472232
263.000000	4.457349
264.000000	4.428602
265.000000	4.415029
266.000000	4.407973
267.000000	4.383814
268.000000	4.397049
269.000000	4.375141
270.000000	4.336124
271.000000	4.325246
272.000000	4.339732
273.000000	4.309021
274.000000	4.310751
275.000000	4.298366
276.000000	4.274427
277.000000	4.280840
278.000000	4.282037
279.000000	4.284973
280.000000	4.283114
281.000000	4.275990
282.000000	4.262391
283.000000	4.257069
284.000000	4.240027
285.000000	4.261624
286.000000	4.238979
287.000000	4.240816
288.000000	4.249439
289.000000	4.259677
290.000000	4.255515
291.000000	4.253496
292.000000	4.254471
293.000000	4.242415
294.000000	4.236591
295.000000	4.247593
296.000000	4.258223
297.000000	4.268910
298.000000	4.276621
299.000000	4.236422
300.000000	4.240023
301.000000	4.239829
302.000000	4.236106
303.000000	4.224762
304.000000	4.222807
305.000000	4.226918
306.000000	4.226701
307.000000	4.212759
308.000000	4.229393
309.000000	4.215776
310.000000	4.232621
311.000000	4.237135
312.000000	4.213806
313.000000	4.208887
314.000000	4.213401
315.000000	4.197346
316.000000	4.314810
317.000000	4.443943
318.000000	4.386847
319.000000	4.347413
320.000000	4.408275
321.000000	4.422274
322.000000	4.410863
323.000000	4.375713
324.000000	4.407228
325.000000	4.450597
326.000000	4.387653
327.000000	4.366801
328.000000	4.377164
329.000000	4.379594
330.000000	4.369049
331.000000	4.335578
332.000000	4.369102
333.000000	4.386438
334.000000	4.316136
335.000000	4.328268
336.000000	4.341133
337.000000	4.354568
338.000000	4.370221
339.000000	4.360791
340.000000	4.336329
341.000000	4.319335
342.000000	4.374887
343.000000	4.375240
344.000000	4.383133
345.000000	4.387044
346.000000	4.343063
347.000000	4.337502
348.000000	4.372705
349.000000	4.394654
350.000000	4.425815
351.000000	4.440791
352.000000	4.475612
353.000000	4.477247
354.000000	4.493720
355.000000	4.491538
356.000000	4.505632
357.000000	4.543508
358.000000	4.568250
359.000000	4.580050
360.000000	4.592686
361.000000	4.638905
362.000000	4.646996
363.000000	4.679839
364.000000	4.692557
365.000000	4.698940
366.000000	4.706650
367.000000	4.747721
368.000000	4.773335
369.000000	4.751839
370.000000	4.766754
371.000000	4.816589
372.000000	4.806680
373.000000	4.764224
374.000000	4.811312
375.000000	4.921952
376.000000	4.981263
377.000000	5.021115
378.000000	5.041266
379.000000	5.064855
380.000000	5.087917
381.000000	5.114453
382.000000	5.138457
383.000000	5.174360
384.000000	5.207844
385.000000	5.237203
386.000000	5.269543
387.000000	5.299225
388.000000	5.336451
389.000000	5.370911
390.000000	5.400869
391.000000	5.438939
392.000000	5.476800
393.000000	5.516197
394.000000	5.557607
395.000000	5.593861
396.000000	5.640168
397.000000	5.685387
398.000000	5.727524
399.000000	5.781312
400.000000	5.838577
401.000000	5.897677
402.000000	5.954081
403.000000	6.022672
404.000000	6.092094
405.000000	6.169006
406.000000	6.251730
407.000000	6.341421
408.000000	6.436129
409.000000	6.530975
410.000000	6.637419
411.000000	6.748541
412.000000	6.874167
413.000000	6.997235
414.000000	7.127286
415.000000	7.273551
416.000000	7.427029
417.000000	7.589623
418.000000	7.759179
419.000000	7.937126
420.000000	8.129469
421.000000	8.331063
422.000000	8.538349
423.000000	8.760974
424.000000	8.986810
425.000000	9.228937
426.000000	9.483045
427.000000	9.744316
428.000000	10.018329
429.000000	10.303037
430.000000	10.596148
431.000000	10.892644
432.000000	11.205443
433.000000	11.526609
434.000000	11.852210
435.000000	12.183894
436.000000	12.521857
437.000000	12.864127
438.000000	13.192881
439.000000	13.540425
440.000000	13.889326
441.000000	14.237954
442.000000	14.595416
443.000000	14.943433
444.000000	15.287263
445.000000	15.612592
446.000000	15.939864
447.000000	16.258405
448.000000	16.580035
449.000000	16.893543
450.000000	17.188671
451.000000	17.484459
452.000000	17.774094
453.000000	18.051924
454.000000	18.324071
455.000000	18.596087
456.000000	18.861512
457.000000	19.108150
458.000000	19.355280
459.000000	19.582002
460.000000	19.812119
461.000000	20.047841
462.000000	20.274606
463.000000	20.486396
464.000000	20.703051
465.000000	20.905963
466.000000	21.112612
467.000000	21.313064
468.000000	21.508410
469.000000	21.711709
470.000000	21.904332
471.000000	22.107931
472.000000	22.312062
473.000000	22.514592
474.000000	22.708699
475.000000	22.905019
476.000000	23.107913
477.000000	23.312147
478.000000	23.513935
479.000000	23.722491
480.000000	23.944502
481.000000	24.187168
482.000000	24.442962
483.000000	24.659690
484.000000	24.857648
485.000000	25.067892
486.000000	25.264213
487.000000	25.467958
488.000000	25.671829
489.000000	25.885646
490.000000	26.095259
491.000000	26.325971
492.000000	26.565710
493.000000	26.817102
494.000000	27.081200
495.000000	27.346014
496.000000	27.618194
497.000000	27.890181
498.000000	28.189482
499.000000	28.506900
500.000000	28.816430
501.000000	29.166685
502.000000	29.521688
503.000000	29.880235
504.000000	30.270724
505.000000	30.644157
506.000000	31.029179
507.000000	31.430623
508.000000	31.849974
509.000000	32.288750
510.000000	32.728237
511.000000	33.187422
512.000000	33.674295
513.000000	34.186787
514.000000	34.718542
515.000000	35.252257
516.000000	35.810261
517.000000	36.376242
518.000000	36.968787
519.000000	37.572637
520.000000	38.189337
521.000000	38.821226
522.000000	39.472845
523.000000	40.133415
524.000000	40.793128
525.000000	41.451181
526.000000	42.122416
527.000000	42.778039
528.000000	43.435937
529.000000	44.089771
530.000000	44.719565
531.000000	45.349721
532.000000	45.952953
533.000000	46.541667
534.000000	47.108247
535.000000	47.660986
536.000000	48.166471
537.000000	48.658209
538.000000	49.100294
539.000000	49.524588
540.000000	49.930204
541.000000	50.308139
542.000000	50.653653
543.000000	50.993118
544.000000	51.294274
545.000000	51.592842
546.000000	51.865180
547.000000	52.094749
548.000000	52.314787
549.000000	52.514274
550.000000	52.702392
551.000000	52.877673
552.000000	53.029309
553.000000	53.185991
554.000000	53.326440
555.000000	53.456102
556.000000	53.573817
557.000000	53.660640
558.000000	53.747126
559.000000	53.825983
560.000000	53.847065
561.000000	53.916517
562.000000	53.973406
563.000000	54.007372
564.000000	54.046075
565.000000	54.081980
566.000000	54.096915
567.000000	54.101513
568.000000	54.075791
569.000000	54.047993
570.000000	54.017372
571.000000	53.956515
572.000000	53.883061
573.000000	53.787165
574.000000	53.699807
575.000000	53.605166
576.000000	53.504001
577.000000	53.367678
578.000000	53.219490
579.000000	53.051152
580.000000	52.876608
581.000000	52.689698
582.000000	52.451596
583.000000	52.228314
584.000000	51.977579
585.000000	51.722203
586.000000	51.440016
587.000000	51.131551
588.000000	50.812082
589.000000	50.482462
590.000000	50.131932
591.000000	49.759291
592.000000	49.381055
593.000000	48.998588
594.000000	48.610164
595.000000	48.212701
596.000000	47.812226
597.000000	47.424769
598.000000	47.023500
599.000000	46.630551
600.000000	46.246973
601.000000	45.870569
602.000000	45.505082
603.000000	45.148849
604.000000	44.807329
605.000000	44.501516
606.000000	44.216999
607.000000	43.941838
608.000000	43.700805
609.000000	43.492347
610.000000	43.289995
611.000000	43.119322
612.000000	42.967582
613.000000	42.860546
614.000000	42.774688
615.000000	42.707684
616.000000	42.638575
617.000000	42.602523
618.000000	42.576417
619.000000	42.572742
620.000000	42.589029
621.000000	42.620548
622.000000	42.671156
623.000000	42.735198
624.000000	42.815645
625.000000	42.938906
626.000000	43.073410
627.000000	43.233466
628.000000	43.408697
629.000000	43.581742
630.000000	43.776439
631.000000	43.974184
632.000000	44.197944
633.000000	44.421411
634.000000	44.646818
635.000000	44.856336
636.000000	45.063067
637.000000	45.239444
638.000000	45.415509
639.000000	45.562830
640.000000	45.727401
641.000000	45.855660
642.000000	45.945434
643.000000	46.032868
644.000000	46.107723
645.000000	46.171629
646.000000	46.233893
647.000000	46.291242
648.000000	46.359930
649.000000	46.453123
650.000000	46.548207
651.000000	46.654359
652.000000	46.788333
653.000000	46.934112
654.000000	47.115358
655.000000	47.324829
656.000000	47.547590
657.000000	47.781345
658.000000	48.022471
659.000000	48.289748
660.000000	48.592153
661.000000	48.869267
662.000000	49.159894
663.000000	49.450198
664.000000	49.747106
665.000000	50.047210
666.000000	50.337602
667.000000	50.626005
668.000000	50.930714
669.000000	51.213262
670.000000	51.541014
671.000000	51.848149
672.000000	52.164871
673.000000	52.484765
674.000000	52.823793
675.000000	53.160159
676.000000	53.515635
677.000000	53.887847
678.000000	54.260439
679.000000	54.644723
680.000000	55.000927
681.000000	55.404259
682.000000	55.822610
683.000000	56.209623
684.000000	56.599587
685.000000	56.992170
686.000000	57.356041
687.000000	57.706093
688.000000	58.038703
689.000000	58.371966
690.000000	58.727031
691.000000	59.057293
692.000000	59.372448
693.000000	59.689873
694.000000	59.987819
695.000000	60.274247
696.000000	60.576763
697.000000	60.894252
698.000000	61.199822
699.000000	61.536664
700.000000	61.870809
701.000000	62.204120
702.000000	62.559883
703.000000	62.919023
704.000000	63.268008
705.000000	63.637987
706.000000	64.012932
707.000000	64.400059
708.000000	64.774294
709.000000	65.155330
710.000000	65.518510
711.000000	65.860620
712.000000	66.204112
713.000000	66.550328
714.000000	66.838238
715.000000	67.141563
716.000000	67.455255
717.000000	67.721744
718.000000	67.971494
719.000000	68.233322
720.000000	68.499850
721.000000	68.748474
722.000000	68.961138
723.000000	69.194281
724.000000	69.414581
725.000000	69.602500
726.000000	69.812529
727.000000	69.988312
728.000000	70.205895
729.000000	70.429266
730.000000	70.579952
731.000000	70.773896
732.000000	70.951364
733.000000	71.136985
734.000000	71.281755
735.000000	71.464141
736.000000	71.607132
737.000000	71.730746
738.000000	71.858745
739.000000	72.028005
740.000000	72.130409
741.000000	72.236210
742.000000	72.361907
743.000000	72.470955
744.000000	72.548327
745.000000	72.650723
746.000000	72.684515
747.000000	72.778176
748.000000	72.864048
749.000000	72.946378
750.000000	72.960641
751.000000	73.013514
752.000000	73.104006
753.000000	73.121802
754.000000	73.180888
755.000000	73.249086
756.000000	73.260835
757.000000	73.354264
758.000000	73.336379
759.000000	73.413139
760.000000	73.399300
761.000000	73.404651
762.000000	73.414543
763.000000	73.405301
764.000000	73.423819
765.000000	73.439825
766.000000	73.402865
767.000000	73.348994
768.000000	73.341930
769.000000	73.255694
770.000000	73.165174
771.000000	73.148489
772.000000	73.086931
773.000000	73.020786
774.000000	72.950160
775.000000	72.815572
776.000000	72.751185
777.000000	72.668144
778.000000	72.526599
779.000000	72.465318
780.000000	72.337087
781.000000	72.205275
782.000000	72.084095
783.000000	71.941672
784.000000	71.786299
785.000000	71.676377
786.000000	71.595918
787.000000	71.440126
788.000000	71.350255
789.000000	71.148368
790.000000	70.959338
791.000000	70.811132
792.000000	70.688598
793.000000	70.452096
794.000000	70.239372
795.000000	70.034854
796.000000	69.925179
797.000000	69.697168
798.000000	69.507593
799.000000	69.270141
800.000000	68.989499
801.000000	68.803554
802.000000	68.535189
803.000000	68.199867
804.000000	68.018893
805.000000	67.784151
806.000000	67.547555
807.000000	67.311940
808.000000	67.058887
809.000000	66.861162
810.000000	66.527216
811.000000	66.258738
812.000000	65.963003
813.000000	65.757525
814.000000	65.534853
815.000000	65.191033
816.000000	64.907883
817.000000	64.703061
818.000000	64.487455
819.000000	64.156245
820.000000	63.834273
821.000000	63.539224
822.000000	63.256006
823.000000	62.969350
824.000000	62.755624
825.000000	62.417934
826.000000	62.193477
827.000000	61.953543
828.000000	61.581165
829.000000	61.405872
830.000000	61.135628
831.000000	60.881607
832.000000	60.540073
833.000000	60.323395
834.000000	60.093683
835.000000	59.866367
836.000000	59.675676
837.000000	59.494980
838.000000	59.295837
839.000000	59.045674
840.000000	58.903990
841.000000	58.693846
842.000000	58.522217
843.000000	58.477428
844.000000	58.178500
845.000000	58.040050
846.000000	57.932101
847.000000	57.713856
848.000000	57.596561
849.000000	57.413589
850.000000	57.496951
851.000000	57.292991
852.000000	57.110369
853.000000	57.027335
854.000000	56.931548
855.000000	56.769746
856.000000	56.708545
857.000000	56.665020
858.000000	56.393580
859.000000	56.658600
860.000000	56.757640
861.000000	57.205700
862.000000	57.400980
863.000000	57.200700
864.000000	56.915740
865.000000	56.974640
866.000000	57.216080
867.000000	57.346540
868.000000	57.228520
869.000000	57.343420
870.000000	57.204260
871.000000	57.354680
872.000000	57.238280
873.000000	57.159820
874.000000	57.061860
875.000000	57.049580
876.000000	57.143560
877.000000	57.060100
878.000000	56.899260
879.000000	56.897500
880.000000	56.983980
881.000000	56.930040
882.000000	56.880200
883.000000	56.604720
884.000000	56.577980
885.000000	56.729440
886.000000	56.519800
887.000000	56.398680
888.000000	56.387840
889.000000	56.315200
890.000000	56.141040
891.000000	56.034780
892.000000	56.041000
893.000000	56.035220
894.000000	56.102580
895.000000	56.068100
896.000000	55.899600
897.000000	55.839060
898.000000	55.826060
899.000000	55.718720
900.000000	55.624900
901.000000	55.655700
902.000000	55.646420
903.000000	55.548780
904.000000	55.529000
905.000000	55.471900
906.000000	55.390940
907.000000	55.345920
908.000000	55.363880
909.000000	55.253240
910.000000	55.219820
911.000000	55.249080
912.000000	55.149920
913.000000	55.116480
914.000000	55.091560
915.000000	55.039240
916.000000	55.005980
917.000000	55.026380
918.000000	54.959380
919.000000	54.907180
920.000000	54.900700
921.000000	54.837180
922.000000	54.843000
923.000000	54.896540
924.000000	54.882640
925.000000	54.836320
926.000000	54.764280
927.000000	54.762580
928.000000	54.794380
929.000000	54.796080
930.000000	54.820880
931.000000	54.821080
932.000000	54.814240
933.000000	54.811220
934.000000	54.803240
935.000000	54.757800
936.000000	54.722820
937.000000	54.744180
938.000000	54.743320
939.000000	54.735320
940.000000	54.713320
941.000000	54.730920
942.000000	54.774680
943.000000	54.747800
944.000000	54.728680
945.000000	54.701460
946.000000	54.656880
947.000000	54.628100
948.000000	54.668980
949.000000	54.698100
950.000000	54.676080
951.000000	54.653320
952.000000	54.652240
953.000000	54.651100
954.000000	54.639560
955.000000	54.623260
956.000000	54.596920
957.000000	54.601280
958.000000	54.618500
959.000000	54.634460
960.000000	54.603460
961.000000	54.593680
962.000000	54.594780
963.000000	54.564400
964.000000	54.590860
965.000000	54.570140
966.000000	54.548760
967.000000	54.558900
968.000000	54.532100
969.000000	54.576560
970.000000	54.563080
971.000000	54.560800
972.000000	54.554060
973.000000	54.575020
974.000000	54.560620
975.000000	54.551900
976.000000	54.551800
977.000000	54.564340
978.000000	54.557440
979.000000	54.558400
980.000000	54.572660
981.000000	54.565240
982.000000	54.568720
983.000000	54.542940
984.000000	54.563040
985.000000	54.580560
986.000000	54.583840
987.000000	54.578400
988.000000	54.577920
989.000000	54.590640
990.000000	54.605620
991.000000	54.613620
992.000000	54.622440
993.000000	54.606380
994.000000	54.616040
995.000000	54.633740
996.000000	54.637260
997.000000	54.628940
998.000000	54.674160
999.000000	54.677020
1000.000000	54.672380
1001.000000	54.683320
1002.000000	54.707380
1003.000000	54.707540
1004.000000	54.716600
1005.000000	54.710640
1006.000000	54.727760
1007.000000	54.772920
1008.000000	54.794380
1009.000000	54.803120
1010.000000	54.790720
1011.000000	54.806460
1012.000000	54.807940
1013.000000	54.829640
1014.000000	54.825460
1015.000000	54.829220
1016.000000	54.858340
1017.000000	54.884780
1018.000000	54.897680
1019.000000	54.912140
1020.000000	54.938700
1021.000000	54.941920
1022.000000	54.973420
1023.000000	54.973800
1024.000000	54.969900
1025.000000	55.000420
1026.000000	55.022180
1027.000000	55.042620
1028.000000	55.057980
1029.000000	55.090300
1030.000000	55.115400
1031.000000	55.144660
1032.000000	55.159700
1033.000000	55.185000
1034.000000	55.205680
1035.000000	55.220480
1036.000000	55.263500
1037.000000	55.290660
1038.000000	55.305120
1039.000000	55.322200
1040.000000	55.348260
1041.000000	55.346820
1042.000000	55.348320
1043.000000	55.381580
1044.000000	55.425020
1045.000000	55.440680
1046.000000	55.449580
1047.000000	55.501540
1048.000000	55.526160
1049.000000	55.572440
1050.000000	55.573840
1051.000000	55.607540
1052.000000	55.622720
1053.000000	55.648560
1054.000000	55.682760
1055.000000	55.716480
1056.000000	55.743440
1057.000000	55.809700
1058.000000	55.824700
1059.000000	55.860380
1060.000000	55.880840
1061.000000	55.918840
1062.000000	55.949380
1063.000000	55.995280
1064.000000	56.012580
1065.000000	56.037580
1066.000000	56.064180
1067.000000	56.108700
1068.000000	56.154860
1069.000000	56.182460
1070.000000	56.211520
1071.000000	56.222320
1072.000000	56.270680
1073.000000	56.293700
1074.000000	56.327960
1075.000000	56.349280
1076.000000	56.399360
1077.000000	56.401860
1078.000000	56.433440
1079.000000	56.459300
1080.000000	56.482600
1081.000000	56.528040
1082.000000	56.552300
1083.000000	56.590900
1084.000000	56.601860
1085.000000	56.652600
1086.000000	56.660420
1087.000000	56.699680
1088.000000	56.739920
1089.000000	56.770520
1090.000000	56.793340
1091.000000	56.821560
1092.000000	56.848240
1093.000000	56.890480
1094.000000	56.929500
1095.000000	56.950120
1096.000000	56.981980
1097.000000	57.005080
1098.000000	57.023680
1099.000000	57.049240
1100.000000	57.063400
1101.000000	57.088020
1102.000000	57.126180
1103.000000	57.151180
1104.000000	57.176800
1105.000000	57.200660
1106.000000	57.225580
1107.000000	57.236220
1108.000000	57.245420
1109.000000	57.262820
1110.000000	57.301160
1111.000000	57.320900
1112.000000	57.339680
1113.000000	57.358200
1114.000000	57.379820
1115.000000	57.410240
1116.000000	57.443900
1117.000000	57.451100
1118.000000	57.462340
1119.000000	57.495720
1120.000000	57.505500
1121.000000	57.510460
1122.000000	57.535720
1123.000000	57.527440
1124.000000	57.516620
1125.000000	57.517680
1126.000000	57.505920
1127.000000	57.480420
1128.000000	57.464300
1129.000000	57.440380
1130.000000	57.401020
1131.000000	57.344000
1132.000000	57.314220
1133.000000	57.285180
1134.000000	57.287240
1135.000000	57.222100
1136.000000	57.114560
1137.000000	57.047320
1138.000000	56.973640
1139.000000	56.918960
1140.000000	56.865620
1141.000000	56.812000
1142.000000	56.761540
1143.000000	56.732460
1144.000000	56.707080
1145.000000	56.684280
1146.000000	56.659260
1147.000000	56.617180
1148.000000	56.570180
1149.000000	56.528520
1150.000000	56.492280
1151.000000	56.457120
1152.000000	56.429780
1153.000000	56.377980
1154.000000	56.330620
1155.000000	56.285620
1156.000000	56.217980
1157.000000	56.153240
1158.000000	56.077660
1159.000000	55.999440
1160.000000	55.922280
1161.000000	55.837180
1162.000000	55.755640
1163.000000	55.665600
1164.000000	55.561680
1165.000000	55.475540
1166.000000	55.399040
1167.000000	55.324320
1168.000000	55.254360
