PE UV       SUBTECH     SPECTRUM    ASCII       PEDS        4.00        
   -1
CICIMAUCR0098-5.Sample.ASC
24/04/25
11:55:07.00
24/04/25
11:55:07.00
Vinicio Soto Monge
C. cupreomarginata
250,000000
1
Lambda 1050
1050L1511233
PerkinElmer UV WinLab 6.3.2.0749 / 2.02.05 Lambda 900 UV/VIS/NIR, Aug  7 2015 09:38:08

0
0
3350/servo 860,8/2
0
0
UV/VIS
1
1
1
DoubleDePol,CommonBeamDepol,RBeamAtt,SBeamAtt,60mm sphere, WB InGaAs Detector
0
0
0
0
Program
Program
3350/servo 860,8/2
3350/0,2 860,8/0,2
3350/0,2 860,8/0,2
0
15.00
 
 
 
0
 
860,8
319,2
860,8
Front
100
on
S:100 R:100
0
0
0
0
 
0
 
 
 
0
 
 
0
0
0
0
0
 
 
 
 
0
0


0
0
#HDR
-1
-1
#GR
nm
%R
1.0
0.0
2500,000000
-1,000000
2251
8
65,296400
4,773000
#DATA
250.000000	5.715962
251.000000	5.710299
252.000000	5.691620
253.000000	5.687059
254.000000	5.655074
255.000000	5.664289
256.000000	5.636555
257.000000	5.624975
258.000000	5.645453
259.000000	5.592893
260.000000	5.573542
261.000000	5.539579
262.000000	5.520255
263.000000	5.511248
264.000000	5.482774
265.000000	5.451436
266.000000	5.456151
267.000000	5.396828
268.000000	5.369282
269.000000	5.386685
270.000000	5.339366
271.000000	5.344235
272.000000	5.324192
273.000000	5.305568
274.000000	5.315977
275.000000	5.278136
276.000000	5.240063
277.000000	5.264877
278.000000	5.278036
279.000000	5.220705
280.000000	5.238715
281.000000	5.174911
282.000000	5.198933
283.000000	5.195647
284.000000	5.180305
285.000000	5.175134
286.000000	5.176715
287.000000	5.160144
288.000000	5.126386
289.000000	5.167554
290.000000	5.141000
291.000000	5.141438
292.000000	5.112881
293.000000	5.112751
294.000000	5.107991
295.000000	5.106405
296.000000	5.104556
297.000000	5.073118
298.000000	5.079438
299.000000	5.026454
300.000000	5.048931
301.000000	5.058060
302.000000	5.033871
303.000000	5.064026
304.000000	5.043084
305.000000	5.039196
306.000000	5.024761
307.000000	5.044900
308.000000	5.043795
309.000000	5.044063
310.000000	5.030341
311.000000	5.017347
312.000000	5.000986
313.000000	4.997920
314.000000	5.005478
315.000000	4.985704
316.000000	5.015917
317.000000	5.314003
318.000000	5.467891
319.000000	5.577248
320.000000	5.336278
321.000000	5.261866
322.000000	5.144125
323.000000	5.149820
324.000000	5.211156
325.000000	5.146987
326.000000	5.241671
327.000000	5.087270
328.000000	5.164205
329.000000	5.190299
330.000000	5.075500
331.000000	5.130552
332.000000	5.017544
333.000000	5.053300
334.000000	5.163882
335.000000	5.010502
336.000000	5.013069
337.000000	4.994448
338.000000	4.952222
339.000000	4.946015
340.000000	4.989152
341.000000	5.055525
342.000000	5.001834
343.000000	4.977386
344.000000	4.941299
345.000000	4.904466
346.000000	4.990681
347.000000	4.952994
348.000000	4.913909
349.000000	4.946312
350.000000	4.893800
351.000000	4.936538
352.000000	4.965829
353.000000	4.905907
354.000000	4.929448
355.000000	4.909810
356.000000	4.911457
357.000000	4.890689
358.000000	4.895963
359.000000	4.888758
360.000000	4.880627
361.000000	4.867904
362.000000	4.879142
363.000000	4.903651
364.000000	4.860493
365.000000	4.897213
366.000000	4.910429
367.000000	4.886123
368.000000	4.897686
369.000000	4.845083
370.000000	4.822932
371.000000	4.809459
372.000000	4.837681
373.000000	4.820716
374.000000	4.708521
375.000000	4.711390
376.000000	4.930000
377.000000	4.985158
378.000000	5.000031
379.000000	5.015449
380.000000	5.032878
381.000000	5.041105
382.000000	5.046337
383.000000	5.062891
384.000000	5.082850
385.000000	5.087073
386.000000	5.108919
387.000000	5.114908
388.000000	5.119662
389.000000	5.144734
390.000000	5.167044
391.000000	5.179415
392.000000	5.189496
393.000000	5.217124
394.000000	5.243456
395.000000	5.272362
396.000000	5.295126
397.000000	5.316571
398.000000	5.348273
399.000000	5.379129
400.000000	5.411953
401.000000	5.459932
402.000000	5.511796
403.000000	5.555864
404.000000	5.610100
405.000000	5.671287
406.000000	5.737684
407.000000	5.812318
408.000000	5.890651
409.000000	5.977720
410.000000	6.068051
411.000000	6.167154
412.000000	6.275319
413.000000	6.393328
414.000000	6.518965
415.000000	6.652288
416.000000	6.795805
417.000000	6.950846
418.000000	7.113081
419.000000	7.287586
420.000000	7.475442
421.000000	7.672890
422.000000	7.876479
423.000000	8.079515
424.000000	8.299496
425.000000	8.528691
426.000000	8.768203
427.000000	9.010908
428.000000	9.254065
429.000000	9.505728
430.000000	9.766874
431.000000	10.035903
432.000000	10.302679
433.000000	10.576113
434.000000	10.871840
435.000000	11.155108
436.000000	11.426658
437.000000	11.714629
438.000000	11.999174
439.000000	12.272284
440.000000	12.556261
441.000000	12.846230
442.000000	13.130765
443.000000	13.402007
444.000000	13.665052
445.000000	13.945579
446.000000	14.217374
447.000000	14.470810
448.000000	14.718588
449.000000	14.953519
450.000000	15.183734
451.000000	15.416721
452.000000	15.645636
453.000000	15.864181
454.000000	16.075905
455.000000	16.284051
456.000000	16.468269
457.000000	16.661184
458.000000	16.848276
459.000000	17.029130
460.000000	17.210476
461.000000	17.382730
462.000000	17.551041
463.000000	17.719595
464.000000	17.883012
465.000000	18.032874
466.000000	18.184910
467.000000	18.332698
468.000000	18.472633
469.000000	18.607827
470.000000	18.738924
471.000000	18.869246
472.000000	18.996625
473.000000	19.109106
474.000000	19.215280
475.000000	19.339887
476.000000	19.453712
477.000000	19.552978
478.000000	19.650121
479.000000	19.743942
480.000000	19.830283
481.000000	19.906979
482.000000	19.966317
483.000000	20.030035
484.000000	20.100676
485.000000	20.169999
486.000000	20.253201
487.000000	20.330032
488.000000	20.416797
489.000000	20.503488
490.000000	20.603384
491.000000	20.725422
492.000000	20.864106
493.000000	21.022140
494.000000	21.219370
495.000000	21.433412
496.000000	21.687939
497.000000	21.971298
498.000000	22.290883
499.000000	22.635288
500.000000	23.015759
501.000000	23.443600
502.000000	23.882439
503.000000	24.348856
504.000000	24.837536
505.000000	25.337367
506.000000	25.869957
507.000000	26.397489
508.000000	26.936473
509.000000	27.511462
510.000000	28.080135
511.000000	28.655765
512.000000	29.254720
513.000000	29.852968
514.000000	30.456131
515.000000	31.074167
516.000000	31.693763
517.000000	32.331691
518.000000	32.978232
519.000000	33.656171
520.000000	34.344413
521.000000	35.050810
522.000000	35.769322
523.000000	36.518929
524.000000	37.291380
525.000000	38.077937
526.000000	38.879991
527.000000	39.699578
528.000000	40.530344
529.000000	41.374270
530.000000	42.260238
531.000000	43.166957
532.000000	44.081531
533.000000	45.021577
534.000000	45.970697
535.000000	46.913565
536.000000	47.836452
537.000000	48.766778
538.000000	49.648998
539.000000	50.493204
540.000000	51.304415
541.000000	52.119727
542.000000	52.882830
543.000000	53.628619
544.000000	54.330715
545.000000	55.001352
546.000000	55.649680
547.000000	56.258069
548.000000	56.858722
549.000000	57.390995
550.000000	57.878700
551.000000	58.317020
552.000000	58.717104
553.000000	59.071354
554.000000	59.350022
555.000000	59.608222
556.000000	59.831028
557.000000	60.038430
558.000000	60.224288
559.000000	60.400639
560.000000	60.647515
561.000000	60.811462
562.000000	60.963552
563.000000	61.096772
564.000000	61.207080
565.000000	61.288588
566.000000	61.367995
567.000000	61.402601
568.000000	61.440618
569.000000	61.433857
570.000000	61.406783
571.000000	61.355073
572.000000	61.285142
573.000000	61.226581
574.000000	61.139037
575.000000	61.069555
576.000000	60.973335
577.000000	60.913715
578.000000	60.876407
579.000000	60.801495
580.000000	60.772742
581.000000	60.703437
582.000000	60.657933
583.000000	60.620556
584.000000	60.518672
585.000000	60.411903
586.000000	60.289801
587.000000	60.082739
588.000000	59.849282
589.000000	59.594232
590.000000	59.304899
591.000000	58.950519
592.000000	58.612602
593.000000	58.249913
594.000000	57.887452
595.000000	57.528619
596.000000	57.164185
597.000000	56.769148
598.000000	56.418693
599.000000	56.053122
600.000000	55.654599
601.000000	55.278257
602.000000	54.856025
603.000000	54.439530
604.000000	54.050490
605.000000	53.632085
606.000000	53.180709
607.000000	52.688354
608.000000	52.217993
609.000000	51.671271
610.000000	51.095561
611.000000	50.446859
612.000000	49.800183
613.000000	49.096616
614.000000	48.391138
615.000000	47.735221
616.000000	47.047782
617.000000	46.392104
618.000000	45.779459
619.000000	45.210499
620.000000	44.672801
621.000000	44.193042
622.000000	43.763420
623.000000	43.396982
624.000000	43.085118
625.000000	42.828330
626.000000	42.619731
627.000000	42.444969
628.000000	42.333137
629.000000	42.256381
630.000000	42.247087
631.000000	42.241361
632.000000	42.295287
633.000000	42.394988
634.000000	42.520571
635.000000	42.663556
636.000000	42.848832
637.000000	43.055011
638.000000	43.257982
639.000000	43.492545
640.000000	43.731566
641.000000	43.939507
642.000000	44.156634
643.000000	44.392563
644.000000	44.589440
645.000000	44.805609
646.000000	44.970454
647.000000	45.124017
648.000000	45.309525
649.000000	45.434569
650.000000	45.556651
651.000000	45.661698
652.000000	45.780476
653.000000	45.874546
654.000000	45.952860
655.000000	46.011856
656.000000	46.042039
657.000000	46.090582
658.000000	46.152770
659.000000	46.181510
660.000000	46.194977
661.000000	46.246011
662.000000	46.269831
663.000000	46.266999
664.000000	46.291193
665.000000	46.310640
666.000000	46.354354
667.000000	46.392380
668.000000	46.450193
669.000000	46.500907
670.000000	46.557040
671.000000	46.632757
672.000000	46.717335
673.000000	46.793776
674.000000	46.885360
675.000000	46.968779
676.000000	47.073002
677.000000	47.207526
678.000000	47.340605
679.000000	47.492632
680.000000	47.632422
681.000000	47.815473
682.000000	48.021178
683.000000	48.235657
684.000000	48.402365
685.000000	48.641682
686.000000	48.851527
687.000000	49.058629
688.000000	49.286335
689.000000	49.507084
690.000000	49.699647
691.000000	49.892289
692.000000	50.098817
693.000000	50.278451
694.000000	50.456941
695.000000	50.626989
696.000000	50.802262
697.000000	50.993857
698.000000	51.155761
699.000000	51.312340
700.000000	51.494642
701.000000	51.631578
702.000000	51.782814
703.000000	51.946417
704.000000	52.098014
705.000000	52.241880
706.000000	52.355251
707.000000	52.448962
708.000000	52.570295
709.000000	52.648698
710.000000	52.732843
711.000000	52.850654
712.000000	52.929712
713.000000	53.019461
714.000000	53.111036
715.000000	53.208099
716.000000	53.277456
717.000000	53.350423
718.000000	53.412636
719.000000	53.472351
720.000000	53.542820
721.000000	53.591122
722.000000	53.641159
723.000000	53.675093
724.000000	53.702968
725.000000	53.758805
726.000000	53.828780
727.000000	53.856028
728.000000	53.894877
729.000000	53.947066
730.000000	54.006323
731.000000	54.070373
732.000000	54.125164
733.000000	54.175729
734.000000	54.253471
735.000000	54.330788
736.000000	54.392119
737.000000	54.454123
738.000000	54.523447
739.000000	54.566626
740.000000	54.599731
741.000000	54.658770
742.000000	54.731596
743.000000	54.762581
744.000000	54.831634
745.000000	54.909537
746.000000	54.957797
747.000000	55.003683
748.000000	55.064094
749.000000	55.137555
750.000000	55.209950
751.000000	55.316626
752.000000	55.398313
753.000000	55.488455
754.000000	55.618042
755.000000	55.708589
756.000000	55.744690
757.000000	55.801125
758.000000	55.923642
759.000000	55.959892
760.000000	56.032917
761.000000	56.144656
762.000000	56.179630
763.000000	56.205558
764.000000	56.285657
765.000000	56.323939
766.000000	56.335951
767.000000	56.436069
768.000000	56.546346
769.000000	56.624104
770.000000	56.654952
771.000000	56.719314
772.000000	56.809482
773.000000	56.918996
774.000000	57.001374
775.000000	57.020607
776.000000	57.085479
777.000000	57.137523
778.000000	57.152159
779.000000	57.186338
780.000000	57.218151
781.000000	57.285640
782.000000	57.331700
783.000000	57.358657
784.000000	57.424659
785.000000	57.506645
786.000000	57.554373
787.000000	57.598522
788.000000	57.658298
789.000000	57.715764
790.000000	57.800432
791.000000	57.927716
792.000000	57.983972
793.000000	58.030693
794.000000	58.104445
795.000000	58.095162
796.000000	58.164473
797.000000	58.310304
798.000000	58.352088
799.000000	58.385218
800.000000	58.447713
801.000000	58.501811
802.000000	58.596979
803.000000	58.657469
804.000000	58.736942
805.000000	58.789461
806.000000	58.923714
807.000000	59.014939
808.000000	59.055523
809.000000	59.154465
810.000000	59.227958
811.000000	59.316655
812.000000	59.397784
813.000000	59.537977
814.000000	59.610403
815.000000	59.718223
816.000000	59.754379
817.000000	59.881010
818.000000	60.026056
819.000000	59.982647
820.000000	60.186203
821.000000	60.352898
822.000000	60.489684
823.000000	60.512906
824.000000	60.569198
825.000000	60.596663
826.000000	60.674682
827.000000	60.812706
828.000000	60.915013
829.000000	60.927047
830.000000	60.899872
831.000000	61.069486
832.000000	61.117762
833.000000	61.128577
834.000000	61.162134
835.000000	61.294622
836.000000	61.302196
837.000000	61.233583
838.000000	61.342778
839.000000	61.432438
840.000000	61.472278
841.000000	61.421236
842.000000	61.424472
843.000000	61.462679
844.000000	61.446854
845.000000	61.491659
846.000000	61.363667
847.000000	61.448055
848.000000	61.402511
849.000000	61.420096
850.000000	61.302535
851.000000	61.412472
852.000000	61.142900
853.000000	61.370908
854.000000	61.407816
855.000000	61.274881
856.000000	61.291911
857.000000	61.438220
858.000000	61.921867
859.000000	61.341533
860.000000	61.309233
861.000000	61.256433
862.000000	61.209900
863.000000	61.134067
864.000000	61.066867
865.000000	60.993500
866.000000	60.954400
867.000000	61.002133
868.000000	61.099300
869.000000	61.193367
870.000000	61.286133
871.000000	61.384067
872.000000	61.429767
873.000000	61.495333
874.000000	61.526167
875.000000	61.525767
876.000000	61.542433
877.000000	61.522367
878.000000	61.531333
879.000000	61.501400
880.000000	61.478300
881.000000	61.438233
882.000000	61.372167
883.000000	61.350267
884.000000	61.293967
885.000000	61.258867
886.000000	61.180800
887.000000	61.090133
888.000000	61.019567
889.000000	60.952967
890.000000	60.875133
891.000000	60.780600
892.000000	60.695267
893.000000	60.585900
894.000000	60.453267
895.000000	60.327633
896.000000	60.192000
897.000000	60.067233
898.000000	59.918000
899.000000	59.794433
900.000000	59.647133
901.000000	59.505167
902.000000	59.356200
903.000000	59.192233
904.000000	59.055767
905.000000	58.917933
906.000000	58.792233
907.000000	58.650000
908.000000	58.529967
909.000000	58.430167
910.000000	58.330433
911.000000	58.252033
912.000000	58.184133
913.000000	58.077700
914.000000	58.009667
915.000000	57.934200
916.000000	57.872600
917.000000	57.794267
918.000000	57.711567
919.000000	57.644133
920.000000	57.573833
921.000000	57.481733
922.000000	57.402600
923.000000	57.292733
924.000000	57.204167
925.000000	57.118300
926.000000	57.023300
927.000000	56.937200
928.000000	56.853467
929.000000	56.765967
930.000000	56.688333
931.000000	56.591600
932.000000	56.523967
933.000000	56.432033
934.000000	56.359367
935.000000	56.270433
936.000000	56.205733
937.000000	56.144167
938.000000	56.057400
939.000000	55.986367
940.000000	55.909367
941.000000	55.826133
942.000000	55.750233
943.000000	55.677300
944.000000	55.606833
945.000000	55.527100
946.000000	55.464267
947.000000	55.383767
948.000000	55.311000
949.000000	55.223433
950.000000	55.152933
951.000000	55.096800
952.000000	55.012767
953.000000	54.946133
954.000000	54.864533
955.000000	54.799767
956.000000	54.712767
957.000000	54.613800
958.000000	54.529233
959.000000	54.453133
960.000000	54.348833
961.000000	54.255533
962.000000	54.158367
963.000000	54.065900
964.000000	53.996900
965.000000	53.907367
966.000000	53.826533
967.000000	53.750800
968.000000	53.679767
969.000000	53.610133
970.000000	53.539767
971.000000	53.469933
972.000000	53.410433
973.000000	53.345733
974.000000	53.278700
975.000000	53.218233
976.000000	53.158333
977.000000	53.087733
978.000000	53.029100
979.000000	52.966133
980.000000	52.898967
981.000000	52.836967
982.000000	52.767833
983.000000	52.711800
984.000000	52.647633
985.000000	52.583400
986.000000	52.528933
987.000000	52.480933
988.000000	52.427400
989.000000	52.368633
990.000000	52.324133
991.000000	52.281733
992.000000	52.236667
993.000000	52.201900
994.000000	52.171900
995.000000	52.138433
996.000000	52.109000
997.000000	52.077667
998.000000	52.040000
999.000000	52.006200
1000.000000	51.984100
1001.000000	51.973667
1002.000000	51.943967
1003.000000	51.916967
1004.000000	51.898600
1005.000000	51.865867
1006.000000	51.846067
1007.000000	51.820300
1008.000000	51.790667
1009.000000	51.774033
1010.000000	51.754533
1011.000000	51.736867
1012.000000	51.736300
1013.000000	51.742467
1014.000000	51.748300
1015.000000	51.765800
1016.000000	51.793000
1017.000000	51.834467
1018.000000	51.872800
1019.000000	51.909167
1020.000000	51.966533
1021.000000	52.015733
1022.000000	52.063567
1023.000000	52.117700
1024.000000	52.179733
1025.000000	52.236733
1026.000000	52.293333
1027.000000	52.362300
1028.000000	52.416433
1029.000000	52.470033
1030.000000	52.528000
1031.000000	52.574667
1032.000000	52.623933
1033.000000	52.674033
1034.000000	52.719567
1035.000000	52.766267
1036.000000	52.810033
1037.000000	52.857200
1038.000000	52.898567
1039.000000	52.943200
1040.000000	52.985100
1041.000000	53.014200
1042.000000	53.046400
1043.000000	53.074567
1044.000000	53.108233
1045.000000	53.148400
1046.000000	53.190300
1047.000000	53.229267
1048.000000	53.271000
1049.000000	53.311267
1050.000000	53.353167
1051.000000	53.401433
1052.000000	53.443933
1053.000000	53.487667
1054.000000	53.544867
1055.000000	53.603500
1056.000000	53.656567
1057.000000	53.713200
1058.000000	53.775967
1059.000000	53.839467
1060.000000	53.887933
1061.000000	53.930333
1062.000000	53.984567
1063.000000	54.038833
1064.000000	54.084300
1065.000000	54.125433
1066.000000	54.173733
1067.000000	54.219867
1068.000000	54.259133
1069.000000	54.304833
1070.000000	54.349167
1071.000000	54.389633
1072.000000	54.430533
1073.000000	54.472700
1074.000000	54.509133
1075.000000	54.546800
1076.000000	54.582700
1077.000000	54.624367
1078.000000	54.661700
1079.000000	54.702867
1080.000000	54.739167
1081.000000	54.773200
1082.000000	54.816833
1083.000000	54.857667
1084.000000	54.904500
1085.000000	54.945700
1086.000000	54.980967
1087.000000	55.023200
1088.000000	55.062200
1089.000000	55.101833
1090.000000	55.130267
1091.000000	55.170167
1092.000000	55.199867
1093.000000	55.229733
1094.000000	55.254233
1095.000000	55.280233
1096.000000	55.306967
1097.000000	55.345867
1098.000000	55.369600
1099.000000	55.387233
1100.000000	55.408167
1101.000000	55.421100
1102.000000	55.443467
1103.000000	55.452800
1104.000000	55.462167
1105.000000	55.473500
1106.000000	55.480767
1107.000000	55.480200
1108.000000	55.495033
1109.000000	55.503633
1110.000000	55.512700
1111.000000	55.527233
1112.000000	55.534433
1113.000000	55.526900
1114.000000	55.553833
1115.000000	55.555333
1116.000000	55.566267
1117.000000	55.568967
1118.000000	55.560267
1119.000000	55.541300
1120.000000	55.523333
1121.000000	55.493767
1122.000000	55.452967
1123.000000	55.410867
1124.000000	55.339567
1125.000000	55.261667
1126.000000	55.185100
1127.000000	55.077000
1128.000000	54.943800
1129.000000	54.791000
1130.000000	54.601367
1131.000000	54.360800
1132.000000	54.085600
1133.000000	53.787067
1134.000000	53.490200
1135.000000	53.139467
1136.000000	52.738067
1137.000000	52.330033
1138.000000	51.926767
1139.000000	51.541133
1140.000000	51.161133
1141.000000	50.801000
1142.000000	50.437633
1143.000000	50.091167
1144.000000	49.765000
1145.000000	49.484833
1146.000000	49.273767
1147.000000	49.139300
1148.000000	49.068433
1149.000000	49.048600
1150.000000	49.044200
1151.000000	49.041933
1152.000000	49.032133
1153.000000	48.979733
1154.000000	48.890100
1155.000000	48.740100
1156.000000	48.535167
1157.000000	48.285833
1158.000000	47.965567
1159.000000	47.646533
1160.000000	47.266800
1161.000000	46.905700
1162.000000	46.505167
1163.000000	46.120767
1164.000000	45.711433
1165.000000	45.291033
1166.000000	44.892667
1167.000000	44.500433
1168.000000	44.100300
