PE UV       SUBTECH     SPECTRUM    ASCII       PEDS        4.00        
   -1
CICIMAUCR0013-5.Sample.ASC
24/04/23
11:02:20.00
24/04/23
11:02:20.00
Vinicio Soto Monge
C. resplendens
250,000000
1
Lambda 1050
1050L1511233
PerkinElmer UV WinLab 6.3.2.0749 / 2.02.05 Lambda 900 UV/VIS/NIR, Aug  7 2015 09:38:08

0
0
3350/servo 860,8/2
0
0
UV/VIS
1
1
1
DoubleDePol,CommonBeamDepol,RBeamAtt,SBeamAtt,60mm sphere, WB InGaAs Detector
0
0
0
0
Program
Program
3350/servo 860,8/2
3350/0,2 860,8/0,2
3350/0,2 860,8/0,2
0
15.00
 
 
 
0
 
860,8
319,2
860,8
Front
100
on
S:100 R:100
0
0
0
0
 
0
 
 
 
0
 
 
0
0
0
0
0
 
 
 
 
0
0


0
0
#HDR
-1
-1
#GR
nm
%R
1.0
0.0
2500,000000
-1,000000
2251
8
89,800900
5,734500
#DATA
250.000000	6.227900
251.000000	6.212500
252.000000	6.174433
253.000000	6.191967
254.000000	6.170433
255.000000	6.140200
256.000000	6.135267
257.000000	6.127000
258.000000	6.100667
259.000000	6.088700
260.000000	6.058033
261.000000	6.029533
262.000000	6.017267
263.000000	5.987000
264.000000	5.949400
265.000000	5.939067
266.000000	5.915433
267.000000	5.905967
268.000000	5.855567
269.000000	5.837233
270.000000	5.832833
271.000000	5.822933
272.000000	5.803667
273.000000	5.803100
274.000000	5.765967
275.000000	5.757567
276.000000	5.747433
277.000000	5.759200
278.000000	5.734967
279.000000	5.751400
280.000000	5.721733
281.000000	5.715267
282.000000	5.723167
283.000000	5.704533
284.000000	5.681300
285.000000	5.695133
286.000000	5.677100
287.000000	5.671567
288.000000	5.651333
289.000000	5.668667
290.000000	5.660700
291.000000	5.654067
292.000000	5.644367
293.000000	5.662400
294.000000	5.672867
295.000000	5.661900
296.000000	5.650033
297.000000	5.678133
298.000000	5.669100
299.000000	5.659567
300.000000	5.646700
301.000000	5.645033
302.000000	5.661933
303.000000	5.651600
304.000000	5.636633
305.000000	5.633100
306.000000	5.613133
307.000000	5.628200
308.000000	5.637367
309.000000	5.629733
310.000000	5.637133
311.000000	5.621100
312.000000	5.639667
313.000000	5.622600
314.000000	5.626067
315.000000	5.606433
316.000000	5.625167
317.000000	5.724833
318.000000	5.677500
319.000000	5.654333
320.000000	5.646267
321.000000	5.642100
322.000000	5.652300
323.000000	5.658033
324.000000	5.691000
325.000000	5.600167
326.000000	5.648167
327.000000	5.638967
328.000000	5.657867
329.000000	5.621600
330.000000	5.633767
331.000000	5.665167
332.000000	5.681200
333.000000	5.697600
334.000000	5.703467
335.000000	5.696867
336.000000	5.736900
337.000000	5.732233
338.000000	5.677000
339.000000	5.716533
340.000000	5.714467
341.000000	5.753933
342.000000	5.761900
343.000000	5.741500
344.000000	5.743967
345.000000	5.768433
346.000000	5.773300
347.000000	5.794800
348.000000	5.813567
349.000000	5.841967
350.000000	5.874133
351.000000	5.938067
352.000000	5.953800
353.000000	5.980567
354.000000	6.028633
355.000000	6.068600
356.000000	6.127767
357.000000	6.157067
358.000000	6.223033
359.000000	6.308167
360.000000	6.342167
361.000000	6.359433
362.000000	6.424600
363.000000	6.512933
364.000000	6.585800
365.000000	6.655567
366.000000	6.741133
367.000000	6.824267
368.000000	6.875333
369.000000	6.971333
370.000000	7.089267
371.000000	7.208300
372.000000	7.336067
373.000000	7.431500
374.000000	7.565933
375.000000	7.764100
376.000000	7.908700
377.000000	8.121967
378.000000	8.325967
379.000000	8.549733
380.000000	8.780533
381.000000	9.035467
382.000000	9.294667
383.000000	9.577067
384.000000	9.875367
385.000000	10.193367
386.000000	10.525133
387.000000	10.847600
388.000000	11.184233
389.000000	11.541300
390.000000	11.919267
391.000000	12.289800
392.000000	12.675500
393.000000	13.070967
394.000000	13.449300
395.000000	13.834400
396.000000	14.227200
397.000000	14.598800
398.000000	14.976700
399.000000	15.353600
400.000000	15.727533
401.000000	16.090333
402.000000	16.432600
403.000000	16.780100
404.000000	17.115233
405.000000	17.441200
406.000000	17.754800
407.000000	18.064367
408.000000	18.353600
409.000000	18.643167
410.000000	18.900133
411.000000	19.167167
412.000000	19.405333
413.000000	19.638867
414.000000	19.863767
415.000000	20.057033
416.000000	20.256433
417.000000	20.449833
418.000000	20.602333
419.000000	20.759167
420.000000	20.907967
421.000000	21.024767
422.000000	21.125067
423.000000	21.221300
424.000000	21.301600
425.000000	21.367500
426.000000	21.410267
427.000000	21.461867
428.000000	21.473767
429.000000	21.463033
430.000000	21.434000
431.000000	21.377467
432.000000	21.304000
433.000000	21.218967
434.000000	21.123967
435.000000	21.020533
436.000000	20.884433
437.000000	20.730500
438.000000	20.583333
439.000000	20.450667
440.000000	20.301667
441.000000	20.177333
442.000000	20.064900
443.000000	19.963033
444.000000	19.871400
445.000000	19.817000
446.000000	19.797267
447.000000	19.810700
448.000000	19.873333
449.000000	19.971100
450.000000	20.125200
451.000000	20.318900
452.000000	20.560933
453.000000	20.855733
454.000000	21.186600
455.000000	21.546533
456.000000	21.925700
457.000000	22.347367
458.000000	22.781533
459.000000	23.224567
460.000000	23.675767
461.000000	24.150600
462.000000	24.605633
463.000000	25.048667
464.000000	25.496667
465.000000	25.907367
466.000000	26.275333
467.000000	26.631233
468.000000	26.966200
469.000000	27.267033
470.000000	27.537833
471.000000	27.794733
472.000000	28.004500
473.000000	28.190767
474.000000	28.362400
475.000000	28.491900
476.000000	28.604800
477.000000	28.698700
478.000000	28.804500
479.000000	28.864767
480.000000	28.945867
481.000000	29.029967
482.000000	29.125300
483.000000	29.249367
484.000000	29.385200
485.000000	29.563900
486.000000	29.776667
487.000000	30.010267
488.000000	30.282467
489.000000	30.596667
490.000000	30.958233
491.000000	31.356133
492.000000	31.772433
493.000000	32.246233
494.000000	32.760433
495.000000	33.289233
496.000000	33.860700
497.000000	34.462900
498.000000	35.070100
499.000000	35.731067
500.000000	36.400933
501.000000	37.102400
502.000000	37.852900
503.000000	38.634867
504.000000	39.418067
505.000000	40.241033
506.000000	41.102533
507.000000	41.972567
508.000000	42.900100
509.000000	43.890933
510.000000	44.877433
511.000000	45.934167
512.000000	47.012167
513.000000	48.126033
514.000000	49.286233
515.000000	50.475267
516.000000	51.678933
517.000000	52.900367
518.000000	54.149700
519.000000	55.426000
520.000000	56.704067
521.000000	58.002200
522.000000	59.300900
523.000000	60.595033
524.000000	61.859800
525.000000	63.125867
526.000000	64.366467
527.000000	65.537800
528.000000	66.673367
529.000000	67.776467
530.000000	68.823667
531.000000	69.837600
532.000000	70.807867
533.000000	71.718100
534.000000	72.582333
535.000000	73.387033
536.000000	74.173933
537.000000	74.916133
538.000000	75.607900
539.000000	76.265200
540.000000	76.893967
541.000000	77.494367
542.000000	78.069500
543.000000	78.614567
544.000000	79.123000
545.000000	79.601867
546.000000	80.014833
547.000000	80.429267
548.000000	80.814033
549.000000	81.159800
550.000000	81.494200
551.000000	81.779433
552.000000	82.073167
553.000000	82.357000
554.000000	82.558833
555.000000	82.790667
556.000000	83.022433
557.000000	83.205133
558.000000	83.433267
559.000000	83.593300
560.000000	83.689200
561.000000	83.852600
562.000000	83.975567
563.000000	84.081633
564.000000	84.212233
565.000000	84.296467
566.000000	84.367833
567.000000	84.415467
568.000000	84.471600
569.000000	84.467833
570.000000	84.451800
571.000000	84.405267
572.000000	84.338000
573.000000	84.246800
574.000000	84.145200
575.000000	84.047767
576.000000	83.920600
577.000000	83.790233
578.000000	83.642067
579.000000	83.477500
580.000000	83.321333
581.000000	83.155000
582.000000	82.958967
583.000000	82.754433
584.000000	82.516633
585.000000	82.299400
586.000000	82.062500
587.000000	81.798233
588.000000	81.524833
589.000000	81.234233
590.000000	80.952167
591.000000	80.617867
592.000000	80.241967
593.000000	79.921367
594.000000	79.582367
595.000000	79.209567
596.000000	78.904567
597.000000	78.538767
598.000000	78.175333
599.000000	77.827433
600.000000	77.429567
601.000000	77.042867
602.000000	76.631467
603.000000	76.202533
604.000000	75.741433
605.000000	75.273300
606.000000	74.759833
607.000000	74.208533
608.000000	73.642600
609.000000	73.021633
610.000000	72.392200
611.000000	71.719433
612.000000	71.028067
613.000000	70.338500
614.000000	69.627900
615.000000	68.897700
616.000000	68.151367
617.000000	67.409533
618.000000	66.631533
619.000000	65.868200
620.000000	65.039533
621.000000	64.231500
622.000000	63.379100
623.000000	62.509833
624.000000	61.614500
625.000000	60.710133
626.000000	59.798433
627.000000	58.939200
628.000000	58.075233
629.000000	57.224267
630.000000	56.383567
631.000000	55.617533
632.000000	54.895400
633.000000	54.264033
634.000000	53.717500
635.000000	53.274400
636.000000	52.885200
637.000000	52.598800
638.000000	52.436933
639.000000	52.380500
640.000000	52.392700
641.000000	52.473800
642.000000	52.674367
643.000000	52.941167
644.000000	53.279967
645.000000	53.696100
646.000000	54.168100
647.000000	54.663267
648.000000	55.209833
649.000000	55.803967
650.000000	56.421167
651.000000	57.073333
652.000000	57.743933
653.000000	58.445367
654.000000	59.104100
655.000000	59.771967
656.000000	60.465800
657.000000	61.107000
658.000000	61.727300
659.000000	62.345933
660.000000	62.935933
661.000000	63.536500
662.000000	64.081767
663.000000	64.585000
664.000000	65.093700
665.000000	65.574900
666.000000	66.023900
667.000000	66.444667
668.000000	66.824233
669.000000	67.200733
670.000000	67.585600
671.000000	67.914133
672.000000	68.243433
673.000000	68.591100
674.000000	68.915100
675.000000	69.176200
676.000000	69.467467
677.000000	69.710667
678.000000	69.916733
679.000000	70.151767
680.000000	70.350433
681.000000	70.479000
682.000000	70.576900
683.000000	70.626567
684.000000	70.665633
685.000000	70.663933
686.000000	70.621967
687.000000	70.549033
688.000000	70.409933
689.000000	70.275700
690.000000	70.138200
691.000000	69.943033
692.000000	69.756533
693.000000	69.558800
694.000000	69.359800
695.000000	69.138700
696.000000	68.883733
697.000000	68.658333
698.000000	68.452600
699.000000	68.229067
700.000000	67.964467
701.000000	67.692300
702.000000	67.477567
703.000000	67.269933
704.000000	67.064267
705.000000	66.872800
706.000000	66.721900
707.000000	66.606733
708.000000	66.497900
709.000000	66.426867
710.000000	66.401833
711.000000	66.459300
712.000000	66.576067
713.000000	66.688767
714.000000	66.804133
715.000000	67.033600
716.000000	67.294433
717.000000	67.547033
718.000000	67.845600
719.000000	68.167967
720.000000	68.525433
721.000000	68.862467
722.000000	69.254667
723.000000	69.646000
724.000000	70.090233
725.000000	70.520333
726.000000	70.985600
727.000000	71.467767
728.000000	71.957933
729.000000	72.456367
730.000000	72.937233
731.000000	73.399100
732.000000	73.923367
733.000000	74.450767
734.000000	74.928967
735.000000	75.425467
736.000000	75.880067
737.000000	76.311167
738.000000	76.734500
739.000000	77.131900
740.000000	77.491133
741.000000	77.873000
742.000000	78.209233
743.000000	78.531000
744.000000	78.860600
745.000000	79.150000
746.000000	79.415733
747.000000	79.649533
748.000000	79.887867
749.000000	80.100600
750.000000	80.286700
751.000000	80.509200
752.000000	80.712833
753.000000	80.855067
754.000000	81.057267
755.000000	81.209833
756.000000	81.322767
757.000000	81.486100
758.000000	81.628867
759.000000	81.757100
760.000000	81.913433
761.000000	82.084567
762.000000	82.221800
763.000000	82.353333
764.000000	82.494200
765.000000	82.629133
766.000000	82.778400
767.000000	82.957367
768.000000	83.141000
769.000000	83.228767
770.000000	83.357333
771.000000	83.489600
772.000000	83.616933
773.000000	83.646000
774.000000	83.716133
775.000000	83.746167
776.000000	83.665733
777.000000	83.708100
778.000000	83.641467
779.000000	83.540633
780.000000	83.550167
781.000000	83.412167
782.000000	83.312533
783.000000	83.252233
784.000000	83.153267
785.000000	83.057300
786.000000	83.046367
787.000000	82.877233
788.000000	82.889567
789.000000	82.823233
790.000000	82.883533
791.000000	82.885500
792.000000	82.813867
793.000000	82.805533
794.000000	82.783300
795.000000	82.940533
796.000000	82.954067
797.000000	82.998767
798.000000	83.045967
799.000000	83.217067
800.000000	83.384100
801.000000	83.425900
802.000000	83.466100
803.000000	83.702733
804.000000	83.709433
805.000000	83.836067
806.000000	83.934233
807.000000	84.082667
808.000000	84.148567
809.000000	84.228333
810.000000	84.190667
811.000000	84.188200
812.000000	84.209300
813.000000	84.067667
814.000000	84.013433
815.000000	83.795233
816.000000	83.557967
817.000000	83.402933
818.000000	83.221667
819.000000	83.011467
820.000000	82.775700
821.000000	82.583933
822.000000	82.310167
823.000000	82.004967
824.000000	81.796133
825.000000	81.597400
826.000000	81.277067
827.000000	81.056233
828.000000	80.810200
829.000000	80.609867
830.000000	80.332433
831.000000	80.007067
832.000000	79.740633
833.000000	79.529200
834.000000	79.321133
835.000000	79.040967
836.000000	78.822100
837.000000	78.596400
838.000000	78.171033
839.000000	77.868533
840.000000	77.551133
841.000000	77.342433
842.000000	77.135533
843.000000	76.802133
844.000000	76.572800
845.000000	76.202667
846.000000	75.975000
847.000000	75.601433
848.000000	75.203700
849.000000	74.852567
850.000000	74.427233
851.000000	74.234533
852.000000	73.840467
853.000000	73.641900
854.000000	73.070933
855.000000	72.863267
856.000000	72.547533
857.000000	72.291300
858.000000	72.567367
859.000000	72.626919
860.000000	72.512043
861.000000	73.043730
862.000000	73.049718
863.000000	73.173749
864.000000	73.301158
865.000000	73.353940
866.000000	73.522858
867.000000	73.575864
868.000000	73.284963
869.000000	73.501072
870.000000	73.634451
871.000000	73.460822
872.000000	73.384573
873.000000	73.202218
874.000000	73.298712
875.000000	73.359782
876.000000	73.234062
877.000000	73.132327
878.000000	73.158691
879.000000	73.176991
880.000000	73.076311
881.000000	73.059807
882.000000	72.845134
883.000000	72.737171
884.000000	72.699757
885.000000	72.625204
886.000000	72.568426
887.000000	72.403573
888.000000	72.320232
889.000000	72.225550
890.000000	72.063687
891.000000	72.002059
892.000000	71.896827
893.000000	71.824719
894.000000	71.685645
895.000000	71.540770
896.000000	71.479877
897.000000	71.283464
898.000000	71.129863
899.000000	71.048074
900.000000	70.935284
901.000000	70.823129
902.000000	70.726824
903.000000	70.563364
904.000000	70.396802
905.000000	70.268102
906.000000	70.059177
907.000000	69.896551
908.000000	69.767939
909.000000	69.627029
910.000000	69.467741
911.000000	69.361459
912.000000	69.313689
913.000000	69.160739
914.000000	69.021998
915.000000	68.990760
916.000000	68.883350
917.000000	68.755448
918.000000	68.690819
919.000000	68.585119
920.000000	68.480074
921.000000	68.413971
922.000000	68.348263
923.000000	68.258685
924.000000	68.176415
925.000000	68.099246
926.000000	68.059921
927.000000	67.971721
928.000000	67.918230
929.000000	67.845843
930.000000	67.793850
931.000000	67.739192
932.000000	67.653997
933.000000	67.585217
934.000000	67.501450
935.000000	67.409533
936.000000	67.315503
937.000000	67.281679
938.000000	67.222643
939.000000	67.102911
940.000000	66.998587
941.000000	66.890553
942.000000	66.811144
943.000000	66.711336
944.000000	66.610928
945.000000	66.483503
946.000000	66.395746
947.000000	66.300242
948.000000	66.223309
949.000000	66.122063
950.000000	66.024467
951.000000	65.921703
952.000000	65.785710
953.000000	65.713680
954.000000	65.624595
955.000000	65.531091
956.000000	65.423211
957.000000	65.314606
958.000000	65.252470
959.000000	65.185925
960.000000	65.069335
961.000000	64.983482
962.000000	64.919320
963.000000	64.845488
964.000000	64.754550
965.000000	64.666883
966.000000	64.635868
967.000000	64.583399
968.000000	64.537452
969.000000	64.489929
970.000000	64.432132
971.000000	64.384804
972.000000	64.328649
973.000000	64.284395
974.000000	64.207964
975.000000	64.143259
976.000000	64.066262
977.000000	64.004367
978.000000	63.925851
979.000000	63.840182
980.000000	63.792127
981.000000	63.709802
982.000000	63.639038
983.000000	63.579590
984.000000	63.478360
985.000000	63.384962
986.000000	63.328563
987.000000	63.261543
988.000000	63.189230
989.000000	63.107892
990.000000	63.048854
991.000000	62.985169
992.000000	62.926926
993.000000	62.868684
994.000000	62.829800
995.000000	62.800853
996.000000	62.746799
997.000000	62.687448
998.000000	62.659956
999.000000	62.614879
1000.000000	62.571459
1001.000000	62.529951
1002.000000	62.515303
1003.000000	62.505923
1004.000000	62.474898
1005.000000	62.451567
1006.000000	62.434932
1007.000000	62.419814
1008.000000	62.389692
1009.000000	62.353610
1010.000000	62.342495
1011.000000	62.316715
1012.000000	62.317251
1013.000000	62.333444
1014.000000	62.340742
1015.000000	62.335069
1016.000000	62.364618
1017.000000	62.397574
1018.000000	62.433147
1019.000000	62.447689
1020.000000	62.479479
1021.000000	62.512614
1022.000000	62.573413
1023.000000	62.618437
1024.000000	62.667588
1025.000000	62.718014
1026.000000	62.759085
1027.000000	62.828490
1028.000000	62.880048
1029.000000	62.941529
1030.000000	62.987433
1031.000000	63.034812
1032.000000	63.086124
1033.000000	63.128232
1034.000000	63.194849
1035.000000	63.245215
1036.000000	63.312161
1037.000000	63.348559
1038.000000	63.418782
1039.000000	63.477200
1040.000000	63.531030
1041.000000	63.576211
1042.000000	63.629617
1043.000000	63.680222
1044.000000	63.746808
1045.000000	63.788837
1046.000000	63.834761
1047.000000	63.887647
1048.000000	63.958845
1049.000000	64.007790
1050.000000	64.055351
1051.000000	64.130299
1052.000000	64.207175
1053.000000	64.261291
1054.000000	64.325510
1055.000000	64.394559
1056.000000	64.453271
1057.000000	64.536617
1058.000000	64.622484
1059.000000	64.687079
1060.000000	64.751024
1061.000000	64.804265
1062.000000	64.874432
1063.000000	64.949876
1064.000000	65.014829
1065.000000	65.085194
1066.000000	65.150277
1067.000000	65.221974
1068.000000	65.281604
1069.000000	65.354421
1070.000000	65.406014
1071.000000	65.470007
1072.000000	65.544568
1073.000000	65.600618
1074.000000	65.661827
1075.000000	65.713702
1076.000000	65.784950
1077.000000	65.850229
1078.000000	65.903396
1079.000000	65.986314
1080.000000	66.056580
1081.000000	66.106125
1082.000000	66.184850
1083.000000	66.251336
1084.000000	66.332749
1085.000000	66.401081
1086.000000	66.468523
1087.000000	66.536339
1088.000000	66.605974
1089.000000	66.657293
1090.000000	66.722866
1091.000000	66.785680
1092.000000	66.857875
1093.000000	66.918941
1094.000000	66.973035
1095.000000	67.029329
1096.000000	67.076181
1097.000000	67.124072
1098.000000	67.180937
1099.000000	67.222660
1100.000000	67.267299
1101.000000	67.297631
1102.000000	67.345904
1103.000000	67.375519
1104.000000	67.403493
1105.000000	67.448160
1106.000000	67.491311
1107.000000	67.516091
1108.000000	67.553029
1109.000000	67.577113
1110.000000	67.602392
1111.000000	67.618898
1112.000000	67.644257
1113.000000	67.678026
1114.000000	67.711629
1115.000000	67.749953
1116.000000	67.773189
1117.000000	67.805137
1118.000000	67.826459
1119.000000	67.827011
1120.000000	67.810702
1121.000000	67.803311
1122.000000	67.800537
1123.000000	67.772190
1124.000000	67.730764
1125.000000	67.663091
1126.000000	67.612651
1127.000000	67.529301
1128.000000	67.434580
1129.000000	67.324494
1130.000000	67.169197
1131.000000	66.939259
1132.000000	66.696986
1133.000000	66.440842
1134.000000	66.212089
1135.000000	65.949470
1136.000000	65.587522
1137.000000	65.192033
1138.000000	64.802886
1139.000000	64.460116
1140.000000	64.104514
1141.000000	63.796840
1142.000000	63.453642
1143.000000	63.130968
1144.000000	62.837913
1145.000000	62.583530
1146.000000	62.399547
1147.000000	62.278264
1148.000000	62.225688
1149.000000	62.241270
1150.000000	62.264126
1151.000000	62.281167
1152.000000	62.294773
1153.000000	62.288427
1154.000000	62.232557
1155.000000	62.104990
1156.000000	61.936089
1157.000000	61.696820
1158.000000	61.433042
1159.000000	61.101427
1160.000000	60.760386
1161.000000	60.409077
1162.000000	60.050785
1163.000000	59.682917
1164.000000	59.286465
1165.000000	58.917235
1166.000000	58.525877
