PE UV       SUBTECH     SPECTRUM    ASCII       PEDS        4.00        
   -1
CICIMAUCR0158-5.Sample.ASC
24/04/25
13:52:02.00
24/04/25
13:52:02.00
Vinicio Soto Monge
C. cupreomarginata
250,000000
1
Lambda 1050
1050L1511233
PerkinElmer UV WinLab 6.3.2.0749 / 2.02.05 Lambda 900 UV/VIS/NIR, Aug  7 2015 09:38:08

0
0
3350/servo 860,8/2
0
0
UV/VIS
1
1
1
DoubleDePol,CommonBeamDepol,RBeamAtt,SBeamAtt,60mm sphere, WB InGaAs Detector
0
0
0
0
Program
Program
3350/servo 860,8/2
3350/0,2 860,8/0,2
3350/0,2 860,8/0,2
0
15.00
 
 
 
0
 
860,8
319,2
860,8
Front
100
on
S:100 R:100
0
0
0
0
 
0
 
 
 
0
 
 
0
0
0
0
0
 
 
 
 
0
0


0
0
#HDR
-1
-1
#GR
nm
%R
1.0
0.0
2500,000000
-1,000000
2251
8
68,614000
5,280700
#DATA
250.000000	5.328406
251.000000	5.296427
252.000000	5.279851
253.000000	5.278370
254.000000	5.239777
255.000000	5.243120
256.000000	5.253005
257.000000	5.239538
258.000000	5.205135
259.000000	5.190389
260.000000	5.175139
261.000000	5.143917
262.000000	5.128929
263.000000	5.101395
264.000000	5.085787
265.000000	5.056895
266.000000	5.045170
267.000000	5.017332
268.000000	5.009721
269.000000	4.980965
270.000000	4.963564
271.000000	4.977228
272.000000	4.955616
273.000000	4.920637
274.000000	4.934190
275.000000	4.908591
276.000000	4.879489
277.000000	4.876597
278.000000	4.849998
279.000000	4.856062
280.000000	4.851407
281.000000	4.816026
282.000000	4.819109
283.000000	4.814010
284.000000	4.813755
285.000000	4.809176
286.000000	4.815132
287.000000	4.822164
288.000000	4.794095
289.000000	4.779927
290.000000	4.790413
291.000000	4.792907
292.000000	4.794766
293.000000	4.767908
294.000000	4.810247
295.000000	4.761649
296.000000	4.795741
297.000000	4.774693
298.000000	4.771701
299.000000	4.784105
300.000000	4.774148
301.000000	4.761277
302.000000	4.762692
303.000000	4.778526
304.000000	4.789747
305.000000	4.811500
306.000000	4.788560
307.000000	4.782709
308.000000	4.806853
309.000000	4.818615
310.000000	4.823613
311.000000	4.794755
312.000000	4.813993
313.000000	4.807898
314.000000	4.807323
315.000000	4.830294
316.000000	4.890400
317.000000	5.425909
318.000000	5.270389
319.000000	5.177485
320.000000	5.229423
321.000000	5.165700
322.000000	5.186052
323.000000	5.067396
324.000000	5.083468
325.000000	5.058099
326.000000	5.087535
327.000000	4.945244
328.000000	4.906008
329.000000	5.044586
330.000000	4.929150
331.000000	4.823260
332.000000	4.880907
333.000000	4.920430
334.000000	4.944191
335.000000	4.857076
336.000000	4.863306
337.000000	4.922297
338.000000	4.856926
339.000000	4.857311
340.000000	4.865218
341.000000	4.850845
342.000000	4.924363
343.000000	4.915879
344.000000	4.868692
345.000000	4.864972
346.000000	4.818996
347.000000	4.875488
348.000000	4.870877
349.000000	4.864151
350.000000	4.850462
351.000000	4.904827
352.000000	4.973630
353.000000	4.965215
354.000000	4.981986
355.000000	5.023827
356.000000	5.058095
357.000000	5.034130
358.000000	5.071215
359.000000	5.138524
360.000000	5.258211
361.000000	5.223095
362.000000	5.272203
363.000000	5.294324
364.000000	5.362893
365.000000	5.379041
366.000000	5.403313
367.000000	5.487939
368.000000	5.587202
369.000000	5.664950
370.000000	5.665959
371.000000	5.713703
372.000000	5.776122
373.000000	5.875763
374.000000	5.917198
375.000000	6.141487
376.000000	6.483317
377.000000	6.573506
378.000000	6.720402
379.000000	6.878043
380.000000	7.043273
381.000000	7.230009
382.000000	7.407520
383.000000	7.588717
384.000000	7.786243
385.000000	7.998222
386.000000	8.195639
387.000000	8.401792
388.000000	8.613329
389.000000	8.820402
390.000000	9.030300
391.000000	9.243407
392.000000	9.446855
393.000000	9.647875
394.000000	9.839112
395.000000	10.035856
396.000000	10.218950
397.000000	10.408546
398.000000	10.582418
399.000000	10.747038
400.000000	10.904842
401.000000	11.050369
402.000000	11.194593
403.000000	11.328912
404.000000	11.461212
405.000000	11.575655
406.000000	11.685483
407.000000	11.795466
408.000000	11.893724
409.000000	11.978469
410.000000	12.050413
411.000000	12.117732
412.000000	12.181591
413.000000	12.243569
414.000000	12.293827
415.000000	12.339012
416.000000	12.369648
417.000000	12.391060
418.000000	12.404374
419.000000	12.414765
420.000000	12.422335
421.000000	12.420789
422.000000	12.413522
423.000000	12.403374
424.000000	12.383669
425.000000	12.360834
426.000000	12.345852
427.000000	12.323857
428.000000	12.305679
429.000000	12.292962
430.000000	12.288718
431.000000	12.290206
432.000000	12.308778
433.000000	12.322676
434.000000	12.354895
435.000000	12.405644
436.000000	12.478982
437.000000	12.554869
438.000000	12.651957
439.000000	12.782874
440.000000	12.916388
441.000000	13.072129
442.000000	13.252576
443.000000	13.457986
444.000000	13.680319
445.000000	13.905040
446.000000	14.140813
447.000000	14.386770
448.000000	14.640500
449.000000	14.915205
450.000000	15.184588
451.000000	15.450117
452.000000	15.709999
453.000000	15.980912
454.000000	16.236358
455.000000	16.481127
456.000000	16.717732
457.000000	16.938019
458.000000	17.159361
459.000000	17.354050
460.000000	17.547751
461.000000	17.741098
462.000000	17.926459
463.000000	18.096172
464.000000	18.270294
465.000000	18.437085
466.000000	18.600745
467.000000	18.765576
468.000000	18.938143
469.000000	19.111081
470.000000	19.286134
471.000000	19.474727
472.000000	19.677746
473.000000	19.872556
474.000000	20.082307
475.000000	20.300176
476.000000	20.531859
477.000000	20.770314
478.000000	21.019200
479.000000	21.277684
480.000000	21.547868
481.000000	21.833724
482.000000	22.134680
483.000000	22.440180
484.000000	22.753637
485.000000	23.057583
486.000000	23.365809
487.000000	23.687635
488.000000	24.011015
489.000000	24.343373
490.000000	24.687700
491.000000	25.045198
492.000000	25.375046
493.000000	25.716072
494.000000	26.051125
495.000000	26.402447
496.000000	26.766265
497.000000	27.113876
498.000000	27.440174
499.000000	27.794371
500.000000	28.155447
501.000000	28.521816
502.000000	28.884702
503.000000	29.264850
504.000000	29.650447
505.000000	30.041207
506.000000	30.449065
507.000000	30.861634
508.000000	31.286436
509.000000	31.739563
510.000000	32.212918
511.000000	32.699692
512.000000	33.203425
513.000000	33.727256
514.000000	34.256748
515.000000	34.798101
516.000000	35.348185
517.000000	35.923192
518.000000	36.492209
519.000000	37.080599
520.000000	37.688125
521.000000	38.309015
522.000000	38.945239
523.000000	39.580488
524.000000	40.233640
525.000000	40.892887
526.000000	41.556432
527.000000	42.222966
528.000000	42.897426
529.000000	43.577809
530.000000	44.275465
531.000000	44.970756
532.000000	45.679485
533.000000	46.406658
534.000000	47.126667
535.000000	47.833670
536.000000	48.536226
537.000000	49.212508
538.000000	49.879489
539.000000	50.520686
540.000000	51.148023
541.000000	51.750303
542.000000	52.328406
543.000000	52.864762
544.000000	53.375141
545.000000	53.830780
546.000000	54.261275
547.000000	54.655836
548.000000	55.004797
549.000000	55.299453
550.000000	55.579334
551.000000	55.835410
552.000000	56.039732
553.000000	56.213786
554.000000	56.361030
555.000000	56.502018
556.000000	56.624767
557.000000	56.743991
558.000000	56.810073
559.000000	56.876558
560.000000	56.932946
561.000000	56.992030
562.000000	57.028707
563.000000	57.074836
564.000000	57.121224
565.000000	57.134034
566.000000	57.159646
567.000000	57.144453
568.000000	57.115864
569.000000	57.061292
570.000000	56.993120
571.000000	56.912777
572.000000	56.822390
573.000000	56.720310
574.000000	56.622939
575.000000	56.506025
576.000000	56.383433
577.000000	56.258265
578.000000	56.143228
579.000000	56.006593
580.000000	55.873548
581.000000	55.709606
582.000000	55.579789
583.000000	55.446077
584.000000	55.301243
585.000000	55.144284
586.000000	54.998430
587.000000	54.884627
588.000000	54.751209
589.000000	54.599245
590.000000	54.446907
591.000000	54.296872
592.000000	54.143276
593.000000	53.961673
594.000000	53.805677
595.000000	53.617329
596.000000	53.428224
597.000000	53.236711
598.000000	53.003805
599.000000	52.784287
600.000000	52.526189
601.000000	52.258901
602.000000	51.960831
603.000000	51.638900
604.000000	51.321446
605.000000	50.980377
606.000000	50.650265
607.000000	50.317443
608.000000	49.977799
609.000000	49.645333
610.000000	49.286051
611.000000	48.952690
612.000000	48.595264
613.000000	48.237547
614.000000	47.921707
615.000000	47.586990
616.000000	47.283521
617.000000	46.942658
618.000000	46.621078
619.000000	46.308262
620.000000	45.979261
621.000000	45.657474
622.000000	45.324660
623.000000	44.998724
624.000000	44.677715
625.000000	44.373857
626.000000	44.085705
627.000000	43.820028
628.000000	43.569834
629.000000	43.346892
630.000000	43.134705
631.000000	42.976353
632.000000	42.850862
633.000000	42.751416
634.000000	42.703210
635.000000	42.707140
636.000000	42.737722
637.000000	42.818737
638.000000	42.955327
639.000000	43.092764
640.000000	43.262731
641.000000	43.450738
642.000000	43.687906
643.000000	43.936915
644.000000	44.193392
645.000000	44.441302
646.000000	44.726246
647.000000	45.024200
648.000000	45.270630
649.000000	45.544462
650.000000	45.810668
651.000000	46.084677
652.000000	46.363967
653.000000	46.619788
654.000000	46.860051
655.000000	47.101167
656.000000	47.329268
657.000000	47.537049
658.000000	47.750537
659.000000	47.927177
660.000000	48.119632
661.000000	48.270105
662.000000	48.413488
663.000000	48.553376
664.000000	48.678002
665.000000	48.785441
666.000000	48.881282
667.000000	48.958078
668.000000	49.031118
669.000000	49.083058
670.000000	49.133438
671.000000	49.191486
672.000000	49.213835
673.000000	49.241204
674.000000	49.269909
675.000000	49.303635
676.000000	49.351828
677.000000	49.368881
678.000000	49.406859
679.000000	49.420777
680.000000	49.434434
681.000000	49.462816
682.000000	49.502563
683.000000	49.522551
684.000000	49.557101
685.000000	49.613869
686.000000	49.643317
687.000000	49.668429
688.000000	49.713235
689.000000	49.798328
690.000000	49.850961
691.000000	49.912681
692.000000	49.981842
693.000000	50.072654
694.000000	50.163783
695.000000	50.275520
696.000000	50.386626
697.000000	50.497585
698.000000	50.589231
699.000000	50.701273
700.000000	50.841796
701.000000	50.980874
702.000000	51.121520
703.000000	51.257889
704.000000	51.397557
705.000000	51.533518
706.000000	51.672990
707.000000	51.798431
708.000000	51.916882
709.000000	52.060840
710.000000	52.213774
711.000000	52.311539
712.000000	52.446129
713.000000	52.560255
714.000000	52.656152
715.000000	52.802079
716.000000	52.918652
717.000000	53.009816
718.000000	53.108760
719.000000	53.222637
720.000000	53.285555
721.000000	53.369733
722.000000	53.475143
723.000000	53.551355
724.000000	53.583877
725.000000	53.661383
726.000000	53.742451
727.000000	53.795267
728.000000	53.860371
729.000000	53.930003
730.000000	53.968308
731.000000	54.016272
732.000000	54.082248
733.000000	54.147093
734.000000	54.183946
735.000000	54.247752
736.000000	54.312990
737.000000	54.360180
738.000000	54.421424
739.000000	54.468118
740.000000	54.519426
741.000000	54.582564
742.000000	54.631653
743.000000	54.670239
744.000000	54.725353
745.000000	54.814110
746.000000	54.858403
747.000000	54.950409
748.000000	55.025465
749.000000	55.098354
750.000000	55.178096
751.000000	55.265703
752.000000	55.335903
753.000000	55.417217
754.000000	55.505651
755.000000	55.585052
756.000000	55.683238
757.000000	55.781500
758.000000	55.867126
759.000000	55.983567
760.000000	56.091756
761.000000	56.214291
762.000000	56.294457
763.000000	56.394296
764.000000	56.522239
765.000000	56.616528
766.000000	56.725816
767.000000	56.855253
768.000000	56.942377
769.000000	57.045586
770.000000	57.206578
771.000000	57.334469
772.000000	57.462493
773.000000	57.591095
774.000000	57.716903
775.000000	57.792628
776.000000	57.880477
777.000000	57.984772
778.000000	58.115234
779.000000	58.186620
780.000000	58.267835
781.000000	58.348996
782.000000	58.419579
783.000000	58.476837
784.000000	58.571491
785.000000	58.648777
786.000000	58.777275
787.000000	58.861514
788.000000	58.893995
789.000000	58.950063
790.000000	59.029266
791.000000	59.093663
792.000000	59.167715
793.000000	59.237668
794.000000	59.242382
795.000000	59.284225
796.000000	59.297438
797.000000	59.385430
798.000000	59.418319
799.000000	59.485697
800.000000	59.546483
801.000000	59.545297
802.000000	59.618050
803.000000	59.643021
804.000000	59.724360
805.000000	59.763696
806.000000	59.763838
807.000000	59.825713
808.000000	59.864615
809.000000	59.917386
810.000000	59.981404
811.000000	60.013761
812.000000	60.060837
813.000000	60.075029
814.000000	60.038498
815.000000	60.158422
816.000000	60.248986
817.000000	60.215108
818.000000	60.249788
819.000000	60.233629
820.000000	60.297509
821.000000	60.318811
822.000000	60.311375
823.000000	60.338059
824.000000	60.293156
825.000000	60.416142
826.000000	60.402611
827.000000	60.368832
828.000000	60.396178
829.000000	60.374117
830.000000	60.312776
831.000000	60.260112
832.000000	60.224711
833.000000	60.306574
834.000000	60.184375
835.000000	60.103515
836.000000	60.109691
837.000000	60.019536
838.000000	60.006223
839.000000	59.913832
840.000000	59.989273
841.000000	59.846490
842.000000	59.752759
843.000000	59.827517
844.000000	59.645800
845.000000	59.424155
846.000000	59.477615
847.000000	59.166424
848.000000	59.121351
849.000000	59.005292
850.000000	58.941709
851.000000	58.902760
852.000000	58.865682
853.000000	58.804929
854.000000	58.629810
855.000000	58.574465
856.000000	58.311692
857.000000	58.612105
858.000000	59.371400
859.000000	58.302375
860.000000	58.462250
861.000000	58.466800
862.000000	58.397450
863.000000	58.418600
864.000000	58.437950
865.000000	58.243850
866.000000	58.230450
867.000000	58.440875
868.000000	58.574750
869.000000	59.021075
870.000000	59.198075
871.000000	59.428650
872.000000	59.505675
873.000000	59.892725
874.000000	60.016400
875.000000	60.059025
876.000000	60.286375
877.000000	60.388450
878.000000	60.463775
879.000000	60.618875
880.000000	60.688150
881.000000	60.748825
882.000000	60.768625
883.000000	60.856900
884.000000	61.010550
885.000000	61.082300
886.000000	60.962350
887.000000	61.027575
888.000000	61.087175
889.000000	61.124425
890.000000	61.155725
891.000000	61.103675
892.000000	61.061025
893.000000	61.065350
894.000000	61.112450
895.000000	61.025425
896.000000	60.994225
897.000000	60.998000
898.000000	60.963525
899.000000	60.918475
900.000000	60.899650
901.000000	60.936025
902.000000	60.875750
903.000000	60.796425
904.000000	60.750900
905.000000	60.742050
906.000000	60.679850
907.000000	60.646525
908.000000	60.624000
909.000000	60.583075
910.000000	60.555000
911.000000	60.508400
912.000000	60.443175
913.000000	60.385950
914.000000	60.355425
915.000000	60.384500
916.000000	60.428475
917.000000	60.394775
918.000000	60.399175
919.000000	60.418500
920.000000	60.390825
921.000000	60.375000
922.000000	60.359825
923.000000	60.338975
924.000000	60.339925
925.000000	60.346350
926.000000	60.362700
927.000000	60.374800
928.000000	60.391175
929.000000	60.380825
930.000000	60.384775
931.000000	60.374125
932.000000	60.371350
933.000000	60.393850
934.000000	60.384550
935.000000	60.375750
936.000000	60.383900
937.000000	60.377575
938.000000	60.388125
939.000000	60.391800
940.000000	60.385650
941.000000	60.407600
942.000000	60.408325
943.000000	60.420875
944.000000	60.421825
945.000000	60.393600
946.000000	60.425725
947.000000	60.439000
948.000000	60.445925
949.000000	60.437525
950.000000	60.438850
951.000000	60.449700
952.000000	60.439550
953.000000	60.404725
954.000000	60.404275
955.000000	60.407200
956.000000	60.402475
957.000000	60.374825
958.000000	60.371100
959.000000	60.371725
960.000000	60.357475
961.000000	60.372050
962.000000	60.383325
963.000000	60.377875
964.000000	60.411575
965.000000	60.390500
966.000000	60.397325
967.000000	60.398450
968.000000	60.406200
969.000000	60.428725
970.000000	60.454175
971.000000	60.473600
972.000000	60.480025
973.000000	60.519775
974.000000	60.534075
975.000000	60.555850
976.000000	60.584200
977.000000	60.598075
978.000000	60.612725
979.000000	60.664150
980.000000	60.692775
981.000000	60.721825
982.000000	60.738575
983.000000	60.794675
984.000000	60.837300
985.000000	60.859025
986.000000	60.883500
987.000000	60.908900
988.000000	60.943050
989.000000	60.984325
990.000000	61.021900
991.000000	61.077325
992.000000	61.113725
993.000000	61.149350
994.000000	61.190125
995.000000	61.231325
996.000000	61.267925
997.000000	61.304325
998.000000	61.351325
999.000000	61.382825
1000.000000	61.425075
1001.000000	61.460425
1002.000000	61.504150
1003.000000	61.527625
1004.000000	61.568975
1005.000000	61.618150
1006.000000	61.650175
1007.000000	61.677250
1008.000000	61.723075
1009.000000	61.745500
1010.000000	61.778750
1011.000000	61.810400
1012.000000	61.838400
1013.000000	61.865100
1014.000000	61.902875
1015.000000	61.928475
1016.000000	61.952525
1017.000000	62.011900
1018.000000	62.048075
1019.000000	62.061950
1020.000000	62.106025
1021.000000	62.136200
1022.000000	62.167850
1023.000000	62.203125
1024.000000	62.231800
1025.000000	62.258150
1026.000000	62.301200
1027.000000	62.330475
1028.000000	62.376825
1029.000000	62.403425
1030.000000	62.442400
1031.000000	62.469325
1032.000000	62.498875
1033.000000	62.527975
1034.000000	62.565300
1035.000000	62.600025
1036.000000	62.647500
1037.000000	62.669650
1038.000000	62.695325
1039.000000	62.714900
1040.000000	62.739400
1041.000000	62.769275
1042.000000	62.805400
1043.000000	62.830325
1044.000000	62.867250
1045.000000	62.900925
1046.000000	62.938925
1047.000000	62.961800
1048.000000	62.985100
1049.000000	63.037125
1050.000000	63.054900
1051.000000	63.087000
1052.000000	63.126600
1053.000000	63.161875
1054.000000	63.201425
1055.000000	63.228775
1056.000000	63.258475
1057.000000	63.304050
1058.000000	63.334900
1059.000000	63.388150
1060.000000	63.425275
1061.000000	63.457275
1062.000000	63.494200
1063.000000	63.523700
1064.000000	63.568275
1065.000000	63.595750
1066.000000	63.646975
1067.000000	63.682475
1068.000000	63.720750
1069.000000	63.768950
1070.000000	63.806175
1071.000000	63.842225
1072.000000	63.878350
1073.000000	63.915075
1074.000000	63.958225
1075.000000	63.998075
1076.000000	64.036625
1077.000000	64.057350
1078.000000	64.102700
1079.000000	64.137900
1080.000000	64.169750
1081.000000	64.218700
1082.000000	64.247750
1083.000000	64.273775
1084.000000	64.301975
1085.000000	64.339875
1086.000000	64.378250
1087.000000	64.406175
1088.000000	64.449675
1089.000000	64.469975
1090.000000	64.499875
1091.000000	64.525875
1092.000000	64.546775
1093.000000	64.581725
1094.000000	64.597850
1095.000000	64.627050
1096.000000	64.640575
1097.000000	64.656250
1098.000000	64.678925
1099.000000	64.698725
1100.000000	64.718250
1101.000000	64.740175
1102.000000	64.757875
1103.000000	64.757275
1104.000000	64.779375
1105.000000	64.793750
1106.000000	64.814775
1107.000000	64.826900
1108.000000	64.839325
1109.000000	64.841025
1110.000000	64.853200
1111.000000	64.867725
1112.000000	64.876025
1113.000000	64.880275
1114.000000	64.888100
1115.000000	64.901200
1116.000000	64.915650
1117.000000	64.916875
1118.000000	64.928325
1119.000000	64.938000
1120.000000	64.928525
1121.000000	64.924400
1122.000000	64.934250
1123.000000	64.937825
1124.000000	64.921225
1125.000000	64.887450
1126.000000	64.865950
1127.000000	64.817000
1128.000000	64.794625
1129.000000	64.761050
1130.000000	64.709875
1131.000000	64.642400
1132.000000	64.581150
1133.000000	64.523175
1134.000000	64.503075
1135.000000	64.461500
1136.000000	64.354025
1137.000000	64.264600
1138.000000	64.169075
1139.000000	64.090925
1140.000000	64.023975
1141.000000	63.953125
1142.000000	63.892550
1143.000000	63.826300
1144.000000	63.792675
1145.000000	63.743500
1146.000000	63.696750
1147.000000	63.649675
1148.000000	63.585850
1149.000000	63.539100
1150.000000	63.492950
1151.000000	63.445850
1152.000000	63.398300
1153.000000	63.360400
1154.000000	63.277100
1155.000000	63.217900
1156.000000	63.146850
1157.000000	63.084825
1158.000000	63.006775
1159.000000	62.916600
1160.000000	62.815850
1161.000000	62.723700
1162.000000	62.645725
1163.000000	62.550050
1164.000000	62.451375
1165.000000	62.367100
1166.000000	62.275075
