PE UV       SUBTECH     SPECTRUM    ASCII       PEDS        4.00        
   -1
CICIMAUCR0002-3.Sample.ASC
24/05/03
15:09:39.00
24/05/03
15:09:39.00
Vinicio Soto Monge
C. kalinini
250,000000
1
Lambda 1050
1050L1511233
PerkinElmer UV WinLab 6.3.2.0749 / 2.02.05 Lambda 900 UV/VIS/NIR, Aug  7 2015 09:38:08

0
0
3350/servo 860,8/2
0
0
UV/VIS
1
1
1
DoubleDePol,CommonBeamDepol,RBeamAtt,SBeamAtt,60mm sphere, WB InGaAs Detector
0
0
0
0
Program
Program
3350/servo 860,8/2
3350/0,2 860,8/0,2
3350/0,2 860,8/0,2
0
15.00
 
 
 
0
 
860,8
319,2
860,8
Front
100
on
S:100 R:100
0
0
0
0
 
0
 
 
 
0
 
 
0
0
0
0
0
 
 
 
 
0
0


0
0
#HDR
-1
-1
#GR
nm
%R
1.0
0.0
2500,000000
-1,000000
2251
8
99,074100
5,519500
#DATA
250.000000	6.387750
251.000000	6.331750
252.000000	6.312100
253.000000	6.257850
254.000000	6.327550
255.000000	6.317050
256.000000	6.289900
257.000000	6.237800
258.000000	6.241000
259.000000	6.242700
260.000000	6.210600
261.000000	6.202350
262.000000	6.176850
263.000000	6.142450
264.000000	6.113250
265.000000	6.084950
266.000000	6.092400
267.000000	6.017700
268.000000	5.987000
269.000000	6.015150
270.000000	5.997800
271.000000	5.923500
272.000000	5.985450
273.000000	5.926600
274.000000	5.914900
275.000000	5.897550
276.000000	5.889250
277.000000	5.893700
278.000000	5.889900
279.000000	5.847350
280.000000	5.858150
281.000000	5.860700
282.000000	5.847400
283.000000	5.843400
284.000000	5.848750
285.000000	5.833350
286.000000	5.827350
287.000000	5.787850
288.000000	5.837350
289.000000	5.827450
290.000000	5.783500
291.000000	5.803600
292.000000	5.792750
293.000000	5.791550
294.000000	5.791600
295.000000	5.797750
296.000000	5.771350
297.000000	5.781500
298.000000	5.763800
299.000000	5.778950
300.000000	5.745950
301.000000	5.697750
302.000000	5.743850
303.000000	5.764100
304.000000	5.755950
305.000000	5.740500
306.000000	5.757900
307.000000	5.762800
308.000000	5.745450
309.000000	5.728450
310.000000	5.793100
311.000000	5.748950
312.000000	5.743300
313.000000	5.706950
314.000000	5.759700
315.000000	5.705350
316.000000	5.720600
317.000000	5.743800
318.000000	5.899050
319.000000	6.221500
320.000000	6.089500
321.000000	5.865200
322.000000	6.138850
323.000000	6.199350
324.000000	5.773550
325.000000	5.609600
326.000000	5.904650
327.000000	5.913700
328.000000	5.824350
329.000000	5.749250
330.000000	5.650750
331.000000	5.762400
332.000000	5.893850
333.000000	5.952100
334.000000	5.848000
335.000000	5.946450
336.000000	6.011550
337.000000	5.968800
338.000000	5.822750
339.000000	5.909200
340.000000	5.650600
341.000000	5.876700
342.000000	6.014350
343.000000	5.796100
344.000000	5.864700
345.000000	5.912550
346.000000	5.877550
347.000000	5.922700
348.000000	5.997050
349.000000	6.019800
350.000000	6.093750
351.000000	6.095700
352.000000	6.053450
353.000000	6.045850
354.000000	6.069850
355.000000	6.107950
356.000000	6.025950
357.000000	6.085450
358.000000	6.116200
359.000000	6.076350
360.000000	6.236450
361.000000	6.156550
362.000000	6.112800
363.000000	6.172150
364.000000	6.151800
365.000000	6.198250
366.000000	6.335700
367.000000	6.296900
368.000000	6.207350
369.000000	6.326600
370.000000	6.277950
371.000000	6.285400
372.000000	6.299950
373.000000	6.137050
374.000000	6.235850
375.000000	6.379050
376.000000	6.546150
377.000000	6.541950
378.000000	6.580300
379.000000	6.611900
380.000000	6.647500
381.000000	6.698500
382.000000	6.742650
383.000000	6.792000
384.000000	6.851500
385.000000	6.910150
386.000000	6.988650
387.000000	7.058350
388.000000	7.122250
389.000000	7.207700
390.000000	7.297400
391.000000	7.394050
392.000000	7.524450
393.000000	7.638650
394.000000	7.750100
395.000000	7.868800
396.000000	8.012200
397.000000	8.167700
398.000000	8.329150
399.000000	8.493850
400.000000	8.687200
401.000000	8.871300
402.000000	9.094500
403.000000	9.314700
404.000000	9.538250
405.000000	9.798700
406.000000	10.055500
407.000000	10.322400
408.000000	10.609850
409.000000	10.917050
410.000000	11.240450
411.000000	11.575300
412.000000	11.915200
413.000000	12.267950
414.000000	12.648350
415.000000	13.037150
416.000000	13.418700
417.000000	13.822650
418.000000	14.240050
419.000000	14.671250
420.000000	15.108900
421.000000	15.548400
422.000000	15.981150
423.000000	16.430850
424.000000	16.884200
425.000000	17.342200
426.000000	17.793150
427.000000	18.231100
428.000000	18.676700
429.000000	19.126650
430.000000	19.578800
431.000000	20.013500
432.000000	20.441350
433.000000	20.858550
434.000000	21.268550
435.000000	21.672200
436.000000	22.057600
437.000000	22.442800
438.000000	22.822600
439.000000	23.193300
440.000000	23.556100
441.000000	23.897750
442.000000	24.234050
443.000000	24.581650
444.000000	24.880900
445.000000	25.176950
446.000000	25.483400
447.000000	25.765850
448.000000	26.039150
449.000000	26.309600
450.000000	26.551450
451.000000	26.777500
452.000000	27.009600
453.000000	27.204850
454.000000	27.404050
455.000000	27.595100
456.000000	27.759750
457.000000	27.904200
458.000000	28.041300
459.000000	28.179700
460.000000	28.279050
461.000000	28.384550
462.000000	28.465100
463.000000	28.550450
464.000000	28.618000
465.000000	28.645900
466.000000	28.679900
467.000000	28.712150
468.000000	28.737250
469.000000	28.741900
470.000000	28.742250
471.000000	28.738600
472.000000	28.725250
473.000000	28.718700
474.000000	28.708400
475.000000	28.683350
476.000000	28.666250
477.000000	28.653500
478.000000	28.636000
479.000000	28.652150
480.000000	28.666450
481.000000	28.672700
482.000000	28.689500
483.000000	28.724250
484.000000	28.767050
485.000000	28.828650
486.000000	28.905050
487.000000	29.011100
488.000000	29.154900
489.000000	29.330100
490.000000	29.539650
491.000000	29.795500
492.000000	30.128700
493.000000	30.500900
494.000000	30.945100
495.000000	31.424350
496.000000	31.938050
497.000000	32.497600
498.000000	33.094700
499.000000	33.754100
500.000000	34.469750
501.000000	35.235900
502.000000	36.028050
503.000000	36.806050
504.000000	37.636150
505.000000	38.448900
506.000000	39.269150
507.000000	40.102300
508.000000	40.934500
509.000000	41.766550
510.000000	42.576350
511.000000	43.371750
512.000000	44.145600
513.000000	44.925500
514.000000	45.677250
515.000000	46.461450
516.000000	47.217400
517.000000	47.983450
518.000000	48.724600
519.000000	49.446500
520.000000	50.177550
521.000000	50.907100
522.000000	51.614150
523.000000	52.306750
524.000000	53.009950
525.000000	53.693100
526.000000	54.348750
527.000000	55.006050
528.000000	55.622250
529.000000	56.249750
530.000000	56.870500
531.000000	57.514750
532.000000	58.133600
533.000000	58.752000
534.000000	59.373300
535.000000	59.994250
536.000000	60.639250
537.000000	61.257000
538.000000	61.836950
539.000000	62.440350
540.000000	63.015800
541.000000	63.576500
542.000000	64.147150
543.000000	64.685100
544.000000	65.194200
545.000000	65.682550
546.000000	66.140600
547.000000	66.579200
548.000000	67.011000
549.000000	67.376150
550.000000	67.758250
551.000000	68.113500
552.000000	68.452000
553.000000	68.762800
554.000000	69.054850
555.000000	69.331950
556.000000	69.581150
557.000000	69.823500
558.000000	70.063250
559.000000	70.267900
560.000000	70.471850
561.000000	70.654450
562.000000	70.823650
563.000000	70.968800
564.000000	71.099550
565.000000	71.188700
566.000000	71.288200
567.000000	71.393400
568.000000	71.451950
569.000000	71.464400
570.000000	71.479950
571.000000	71.500100
572.000000	71.503250
573.000000	71.400800
574.000000	71.365350
575.000000	71.279400
576.000000	71.215550
577.000000	71.095050
578.000000	70.988700
579.000000	70.858050
580.000000	70.707450
581.000000	70.586900
582.000000	70.383250
583.000000	70.239400
584.000000	70.000000
585.000000	69.839200
586.000000	69.638300
587.000000	69.378350
588.000000	69.181350
589.000000	68.921450
590.000000	68.645350
591.000000	68.328800
592.000000	68.051050
593.000000	67.737650
594.000000	67.389300
595.000000	67.017850
596.000000	66.652200
597.000000	66.243550
598.000000	65.840000
599.000000	65.410850
600.000000	65.050200
601.000000	64.659250
602.000000	64.284950
603.000000	63.914700
604.000000	63.521450
605.000000	63.190450
606.000000	62.849150
607.000000	62.570450
608.000000	62.278300
609.000000	62.046900
610.000000	61.864950
611.000000	61.644050
612.000000	61.570200
613.000000	61.417350
614.000000	61.329400
615.000000	61.334400
616.000000	61.304650
617.000000	61.328250
618.000000	61.323400
619.000000	61.329600
620.000000	61.351400
621.000000	61.389700
622.000000	61.451500
623.000000	61.455100
624.000000	61.505100
625.000000	61.561450
626.000000	61.634950
627.000000	61.681100
628.000000	61.760800
629.000000	61.852850
630.000000	61.936650
631.000000	62.013800
632.000000	62.153850
633.000000	62.213200
634.000000	62.340650
635.000000	62.447550
636.000000	62.512550
637.000000	62.619450
638.000000	62.684000
639.000000	62.794700
640.000000	62.889150
641.000000	62.960350
642.000000	63.025400
643.000000	63.097550
644.000000	63.171150
645.000000	63.235500
646.000000	63.365350
647.000000	63.467100
648.000000	63.611350
649.000000	63.797450
650.000000	63.988950
651.000000	64.252550
652.000000	64.583750
653.000000	64.971050
654.000000	65.333150
655.000000	65.798200
656.000000	66.309400
657.000000	66.782700
658.000000	67.290050
659.000000	67.838200
660.000000	68.374500
661.000000	68.964850
662.000000	69.514450
663.000000	70.052350
664.000000	70.610100
665.000000	71.123850
666.000000	71.611050
667.000000	72.052400
668.000000	72.510750
669.000000	72.955750
670.000000	73.405750
671.000000	73.819150
672.000000	74.191800
673.000000	74.614600
674.000000	75.014650
675.000000	75.374300
676.000000	75.791450
677.000000	76.253100
678.000000	76.686050
679.000000	77.155050
680.000000	77.602450
681.000000	78.121450
682.000000	78.618250
683.000000	79.182150
684.000000	79.693150
685.000000	80.203100
686.000000	80.753600
687.000000	81.240050
688.000000	81.673500
689.000000	82.172950
690.000000	82.680500
691.000000	83.133950
692.000000	83.581050
693.000000	84.049800
694.000000	84.480600
695.000000	84.931800
696.000000	85.392200
697.000000	85.820300
698.000000	86.301300
699.000000	86.687800
700.000000	87.160150
701.000000	87.635650
702.000000	88.082900
703.000000	88.595050
704.000000	89.106500
705.000000	89.564600
706.000000	90.056950
707.000000	90.485200
708.000000	90.898700
709.000000	91.324000
710.000000	91.691700
711.000000	92.082200
712.000000	92.442750
713.000000	92.794600
714.000000	93.126650
715.000000	93.429800
716.000000	93.756600
717.000000	94.068400
718.000000	94.245500
719.000000	94.450950
720.000000	94.786200
721.000000	95.027350
722.000000	95.246850
723.000000	95.501200
724.000000	95.739600
725.000000	95.928500
726.000000	96.125700
727.000000	96.335850
728.000000	96.549600
729.000000	96.721450
730.000000	96.883900
731.000000	97.096650
732.000000	97.324700
733.000000	97.534600
734.000000	97.665200
735.000000	97.816900
736.000000	98.012250
737.000000	98.166450
738.000000	98.292700
739.000000	98.410400
740.000000	98.532250
741.000000	98.596950
742.000000	98.695850
743.000000	98.828500
744.000000	98.902750
745.000000	98.890700
746.000000	98.854550
747.000000	98.960700
748.000000	99.014100
749.000000	99.055600
750.000000	99.153850
751.000000	99.176200
752.000000	99.220650
753.000000	99.309400
754.000000	99.309000
755.000000	99.261900
756.000000	99.316950
757.000000	99.352750
758.000000	99.321850
759.000000	99.295750
760.000000	99.202650
761.000000	99.143300
762.000000	99.095350
763.000000	98.947950
764.000000	98.861250
765.000000	98.768200
766.000000	98.607000
767.000000	98.463750
768.000000	98.327200
769.000000	98.160600
770.000000	98.006900
771.000000	97.788050
772.000000	97.538250
773.000000	97.278350
774.000000	97.110100
775.000000	96.960300
776.000000	96.787900
777.000000	96.552050
778.000000	96.222350
779.000000	96.034450
780.000000	95.899300
781.000000	95.619050
782.000000	95.384200
783.000000	95.214350
784.000000	94.895450
785.000000	94.536750
786.000000	94.267950
787.000000	93.994700
788.000000	93.738200
789.000000	93.382900
790.000000	93.008400
791.000000	92.709050
792.000000	92.391400
793.000000	91.950950
794.000000	91.637100
795.000000	91.298400
796.000000	91.022250
797.000000	90.684800
798.000000	90.287200
799.000000	89.867850
800.000000	89.584450
801.000000	89.146950
802.000000	88.840650
803.000000	88.439250
804.000000	88.037650
805.000000	87.711000
806.000000	87.353000
807.000000	87.009150
808.000000	86.535550
809.000000	86.251800
810.000000	85.929350
811.000000	85.616550
812.000000	85.189900
813.000000	84.883750
814.000000	84.534800
815.000000	84.229700
816.000000	83.914600
817.000000	83.508350
818.000000	83.233400
819.000000	83.017700
820.000000	82.660050
821.000000	82.384650
822.000000	82.046750
823.000000	81.703750
824.000000	81.552000
825.000000	81.358100
826.000000	81.018000
827.000000	80.693600
828.000000	80.470050
829.000000	80.307400
830.000000	79.882900
831.000000	79.646250
832.000000	79.573900
833.000000	79.315150
834.000000	79.098650
835.000000	78.964150
836.000000	78.651000
837.000000	78.613650
838.000000	78.253050
839.000000	78.307050
840.000000	77.897550
841.000000	77.563900
842.000000	77.546900
843.000000	77.403300
844.000000	77.458850
845.000000	77.266750
846.000000	77.098950
847.000000	77.068900
848.000000	76.839500
849.000000	76.756800
850.000000	76.690700
851.000000	76.503150
852.000000	76.396450
853.000000	76.384300
854.000000	75.896150
855.000000	75.853550
856.000000	75.572850
857.000000	75.932350
858.000000	75.786250
859.000000	75.310442
860.000000	75.215643
861.000000	75.105705
862.000000	74.987668
863.000000	74.908364
864.000000	74.818317
865.000000	74.722606
866.000000	74.631036
867.000000	74.547652
868.000000	74.465856
869.000000	74.350258
870.000000	74.247575
871.000000	74.160531
872.000000	74.171426
873.000000	74.379575
874.000000	74.646833
875.000000	74.863352
876.000000	75.078536
877.000000	75.226556
878.000000	75.299661
879.000000	75.385163
880.000000	75.449178
881.000000	75.503664
882.000000	75.525189
883.000000	75.564664
884.000000	75.584415
885.000000	75.601024
886.000000	75.619872
887.000000	75.631956
888.000000	75.622621
889.000000	75.636377
890.000000	75.639811
891.000000	75.624764
892.000000	75.612138
893.000000	75.625258
894.000000	75.593899
895.000000	75.582707
896.000000	75.569165
897.000000	75.530859
898.000000	75.516605
899.000000	75.481162
900.000000	75.422449
901.000000	75.394631
902.000000	75.359339
903.000000	75.327649
904.000000	75.291411
905.000000	75.267460
906.000000	75.243976
907.000000	75.215609
908.000000	75.199589
909.000000	75.204796
910.000000	75.189722
911.000000	75.188452
912.000000	75.186988
913.000000	75.186174
914.000000	75.186535
915.000000	75.200934
916.000000	75.196397
917.000000	75.195334
918.000000	75.209145
919.000000	75.209376
920.000000	75.191219
921.000000	75.176952
922.000000	75.168696
923.000000	75.141051
924.000000	75.110229
925.000000	75.081890
926.000000	75.057986
927.000000	75.037227
928.000000	75.032894
929.000000	74.972549
930.000000	74.941206
931.000000	74.924227
932.000000	74.914488
933.000000	74.854672
934.000000	74.821178
935.000000	74.776381
936.000000	74.734970
937.000000	74.714205
938.000000	74.662786
939.000000	74.624771
940.000000	74.582890
941.000000	74.562973
942.000000	74.510666
943.000000	74.465230
944.000000	74.433436
945.000000	74.404388
946.000000	74.343891
947.000000	74.300466
948.000000	74.255098
949.000000	74.229442
950.000000	74.171584
951.000000	74.117058
952.000000	74.072919
953.000000	74.016266
954.000000	73.964675
955.000000	73.914613
956.000000	73.833812
957.000000	73.765001
958.000000	73.696843
959.000000	73.608713
960.000000	73.531678
961.000000	73.462418
962.000000	73.359260
963.000000	73.270072
964.000000	73.191063
965.000000	73.117870
966.000000	73.031858
967.000000	72.951255
968.000000	72.873415
969.000000	72.777187
970.000000	72.695809
971.000000	72.606986
972.000000	72.527933
973.000000	72.430307
974.000000	72.349801
975.000000	72.245220
976.000000	72.157493
977.000000	72.071398
978.000000	71.974550
979.000000	71.868877
980.000000	71.768721
981.000000	71.671279
982.000000	71.565316
983.000000	71.468375
984.000000	71.363885
985.000000	71.256661
986.000000	71.148853
987.000000	71.047002
988.000000	70.943511
989.000000	70.823982
990.000000	70.721115
991.000000	70.615744
992.000000	70.514476
993.000000	70.405925
994.000000	70.290291
995.000000	70.193645
996.000000	70.096466
997.000000	69.996479
998.000000	69.896211
999.000000	69.792752
1000.000000	69.699472
1001.000000	69.604911
1002.000000	69.501679
1003.000000	69.401626
1004.000000	69.297963
1005.000000	69.199221
1006.000000	69.107783
1007.000000	69.004391
1008.000000	68.894351
1009.000000	68.798484
1010.000000	68.711111
1011.000000	68.618403
1012.000000	68.532731
1013.000000	68.446215
1014.000000	68.387417
1015.000000	68.339803
1016.000000	68.286358
1017.000000	68.231640
1018.000000	68.191086
1019.000000	68.168311
1020.000000	68.138841
1021.000000	68.131552
1022.000000	68.111636
1023.000000	68.101620
1024.000000	68.110841
1025.000000	68.098205
1026.000000	68.096664
1027.000000	68.099961
1028.000000	68.092729
1029.000000	68.084426
1030.000000	68.082344
1031.000000	68.077458
1032.000000	68.068777
1033.000000	68.072411
1034.000000	68.075102
1035.000000	68.062767
1036.000000	68.052212
1037.000000	68.046459
1038.000000	68.037956
1039.000000	68.021192
1040.000000	68.012988
1041.000000	68.003372
1042.000000	67.986443
1043.000000	67.966763
1044.000000	67.960011
1045.000000	67.960316
1046.000000	67.951510
1047.000000	67.940542
1048.000000	67.943344
1049.000000	67.956501
1050.000000	67.957050
1051.000000	67.950844
1052.000000	67.969927
1053.000000	67.990234
1054.000000	68.013811
1055.000000	68.029939
1056.000000	68.052666
1057.000000	68.087154
1058.000000	68.129016
1059.000000	68.149489
1060.000000	68.185050
1061.000000	68.224277
1062.000000	68.252161
1063.000000	68.278264
1064.000000	68.298353
1065.000000	68.321580
1066.000000	68.365071
1067.000000	68.404512
1068.000000	68.437423
1069.000000	68.468741
1070.000000	68.498506
1071.000000	68.534340
1072.000000	68.565351
1073.000000	68.610228
1074.000000	68.654088
1075.000000	68.681907
1076.000000	68.711698
1077.000000	68.751624
1078.000000	68.789328
1079.000000	68.827183
1080.000000	68.875839
1081.000000	68.913393
1082.000000	68.968876
1083.000000	69.016976
1084.000000	69.063049
1085.000000	69.117499
1086.000000	69.159621
1087.000000	69.214168
1088.000000	69.268375
1089.000000	69.318005
1090.000000	69.358738
1091.000000	69.411408
1092.000000	69.466283
1093.000000	69.511782
1094.000000	69.551657
1095.000000	69.596066
1096.000000	69.630859
1097.000000	69.679367
1098.000000	69.708820
1099.000000	69.732763
1100.000000	69.772137
1101.000000	69.802647
1102.000000	69.827732
1103.000000	69.856772
1104.000000	69.887574
1105.000000	69.899988
1106.000000	69.916228
1107.000000	69.937827
1108.000000	69.952897
1109.000000	69.977430
1110.000000	69.992564
1111.000000	69.998129
1112.000000	70.007452
1113.000000	70.014291
1114.000000	70.036497
1115.000000	70.045773
1116.000000	70.058612
1117.000000	70.065517
1118.000000	70.066010
1119.000000	70.049532
1120.000000	70.011169
1121.000000	69.972897
1122.000000	69.925629
1123.000000	69.862775
1124.000000	69.783005
1125.000000	69.683581
1126.000000	69.589467
1127.000000	69.452771
1128.000000	69.314046
1129.000000	69.121360
1130.000000	68.888984
1131.000000	68.619832
1132.000000	68.301493
1133.000000	67.973869
1134.000000	67.628137
1135.000000	67.239004
1136.000000	66.809467
1137.000000	66.355195
1138.000000	65.899956
1139.000000	65.463458
1140.000000	65.032844
1141.000000	64.625141
1142.000000	64.236193
1143.000000	63.858019
1144.000000	63.510343
1145.000000	63.201391
1146.000000	62.970405
1147.000000	62.816980
1148.000000	62.752087
1149.000000	62.741031
1150.000000	62.762137
1151.000000	62.780557
1152.000000	62.784490
1153.000000	62.763672
1154.000000	62.706660
1155.000000	62.585713
1156.000000	62.371291
1157.000000	62.101436
1158.000000	61.787901
1159.000000	61.435754
1160.000000	61.041707
1161.000000	60.628316
1162.000000	60.209372
1163.000000	59.796620
1164.000000	59.343145
1165.000000	58.922015
1166.000000	58.470843
1167.000000	58.058326
