PE UV       SUBTECH     SPECTRUM    ASCII       PEDS        4.00        
   -1
CICIMAUCR0008-5.Sample.ASC
24/04/25
10:02:58.00
24/04/25
10:02:58.00
Vinicio Soto Monge
C. kalinini
250,000000
1
Lambda 1050
1050L1511233
PerkinElmer UV WinLab 6.3.2.0749 / 2.02.05 Lambda 900 UV/VIS/NIR, Aug  7 2015 09:38:08

0
0
3350/servo 860,8/2
0
0
UV/VIS
1
1
1
DoubleDePol,CommonBeamDepol,RBeamAtt,SBeamAtt,60mm sphere, WB InGaAs Detector
0
0
0
0
Program
Program
3350/servo 860,8/2
3350/0,2 860,8/0,2
3350/0,2 860,8/0,2
0
15.00
 
 
 
0
 
860,8
319,2
860,8
Front
100
on
S:100 R:100
0
0
0
0
 
0
 
 
 
0
 
 
0
0
0
0
0
 
 
 
 
0
0


0
0
#HDR
-1
-1
#GR
nm
%R
1.0
0.0
2500,000000
-1,000000
2251
8
95,184700
4,916500
#DATA
250.000000	4.659611
251.000000	4.632090
252.000000	4.606085
253.000000	4.620543
254.000000	4.609442
255.000000	4.617183
256.000000	4.599767
257.000000	4.610340
258.000000	4.583222
259.000000	4.563500
260.000000	4.540372
261.000000	4.568284
262.000000	4.540940
263.000000	4.529096
264.000000	4.494096
265.000000	4.478468
266.000000	4.470525
267.000000	4.464713
268.000000	4.455513
269.000000	4.446720
270.000000	4.411586
271.000000	4.399187
272.000000	4.402772
273.000000	4.404635
274.000000	4.375228
275.000000	4.368274
276.000000	4.354463
277.000000	4.372412
278.000000	4.348221
279.000000	4.390452
280.000000	4.359932
281.000000	4.338244
282.000000	4.328522
283.000000	4.330836
284.000000	4.323781
285.000000	4.313734
286.000000	4.295781
287.000000	4.317838
288.000000	4.287553
289.000000	4.320060
290.000000	4.312557
291.000000	4.271741
292.000000	4.328925
293.000000	4.296923
294.000000	4.297065
295.000000	4.272112
296.000000	4.288667
297.000000	4.297297
298.000000	4.291759
299.000000	4.287856
300.000000	4.248562
301.000000	4.266220
302.000000	4.277941
303.000000	4.257592
304.000000	4.269814
305.000000	4.272894
306.000000	4.268321
307.000000	4.273644
308.000000	4.266667
309.000000	4.258162
310.000000	4.242956
311.000000	4.253509
312.000000	4.238714
313.000000	4.240895
314.000000	4.239463
315.000000	4.227825
316.000000	4.312016
317.000000	4.832156
318.000000	4.607527
319.000000	4.613705
320.000000	4.523246
321.000000	4.602565
322.000000	4.625843
323.000000	4.668905
324.000000	4.642418
325.000000	4.553277
326.000000	4.501787
327.000000	4.492366
328.000000	4.468084
329.000000	4.524315
330.000000	4.481644
331.000000	4.477923
332.000000	4.498625
333.000000	4.532398
334.000000	4.508215
335.000000	4.444200
336.000000	4.471547
337.000000	4.523344
338.000000	4.497021
339.000000	4.468324
340.000000	4.555521
341.000000	4.563750
342.000000	4.466551
343.000000	4.539894
344.000000	4.602408
345.000000	4.587361
346.000000	4.554510
347.000000	4.578164
348.000000	4.615822
349.000000	4.609284
350.000000	4.647524
351.000000	4.682161
352.000000	4.665828
353.000000	4.699974
354.000000	4.779991
355.000000	4.760791
356.000000	4.781280
357.000000	4.814830
358.000000	4.870117
359.000000	4.901857
360.000000	4.868290
361.000000	4.928079
362.000000	4.998615
363.000000	4.992621
364.000000	5.036050
365.000000	5.024168
366.000000	5.105538
367.000000	5.087643
368.000000	5.120907
369.000000	5.182616
370.000000	5.186584
371.000000	5.227000
372.000000	5.314358
373.000000	5.389683
374.000000	5.398415
375.000000	5.513906
376.000000	5.716879
377.000000	5.726263
378.000000	5.814872
379.000000	5.916780
380.000000	6.011325
381.000000	6.127329
382.000000	6.230841
383.000000	6.342317
384.000000	6.469802
385.000000	6.609887
386.000000	6.751353
387.000000	6.905580
388.000000	7.062219
389.000000	7.226110
390.000000	7.409132
391.000000	7.595836
392.000000	7.789633
393.000000	8.002604
394.000000	8.228526
395.000000	8.449737
396.000000	8.674203
397.000000	8.917848
398.000000	9.169370
399.000000	9.427215
400.000000	9.697395
401.000000	9.983564
402.000000	10.265209
403.000000	10.561060
404.000000	10.873992
405.000000	11.184419
406.000000	11.493631
407.000000	11.813179
408.000000	12.137984
409.000000	12.467230
410.000000	12.793373
411.000000	13.125823
412.000000	13.470447
413.000000	13.817757
414.000000	14.156905
415.000000	14.491320
416.000000	14.814399
417.000000	15.143917
418.000000	15.468044
419.000000	15.778806
420.000000	16.094630
421.000000	16.398534
422.000000	16.695656
423.000000	16.983752
424.000000	17.261293
425.000000	17.521790
426.000000	17.771542
427.000000	18.015664
428.000000	18.230458
429.000000	18.443802
430.000000	18.664800
431.000000	18.866662
432.000000	19.058685
433.000000	19.245417
434.000000	19.420691
435.000000	19.599128
436.000000	19.761896
437.000000	19.902074
438.000000	20.050896
439.000000	20.191455
440.000000	20.322359
441.000000	20.453106
442.000000	20.571081
443.000000	20.687687
444.000000	20.789313
445.000000	20.864670
446.000000	20.936779
447.000000	21.007307
448.000000	21.061761
449.000000	21.122023
450.000000	21.187865
451.000000	21.245684
452.000000	21.293945
453.000000	21.332685
454.000000	21.369797
455.000000	21.404243
456.000000	21.441355
457.000000	21.472673
458.000000	21.509580
459.000000	21.544167
460.000000	21.574134
461.000000	21.610363
462.000000	21.646242
463.000000	21.690256
464.000000	21.740815
465.000000	21.799288
466.000000	21.867414
467.000000	21.960422
468.000000	22.053885
469.000000	22.155121
470.000000	22.286979
471.000000	22.432970
472.000000	22.593161
473.000000	22.782710
474.000000	22.988121
475.000000	23.215102
476.000000	23.462258
477.000000	23.729778
478.000000	24.027759
479.000000	24.334367
480.000000	24.680791
481.000000	25.060456
482.000000	25.439542
483.000000	25.828677
484.000000	26.213838
485.000000	26.596625
486.000000	26.972537
487.000000	27.365500
488.000000	27.754555
489.000000	28.135985
490.000000	28.513275
491.000000	28.894557
492.000000	29.259448
493.000000	29.618979
494.000000	29.956498
495.000000	30.284322
496.000000	30.618341
497.000000	30.943783
498.000000	31.265522
499.000000	31.573430
500.000000	31.883749
501.000000	32.213856
502.000000	32.551932
503.000000	32.887854
504.000000	33.251425
505.000000	33.618130
506.000000	33.989113
507.000000	34.373207
508.000000	34.770283
509.000000	35.204074
510.000000	35.648353
511.000000	36.117550
512.000000	36.601189
513.000000	37.114579
514.000000	37.646467
515.000000	38.196136
516.000000	38.769000
517.000000	39.334013
518.000000	39.920205
519.000000	40.504517
520.000000	41.101581
521.000000	41.713346
522.000000	42.314225
523.000000	42.907455
524.000000	43.494054
525.000000	44.085707
526.000000	44.661843
527.000000	45.243814
528.000000	45.822369
529.000000	46.386792
530.000000	46.939368
531.000000	47.453957
532.000000	47.978447
533.000000	48.498719
534.000000	49.009048
535.000000	49.485662
536.000000	49.964241
537.000000	50.414712
538.000000	50.857686
539.000000	51.287985
540.000000	51.698310
541.000000	52.087774
542.000000	52.471890
543.000000	52.819402
544.000000	53.186863
545.000000	53.503459
546.000000	53.800855
547.000000	54.098293
548.000000	54.387296
549.000000	54.679812
550.000000	54.958991
551.000000	55.230499
552.000000	55.459740
553.000000	55.688861
554.000000	55.902867
555.000000	56.091094
556.000000	56.267734
557.000000	56.437743
558.000000	56.602430
559.000000	56.734032
560.000000	56.699425
561.000000	56.810122
562.000000	56.940252
563.000000	57.055105
564.000000	57.162383
565.000000	57.246202
566.000000	57.297630
567.000000	57.346014
568.000000	57.378070
569.000000	57.436473
570.000000	57.471766
571.000000	57.495763
572.000000	57.537107
573.000000	57.565073
574.000000	57.554614
575.000000	57.516275
576.000000	57.502919
577.000000	57.434572
578.000000	57.351838
579.000000	57.273576
580.000000	57.191376
581.000000	57.079145
582.000000	56.939365
583.000000	56.812931
584.000000	56.673751
585.000000	56.497608
586.000000	56.306145
587.000000	56.096842
588.000000	55.877897
589.000000	55.649531
590.000000	55.429356
591.000000	55.196442
592.000000	54.975684
593.000000	54.702544
594.000000	54.496466
595.000000	54.272510
596.000000	54.039904
597.000000	53.780195
598.000000	53.533988
599.000000	53.261418
600.000000	52.979090
601.000000	52.723149
602.000000	52.430585
603.000000	52.146737
604.000000	51.851682
605.000000	51.574482
606.000000	51.282343
607.000000	51.051146
608.000000	50.801104
609.000000	50.573530
610.000000	50.359190
611.000000	50.157894
612.000000	49.960385
613.000000	49.762155
614.000000	49.582774
615.000000	49.388868
616.000000	49.257153
617.000000	49.107409
618.000000	48.989021
619.000000	48.874684
620.000000	48.791564
621.000000	48.708334
622.000000	48.645583
623.000000	48.595310
624.000000	48.554094
625.000000	48.564960
626.000000	48.596569
627.000000	48.668880
628.000000	48.767693
629.000000	48.898210
630.000000	49.068537
631.000000	49.252297
632.000000	49.492881
633.000000	49.738282
634.000000	50.000233
635.000000	50.280613
636.000000	50.585760
637.000000	50.870427
638.000000	51.197373
639.000000	51.545603
640.000000	51.872885
641.000000	52.215264
642.000000	52.537544
643.000000	52.905134
644.000000	53.243608
645.000000	53.584566
646.000000	53.912924
647.000000	54.206132
648.000000	54.531277
649.000000	54.810995
650.000000	55.089281
651.000000	55.366647
652.000000	55.648815
653.000000	55.940389
654.000000	56.194010
655.000000	56.456260
656.000000	56.676535
657.000000	56.931892
658.000000	57.166820
659.000000	57.378121
660.000000	57.601186
661.000000	57.823855
662.000000	58.060856
663.000000	58.302009
664.000000	58.540931
665.000000	58.782576
666.000000	59.037436
667.000000	59.313553
668.000000	59.617545
669.000000	59.930523
670.000000	60.265914
671.000000	60.621797
672.000000	60.957965
673.000000	61.337382
674.000000	61.713136
675.000000	62.118773
676.000000	62.517676
677.000000	62.940136
678.000000	63.361535
679.000000	63.774136
680.000000	64.208972
681.000000	64.639774
682.000000	65.047306
683.000000	65.495073
684.000000	65.936101
685.000000	66.384964
686.000000	66.808328
687.000000	67.180725
688.000000	67.518937
689.000000	67.883844
690.000000	68.219340
691.000000	68.560898
692.000000	68.913756
693.000000	69.227289
694.000000	69.506465
695.000000	69.784327
696.000000	70.054843
697.000000	70.260006
698.000000	70.478086
699.000000	70.692209
700.000000	70.901684
701.000000	71.094439
702.000000	71.283510
703.000000	71.456465
704.000000	71.635715
705.000000	71.813372
706.000000	71.971590
707.000000	72.101217
708.000000	72.224600
709.000000	72.365207
710.000000	72.469109
711.000000	72.586160
712.000000	72.687925
713.000000	72.833941
714.000000	72.954724
715.000000	73.048645
716.000000	73.164610
717.000000	73.262035
718.000000	73.337514
719.000000	73.435083
720.000000	73.550684
721.000000	73.675427
722.000000	73.774192
723.000000	73.864014
724.000000	73.947535
725.000000	73.988198
726.000000	74.090912
727.000000	74.192400
728.000000	74.208549
729.000000	74.247076
730.000000	74.347212
731.000000	74.417415
732.000000	74.479810
733.000000	74.513625
734.000000	74.548841
735.000000	74.579667
736.000000	74.606357
737.000000	74.640411
738.000000	74.670766
739.000000	74.669757
740.000000	74.694176
741.000000	74.729151
742.000000	74.750457
743.000000	74.742468
744.000000	74.706624
745.000000	74.686281
746.000000	74.687171
747.000000	74.698206
748.000000	74.667859
749.000000	74.611162
750.000000	74.565833
751.000000	74.496907
752.000000	74.411976
753.000000	74.334417
754.000000	74.253841
755.000000	74.183984
756.000000	74.068081
757.000000	73.980638
758.000000	73.932319
759.000000	73.844910
760.000000	73.725189
761.000000	73.595091
762.000000	73.461009
763.000000	73.311919
764.000000	73.162334
765.000000	72.985492
766.000000	72.786504
767.000000	72.594990
768.000000	72.414325
769.000000	72.273073
770.000000	72.093276
771.000000	71.857507
772.000000	71.602489
773.000000	71.366385
774.000000	71.118207
775.000000	70.888501
776.000000	70.621099
777.000000	70.394851
778.000000	70.153406
779.000000	69.865814
780.000000	69.540390
781.000000	69.236832
782.000000	68.924995
783.000000	68.598983
784.000000	68.270506
785.000000	67.867794
786.000000	67.559574
787.000000	67.290018
788.000000	66.926110
789.000000	66.589534
790.000000	66.221671
791.000000	65.877542
792.000000	65.473698
793.000000	65.082077
794.000000	64.762287
795.000000	64.457264
796.000000	64.074970
797.000000	63.690036
798.000000	63.363080
799.000000	62.992537
800.000000	62.656699
801.000000	62.294889
802.000000	61.862116
803.000000	61.543327
804.000000	61.223458
805.000000	60.850766
806.000000	60.499332
807.000000	60.186658
808.000000	59.831668
809.000000	59.503245
810.000000	59.160806
811.000000	58.865406
812.000000	58.560365
813.000000	58.279522
814.000000	57.988888
815.000000	57.685091
816.000000	57.405968
817.000000	57.148284
818.000000	56.910770
819.000000	56.658157
820.000000	56.467749
821.000000	56.263028
822.000000	56.053474
823.000000	55.811677
824.000000	55.748518
825.000000	55.571182
826.000000	55.304652
827.000000	55.175900
828.000000	55.078062
829.000000	54.968254
830.000000	54.886391
831.000000	54.822545
832.000000	54.640552
833.000000	54.476581
834.000000	54.442779
835.000000	54.350591
836.000000	54.308434
837.000000	54.204918
838.000000	54.039999
839.000000	53.950570
840.000000	53.937845
841.000000	53.790479
842.000000	53.679431
843.000000	53.519841
844.000000	53.285165
845.000000	53.256000
846.000000	53.227581
847.000000	52.987606
848.000000	52.973053
849.000000	52.952510
850.000000	52.628994
851.000000	52.593054
852.000000	52.433131
853.000000	52.192593
854.000000	51.945555
855.000000	51.860979
856.000000	51.812066
857.000000	51.865720
858.000000	52.743267
859.000000	51.769633
860.000000	51.605233
861.000000	51.428700
862.000000	51.259300
863.000000	51.084800
864.000000	50.928133
865.000000	50.752867
866.000000	50.557300
867.000000	50.393067
868.000000	50.303167
869.000000	50.339267
870.000000	50.447267
871.000000	50.536133
872.000000	50.636867
873.000000	50.720000
874.000000	50.769567
875.000000	50.775100
876.000000	50.789667
877.000000	50.773167
878.000000	50.764233
879.000000	50.759533
880.000000	50.731200
881.000000	50.709567
882.000000	50.681600
883.000000	50.655767
884.000000	50.637067
885.000000	50.596800
886.000000	50.501733
887.000000	50.419633
888.000000	50.398733
889.000000	50.324300
890.000000	50.263900
891.000000	50.202267
892.000000	50.130633
893.000000	50.004900
894.000000	49.898367
895.000000	49.797867
896.000000	49.720067
897.000000	49.625233
898.000000	49.510300
899.000000	49.382000
900.000000	49.266700
901.000000	49.145900
902.000000	49.022900
903.000000	48.895933
904.000000	48.783767
905.000000	48.687800
906.000000	48.583767
907.000000	48.455333
908.000000	48.348800
909.000000	48.254000
910.000000	48.176167
911.000000	48.092733
912.000000	48.006467
913.000000	47.927000
914.000000	47.861233
915.000000	47.805433
916.000000	47.752333
917.000000	47.689600
918.000000	47.605433
919.000000	47.537633
920.000000	47.484233
921.000000	47.417267
922.000000	47.357333
923.000000	47.281167
924.000000	47.221133
925.000000	47.159300
926.000000	47.115633
927.000000	47.081000
928.000000	47.025500
929.000000	46.980900
930.000000	46.940733
931.000000	46.893933
932.000000	46.850733
933.000000	46.794533
934.000000	46.750600
935.000000	46.695333
936.000000	46.637267
937.000000	46.605067
938.000000	46.564967
939.000000	46.536733
940.000000	46.497233
941.000000	46.465633
942.000000	46.433533
943.000000	46.408300
944.000000	46.392233
945.000000	46.375467
946.000000	46.381367
947.000000	46.372533
948.000000	46.349400
949.000000	46.325667
950.000000	46.319667
951.000000	46.309433
952.000000	46.282833
953.000000	46.272067
954.000000	46.247800
955.000000	46.237067
956.000000	46.205900
957.000000	46.191400
958.000000	46.169000
959.000000	46.154633
960.000000	46.132500
961.000000	46.104067
962.000000	46.085100
963.000000	46.082133
964.000000	46.072367
965.000000	46.071100
966.000000	46.071767
967.000000	46.063700
968.000000	46.063967
969.000000	46.075900
970.000000	46.086100
971.000000	46.097467
972.000000	46.088800
973.000000	46.091733
974.000000	46.105833
975.000000	46.105167
976.000000	46.112200
977.000000	46.119767
978.000000	46.121600
979.000000	46.130567
980.000000	46.142867
981.000000	46.144900
982.000000	46.149867
983.000000	46.157833
984.000000	46.160433
985.000000	46.173367
986.000000	46.187133
987.000000	46.182267
988.000000	46.185833
989.000000	46.193667
990.000000	46.197033
991.000000	46.206933
992.000000	46.215200
993.000000	46.238167
994.000000	46.252000
995.000000	46.255467
996.000000	46.275800
997.000000	46.294567
998.000000	46.308300
999.000000	46.318800
1000.000000	46.342867
1001.000000	46.368000
1002.000000	46.387167
1003.000000	46.404233
1004.000000	46.411700
1005.000000	46.427767
1006.000000	46.444933
1007.000000	46.461100
1008.000000	46.470733
1009.000000	46.485333
1010.000000	46.502300
1011.000000	46.523867
1012.000000	46.550100
1013.000000	46.582700
1014.000000	46.619933
1015.000000	46.665267
1016.000000	46.718200
1017.000000	46.773833
1018.000000	46.836467
1019.000000	46.897033
1020.000000	46.978767
1021.000000	47.058633
1022.000000	47.129033
1023.000000	47.209533
1024.000000	47.276800
1025.000000	47.352633
1026.000000	47.437467
1027.000000	47.519233
1028.000000	47.601133
1029.000000	47.671700
1030.000000	47.741267
1031.000000	47.817167
1032.000000	47.891700
1033.000000	47.961200
1034.000000	48.038600
1035.000000	48.101233
1036.000000	48.156100
1037.000000	48.227500
1038.000000	48.298500
1039.000000	48.354600
1040.000000	48.415233
1041.000000	48.479333
1042.000000	48.530033
1043.000000	48.588333
1044.000000	48.653367
1045.000000	48.719467
1046.000000	48.781367
1047.000000	48.844533
1048.000000	48.915600
1049.000000	48.970000
1050.000000	49.036467
1051.000000	49.108933
1052.000000	49.168233
1053.000000	49.238700
1054.000000	49.313867
1055.000000	49.393167
1056.000000	49.473033
1057.000000	49.543233
1058.000000	49.617833
1059.000000	49.702900
1060.000000	49.781433
1061.000000	49.850433
1062.000000	49.921533
1063.000000	49.995900
1064.000000	50.066933
1065.000000	50.136800
1066.000000	50.205267
1067.000000	50.268867
1068.000000	50.329900
1069.000000	50.402700
1070.000000	50.466133
1071.000000	50.530400
1072.000000	50.599733
1073.000000	50.668800
1074.000000	50.725367
1075.000000	50.785867
1076.000000	50.857233
1077.000000	50.917033
1078.000000	50.977167
1079.000000	51.042100
1080.000000	51.103067
1081.000000	51.171467
1082.000000	51.236067
1083.000000	51.301933
1084.000000	51.368400
1085.000000	51.443200
1086.000000	51.515267
1087.000000	51.587700
1088.000000	51.661800
1089.000000	51.732900
1090.000000	51.805833
1091.000000	51.870767
1092.000000	51.938267
1093.000000	52.000400
1094.000000	52.069133
1095.000000	52.129667
1096.000000	52.188367
1097.000000	52.252033
1098.000000	52.308633
1099.000000	52.365767
1100.000000	52.425200
1101.000000	52.468967
1102.000000	52.506167
1103.000000	52.546967
1104.000000	52.589967
1105.000000	52.628867
1106.000000	52.662833
1107.000000	52.698500
1108.000000	52.731833
1109.000000	52.761500
1110.000000	52.788400
1111.000000	52.819067
1112.000000	52.840967
1113.000000	52.865733
1114.000000	52.893467
1115.000000	52.925367
1116.000000	52.959833
1117.000000	52.980900
1118.000000	52.986800
1119.000000	52.981600
1120.000000	52.966500
1121.000000	52.950000
1122.000000	52.927600
1123.000000	52.888600
1124.000000	52.837700
1125.000000	52.782200
1126.000000	52.724300
1127.000000	52.637133
1128.000000	52.533267
1129.000000	52.407767
1130.000000	52.242300
1131.000000	52.032333
1132.000000	51.793567
1133.000000	51.551300
1134.000000	51.287033
1135.000000	50.984300
1136.000000	50.632833
1137.000000	50.254133
1138.000000	49.881667
1139.000000	49.512833
1140.000000	49.159467
1141.000000	48.816933
1142.000000	48.471900
1143.000000	48.148500
1144.000000	47.842967
1145.000000	47.570067
1146.000000	47.345367
1147.000000	47.198667
1148.000000	47.126933
1149.000000	47.115300
1150.000000	47.151033
1151.000000	47.168300
1152.000000	47.214733
1153.000000	47.209300
1154.000000	47.160233
1155.000000	47.083633
1156.000000	46.919700
1157.000000	46.716233
1158.000000	46.428067
1159.000000	46.124800
1160.000000	45.770800
1161.000000	45.416900
1162.000000	45.034967
1163.000000	44.658200
1164.000000	44.248567
1165.000000	43.850900
1166.000000	43.433867
1167.000000	43.028100
