PE UV       SUBTECH     SPECTRUM    ASCII       PEDS        4.00        
   -1
CICIMAUCR0158-5.Sample.ASC
24/04/25
13:52:02.00
24/04/25
13:52:02.00
Vinicio Soto Monge
C. cupreomarginata
250,000000
1
Lambda 1050
1050L1511233
PerkinElmer UV WinLab 6.3.2.0749 / 2.02.05 Lambda 900 UV/VIS/NIR, Aug  7 2015 09:38:08

0
0
3350/servo 860,8/2
0
0
UV/VIS
1
1
1
DoubleDePol,CommonBeamDepol,RBeamAtt,SBeamAtt,60mm sphere, WB InGaAs Detector
0
0
0
0
Program
Program
3350/servo 860,8/2
3350/0,2 860,8/0,2
3350/0,2 860,8/0,2
0
15.00
 
 
 
0
 
860,8
319,2
860,8
Front
100
on
S:100 R:100
0
0
0
0
 
0
 
 
 
0
 
 
0
0
0
0
0
 
 
 
 
0
0


0
0
#HDR
-1
-1
#GR
nm
%R
1.0
0.0
2500,000000
-1,000000
2251
8
68,614000
5,280700
#DATA
250.000000	6.008450
251.000000	5.972775
252.000000	5.954625
253.000000	5.952850
254.000000	5.908875
255.000000	5.913125
256.000000	5.923175
257.000000	5.907650
258.000000	5.868625
259.000000	5.852250
260.000000	5.834575
261.000000	5.798925
262.000000	5.782325
263.000000	5.753050
264.000000	5.733175
265.000000	5.701350
266.000000	5.688175
267.000000	5.656600
268.000000	5.649375
269.000000	5.616125
270.000000	5.597200
271.000000	5.611950
272.000000	5.585900
273.000000	5.545425
274.000000	5.563125
275.000000	5.535275
276.000000	5.502225
277.000000	5.501100
278.000000	5.467975
279.000000	5.476425
280.000000	5.471850
281.000000	5.429450
282.000000	5.432250
283.000000	5.427850
284.000000	5.426325
285.000000	5.419050
286.000000	5.427550
287.000000	5.436875
288.000000	5.403450
289.000000	5.388775
290.000000	5.400975
291.000000	5.403075
292.000000	5.403725
293.000000	5.372150
294.000000	5.422950
295.000000	5.366775
296.000000	5.404950
297.000000	5.381000
298.000000	5.378400
299.000000	5.391825
300.000000	5.379500
301.000000	5.364375
302.000000	5.366550
303.000000	5.384400
304.000000	5.397650
305.000000	5.422900
306.000000	5.396575
307.000000	5.389350
308.000000	5.416900
309.000000	5.430050
310.000000	5.437025
311.000000	5.404500
312.000000	5.424875
313.000000	5.415750
314.000000	5.417125
315.000000	5.442525
316.000000	5.510275
317.000000	6.144600
318.000000	5.953375
319.000000	5.838050
320.000000	5.906975
321.000000	5.827750
322.000000	5.851650
323.000000	5.721750
324.000000	5.736525
325.000000	5.706275
326.000000	5.741500
327.000000	5.575450
328.000000	5.532600
329.000000	5.692250
330.000000	5.552475
331.000000	5.432150
332.000000	5.499650
333.000000	5.545325
334.000000	5.577225
335.000000	5.475650
336.000000	5.481400
337.000000	5.549375
338.000000	5.472000
339.000000	5.475825
340.000000	5.484425
341.000000	5.467425
342.000000	5.552275
343.000000	5.540500
344.000000	5.483675
345.000000	5.484825
346.000000	5.427925
347.000000	5.492250
348.000000	5.490675
349.000000	5.479950
350.000000	5.458625
351.000000	5.525900
352.000000	5.603700
353.000000	5.589375
354.000000	5.609225
355.000000	5.653925
356.000000	5.692125
357.000000	5.665025
358.000000	5.709525
359.000000	5.781625
360.000000	5.915425
361.000000	5.877225
362.000000	5.929750
363.000000	5.950950
364.000000	6.028350
365.000000	6.045575
366.000000	6.067875
367.000000	6.160575
368.000000	6.274500
369.000000	6.362150
370.000000	6.355250
371.000000	6.408400
372.000000	6.474075
373.000000	6.588575
374.000000	6.630425
375.000000	6.881550
376.000000	7.274700
377.000000	7.374500
378.000000	7.540575
379.000000	7.716425
380.000000	7.902675
381.000000	8.112900
382.000000	8.312500
383.000000	8.516450
384.000000	8.739250
385.000000	8.978575
386.000000	9.201775
387.000000	9.434100
388.000000	9.674275
389.000000	9.908500
390.000000	10.146750
391.000000	10.389225
392.000000	10.619500
393.000000	10.847550
394.000000	11.065925
395.000000	11.289900
396.000000	11.499000
397.000000	11.714400
398.000000	11.912925
399.000000	12.100850
400.000000	12.280950
401.000000	12.448125
402.000000	12.613525
403.000000	12.767350
404.000000	12.919725
405.000000	13.051400
406.000000	13.177850
407.000000	13.304675
408.000000	13.418275
409.000000	13.515650
410.000000	13.598550
411.000000	13.676100
412.000000	13.750425
413.000000	13.823100
414.000000	13.881925
415.000000	13.934275
416.000000	13.970450
417.000000	13.996250
418.000000	14.011775
419.000000	14.024525
420.000000	14.034175
421.000000	14.032550
422.000000	14.024475
423.000000	14.012300
424.000000	13.988225
425.000000	13.961125
426.000000	13.941425
427.000000	13.914950
428.000000	13.891650
429.000000	13.873625
430.000000	13.863575
431.000000	13.861600
432.000000	13.877900
433.000000	13.889275
434.000000	13.920050
435.000000	13.971800
436.000000	14.048450
437.000000	14.128400
438.000000	14.233800
439.000000	14.375725
440.000000	14.522250
441.000000	14.694700
442.000000	14.895225
443.000000	15.123550
444.000000	15.370975
445.000000	15.623900
446.000000	15.890075
447.000000	16.167500
448.000000	16.455225
449.000000	16.766725
450.000000	17.073150
451.000000	17.375450
452.000000	17.672675
453.000000	17.980550
454.000000	18.273000
455.000000	18.553450
456.000000	18.823450
457.000000	19.075825
458.000000	19.328175
459.000000	19.551800
460.000000	19.771675
461.000000	19.991750
462.000000	20.202425
463.000000	20.395500
464.000000	20.591875
465.000000	20.779550
466.000000	20.963750
467.000000	21.149850
468.000000	21.344025
469.000000	21.538100
470.000000	21.733775
471.000000	21.946150
472.000000	22.173175
473.000000	22.391100
474.000000	22.626250
475.000000	22.870700
476.000000	23.130800
477.000000	23.398525
478.000000	23.678100
479.000000	23.968575
480.000000	24.271725
481.000000	24.592875
482.000000	24.929075
483.000000	25.272000
484.000000	25.623800
485.000000	25.966125
486.000000	26.311925
487.000000	26.674200
488.000000	27.037150
489.000000	27.409625
490.000000	27.795600
491.000000	28.194725
492.000000	28.564075
493.000000	28.946025
494.000000	29.320475
495.000000	29.713175
496.000000	30.118725
497.000000	30.507550
498.000000	30.869375
499.000000	31.264400
500.000000	31.665175
501.000000	32.072150
502.000000	32.474550
503.000000	32.897325
504.000000	33.325875
505.000000	33.760450
506.000000	34.214150
507.000000	34.673875
508.000000	35.146350
509.000000	35.650875
510.000000	36.178250
511.000000	36.719750
512.000000	37.281500
513.000000	37.865975
514.000000	38.456650
515.000000	39.061800
516.000000	39.676575
517.000000	40.318750
518.000000	40.953550
519.000000	41.609950
520.000000	42.289325
521.000000	42.984750
522.000000	43.696075
523.000000	44.408325
524.000000	45.140125
525.000000	45.878600
526.000000	46.623475
527.000000	47.372525
528.000000	48.131850
529.000000	48.899575
530.000000	49.686750
531.000000	50.473600
532.000000	51.276825
533.000000	52.102075
534.000000	52.921325
535.000000	53.727350
536.000000	54.529150
537.000000	55.303275
538.000000	56.068625
539.000000	56.805775
540.000000	57.528450
541.000000	58.223500
542.000000	58.890800
543.000000	59.511525
544.000000	60.101500
545.000000	60.629125
546.000000	61.127750
547.000000	61.584675
548.000000	61.989125
549.000000	62.330050
550.000000	62.653225
551.000000	62.948450
552.000000	63.184375
553.000000	63.385900
554.000000	63.557525
555.000000	63.721225
556.000000	63.864300
557.000000	64.002750
558.000000	64.082525
559.000000	64.162900
560.000000	64.236175
561.000000	64.308175
562.000000	64.358125
563.000000	64.418775
564.000000	64.480475
565.000000	64.501625
566.000000	64.537975
567.000000	64.526825
568.000000	64.500650
569.000000	64.443450
570.000000	64.370550
571.000000	64.283525
572.000000	64.185050
573.000000	64.070725
574.000000	63.963750
575.000000	63.832550
576.000000	63.697250
577.000000	63.557675
578.000000	63.429800
579.000000	63.278000
580.000000	63.131625
581.000000	62.951750
582.000000	62.808175
583.000000	62.662675
584.000000	62.505425
585.000000	62.331875
586.000000	62.173275
587.000000	62.049800
588.000000	61.903975
589.000000	61.734675
590.000000	61.566700
591.000000	61.400425
592.000000	61.229625
593.000000	61.025600
594.000000	60.850850
595.000000	60.640850
596.000000	60.431150
597.000000	60.219250
598.000000	59.958550
599.000000	59.713200
600.000000	59.425050
601.000000	59.124125
602.000000	58.787425
603.000000	58.424475
604.000000	58.065550
605.000000	57.678800
606.000000	57.302975
607.000000	56.924800
608.000000	56.536875
609.000000	56.156625
610.000000	55.746125
611.000000	55.365875
612.000000	54.956900
613.000000	54.547050
614.000000	54.186725
615.000000	53.803975
616.000000	53.458225
617.000000	53.069750
618.000000	52.702900
619.000000	52.345400
620.000000	51.969025
621.000000	51.598825
622.000000	51.215050
623.000000	50.837525
624.000000	50.463325
625.000000	50.106375
626.000000	49.765450
627.000000	49.449150
628.000000	49.150175
629.000000	48.881050
630.000000	48.623300
631.000000	48.427000
632.000000	48.268325
633.000000	48.141175
634.000000	48.071475
635.000000	48.064025
636.000000	48.087550
637.000000	48.169275
638.000000	48.315450
639.000000	48.463400
640.000000	48.651800
641.000000	48.859675
642.000000	49.124100
643.000000	49.405225
644.000000	49.696175
645.000000	49.976400
646.000000	50.299350
647.000000	50.639925
648.000000	50.921125
649.000000	51.232575
650.000000	51.535225
651.000000	51.849400
652.000000	52.168950
653.000000	52.461850
654.000000	52.738125
655.000000	53.016975
656.000000	53.280325
657.000000	53.521275
658.000000	53.770325
659.000000	53.976500
660.000000	54.200500
661.000000	54.376325
662.000000	54.545000
663.000000	54.706800
664.000000	54.851450
665.000000	54.976050
666.000000	55.086050
667.000000	55.176400
668.000000	55.260550
669.000000	55.319375
670.000000	55.377000
671.000000	55.441425
672.000000	55.465825
673.000000	55.496325
674.000000	55.528325
675.000000	55.565900
676.000000	55.619625
677.000000	55.634275
678.000000	55.674000
679.000000	55.688200
680.000000	55.701350
681.000000	55.730150
682.000000	55.772575
683.000000	55.791550
684.000000	55.827575
685.000000	55.889050
686.000000	55.919600
687.000000	55.945750
688.000000	55.993375
689.000000	56.086475
690.000000	56.141925
691.000000	56.208575
692.000000	56.282700
693.000000	56.380875
694.000000	56.480375
695.000000	56.602475
696.000000	56.723025
697.000000	56.845750
698.000000	56.946925
699.000000	57.070950
700.000000	57.229350
701.000000	57.384225
702.000000	57.542550
703.000000	57.695875
704.000000	57.852450
705.000000	58.006525
706.000000	58.164225
707.000000	58.305175
708.000000	58.441025
709.000000	58.602850
710.000000	58.778050
711.000000	58.887725
712.000000	59.039775
713.000000	59.172550
714.000000	59.284125
715.000000	59.448575
716.000000	59.580500
717.000000	59.685725
718.000000	59.799600
719.000000	59.927625
720.000000	60.000850
721.000000	60.099850
722.000000	60.218000
723.000000	60.302400
724.000000	60.343275
725.000000	60.430675
726.000000	60.522150
727.000000	60.583200
728.000000	60.657150
729.000000	60.736600
730.000000	60.776625
731.000000	60.828675
732.000000	60.904075
733.000000	60.975100
734.000000	61.015000
735.000000	61.085500
736.000000	61.159350
737.000000	61.212075
738.000000	61.281825
739.000000	61.333225
740.000000	61.388250
741.000000	61.456700
742.000000	61.510875
743.000000	61.554025
744.000000	61.616400
745.000000	61.714200
746.000000	61.765225
747.000000	61.867450
748.000000	61.952575
749.000000	62.034325
750.000000	62.121375
751.000000	62.220850
752.000000	62.298900
753.000000	62.387625
754.000000	62.490750
755.000000	62.575325
756.000000	62.684675
757.000000	62.797050
758.000000	62.892525
759.000000	63.021300
760.000000	63.142450
761.000000	63.279725
762.000000	63.372050
763.000000	63.487325
764.000000	63.630400
765.000000	63.738975
766.000000	63.863600
767.000000	64.007550
768.000000	64.105400
769.000000	64.224500
770.000000	64.409500
771.000000	64.552150
772.000000	64.698750
773.000000	64.847950
774.000000	64.987500
775.000000	65.073875
776.000000	65.175225
777.000000	65.295850
778.000000	65.440850
779.000000	65.529025
780.000000	65.619800
781.000000	65.711550
782.000000	65.799725
783.000000	65.867350
784.000000	65.970125
785.000000	66.061125
786.000000	66.202375
787.000000	66.304375
788.000000	66.344100
789.000000	66.406525
790.000000	66.498600
791.000000	66.569100
792.000000	66.657475
793.000000	66.737550
794.000000	66.738150
795.000000	66.789075
796.000000	66.805300
797.000000	66.899575
798.000000	66.942575
799.000000	67.014300
800.000000	67.085975
801.000000	67.086175
802.000000	67.161200
803.000000	67.195625
804.000000	67.285150
805.000000	67.327150
806.000000	67.333050
807.000000	67.401900
808.000000	67.445625
809.000000	67.503500
810.000000	67.576750
811.000000	67.616100
812.000000	67.669950
813.000000	67.685275
814.000000	67.643125
815.000000	67.774550
816.000000	67.877950
817.000000	67.835550
818.000000	67.885275
819.000000	67.867075
820.000000	67.931825
821.000000	67.961750
822.000000	67.950175
823.000000	67.982425
824.000000	67.941750
825.000000	68.069600
826.000000	68.063075
827.000000	68.028325
828.000000	68.058225
829.000000	68.033575
830.000000	67.974625
831.000000	67.912200
832.000000	67.870175
833.000000	67.965475
834.000000	67.825575
835.000000	67.725025
836.000000	67.738200
837.000000	67.650075
838.000000	67.624350
839.000000	67.513650
840.000000	67.597400
841.000000	67.436050
842.000000	67.333450
843.000000	67.412625
844.000000	67.199200
845.000000	66.948525
846.000000	67.006025
847.000000	66.671050
848.000000	66.615050
849.000000	66.470525
850.000000	66.387900
851.000000	66.344675
852.000000	66.291800
853.000000	66.228150
854.000000	66.027500
855.000000	65.967700
856.000000	65.653900
857.000000	65.996850
858.000000	65.872817
859.000000	64.609742
860.000000	64.765742
861.000000	64.769328
862.000000	64.698531
863.000000	64.717203
864.000000	64.730529
865.000000	64.536497
866.000000	64.527243
867.000000	64.759454
868.000000	64.932811
869.000000	65.425536
870.000000	65.649070
871.000000	65.924117
872.000000	66.029678
873.000000	66.452555
874.000000	66.610800
875.000000	66.678106
876.000000	66.933841
877.000000	67.056711
878.000000	67.156448
879.000000	67.328455
880.000000	67.410182
881.000000	67.491030
882.000000	67.526335
883.000000	67.633856
884.000000	67.799832
885.000000	67.886480
886.000000	67.775980
887.000000	67.847878
888.000000	67.910558
889.000000	67.956840
890.000000	67.992822
891.000000	67.940881
892.000000	67.898442
893.000000	67.909916
894.000000	67.956062
895.000000	67.869796
896.000000	67.837935
897.000000	67.838594
898.000000	67.800038
899.000000	67.757514
900.000000	67.733861
901.000000	67.766576
902.000000	67.700847
903.000000	67.616469
904.000000	67.566529
905.000000	67.551118
906.000000	67.481805
907.000000	67.443742
908.000000	67.416756
909.000000	67.366636
910.000000	67.331393
911.000000	67.279360
912.000000	67.209102
913.000000	67.146287
914.000000	67.110536
915.000000	67.134282
916.000000	67.173630
917.000000	67.136479
918.000000	67.138061
919.000000	67.154564
920.000000	67.124442
921.000000	67.106750
922.000000	67.086214
923.000000	67.060077
924.000000	67.059365
925.000000	67.064645
926.000000	67.080666
927.000000	67.090796
928.000000	67.105482
929.000000	67.091896
930.000000	67.095948
931.000000	67.082773
932.000000	67.078226
933.000000	67.100595
934.000000	67.091359
935.000000	67.081882
936.000000	67.086641
937.000000	67.080310
938.000000	67.091321
939.000000	67.092974
940.000000	67.085622
941.000000	67.108503
942.000000	67.107778
943.000000	67.120385
944.000000	67.122481
945.000000	67.090737
946.000000	67.122388
947.000000	67.134804
948.000000	67.139431
949.000000	67.127877
950.000000	67.129399
951.000000	67.136922
952.000000	67.125928
953.000000	67.088095
954.000000	67.085081
955.000000	67.085576
956.000000	67.080068
957.000000	67.048747
958.000000	67.042917
959.000000	67.041916
960.000000	67.024724
961.000000	67.038663
962.000000	67.048290
963.000000	67.041890
964.000000	67.073992
965.000000	67.049830
966.000000	67.056871
967.000000	67.056749
968.000000	67.063394
969.000000	67.085633
970.000000	67.110862
971.000000	67.131668
972.000000	67.137479
973.000000	67.177560
974.000000	67.191666
975.000000	67.214475
976.000000	67.244378
977.000000	67.258814
978.000000	67.273972
979.000000	67.328197
980.000000	67.359460
981.000000	67.390443
982.000000	67.407467
983.000000	67.468121
984.000000	67.514260
985.000000	67.536702
986.000000	67.564412
987.000000	67.592056
988.000000	67.630038
989.000000	67.675394
990.000000	67.716084
991.000000	67.774937
992.000000	67.815100
993.000000	67.855105
994.000000	67.898823
995.000000	67.943044
996.000000	67.984258
997.000000	68.025658
998.000000	68.075814
999.000000	68.110422
1000.000000	68.156297
1001.000000	68.195563
1002.000000	68.244587
1003.000000	68.270714
1004.000000	68.315068
1005.000000	68.369653
1006.000000	68.405752
1007.000000	68.435924
1008.000000	68.484460
1009.000000	68.509648
1010.000000	68.545814
1011.000000	68.580561
1012.000000	68.612021
1013.000000	68.641451
1014.000000	68.683227
1015.000000	68.711447
1016.000000	68.738298
1017.000000	68.802237
1018.000000	68.842004
1019.000000	68.857748
1020.000000	68.905354
1021.000000	68.939770
1022.000000	68.974686
1023.000000	69.013292
1024.000000	69.044607
1025.000000	69.073498
1026.000000	69.120934
1027.000000	69.153357
1028.000000	69.202506
1029.000000	69.233033
1030.000000	69.274396
1031.000000	69.304500
1032.000000	69.338097
1033.000000	69.369753
1034.000000	69.410139
1035.000000	69.448352
1036.000000	69.498715
1037.000000	69.523462
1038.000000	69.551625
1039.000000	69.574111
1040.000000	69.600760
1041.000000	69.633074
1042.000000	69.672617
1043.000000	69.700314
1044.000000	69.739598
1045.000000	69.776432
1046.000000	69.817395
1047.000000	69.842796
1048.000000	69.869420
1049.000000	69.924667
1050.000000	69.944950
1051.000000	69.979422
1052.000000	70.022229
1053.000000	70.060605
1054.000000	70.103096
1055.000000	70.133574
1056.000000	70.167382
1057.000000	70.217528
1058.000000	70.251278
1059.000000	70.307562
1060.000000	70.348128
1061.000000	70.383940
1062.000000	70.423871
1063.000000	70.456261
1064.000000	70.503838
1065.000000	70.535695
1066.000000	70.590348
1067.000000	70.629846
1068.000000	70.672713
1069.000000	70.724319
1070.000000	70.765496
1071.000000	70.804947
1072.000000	70.844593
1073.000000	70.885729
1074.000000	70.932563
1075.000000	70.976325
1076.000000	71.018274
1077.000000	71.042104
1078.000000	71.091282
1079.000000	71.130392
1080.000000	71.165716
1081.000000	71.217937
1082.000000	71.250294
1083.000000	71.279302
1084.000000	71.311308
1085.000000	71.353540
1086.000000	71.394442
1087.000000	71.425229
1088.000000	71.472796
1089.000000	71.495193
1090.000000	71.527878
1091.000000	71.556643
1092.000000	71.581638
1093.000000	71.618890
1094.000000	71.637076
1095.000000	71.669057
1096.000000	71.684467
1097.000000	71.702166
1098.000000	71.726335
1099.000000	71.748789
1100.000000	71.770012
1101.000000	71.794541
1102.000000	71.813002
1103.000000	71.814022
1104.000000	71.837868
1105.000000	71.853815
1106.000000	71.876560
1107.000000	71.889733
1108.000000	71.903887
1109.000000	71.906056
1110.000000	71.919421
1111.000000	71.935815
1112.000000	71.944266
1113.000000	71.949389
1114.000000	71.957618
1115.000000	71.972460
1116.000000	71.987020
1117.000000	71.989232
1118.000000	72.002147
1119.000000	72.012286
1120.000000	72.001426
1121.000000	71.996876
1122.000000	72.007842
1123.000000	72.010858
1124.000000	71.993092
1125.000000	71.955657
1126.000000	71.931277
1127.000000	71.878001
1128.000000	71.852490
1129.000000	71.815466
1130.000000	71.759033
1131.000000	71.684519
1132.000000	71.616826
1133.000000	71.552806
1134.000000	71.529308
1135.000000	71.480817
1136.000000	71.363254
1137.000000	71.265868
1138.000000	71.158833
1139.000000	71.072690
1140.000000	70.998790
1141.000000	70.918956
1142.000000	70.852132
1143.000000	70.779429
1144.000000	70.740936
1145.000000	70.685322
1146.000000	70.633835
1147.000000	70.581579
1148.000000	70.510926
1149.000000	70.459126
1150.000000	70.407256
1151.000000	70.355022
1152.000000	70.301745
1153.000000	70.259973
1154.000000	70.167268
1155.000000	70.101539
1156.000000	70.022475
1157.000000	69.953447
1158.000000	69.867587
1159.000000	69.767911
1160.000000	69.656055
1161.000000	69.554086
1162.000000	69.467675
1163.000000	69.361755
1164.000000	69.252235
1165.000000	69.158368
1166.000000	69.056705
