PE UV       SUBTECH     SPECTRUM    ASCII       PEDS        4.00        
   -1
CICIMAUCR0001-5.Sample.ASC
24/04/23
10:47:46.00
24/04/23
10:47:46.00
Vinicio Soto Monge
C. kalinini
250,000000
1
Lambda 1050
1050L1511233
PerkinElmer UV WinLab 6.3.2.0749 / 2.02.05 Lambda 900 UV/VIS/NIR, Aug  7 2015 09:38:08

0
0
3350/servo 860,8/2
0
0
UV/VIS
1
1
1
DoubleDePol,CommonBeamDepol,RBeamAtt,SBeamAtt,60mm sphere, WB InGaAs Detector
0
0
0
0
Program
Program
3350/servo 860,8/2
3350/0,2 860,8/0,2
3350/0,2 860,8/0,2
0
15.00
 
 
 
0
 
860,8
319,2
860,8
Front
100
on
S:100 R:100
0
0
0
0
 
0
 
 
 
0
 
 
0
0
0
0
0
 
 
 
 
0
0


0
0
#HDR
-1
-1
#GR
nm
%R
1.0
0.0
2500,000000
-1,000000
2251
8
101,472100
5,465400
#DATA
250.000000	5.468532
251.000000	5.472617
252.000000	5.466957
253.000000	5.422095
254.000000	5.410353
255.000000	5.414941
256.000000	5.398120
257.000000	5.376224
258.000000	5.362801
259.000000	5.350841
260.000000	5.315738
261.000000	5.300607
262.000000	5.273271
263.000000	5.257825
264.000000	5.223395
265.000000	5.202170
266.000000	5.194113
267.000000	5.162389
268.000000	5.178657
269.000000	5.151314
270.000000	5.110532
271.000000	5.097506
272.000000	5.115020
273.000000	5.074619
274.000000	5.079960
275.000000	5.066046
276.000000	5.034406
277.000000	5.041850
278.000000	5.043432
279.000000	5.043160
280.000000	5.043358
281.000000	5.034940
282.000000	5.014975
283.000000	5.012455
284.000000	4.990983
285.000000	5.014397
286.000000	4.986664
287.000000	4.991206
288.000000	5.002006
289.000000	5.013701
290.000000	5.007567
291.000000	5.002500
292.000000	5.003210
293.000000	4.990004
294.000000	4.981793
295.000000	4.995948
296.000000	5.008007
297.000000	5.019945
298.000000	5.029902
299.000000	4.982027
300.000000	4.986020
301.000000	4.984569
302.000000	4.979110
303.000000	4.966730
304.000000	4.963694
305.000000	4.972647
306.000000	4.975723
307.000000	4.956580
308.000000	4.976079
309.000000	4.959440
310.000000	4.977466
311.000000	4.979570
312.000000	4.952146
313.000000	4.951613
314.000000	4.956662
315.000000	4.933626
316.000000	5.083910
317.000000	5.242636
318.000000	5.173724
319.000000	5.126041
320.000000	5.193940
321.000000	5.213494
322.000000	5.211138
323.000000	5.160865
324.000000	5.176251
325.000000	5.237243
326.000000	5.179583
327.000000	5.152713
328.000000	5.152614
329.000000	5.155525
330.000000	5.143827
331.000000	5.107264
332.000000	5.141710
333.000000	5.152446
334.000000	5.069633
335.000000	5.085413
336.000000	5.095200
337.000000	5.114410
338.000000	5.137620
339.000000	5.124943
340.000000	5.089979
341.000000	5.068483
342.000000	5.142245
343.000000	5.144277
344.000000	5.155584
345.000000	5.152674
346.000000	5.102190
347.000000	5.097993
348.000000	5.138458
349.000000	5.166509
350.000000	5.196815
351.000000	5.211955
352.000000	5.259019
353.000000	5.261147
354.000000	5.274514
355.000000	5.270091
356.000000	5.288407
357.000000	5.332849
358.000000	5.359412
359.000000	5.374903
360.000000	5.388409
361.000000	5.440166
362.000000	5.452123
363.000000	5.493347
364.000000	5.504286
365.000000	5.508408
366.000000	5.510438
367.000000	5.559531
368.000000	5.596379
369.000000	5.564021
370.000000	5.575715
371.000000	5.639429
372.000000	5.623884
373.000000	5.571471
374.000000	5.626264
375.000000	5.757210
376.000000	5.842855
377.000000	5.899641
378.000000	5.922351
379.000000	5.948807
380.000000	5.974181
381.000000	6.004935
382.000000	6.031952
383.000000	6.072826
384.000000	6.109850
385.000000	6.142522
386.000000	6.178498
387.000000	6.211320
388.000000	6.251983
389.000000	6.290100
390.000000	6.321466
391.000000	6.363480
392.000000	6.404301
393.000000	6.445665
394.000000	6.489036
395.000000	6.527679
396.000000	6.576664
397.000000	6.623969
398.000000	6.669712
399.000000	6.727497
400.000000	6.791238
401.000000	6.855111
402.000000	6.914407
403.000000	6.989465
404.000000	7.065775
405.000000	7.150749
406.000000	7.244088
407.000000	7.343849
408.000000	7.451363
409.000000	7.559199
410.000000	7.679328
411.000000	7.809352
412.000000	7.952399
413.000000	8.093457
414.000000	8.244981
415.000000	8.415946
416.000000	8.597644
417.000000	8.790714
418.000000	8.991387
419.000000	9.201170
420.000000	9.430645
421.000000	9.671533
422.000000	9.919072
423.000000	10.184829
424.000000	10.456678
425.000000	10.748085
426.000000	11.053918
427.000000	11.370017
428.000000	11.701790
429.000000	12.046551
430.000000	12.403552
431.000000	12.763896
432.000000	13.144553
433.000000	13.538298
434.000000	13.932289
435.000000	14.337083
436.000000	14.751358
437.000000	15.168601
438.000000	15.571427
439.000000	15.994288
440.000000	16.422065
441.000000	16.851938
442.000000	17.290078
443.000000	17.710797
444.000000	18.129120
445.000000	18.531883
446.000000	18.937646
447.000000	19.329635
448.000000	19.722221
449.000000	20.107453
450.000000	20.472104
451.000000	20.835843
452.000000	21.188901
453.000000	21.528730
454.000000	21.863405
455.000000	22.193380
456.000000	22.515013
457.000000	22.813287
458.000000	23.109464
459.000000	23.381128
460.000000	23.660383
461.000000	23.941432
462.000000	24.212704
463.000000	24.462015
464.000000	24.719696
465.000000	24.962678
466.000000	25.205394
467.000000	25.438244
468.000000	25.666281
469.000000	25.905021
470.000000	26.131708
471.000000	26.365673
472.000000	26.600220
473.000000	26.835540
474.000000	27.059232
475.000000	27.287912
476.000000	27.519281
477.000000	27.758999
478.000000	27.990298
479.000000	28.236118
480.000000	28.492676
481.000000	28.763588
482.000000	29.043706
483.000000	29.281920
484.000000	29.512014
485.000000	29.754349
486.000000	29.983094
487.000000	30.215485
488.000000	30.452863
489.000000	30.704581
490.000000	30.949900
491.000000	31.215829
492.000000	31.499865
493.000000	31.799314
494.000000	32.109222
495.000000	32.424368
496.000000	32.745840
497.000000	33.072411
498.000000	33.432954
499.000000	33.809999
500.000000	34.178604
501.000000	34.594958
502.000000	35.016336
503.000000	35.446614
504.000000	35.912242
505.000000	36.356510
506.000000	36.822530
507.000000	37.304735
508.000000	37.808964
509.000000	38.338680
510.000000	38.867761
511.000000	39.422545
512.000000	40.013717
513.000000	40.627782
514.000000	41.272536
515.000000	41.919274
516.000000	42.593428
517.000000	43.277829
518.000000	44.004843
519.000000	44.747301
520.000000	45.501691
521.000000	46.273880
522.000000	47.072364
523.000000	47.887650
524.000000	48.699366
525.000000	49.514621
526.000000	50.338366
527.000000	51.148869
528.000000	51.958973
529.000000	52.764059
530.000000	53.548632
531.000000	54.332174
532.000000	55.076339
533.000000	55.808715
534.000000	56.512532
535.000000	57.196103
536.000000	57.824060
537.000000	58.433076
538.000000	58.984644
539.000000	59.512531
540.000000	60.016691
541.000000	60.489957
542.000000	60.923524
543.000000	61.346308
544.000000	61.723728
545.000000	62.094904
546.000000	62.434881
547.000000	62.724195
548.000000	63.006553
549.000000	63.262056
550.000000	63.505532
551.000000	63.729315
552.000000	63.925556
553.000000	64.127829
554.000000	64.308497
555.000000	64.474791
556.000000	64.630750
557.000000	64.743092
558.000000	64.856434
559.000000	64.973080
560.000000	65.036748
561.000000	65.127335
562.000000	65.202323
563.000000	65.243383
564.000000	65.286018
565.000000	65.328887
566.000000	65.352027
567.000000	65.361779
568.000000	65.328482
569.000000	65.289328
570.000000	65.249525
571.000000	65.178011
572.000000	65.086935
573.000000	64.967149
574.000000	64.857083
575.000000	64.741346
576.000000	64.614359
577.000000	64.442388
578.000000	64.257386
579.000000	64.048213
580.000000	63.831475
581.000000	63.595909
582.000000	63.299468
583.000000	63.023882
584.000000	62.712137
585.000000	62.390715
586.000000	62.038425
587.000000	61.653205
588.000000	61.249758
589.000000	60.830210
590.000000	60.384970
591.000000	59.914995
592.000000	59.439360
593.000000	58.957208
594.000000	58.466232
595.000000	57.964805
596.000000	57.461902
597.000000	56.974380
598.000000	56.467477
599.000000	55.967412
600.000000	55.481433
601.000000	55.004827
602.000000	54.542988
603.000000	54.094370
604.000000	53.662003
605.000000	53.274291
606.000000	52.915000
607.000000	52.567383
608.000000	52.261663
609.000000	51.993611
610.000000	51.731581
611.000000	51.508555
612.000000	51.310150
613.000000	51.170019
614.000000	51.053098
615.000000	50.959723
616.000000	50.864903
617.000000	50.808947
618.000000	50.767203
619.000000	50.751653
620.000000	50.762393
621.000000	50.792807
622.000000	50.844879
623.000000	50.915184
624.000000	51.007479
625.000000	51.154562
626.000000	51.312289
627.000000	51.499347
628.000000	51.707983
629.000000	51.914520
630.000000	52.150433
631.000000	52.391385
632.000000	52.659684
633.000000	52.927088
634.000000	53.195901
635.000000	53.443579
636.000000	53.690233
637.000000	53.901147
638.000000	54.113537
639.000000	54.286966
640.000000	54.481344
641.000000	54.626644
642.000000	54.721909
643.000000	54.814844
644.000000	54.891503
645.000000	54.956405
646.000000	55.022136
647.000000	55.080620
648.000000	55.152156
649.000000	55.253264
650.000000	55.351925
651.000000	55.470120
652.000000	55.625849
653.000000	55.795316
654.000000	56.007678
655.000000	56.252479
656.000000	56.512115
657.000000	56.787632
658.000000	57.074673
659.000000	57.389571
660.000000	57.749587
661.000000	58.079240
662.000000	58.427798
663.000000	58.775526
664.000000	59.126913
665.000000	59.481658
666.000000	59.826213
667.000000	60.171969
668.000000	60.535882
669.000000	60.872518
670.000000	61.260552
671.000000	61.629616
672.000000	62.015010
673.000000	62.400066
674.000000	62.803402
675.000000	63.199450
676.000000	63.621842
677.000000	64.073588
678.000000	64.539646
679.000000	65.006758
680.000000	65.432920
681.000000	65.915196
682.000000	66.415504
683.000000	66.882743
684.000000	67.350746
685.000000	67.826387
686.000000	68.269020
687.000000	68.693618
688.000000	69.101052
689.000000	69.505469
690.000000	69.935803
691.000000	70.341065
692.000000	70.727402
693.000000	71.109731
694.000000	71.464683
695.000000	71.809390
696.000000	72.177299
697.000000	72.564011
698.000000	72.939786
699.000000	73.343251
700.000000	73.741755
701.000000	74.139896
702.000000	74.572649
703.000000	75.014496
704.000000	75.441595
705.000000	75.891439
706.000000	76.347980
707.000000	76.818115
708.000000	77.274318
709.000000	77.741585
710.000000	78.184543
711.000000	78.605568
712.000000	79.033874
713.000000	79.456050
714.000000	79.824286
715.000000	80.197487
716.000000	80.575681
717.000000	80.897795
718.000000	81.205617
719.000000	81.525909
720.000000	81.852882
721.000000	82.154720
722.000000	82.414214
723.000000	82.700875
724.000000	82.970974
725.000000	83.209073
726.000000	83.469490
727.000000	83.683222
728.000000	83.953442
729.000000	84.231151
730.000000	84.412008
731.000000	84.648398
732.000000	84.877120
733.000000	85.116478
734.000000	85.303353
735.000000	85.530551
736.000000	85.704416
737.000000	85.863891
738.000000	86.021539
739.000000	86.246017
740.000000	86.373790
741.000000	86.509177
742.000000	86.669371
743.000000	86.800066
744.000000	86.901697
745.000000	87.036112
746.000000	87.083629
747.000000	87.206575
748.000000	87.315800
749.000000	87.427210
750.000000	87.452667
751.000000	87.533951
752.000000	87.640666
753.000000	87.672850
754.000000	87.764867
755.000000	87.853801
756.000000	87.870988
757.000000	87.989978
758.000000	87.978493
759.000000	88.073510
760.000000	88.082126
761.000000	88.106042
762.000000	88.118978
763.000000	88.109503
764.000000	88.146996
765.000000	88.156557
766.000000	88.106289
767.000000	88.070183
768.000000	88.072160
769.000000	87.987102
770.000000	87.880986
771.000000	87.861529
772.000000	87.787993
773.000000	87.725654
774.000000	87.651441
775.000000	87.478078
776.000000	87.403804
777.000000	87.302841
778.000000	87.125274
779.000000	87.063209
780.000000	86.911248
781.000000	86.764113
782.000000	86.617406
783.000000	86.428443
784.000000	86.245880
785.000000	86.116954
786.000000	86.023352
787.000000	85.820115
788.000000	85.717651
789.000000	85.475230
790.000000	85.235955
791.000000	85.052668
792.000000	84.909884
793.000000	84.626461
794.000000	84.362442
795.000000	84.104358
796.000000	83.951922
797.000000	83.682610
798.000000	83.443310
799.000000	83.153806
800.000000	82.799338
801.000000	82.586358
802.000000	82.257343
803.000000	81.827744
804.000000	81.603328
805.000000	81.314562
806.000000	81.026043
807.000000	80.743327
808.000000	80.417878
809.000000	80.155655
810.000000	79.754985
811.000000	79.419874
812.000000	79.051520
813.000000	78.795032
814.000000	78.515379
815.000000	78.076407
816.000000	77.729611
817.000000	77.482250
818.000000	77.207763
819.000000	76.779150
820.000000	76.372363
821.000000	76.020440
822.000000	75.652411
823.000000	75.290531
824.000000	75.010893
825.000000	74.592361
826.000000	74.306238
827.000000	74.002550
828.000000	73.543434
829.000000	73.308043
830.000000	72.971700
831.000000	72.659981
832.000000	72.239779
833.000000	71.949290
834.000000	71.666027
835.000000	71.374170
836.000000	71.124596
837.000000	70.893874
838.000000	70.649056
839.000000	70.344383
840.000000	70.138862
841.000000	69.895487
842.000000	69.673937
843.000000	69.609855
844.000000	69.225940
845.000000	69.041562
846.000000	68.930888
847.000000	68.636045
848.000000	68.506377
849.000000	68.270013
850.000000	68.344995
851.000000	68.104856
852.000000	67.890543
853.000000	67.762213
854.000000	67.630020
855.000000	67.431242
856.000000	67.349931
857.000000	67.259820
858.000000	66.435225
859.000000	67.254300
860.000000	67.536525
861.000000	67.900975
862.000000	67.772825
863.000000	67.710400
864.000000	67.627075
865.000000	67.798875
866.000000	68.096900
867.000000	68.151775
868.000000	67.907025
869.000000	68.082825
870.000000	68.116175
871.000000	68.088750
872.000000	67.991500
873.000000	67.935900
874.000000	67.959025
875.000000	67.933550
876.000000	68.028000
877.000000	67.866725
878.000000	67.745325
879.000000	67.668950
880.000000	67.698550
881.000000	67.662575
882.000000	67.591225
883.000000	67.467150
884.000000	67.398875
885.000000	67.441450
886.000000	67.302250
887.000000	67.124325
888.000000	67.018350
889.000000	67.018475
890.000000	66.900500
891.000000	66.731100
892.000000	66.699075
893.000000	66.695350
894.000000	66.749925
895.000000	66.700250
896.000000	66.523300
897.000000	66.446650
898.000000	66.450250
899.000000	66.335075
900.000000	66.204450
901.000000	66.198825
902.000000	66.175050
903.000000	66.142125
904.000000	66.062300
905.000000	65.975375
906.000000	65.952350
907.000000	65.903900
908.000000	65.832625
909.000000	65.733300
910.000000	65.727025
911.000000	65.726775
912.000000	65.615450
913.000000	65.625225
914.000000	65.584725
915.000000	65.495575
916.000000	65.420375
917.000000	65.452325
918.000000	65.373675
919.000000	65.336400
920.000000	65.314150
921.000000	65.231225
922.000000	65.224850
923.000000	65.249125
924.000000	65.212600
925.000000	65.197000
926.000000	65.123775
927.000000	65.102750
928.000000	65.118850
929.000000	65.149875
930.000000	65.151025
931.000000	65.133325
932.000000	65.132950
933.000000	65.116725
934.000000	65.105525
935.000000	65.063500
936.000000	65.014975
937.000000	65.038500
938.000000	65.031575
939.000000	65.012650
940.000000	64.993450
941.000000	64.974900
942.000000	65.021900
943.000000	65.005050
944.000000	64.992950
945.000000	64.964550
946.000000	64.917750
947.000000	64.866225
948.000000	64.880800
949.000000	64.903500
950.000000	64.896700
951.000000	64.874350
952.000000	64.865975
953.000000	64.854250
954.000000	64.828025
955.000000	64.817775
956.000000	64.803725
957.000000	64.801275
958.000000	64.792875
959.000000	64.799225
960.000000	64.774250
961.000000	64.756550
962.000000	64.756700
963.000000	64.734425
964.000000	64.740175
965.000000	64.720750
966.000000	64.699825
967.000000	64.693175
968.000000	64.664200
969.000000	64.684525
970.000000	64.650625
971.000000	64.650075
972.000000	64.654550
973.000000	64.681200
974.000000	64.652500
975.000000	64.654075
976.000000	64.648175
977.000000	64.647250
978.000000	64.637300
979.000000	64.634575
980.000000	64.633975
981.000000	64.622600
982.000000	64.628725
983.000000	64.596125
984.000000	64.604950
985.000000	64.618500
986.000000	64.610775
987.000000	64.586550
988.000000	64.586325
989.000000	64.598900
990.000000	64.611625
991.000000	64.616225
992.000000	64.625775
993.000000	64.608875
994.000000	64.613350
995.000000	64.610100
996.000000	64.608525
997.000000	64.612200
998.000000	64.647250
999.000000	64.647275
1000.000000	64.645125
1001.000000	64.663000
1002.000000	64.680675
1003.000000	64.666475
1004.000000	64.675350
1005.000000	64.687700
1006.000000	64.702550
1007.000000	64.726675
1008.000000	64.749725
1009.000000	64.736575
1010.000000	64.727225
1011.000000	64.750150
1012.000000	64.755650
1013.000000	64.776075
1014.000000	64.784725
1015.000000	64.784875
1016.000000	64.796050
1017.000000	64.811075
1018.000000	64.813350
1019.000000	64.837575
1020.000000	64.857050
1021.000000	64.865750
1022.000000	64.887150
1023.000000	64.897150
1024.000000	64.911200
1025.000000	64.943325
1026.000000	64.946350
1027.000000	64.964925
1028.000000	64.977725
1029.000000	65.012875
1030.000000	65.049300
1031.000000	65.064950
1032.000000	65.085850
1033.000000	65.105675
1034.000000	65.124600
1035.000000	65.132850
1036.000000	65.176250
1037.000000	65.207800
1038.000000	65.217275
1039.000000	65.234875
1040.000000	65.271875
1041.000000	65.277525
1042.000000	65.294425
1043.000000	65.312875
1044.000000	65.355700
1045.000000	65.378625
1046.000000	65.383700
1047.000000	65.429125
1048.000000	65.439450
1049.000000	65.493850
1050.000000	65.491500
1051.000000	65.533750
1052.000000	65.566550
1053.000000	65.594450
1054.000000	65.643725
1055.000000	65.669025
1056.000000	65.698875
1057.000000	65.743150
1058.000000	65.776675
1059.000000	65.816875
1060.000000	65.842775
1061.000000	65.882200
1062.000000	65.918225
1063.000000	65.962500
1064.000000	65.987975
1065.000000	66.021925
1066.000000	66.046625
1067.000000	66.083125
1068.000000	66.131225
1069.000000	66.158350
1070.000000	66.198625
1071.000000	66.226000
1072.000000	66.277175
1073.000000	66.293900
1074.000000	66.320050
1075.000000	66.349700
1076.000000	66.399325
1077.000000	66.422525
1078.000000	66.454450
1079.000000	66.481700
1080.000000	66.521325
1081.000000	66.565975
1082.000000	66.584350
1083.000000	66.604425
1084.000000	66.639400
1085.000000	66.693675
1086.000000	66.706850
1087.000000	66.743200
1088.000000	66.786200
1089.000000	66.822125
1090.000000	66.859025
1091.000000	66.887650
1092.000000	66.923850
1093.000000	66.964100
1094.000000	67.000100
1095.000000	67.018200
1096.000000	67.050675
1097.000000	67.071575
1098.000000	67.103625
1099.000000	67.141075
1100.000000	67.158675
1101.000000	67.183650
1102.000000	67.228800
1103.000000	67.254300
1104.000000	67.274475
1105.000000	67.301500
1106.000000	67.318675
1107.000000	67.339700
1108.000000	67.357450
1109.000000	67.378825
1110.000000	67.407375
1111.000000	67.435900
1112.000000	67.462375
1113.000000	67.479725
1114.000000	67.501475
1115.000000	67.521425
1116.000000	67.547150
1117.000000	67.565475
1118.000000	67.569925
1119.000000	67.603475
1120.000000	67.611400
1121.000000	67.626300
1122.000000	67.660875
1123.000000	67.663000
1124.000000	67.645575
1125.000000	67.628450
1126.000000	67.622600
1127.000000	67.601025
1128.000000	67.576375
1129.000000	67.552400
1130.000000	67.519250
1131.000000	67.449700
1132.000000	67.400075
1133.000000	67.356200
1134.000000	67.354075
1135.000000	67.300550
1136.000000	67.192225
1137.000000	67.098550
1138.000000	67.002825
1139.000000	66.935475
1140.000000	66.874100
1141.000000	66.814075
1142.000000	66.755775
1143.000000	66.707625
1144.000000	66.667850
1145.000000	66.644925
1146.000000	66.618050
1147.000000	66.575825
1148.000000	66.531825
1149.000000	66.489100
1150.000000	66.447675
1151.000000	66.402950
1152.000000	66.368275
1153.000000	66.312325
1154.000000	66.252125
1155.000000	66.190975
1156.000000	66.108425
1157.000000	66.028775
1158.000000	65.947550
1159.000000	65.858300
1160.000000	65.761725
1161.000000	65.658700
1162.000000	65.564850
1163.000000	65.469500
1164.000000	65.350150
1165.000000	65.244850
1166.000000	65.150950
1167.000000	65.055875
1168.000000	64.970875
