PE UV       SUBTECH     SPECTRUM    ASCII       PEDS        4.00        
   -1
CICIMAUCR0071-3.Sample.ASC
24/04/18
16:44:28.00
24/04/18
16:44:28.00
Vinicio Soto Monge
C. resplendens
250,000000
1
Lambda 1050
1050L1511233
PerkinElmer UV WinLab 6.3.2.0749 / 2.02.05 Lambda 900 UV/VIS/NIR, Aug  7 2015 09:38:08

0
0
3350/servo 860,8/2
0
0
UV/VIS
1
1
1
DoubleDePol,CommonBeamDepol,RBeamAtt,SBeamAtt,60mm sphere, WB InGaAs Detector
0
0
0
0
Program
Program
3350/servo 860,8/2
3350/0,2 860,8/0,2
3350/0,2 860,8/0,2
0
15.00
 
 
 
0
 
860,8
319,2
860,8
Front
100
on
S:100 R:100
0
0
0
0
 
0
 
 
 
0
 
 
0
0
0
0
0
 
 
 
 
0
0


0
0
#HDR
-1
-1
#GR
nm
%R
1.0
0.0
2500,000000
-1,000000
2251
8
72,832800
4,915400
#DATA
250.000000	6.309000
251.000000	6.280800
252.000000	6.282467
253.000000	6.245867
254.000000	6.233067
255.000000	6.189000
256.000000	6.201733
257.000000	6.199633
258.000000	6.174767
259.000000	6.139467
260.000000	6.132300
261.000000	6.113367
262.000000	6.036833
263.000000	6.050300
264.000000	6.011067
265.000000	5.965567
266.000000	5.934567
267.000000	5.930367
268.000000	5.906500
269.000000	5.875033
270.000000	5.881700
271.000000	5.862567
272.000000	5.800133
273.000000	5.826567
274.000000	5.790333
275.000000	5.800400
276.000000	5.781033
277.000000	5.744733
278.000000	5.717667
279.000000	5.736633
280.000000	5.734933
281.000000	5.699600
282.000000	5.719867
283.000000	5.684000
284.000000	5.684533
285.000000	5.677600
286.000000	5.652967
287.000000	5.663633
288.000000	5.661333
289.000000	5.654967
290.000000	5.661967
291.000000	5.707633
292.000000	5.674567
293.000000	5.683633
294.000000	5.693267
295.000000	5.708800
296.000000	5.681033
297.000000	5.676600
298.000000	5.681167
299.000000	5.650900
300.000000	5.682400
301.000000	5.673067
302.000000	5.698600
303.000000	5.685833
304.000000	5.665000
305.000000	5.672533
306.000000	5.660233
307.000000	5.660767
308.000000	5.655500
309.000000	5.653267
310.000000	5.669733
311.000000	5.651700
312.000000	5.631000
313.000000	5.666867
314.000000	5.640200
315.000000	5.611700
316.000000	5.670767
317.000000	6.063300
318.000000	6.077733
319.000000	6.018433
320.000000	5.893233
321.000000	6.070567
322.000000	5.866500
323.000000	5.938800
324.000000	5.807800
325.000000	5.811300
326.000000	5.893367
327.000000	5.824433
328.000000	5.764033
329.000000	5.813700
330.000000	5.871267
331.000000	5.771333
332.000000	5.716533
333.000000	5.823000
334.000000	5.918667
335.000000	5.905667
336.000000	5.856333
337.000000	5.846167
338.000000	5.809400
339.000000	5.815767
340.000000	5.815033
341.000000	5.860267
342.000000	5.864667
343.000000	5.822600
344.000000	5.822467
345.000000	5.836267
346.000000	5.846067
347.000000	5.856433
348.000000	5.890900
349.000000	5.903367
350.000000	5.864500
351.000000	5.979800
352.000000	5.960067
353.000000	6.037033
354.000000	6.032533
355.000000	6.074133
356.000000	6.092867
357.000000	6.152300
358.000000	6.192000
359.000000	6.228100
360.000000	6.279267
361.000000	6.324133
362.000000	6.367033
363.000000	6.383867
364.000000	6.433533
365.000000	6.440433
366.000000	6.464900
367.000000	6.505233
368.000000	6.577267
369.000000	6.636667
370.000000	6.647733
371.000000	6.697800
372.000000	6.789533
373.000000	6.838100
374.000000	6.815867
375.000000	6.902233
376.000000	7.180667
377.000000	7.241333
378.000000	7.335867
379.000000	7.442967
380.000000	7.556467
381.000000	7.684133
382.000000	7.820767
383.000000	7.954900
384.000000	8.099067
385.000000	8.259167
386.000000	8.414733
387.000000	8.602133
388.000000	8.785233
389.000000	8.976033
390.000000	9.185500
391.000000	9.402600
392.000000	9.630067
393.000000	9.875733
394.000000	10.133000
395.000000	10.398100
396.000000	10.670167
397.000000	10.945833
398.000000	11.234033
399.000000	11.539600
400.000000	11.853000
401.000000	12.172700
402.000000	12.507800
403.000000	12.848367
404.000000	13.187233
405.000000	13.540800
406.000000	13.906600
407.000000	14.270867
408.000000	14.638600
409.000000	15.007300
410.000000	15.387533
411.000000	15.768667
412.000000	16.148867
413.000000	16.531400
414.000000	16.919933
415.000000	17.288833
416.000000	17.657433
417.000000	18.020633
418.000000	18.376100
419.000000	18.718600
420.000000	19.061133
421.000000	19.404733
422.000000	19.747700
423.000000	20.072967
424.000000	20.374300
425.000000	20.671200
426.000000	20.971333
427.000000	21.254667
428.000000	21.518667
429.000000	21.779600
430.000000	22.033167
431.000000	22.281567
432.000000	22.526333
433.000000	22.749600
434.000000	22.972200
435.000000	23.191233
436.000000	23.391933
437.000000	23.596500
438.000000	23.793033
439.000000	23.981267
440.000000	24.173367
441.000000	24.352167
442.000000	24.523933
443.000000	24.686567
444.000000	24.827333
445.000000	24.953200
446.000000	25.073867
447.000000	25.196600
448.000000	25.293233
449.000000	25.385567
450.000000	25.489767
451.000000	25.577200
452.000000	25.656600
453.000000	25.736800
454.000000	25.806000
455.000000	25.873767
456.000000	25.933100
457.000000	25.978933
458.000000	26.032833
459.000000	26.088100
460.000000	26.152067
461.000000	26.211233
462.000000	26.280833
463.000000	26.362100
464.000000	26.439400
465.000000	26.533833
466.000000	26.627267
467.000000	26.742533
468.000000	26.877733
469.000000	27.014633
470.000000	27.174233
471.000000	27.358333
472.000000	27.554033
473.000000	27.770333
474.000000	28.004233
475.000000	28.264500
476.000000	28.528167
477.000000	28.804367
478.000000	29.115533
479.000000	29.446233
480.000000	29.794133
481.000000	30.156533
482.000000	30.541767
483.000000	30.951433
484.000000	31.375733
485.000000	31.820867
486.000000	32.262733
487.000000	32.713467
488.000000	33.185033
489.000000	33.671933
490.000000	34.181800
491.000000	34.694300
492.000000	35.206367
493.000000	35.731433
494.000000	36.274167
495.000000	36.827400
496.000000	37.387100
497.000000	37.968100
498.000000	38.567100
499.000000	39.174133
500.000000	39.794633
501.000000	40.439867
502.000000	41.117633
503.000000	41.805367
504.000000	42.522367
505.000000	43.232267
506.000000	43.981633
507.000000	44.755500
508.000000	45.533400
509.000000	46.324867
510.000000	47.166800
511.000000	48.012700
512.000000	48.891467
513.000000	49.776300
514.000000	50.681200
515.000000	51.566167
516.000000	52.466267
517.000000	53.370733
518.000000	54.287400
519.000000	55.219100
520.000000	56.165067
521.000000	57.109400
522.000000	58.039067
523.000000	58.955233
524.000000	59.865033
525.000000	60.755000
526.000000	61.617000
527.000000	62.446000
528.000000	63.232900
529.000000	63.995633
530.000000	64.737533
531.000000	65.453333
532.000000	66.162433
533.000000	66.853033
534.000000	67.497767
535.000000	68.130600
536.000000	68.743533
537.000000	69.342067
538.000000	69.906933
539.000000	70.451633
540.000000	70.979967
541.000000	71.496800
542.000000	71.967467
543.000000	72.444000
544.000000	72.912533
545.000000	73.323133
546.000000	73.727167
547.000000	74.106800
548.000000	74.476500
549.000000	74.824900
550.000000	75.157267
551.000000	75.490333
552.000000	75.800067
553.000000	76.122000
554.000000	76.426233
555.000000	76.705033
556.000000	76.964900
557.000000	77.220067
558.000000	77.456400
559.000000	77.666267
560.000000	77.759967
561.000000	77.954933
562.000000	78.137567
563.000000	78.299967
564.000000	78.450800
565.000000	78.571867
566.000000	78.692167
567.000000	78.808167
568.000000	78.893033
569.000000	78.946867
570.000000	79.019900
571.000000	79.042567
572.000000	79.070767
573.000000	79.049133
574.000000	79.060333
575.000000	79.026367
576.000000	78.985733
577.000000	78.942767
578.000000	78.925233
579.000000	78.848800
580.000000	78.766867
581.000000	78.660967
582.000000	78.557500
583.000000	78.463800
584.000000	78.339967
585.000000	78.216333
586.000000	78.070700
587.000000	77.926433
588.000000	77.762967
589.000000	77.567267
590.000000	77.331567
591.000000	77.124133
592.000000	76.860067
593.000000	76.600600
594.000000	76.293533
595.000000	76.024467
596.000000	75.693567
597.000000	75.363367
598.000000	74.969533
599.000000	74.615100
600.000000	74.246533
601.000000	73.814767
602.000000	73.391967
603.000000	72.981167
604.000000	72.528000
605.000000	72.074067
606.000000	71.640067
607.000000	71.187400
608.000000	70.715567
609.000000	70.214467
610.000000	69.748533
611.000000	69.236300
612.000000	68.791333
613.000000	68.249467
614.000000	67.750033
615.000000	67.247767
616.000000	66.722900
617.000000	66.227733
618.000000	65.739033
619.000000	65.245233
620.000000	64.765467
621.000000	64.288667
622.000000	63.830633
623.000000	63.389633
624.000000	62.930067
625.000000	62.523967
626.000000	62.133600
627.000000	61.763400
628.000000	61.424967
629.000000	61.092633
630.000000	60.806800
631.000000	60.539900
632.000000	60.354300
633.000000	60.146767
634.000000	60.005300
635.000000	59.878367
636.000000	59.815733
637.000000	59.813700
638.000000	59.834067
639.000000	59.921400
640.000000	60.036800
641.000000	60.216667
642.000000	60.422833
643.000000	60.692800
644.000000	61.010500
645.000000	61.385900
646.000000	61.791767
647.000000	62.235300
648.000000	62.733600
649.000000	63.268333
650.000000	63.833600
651.000000	64.433500
652.000000	65.065267
653.000000	65.688167
654.000000	66.367000
655.000000	67.006067
656.000000	67.649967
657.000000	68.321767
658.000000	68.959033
659.000000	69.581300
660.000000	70.212400
661.000000	70.806767
662.000000	71.381700
663.000000	71.956400
664.000000	72.458367
665.000000	72.994433
666.000000	73.484367
667.000000	73.917533
668.000000	74.355233
669.000000	74.781300
670.000000	75.178500
671.000000	75.544967
672.000000	75.916433
673.000000	76.257333
674.000000	76.578333
675.000000	76.906933
676.000000	77.187800
677.000000	77.451267
678.000000	77.711033
679.000000	77.985500
680.000000	78.238333
681.000000	78.471400
682.000000	78.664100
683.000000	78.891233
684.000000	79.072567
685.000000	79.243433
686.000000	79.440300
687.000000	79.610633
688.000000	79.761233
689.000000	79.969867
690.000000	80.129467
691.000000	80.311067
692.000000	80.495967
693.000000	80.686800
694.000000	80.847500
695.000000	81.047967
696.000000	81.216700
697.000000	81.426167
698.000000	81.576933
699.000000	81.763433
700.000000	81.969533
701.000000	82.157767
702.000000	82.322800
703.000000	82.489800
704.000000	82.642700
705.000000	82.813833
706.000000	83.003033
707.000000	83.152633
708.000000	83.319467
709.000000	83.454567
710.000000	83.573367
711.000000	83.678967
712.000000	83.833433
713.000000	83.975567
714.000000	84.047533
715.000000	84.125867
716.000000	84.265233
717.000000	84.368200
718.000000	84.441400
719.000000	84.563333
720.000000	84.668867
721.000000	84.729400
722.000000	84.811633
723.000000	84.913000
724.000000	84.988000
725.000000	85.085800
726.000000	85.206633
727.000000	85.347400
728.000000	85.445667
729.000000	85.534533
730.000000	85.617767
731.000000	85.730600
732.000000	85.821267
733.000000	85.888867
734.000000	85.951533
735.000000	86.046233
736.000000	86.127667
737.000000	86.159700
738.000000	86.165400
739.000000	86.177600
740.000000	86.209567
741.000000	86.209733
742.000000	86.137667
743.000000	86.066367
744.000000	86.031633
745.000000	85.969033
746.000000	85.886233
747.000000	85.778633
748.000000	85.702333
749.000000	85.624067
750.000000	85.468800
751.000000	85.322200
752.000000	85.172533
753.000000	85.011867
754.000000	84.873033
755.000000	84.753300
756.000000	84.632733
757.000000	84.488700
758.000000	84.389767
759.000000	84.281200
760.000000	84.148667
761.000000	84.023167
762.000000	83.904233
763.000000	83.809900
764.000000	83.683567
765.000000	83.568400
766.000000	83.465467
767.000000	83.323500
768.000000	83.196533
769.000000	83.154600
770.000000	83.068567
771.000000	82.937333
772.000000	82.789567
773.000000	82.632800
774.000000	82.518367
775.000000	82.388533
776.000000	82.273400
777.000000	82.097267
778.000000	81.941433
779.000000	81.841133
780.000000	81.699367
781.000000	81.484667
782.000000	81.293467
783.000000	81.081467
784.000000	80.888000
785.000000	80.739300
786.000000	80.529267
787.000000	80.266600
788.000000	80.077000
789.000000	79.870333
790.000000	79.659000
791.000000	79.402433
792.000000	79.234067
793.000000	79.064933
794.000000	78.832500
795.000000	78.685033
796.000000	78.548867
797.000000	78.403833
798.000000	78.215467
799.000000	78.042533
800.000000	77.868767
801.000000	77.729533
802.000000	77.641567
803.000000	77.488667
804.000000	77.368433
805.000000	77.158767
806.000000	77.037967
807.000000	76.883033
808.000000	76.793167
809.000000	76.705500
810.000000	76.431833
811.000000	76.249800
812.000000	76.124100
813.000000	75.944100
814.000000	75.768400
815.000000	75.590567
816.000000	75.318167
817.000000	75.123033
818.000000	74.962133
819.000000	74.709900
820.000000	74.575600
821.000000	74.250967
822.000000	74.139967
823.000000	74.028433
824.000000	73.775267
825.000000	73.629500
826.000000	73.468400
827.000000	73.366500
828.000000	73.243533
829.000000	73.062733
830.000000	72.832700
831.000000	72.895800
832.000000	72.770867
833.000000	72.641467
834.000000	72.515000
835.000000	72.490900
836.000000	72.415167
837.000000	72.506667
838.000000	72.350067
839.000000	72.267700
840.000000	72.203367
841.000000	72.180467
842.000000	72.145100
843.000000	72.134933
844.000000	72.000900
845.000000	72.075433
846.000000	71.951400
847.000000	71.908267
848.000000	71.734133
849.000000	71.743067
850.000000	71.886633
851.000000	71.754433
852.000000	71.780667
853.000000	71.637767
854.000000	71.539400
855.000000	71.467867
856.000000	71.354400
857.000000	71.466100
858.000000	71.429456
859.000000	70.923556
860.000000	71.129491
861.000000	71.326677
862.000000	71.490950
863.000000	71.595949
864.000000	71.708200
865.000000	71.780967
866.000000	71.838510
867.000000	71.889462
868.000000	71.937231
869.000000	71.980517
870.000000	71.991555
871.000000	71.991388
872.000000	72.030663
873.000000	72.051509
874.000000	72.086478
875.000000	72.079130
876.000000	72.085372
877.000000	72.089092
878.000000	72.104093
879.000000	72.097704
880.000000	72.107588
881.000000	72.116044
882.000000	72.110181
883.000000	72.100778
884.000000	72.100899
885.000000	72.095841
886.000000	72.095238
887.000000	72.104836
888.000000	72.087608
889.000000	72.100825
890.000000	72.074610
891.000000	72.070160
892.000000	72.071633
893.000000	72.056975
894.000000	72.043449
895.000000	72.022777
896.000000	72.004105
897.000000	71.992150
898.000000	71.966627
899.000000	71.950726
900.000000	71.929939
901.000000	71.895541
902.000000	71.872582
903.000000	71.834406
904.000000	71.807068
905.000000	71.761743
906.000000	71.730750
907.000000	71.701072
908.000000	71.670694
909.000000	71.648410
910.000000	71.593724
911.000000	71.538341
912.000000	71.496426
913.000000	71.464516
914.000000	71.414652
915.000000	71.371861
916.000000	71.339117
917.000000	71.274194
918.000000	71.228187
919.000000	71.182386
920.000000	71.161143
921.000000	71.078492
922.000000	71.039707
923.000000	71.006853
924.000000	70.939308
925.000000	70.905214
926.000000	70.872226
927.000000	70.817454
928.000000	70.766820
929.000000	70.723733
930.000000	70.684161
931.000000	70.635738
932.000000	70.605703
933.000000	70.544289
934.000000	70.493830
935.000000	70.451273
936.000000	70.394718
937.000000	70.351890
938.000000	70.287565
939.000000	70.252312
940.000000	70.218207
941.000000	70.193097
942.000000	70.138823
943.000000	70.100283
944.000000	70.076801
945.000000	70.025962
946.000000	69.966029
947.000000	69.945191
948.000000	69.891107
949.000000	69.856177
950.000000	69.825853
951.000000	69.788578
952.000000	69.751983
953.000000	69.707400
954.000000	69.668499
955.000000	69.640229
956.000000	69.603992
957.000000	69.553812
958.000000	69.532728
959.000000	69.486318
960.000000	69.446467
961.000000	69.425374
962.000000	69.405201
963.000000	69.366634
964.000000	69.335985
965.000000	69.312728
966.000000	69.292794
967.000000	69.259119
968.000000	69.246658
969.000000	69.220839
970.000000	69.205997
971.000000	69.187916
972.000000	69.166807
973.000000	69.150194
974.000000	69.141371
975.000000	69.135145
976.000000	69.107002
977.000000	69.097918
978.000000	69.097172
979.000000	69.093688
980.000000	69.071627
981.000000	69.065598
982.000000	69.054677
983.000000	69.050686
984.000000	69.044581
985.000000	69.046625
986.000000	69.048540
987.000000	69.053166
988.000000	69.064400
989.000000	69.071386
990.000000	69.079715
991.000000	69.092190
992.000000	69.098013
993.000000	69.108333
994.000000	69.127532
995.000000	69.148929
996.000000	69.167073
997.000000	69.181292
998.000000	69.204359
999.000000	69.213016
1000.000000	69.240212
1001.000000	69.269736
1002.000000	69.303789
1003.000000	69.321707
1004.000000	69.334425
1005.000000	69.361752
1006.000000	69.395440
1007.000000	69.434619
1008.000000	69.466872
1009.000000	69.499315
1010.000000	69.538402
1011.000000	69.568303
1012.000000	69.597999
1013.000000	69.643103
1014.000000	69.684624
1015.000000	69.718142
1016.000000	69.762698
1017.000000	69.801990
1018.000000	69.844656
1019.000000	69.900221
1020.000000	69.949183
1021.000000	70.000970
1022.000000	70.059864
1023.000000	70.103961
1024.000000	70.146537
1025.000000	70.202117
1026.000000	70.255837
1027.000000	70.306191
1028.000000	70.359117
1029.000000	70.399752
1030.000000	70.449880
1031.000000	70.510350
1032.000000	70.560978
1033.000000	70.613358
1034.000000	70.668319
1035.000000	70.714128
1036.000000	70.762698
1037.000000	70.811624
1038.000000	70.859173
1039.000000	70.915239
1040.000000	70.966555
1041.000000	71.011467
1042.000000	71.057373
1043.000000	71.106791
1044.000000	71.156690
1045.000000	71.210916
1046.000000	71.265297
1047.000000	71.316137
1048.000000	71.360431
1049.000000	71.419270
1050.000000	71.476590
1051.000000	71.528696
1052.000000	71.584454
1053.000000	71.636232
1054.000000	71.699794
1055.000000	71.763075
1056.000000	71.821641
1057.000000	71.882407
1058.000000	71.943932
1059.000000	72.004876
1060.000000	72.070149
1061.000000	72.138540
1062.000000	72.205885
1063.000000	72.268856
1064.000000	72.327369
1065.000000	72.389768
1066.000000	72.461424
1067.000000	72.523609
1068.000000	72.576406
1069.000000	72.633646
1070.000000	72.696074
1071.000000	72.760940
1072.000000	72.814319
1073.000000	72.888088
1074.000000	72.948468
1075.000000	73.002495
1076.000000	73.055260
1077.000000	73.117996
1078.000000	73.173210
1079.000000	73.223925
1080.000000	73.278911
1081.000000	73.327609
1082.000000	73.386261
1083.000000	73.445755
1084.000000	73.495463
1085.000000	73.538392
1086.000000	73.587962
1087.000000	73.632817
1088.000000	73.674828
1089.000000	73.733510
1090.000000	73.775483
1091.000000	73.828390
1092.000000	73.859645
1093.000000	73.904993
1094.000000	73.943767
1095.000000	73.982806
1096.000000	74.012423
1097.000000	74.038666
1098.000000	74.087288
1099.000000	74.118360
1100.000000	74.148625
1101.000000	74.181083
1102.000000	74.216016
1103.000000	74.249407
1104.000000	74.279119
1105.000000	74.310903
1106.000000	74.333628
1107.000000	74.374186
1108.000000	74.395823
1109.000000	74.433364
1110.000000	74.462050
1111.000000	74.481845
1112.000000	74.508895
1113.000000	74.524319
1114.000000	74.546125
1115.000000	74.578954
1116.000000	74.605766
1117.000000	74.628398
1118.000000	74.638467
1119.000000	74.653428
1120.000000	74.671196
1121.000000	74.673536
1122.000000	74.691768
1123.000000	74.674128
1124.000000	74.645236
1125.000000	74.619288
1126.000000	74.583762
1127.000000	74.536763
1128.000000	74.496521
1129.000000	74.438533
1130.000000	74.354049
1131.000000	74.271930
1132.000000	74.160720
1133.000000	74.096616
1134.000000	74.055002
1135.000000	73.935887
1136.000000	73.815471
1137.000000	73.671175
1138.000000	73.549750
1139.000000	73.439422
1140.000000	73.346456
1141.000000	73.257674
1142.000000	73.159465
1143.000000	73.090615
1144.000000	73.020833
1145.000000	72.959760
1146.000000	72.874695
1147.000000	72.802823
1148.000000	72.710047
1149.000000	72.629044
1150.000000	72.547055
1151.000000	72.482230
1152.000000	72.396249
1153.000000	72.301918
1154.000000	72.205797
1155.000000	72.069594
1156.000000	71.946969
1157.000000	71.813941
1158.000000	71.667682
1159.000000	71.527255
1160.000000	71.371441
1161.000000	71.208819
1162.000000	71.040480
1163.000000	70.887010
1164.000000	70.722606
1165.000000	70.583525
1166.000000	70.425968
