PE UV       SUBTECH     SPECTRUM    ASCII       PEDS        4.00        
   -1
CICIMAUCR0020-5.Sample.ASC
24/04/25
10:32:19.00
24/04/25
10:32:19.00
Vinicio Soto Monge
C. resplendens
250,000000
1
Lambda 1050
1050L1511233
PerkinElmer UV WinLab 6.3.2.0749 / 2.02.05 Lambda 900 UV/VIS/NIR, Aug  7 2015 09:38:08

0
0
3350/servo 860,8/2
0
0
UV/VIS
1
1
1
DoubleDePol,CommonBeamDepol,RBeamAtt,SBeamAtt,60mm sphere, WB InGaAs Detector
0
0
0
0
Program
Program
3350/servo 860,8/2
3350/0,2 860,8/0,2
3350/0,2 860,8/0,2
0
15.00
 
 
 
0
 
860,8
319,2
860,8
Front
100
on
S:100 R:100
0
0
0
0
 
0
 
 
 
0
 
 
0
0
0
0
0
 
 
 
 
0
0


0
0
#HDR
-1
-1
#GR
nm
%R
1.0
0.0
2500,000000
-1,000000
2251
8
88,766800
5,704900
#DATA
250.000000	4.646208
251.000000	4.626321
252.000000	4.626746
253.000000	4.622792
254.000000	4.597605
255.000000	4.590329
256.000000	4.579502
257.000000	4.590706
258.000000	4.576165
259.000000	4.557945
260.000000	4.526392
261.000000	4.510090
262.000000	4.494700
263.000000	4.492294
264.000000	4.476801
265.000000	4.441205
266.000000	4.437595
267.000000	4.427528
268.000000	4.417987
269.000000	4.397885
270.000000	4.422681
271.000000	4.398583
272.000000	4.387261
273.000000	4.359954
274.000000	4.357233
275.000000	4.383089
276.000000	4.383806
277.000000	4.381940
278.000000	4.357322
279.000000	4.361245
280.000000	4.359372
281.000000	4.353607
282.000000	4.352809
283.000000	4.360223
284.000000	4.356176
285.000000	4.368376
286.000000	4.354338
287.000000	4.355818
288.000000	4.356530
289.000000	4.351434
290.000000	4.365398
291.000000	4.370866
292.000000	4.341177
293.000000	4.356824
294.000000	4.357065
295.000000	4.343810
296.000000	4.352478
297.000000	4.328787
298.000000	4.331931
299.000000	4.347913
300.000000	4.329610
301.000000	4.352827
302.000000	4.339362
303.000000	4.355911
304.000000	4.337379
305.000000	4.327054
306.000000	4.327857
307.000000	4.336886
308.000000	4.329535
309.000000	4.329294
310.000000	4.345446
311.000000	4.336685
312.000000	4.342119
313.000000	4.348986
314.000000	4.298202
315.000000	4.320836
316.000000	4.356230
317.000000	4.767812
318.000000	4.588833
319.000000	4.502381
320.000000	4.539034
321.000000	4.688851
322.000000	4.573553
323.000000	4.475253
324.000000	4.540095
325.000000	4.492670
326.000000	4.504322
327.000000	4.431771
328.000000	4.403368
329.000000	4.368139
330.000000	4.442060
331.000000	4.532659
332.000000	4.450364
333.000000	4.557276
334.000000	4.459043
335.000000	4.510564
336.000000	4.469514
337.000000	4.458132
338.000000	4.428357
339.000000	4.497482
340.000000	4.473714
341.000000	4.499856
342.000000	4.520962
343.000000	4.531680
344.000000	4.551270
345.000000	4.607029
346.000000	4.634145
347.000000	4.601965
348.000000	4.619767
349.000000	4.601708
350.000000	4.653639
351.000000	4.689138
352.000000	4.702019
353.000000	4.709170
354.000000	4.717930
355.000000	4.773805
356.000000	4.797292
357.000000	4.825432
358.000000	4.844259
359.000000	4.878573
360.000000	4.934599
361.000000	4.951515
362.000000	4.921931
363.000000	4.961513
364.000000	5.021025
365.000000	5.057496
366.000000	5.081977
367.000000	5.153926
368.000000	5.155782
369.000000	5.201449
370.000000	5.199107
371.000000	5.217701
372.000000	5.278289
373.000000	5.286257
374.000000	5.312087
375.000000	5.370911
376.000000	5.587552
377.000000	5.620666
378.000000	5.679775
379.000000	5.744485
380.000000	5.815418
381.000000	5.891835
382.000000	5.976716
383.000000	6.069161
384.000000	6.158981
385.000000	6.260183
386.000000	6.357209
387.000000	6.457645
388.000000	6.563195
389.000000	6.684845
390.000000	6.809439
391.000000	6.935425
392.000000	7.073537
393.000000	7.217498
394.000000	7.367672
395.000000	7.515837
396.000000	7.673106
397.000000	7.841954
398.000000	8.019296
399.000000	8.192066
400.000000	8.376580
401.000000	8.576468
402.000000	8.778964
403.000000	8.982254
404.000000	9.192696
405.000000	9.416934
406.000000	9.648311
407.000000	9.886685
408.000000	10.122335
409.000000	10.361874
410.000000	10.609404
411.000000	10.863957
412.000000	11.127666
413.000000	11.382511
414.000000	11.643484
415.000000	11.918324
416.000000	12.188301
417.000000	12.447122
418.000000	12.709649
419.000000	12.974744
420.000000	13.233324
421.000000	13.480593
422.000000	13.738349
423.000000	13.992807
424.000000	14.231514
425.000000	14.470442
426.000000	14.705044
427.000000	14.927075
428.000000	15.147693
429.000000	15.361317
430.000000	15.554553
431.000000	15.751019
432.000000	15.947779
433.000000	16.126321
434.000000	16.302584
435.000000	16.471126
436.000000	16.626940
437.000000	16.770652
438.000000	16.915335
439.000000	17.054893
440.000000	17.187898
441.000000	17.306577
442.000000	17.419547
443.000000	17.527294
444.000000	17.630116
445.000000	17.705478
446.000000	17.760165
447.000000	17.814192
448.000000	17.860455
449.000000	17.904630
450.000000	17.943602
451.000000	17.973903
452.000000	18.000296
453.000000	18.012649
454.000000	18.011954
455.000000	18.018804
456.000000	18.024768
457.000000	18.021973
458.000000	18.008947
459.000000	17.997561
460.000000	17.981997
461.000000	17.962827
462.000000	17.939962
463.000000	17.913283
464.000000	17.887646
465.000000	17.860745
466.000000	17.837107
467.000000	17.812231
468.000000	17.795943
469.000000	17.787957
470.000000	17.778317
471.000000	17.782985
472.000000	17.803642
473.000000	17.837897
474.000000	17.893691
475.000000	17.960624
476.000000	18.045691
477.000000	18.159567
478.000000	18.294174
479.000000	18.444849
480.000000	18.638870
481.000000	18.881116
482.000000	19.151425
483.000000	19.440930
484.000000	19.743160
485.000000	20.061652
486.000000	20.414782
487.000000	20.796649
488.000000	21.210558
489.000000	21.649261
490.000000	22.111876
491.000000	22.604949
492.000000	23.114732
493.000000	23.640394
494.000000	24.183305
495.000000	24.738879
496.000000	25.291915
497.000000	25.847328
498.000000	26.403062
499.000000	26.967690
500.000000	27.530389
501.000000	28.089003
502.000000	28.656361
503.000000	29.226118
504.000000	29.781563
505.000000	30.337798
506.000000	30.879753
507.000000	31.416136
508.000000	31.952665
509.000000	32.491829
510.000000	33.030442
511.000000	33.563682
512.000000	34.098060
513.000000	34.630402
514.000000	35.160160
515.000000	35.683930
516.000000	36.205690
517.000000	36.717404
518.000000	37.226830
519.000000	37.743685
520.000000	38.249830
521.000000	38.763195
522.000000	39.267874
523.000000	39.765654
524.000000	40.291399
525.000000	40.797839
526.000000	41.303720
527.000000	41.821462
528.000000	42.341822
529.000000	42.874189
530.000000	43.423957
531.000000	43.990925
532.000000	44.562739
533.000000	45.137720
534.000000	45.733390
535.000000	46.324506
536.000000	46.921644
537.000000	47.518915
538.000000	48.104836
539.000000	48.702219
540.000000	49.283993
541.000000	49.844857
542.000000	50.400386
543.000000	50.931131
544.000000	51.463589
545.000000	51.968357
546.000000	52.466621
547.000000	52.921796
548.000000	53.348644
549.000000	53.751558
550.000000	54.116737
551.000000	54.483632
552.000000	54.829345
553.000000	55.137029
554.000000	55.427641
555.000000	55.700003
556.000000	55.949043
557.000000	56.182038
558.000000	56.397040
559.000000	56.582219
560.000000	56.665277
561.000000	56.838326
562.000000	57.004580
563.000000	57.157623
564.000000	57.264394
565.000000	57.369676
566.000000	57.472018
567.000000	57.544265
568.000000	57.623372
569.000000	57.679857
570.000000	57.743022
571.000000	57.779617
572.000000	57.809986
573.000000	57.837540
574.000000	57.865027
575.000000	57.909622
576.000000	57.923265
577.000000	57.939430
578.000000	57.927151
579.000000	57.918386
580.000000	57.926277
581.000000	57.906731
582.000000	57.904522
583.000000	57.886128
584.000000	57.831155
585.000000	57.799885
586.000000	57.728421
587.000000	57.675984
588.000000	57.576135
589.000000	57.488801
590.000000	57.368622
591.000000	57.267783
592.000000	57.096872
593.000000	56.944977
594.000000	56.771496
595.000000	56.577970
596.000000	56.400658
597.000000	56.177522
598.000000	55.948834
599.000000	55.698057
600.000000	55.436233
601.000000	55.169408
602.000000	54.871545
603.000000	54.578842
604.000000	54.270129
605.000000	53.972009
606.000000	53.640663
607.000000	53.312866
608.000000	52.999599
609.000000	52.668340
610.000000	52.357143
611.000000	52.020681
612.000000	51.683312
613.000000	51.356665
614.000000	51.032990
615.000000	50.710706
616.000000	50.383170
617.000000	50.062741
618.000000	49.751307
619.000000	49.422064
620.000000	49.089796
621.000000	48.741741
622.000000	48.391345
623.000000	48.050252
624.000000	47.697280
625.000000	47.344945
626.000000	46.968470
627.000000	46.603773
628.000000	46.239446
629.000000	45.846444
630.000000	45.467641
631.000000	45.081479
632.000000	44.705486
633.000000	44.321268
634.000000	43.967081
635.000000	43.634024
636.000000	43.324017
637.000000	43.010091
638.000000	42.765679
639.000000	42.495553
640.000000	42.303404
641.000000	42.114764
642.000000	41.968383
643.000000	41.856852
644.000000	41.797363
645.000000	41.773365
646.000000	41.749242
647.000000	41.827128
648.000000	41.912635
649.000000	42.044858
650.000000	42.217769
651.000000	42.415090
652.000000	42.642433
653.000000	42.910422
654.000000	43.197148
655.000000	43.506279
656.000000	43.823342
657.000000	44.175528
658.000000	44.543661
659.000000	44.926793
660.000000	45.330768
661.000000	45.733160
662.000000	46.125685
663.000000	46.564765
664.000000	47.008146
665.000000	47.437415
666.000000	47.863836
667.000000	48.309154
668.000000	48.726280
669.000000	49.149004
670.000000	49.555505
671.000000	49.974082
672.000000	50.392439
673.000000	50.799443
674.000000	51.176313
675.000000	51.531855
676.000000	51.898542
677.000000	52.219234
678.000000	52.558815
679.000000	52.886786
680.000000	53.189871
681.000000	53.466388
682.000000	53.739319
683.000000	54.000589
684.000000	54.261753
685.000000	54.478584
686.000000	54.702910
687.000000	54.899626
688.000000	55.059538
689.000000	55.246931
690.000000	55.436538
691.000000	55.590322
692.000000	55.751768
693.000000	55.909563
694.000000	56.042570
695.000000	56.151164
696.000000	56.266683
697.000000	56.369049
698.000000	56.467421
699.000000	56.529180
700.000000	56.615453
701.000000	56.707061
702.000000	56.754363
703.000000	56.797120
704.000000	56.865078
705.000000	56.921525
706.000000	56.962668
707.000000	56.999389
708.000000	57.027853
709.000000	57.056759
710.000000	57.110061
711.000000	57.121791
712.000000	57.143525
713.000000	57.146783
714.000000	57.152151
715.000000	57.160925
716.000000	57.176913
717.000000	57.200202
718.000000	57.214741
719.000000	57.215815
720.000000	57.241990
721.000000	57.253676
722.000000	57.284061
723.000000	57.319812
724.000000	57.330882
725.000000	57.365498
726.000000	57.380063
727.000000	57.435095
728.000000	57.514433
729.000000	57.560221
730.000000	57.630306
731.000000	57.682377
732.000000	57.744236
733.000000	57.837841
734.000000	57.934853
735.000000	58.016130
736.000000	58.114985
737.000000	58.201070
738.000000	58.292332
739.000000	58.392504
740.000000	58.507074
741.000000	58.639715
742.000000	58.759318
743.000000	58.901469
744.000000	58.998931
745.000000	59.100909
746.000000	59.242583
747.000000	59.377085
748.000000	59.493843
749.000000	59.598634
750.000000	59.714317
751.000000	59.849016
752.000000	59.968316
753.000000	60.086036
754.000000	60.215449
755.000000	60.341107
756.000000	60.455441
757.000000	60.569961
758.000000	60.696282
759.000000	60.792973
760.000000	60.878864
761.000000	60.947468
762.000000	61.050167
763.000000	61.164311
764.000000	61.230966
765.000000	61.304005
766.000000	61.382101
767.000000	61.423616
768.000000	61.474700
769.000000	61.563786
770.000000	61.669783
771.000000	61.727600
772.000000	61.769841
773.000000	61.826738
774.000000	61.864320
775.000000	61.876967
776.000000	61.903939
777.000000	61.910508
778.000000	61.941325
779.000000	61.972277
780.000000	62.000526
781.000000	62.000637
782.000000	61.984143
783.000000	61.978570
784.000000	62.000340
785.000000	61.994256
786.000000	61.981432
787.000000	61.950662
788.000000	61.924769
789.000000	61.916491
790.000000	61.899989
791.000000	61.866001
792.000000	61.766963
793.000000	61.741311
794.000000	61.720127
795.000000	61.696741
796.000000	61.640852
797.000000	61.565230
798.000000	61.505875
799.000000	61.465013
800.000000	61.337618
801.000000	61.269485
802.000000	61.203496
803.000000	61.121901
804.000000	61.053639
805.000000	60.977606
806.000000	60.897826
807.000000	60.776232
808.000000	60.702626
809.000000	60.648690
810.000000	60.485041
811.000000	60.405282
812.000000	60.308617
813.000000	60.267305
814.000000	60.123898
815.000000	60.083840
816.000000	59.990783
817.000000	59.815870
818.000000	59.816045
819.000000	59.754156
820.000000	59.669267
821.000000	59.536135
822.000000	59.470683
823.000000	59.424877
824.000000	59.302737
825.000000	59.243982
826.000000	59.195580
827.000000	59.130807
828.000000	59.045325
829.000000	59.006502
830.000000	58.945528
831.000000	58.836653
832.000000	58.790129
833.000000	58.758171
834.000000	58.701155
835.000000	58.637064
836.000000	58.497092
837.000000	58.436533
838.000000	58.324367
839.000000	58.388366
840.000000	58.281007
841.000000	58.211146
842.000000	58.245672
843.000000	58.180689
844.000000	58.017485
845.000000	57.957712
846.000000	58.032699
847.000000	57.882416
848.000000	57.924420
849.000000	57.757482
850.000000	57.692823
851.000000	57.709075
852.000000	57.509070
853.000000	57.268567
854.000000	57.104958
855.000000	57.083444
856.000000	56.817491
857.000000	56.968416
858.000000	57.905120
859.000000	56.781400
860.000000	56.718520
861.000000	56.694080
862.000000	56.663780
863.000000	56.637000
864.000000	56.555220
865.000000	56.497920
866.000000	56.418220
867.000000	56.399080
868.000000	56.444140
869.000000	56.564740
870.000000	56.686640
871.000000	56.786080
872.000000	56.883280
873.000000	56.903560
874.000000	56.972520
875.000000	57.013200
876.000000	57.050820
877.000000	57.077840
878.000000	57.111220
879.000000	57.125160
880.000000	57.145880
881.000000	57.143620
882.000000	57.147120
883.000000	57.193920
884.000000	57.206540
885.000000	57.197860
886.000000	57.224720
887.000000	57.241300
888.000000	57.217520
889.000000	57.211900
890.000000	57.224680
891.000000	57.222760
892.000000	57.234140
893.000000	57.252540
894.000000	57.253980
895.000000	57.271820
896.000000	57.268020
897.000000	57.253260
898.000000	57.257780
899.000000	57.241080
900.000000	57.235840
901.000000	57.227960
902.000000	57.227460
903.000000	57.224260
904.000000	57.221740
905.000000	57.222840
906.000000	57.219460
907.000000	57.189680
908.000000	57.206680
909.000000	57.202000
910.000000	57.199020
911.000000	57.184840
912.000000	57.184700
913.000000	57.192860
914.000000	57.189640
915.000000	57.187600
916.000000	57.185660
917.000000	57.186900
918.000000	57.165740
919.000000	57.155960
920.000000	57.145240
921.000000	57.121720
922.000000	57.094520
923.000000	57.086700
924.000000	57.072780
925.000000	57.052020
926.000000	57.027260
927.000000	56.997020
928.000000	56.963600
929.000000	56.937840
930.000000	56.915080
931.000000	56.881280
932.000000	56.838300
933.000000	56.786100
934.000000	56.739360
935.000000	56.665480
936.000000	56.614580
937.000000	56.546900
938.000000	56.488860
939.000000	56.446500
940.000000	56.415380
941.000000	56.358240
942.000000	56.312340
943.000000	56.262220
944.000000	56.198480
945.000000	56.149700
946.000000	56.103100
947.000000	56.050740
948.000000	56.018820
949.000000	55.963780
950.000000	55.915240
951.000000	55.869860
952.000000	55.824340
953.000000	55.776800
954.000000	55.723660
955.000000	55.684320
956.000000	55.652260
957.000000	55.623920
958.000000	55.597680
959.000000	55.558140
960.000000	55.528500
961.000000	55.508440
962.000000	55.486520
963.000000	55.464040
964.000000	55.434220
965.000000	55.412260
966.000000	55.398880
967.000000	55.391320
968.000000	55.386560
969.000000	55.355120
970.000000	55.354120
971.000000	55.341260
972.000000	55.325160
973.000000	55.313840
974.000000	55.309260
975.000000	55.300240
976.000000	55.283740
977.000000	55.270380
978.000000	55.254040
979.000000	55.248520
980.000000	55.248460
981.000000	55.228880
982.000000	55.204960
983.000000	55.193280
984.000000	55.189320
985.000000	55.171560
986.000000	55.161820
987.000000	55.159760
988.000000	55.151560
989.000000	55.138920
990.000000	55.125760
991.000000	55.114100
992.000000	55.103320
993.000000	55.099540
994.000000	55.094460
995.000000	55.101460
996.000000	55.101860
997.000000	55.093840
998.000000	55.095740
999.000000	55.097280
1000.000000	55.092600
1001.000000	55.089020
1002.000000	55.087040
1003.000000	55.088480
1004.000000	55.089820
1005.000000	55.083800
1006.000000	55.080640
1007.000000	55.082700
1008.000000	55.084080
1009.000000	55.079240
1010.000000	55.068000
1011.000000	55.048940
1012.000000	55.041880
1013.000000	55.042940
1014.000000	55.034760
1015.000000	55.030620
1016.000000	55.035860
1017.000000	55.030700
1018.000000	55.021640
1019.000000	55.018180
1020.000000	55.018100
1021.000000	55.017960
1022.000000	55.019340
1023.000000	55.013020
1024.000000	55.007020
1025.000000	55.009620
1026.000000	55.013780
1027.000000	55.011820
1028.000000	55.010280
1029.000000	55.009720
1030.000000	55.007900
1031.000000	55.011060
1032.000000	55.006380
1033.000000	54.999680
1034.000000	54.991640
1035.000000	54.985640
1036.000000	54.991680
1037.000000	54.993480
1038.000000	54.992640
1039.000000	55.001080
1040.000000	55.009260
1041.000000	55.012860
1042.000000	55.019180
1043.000000	55.025020
1044.000000	55.036660
1045.000000	55.049320
1046.000000	55.063780
1047.000000	55.088800
1048.000000	55.116020
1049.000000	55.141320
1050.000000	55.166280
1051.000000	55.201620
1052.000000	55.239300
1053.000000	55.268480
1054.000000	55.303260
1055.000000	55.346240
1056.000000	55.391180
1057.000000	55.437740
1058.000000	55.484940
1059.000000	55.536020
1060.000000	55.579900
1061.000000	55.614100
1062.000000	55.647680
1063.000000	55.692880
1064.000000	55.736640
1065.000000	55.780900
1066.000000	55.821640
1067.000000	55.871420
1068.000000	55.916580
1069.000000	55.956940
1070.000000	55.995400
1071.000000	56.031880
1072.000000	56.069240
1073.000000	56.098100
1074.000000	56.124860
1075.000000	56.152820
1076.000000	56.179860
1077.000000	56.211400
1078.000000	56.234140
1079.000000	56.253540
1080.000000	56.278400
1081.000000	56.299500
1082.000000	56.320640
1083.000000	56.338140
1084.000000	56.351920
1085.000000	56.360040
1086.000000	56.378520
1087.000000	56.402320
1088.000000	56.424740
1089.000000	56.442020
1090.000000	56.466220
1091.000000	56.473160
1092.000000	56.486380
1093.000000	56.507500
1094.000000	56.522520
1095.000000	56.524800
1096.000000	56.529940
1097.000000	56.543460
1098.000000	56.562480
1099.000000	56.572740
1100.000000	56.580140
1101.000000	56.581300
1102.000000	56.597000
1103.000000	56.612280
1104.000000	56.626460
1105.000000	56.633720
1106.000000	56.637160
1107.000000	56.643680
1108.000000	56.656500
1109.000000	56.681860
1110.000000	56.682560
1111.000000	56.689740
1112.000000	56.689440
1113.000000	56.710760
1114.000000	56.731100
1115.000000	56.748280
1116.000000	56.763800
1117.000000	56.775400
1118.000000	56.783660
1119.000000	56.788660
1120.000000	56.800020
1121.000000	56.796060
1122.000000	56.782180
1123.000000	56.756340
1124.000000	56.736300
1125.000000	56.708380
1126.000000	56.681260
1127.000000	56.631140
1128.000000	56.586060
1129.000000	56.533580
1130.000000	56.447380
1131.000000	56.355380
1132.000000	56.262760
1133.000000	56.175680
1134.000000	56.076680
1135.000000	55.917260
1136.000000	55.723200
1137.000000	55.559260
1138.000000	55.397300
1139.000000	55.249460
1140.000000	55.112940
1141.000000	54.965900
1142.000000	54.815480
1143.000000	54.690000
1144.000000	54.563100
1145.000000	54.450920
1146.000000	54.374080
1147.000000	54.298900
1148.000000	54.235880
1149.000000	54.219780
1150.000000	54.205760
1151.000000	54.198740
1152.000000	54.179940
1153.000000	54.160880
1154.000000	54.109640
1155.000000	54.049580
1156.000000	53.968600
1157.000000	53.849840
1158.000000	53.729560
1159.000000	53.591940
1160.000000	53.447240
1161.000000	53.277780
1162.000000	53.107960
1163.000000	52.925960
1164.000000	52.750240
1165.000000	52.566160
1166.000000	52.384040
1167.000000	52.208160
