PE UV       SUBTECH     SPECTRUM    ASCII       PEDS        4.00        
   -1
CICIMAUCR0018-7.Sample.ASC
24/04/25
15:44:01.00
24/04/25
15:44:01.00
Vinicio Soto Monge
C. cupreomarginata
250,000000
1
Lambda 1050
1050L1511233
PerkinElmer UV WinLab 6.3.2.0749 / 2.02.05 Lambda 900 UV/VIS/NIR, Aug  7 2015 09:38:08

0
0
3350/servo 860,8/2
0
0
UV/VIS
1
1
1
DoubleDePol,CommonBeamDepol,RBeamAtt,SBeamAtt,60mm sphere, WB InGaAs Detector
0
0
0
0
Program
Program
3350/servo 860,8/2
3350/0,2 860,8/0,2
3350/0,2 860,8/0,2
0
15.00
 
 
 
0
 
860,8
319,2
860,8
Front
100
on
S:100 R:100
0
0
0
0
 
0
 
 
 
0
 
 
0
0
0
0
0
 
 
 
 
0
0


0
0
#HDR
-1
-1
#GR
nm
%R
1.0
0.0
2500,000000
-1,000000
2251
8
71,516000
5,467700
#DATA
250.000000	5.592312
251.000000	5.580528
252.000000	5.549612
253.000000	5.548089
254.000000	5.492007
255.000000	5.488256
256.000000	5.483776
257.000000	5.482482
258.000000	5.465937
259.000000	5.412885
260.000000	5.402199
261.000000	5.403378
262.000000	5.381951
263.000000	5.318774
264.000000	5.280883
265.000000	5.275222
266.000000	5.255883
267.000000	5.219791
268.000000	5.197925
269.000000	5.169430
270.000000	5.178077
271.000000	5.150755
272.000000	5.102299
273.000000	5.106346
274.000000	5.119497
275.000000	5.062338
276.000000	5.085761
277.000000	5.069194
278.000000	5.059769
279.000000	5.058380
280.000000	5.040570
281.000000	5.012506
282.000000	5.005319
283.000000	5.002814
284.000000	5.013747
285.000000	5.013058
286.000000	4.990415
287.000000	4.982533
288.000000	5.001246
289.000000	4.985873
290.000000	4.964721
291.000000	4.996990
292.000000	4.958355
293.000000	4.933627
294.000000	4.937765
295.000000	4.973314
296.000000	4.952182
297.000000	4.931918
298.000000	4.928687
299.000000	4.929329
300.000000	4.932086
301.000000	4.905596
302.000000	4.898146
303.000000	4.925078
304.000000	4.915466
305.000000	4.932200
306.000000	4.903580
307.000000	4.894673
308.000000	4.902230
309.000000	4.892703
310.000000	4.880386
311.000000	4.881818
312.000000	4.870742
313.000000	4.877050
314.000000	4.845108
315.000000	4.875385
316.000000	4.946642
317.000000	5.787119
318.000000	5.429919
319.000000	5.560460
320.000000	5.637517
321.000000	5.384525
322.000000	5.335972
323.000000	5.429311
324.000000	5.451524
325.000000	5.216905
326.000000	5.211822
327.000000	5.123537
328.000000	5.021286
329.000000	5.076889
330.000000	5.053296
331.000000	4.931260
332.000000	5.052026
333.000000	4.980544
334.000000	5.035999
335.000000	4.980395
336.000000	4.983685
337.000000	4.968723
338.000000	4.953146
339.000000	4.926978
340.000000	4.961217
341.000000	4.928760
342.000000	5.043145
343.000000	4.930224
344.000000	4.965622
345.000000	5.003152
346.000000	4.921407
347.000000	4.908044
348.000000	5.003833
349.000000	4.903188
350.000000	4.925928
351.000000	4.955848
352.000000	4.993309
353.000000	4.950549
354.000000	4.950141
355.000000	4.942830
356.000000	4.961628
357.000000	4.984968
358.000000	4.979401
359.000000	5.015629
360.000000	4.971688
361.000000	4.989523
362.000000	4.979255
363.000000	4.939534
364.000000	4.998753
365.000000	4.956696
366.000000	4.928294
367.000000	5.050273
368.000000	5.065886
369.000000	5.045323
370.000000	4.972794
371.000000	4.991923
372.000000	5.015601
373.000000	4.940693
374.000000	4.819495
375.000000	5.017466
376.000000	5.368164
377.000000	5.388848
378.000000	5.434824
379.000000	5.484162
380.000000	5.541757
381.000000	5.595979
382.000000	5.660948
383.000000	5.738094
384.000000	5.819570
385.000000	5.908247
386.000000	6.002102
387.000000	6.112040
388.000000	6.221719
389.000000	6.332344
390.000000	6.469559
391.000000	6.598498
392.000000	6.747455
393.000000	6.903901
394.000000	7.074488
395.000000	7.239530
396.000000	7.413832
397.000000	7.591508
398.000000	7.780595
399.000000	7.978155
400.000000	8.173814
401.000000	8.371762
402.000000	8.578934
403.000000	8.783947
404.000000	9.000320
405.000000	9.211500
406.000000	9.413640
407.000000	9.618522
408.000000	9.815374
409.000000	10.019430
410.000000	10.232482
411.000000	10.423258
412.000000	10.611322
413.000000	10.796167
414.000000	10.978002
415.000000	11.156629
416.000000	11.324323
417.000000	11.484506
418.000000	11.640982
419.000000	11.795901
420.000000	11.943889
421.000000	12.088276
422.000000	12.231046
423.000000	12.366641
424.000000	12.490475
425.000000	12.612030
426.000000	12.729137
427.000000	12.852593
428.000000	12.970713
429.000000	13.074773
430.000000	13.180081
431.000000	13.281074
432.000000	13.383671
433.000000	13.478428
434.000000	13.560534
435.000000	13.640566
436.000000	13.713614
437.000000	13.781224
438.000000	13.848372
439.000000	13.914794
440.000000	13.965189
441.000000	14.007619
442.000000	14.039922
443.000000	14.049510
444.000000	14.053604
445.000000	14.049863
446.000000	14.035128
447.000000	14.014822
448.000000	13.979063
449.000000	13.945355
450.000000	13.913784
451.000000	13.869169
452.000000	13.831850
453.000000	13.794740
454.000000	13.770307
455.000000	13.753459
456.000000	13.739875
457.000000	13.744505
458.000000	13.755034
459.000000	13.786367
460.000000	13.832845
461.000000	13.897334
462.000000	13.989980
463.000000	14.093351
464.000000	14.216805
465.000000	14.372518
466.000000	14.543875
467.000000	14.731231
468.000000	14.937957
469.000000	15.170813
470.000000	15.430084
471.000000	15.708102
472.000000	16.004383
473.000000	16.311781
474.000000	16.633299
475.000000	16.958577
476.000000	17.286102
477.000000	17.620822
478.000000	17.948482
479.000000	18.266151
480.000000	18.577635
481.000000	18.882030
482.000000	19.175626
483.000000	19.452860
484.000000	19.719686
485.000000	19.954110
486.000000	20.185251
487.000000	20.414562
488.000000	20.634707
489.000000	20.854468
490.000000	21.086081
491.000000	21.322810
492.000000	21.550383
493.000000	21.789064
494.000000	22.044234
495.000000	22.300337
496.000000	22.577132
497.000000	22.867943
498.000000	23.167717
499.000000	23.486027
500.000000	23.816914
501.000000	24.165911
502.000000	24.534783
503.000000	24.919503
504.000000	25.325553
505.000000	25.749429
506.000000	26.181263
507.000000	26.632846
508.000000	27.086566
509.000000	27.577617
510.000000	28.085474
511.000000	28.602647
512.000000	29.146050
513.000000	29.714348
514.000000	30.311035
515.000000	30.896855
516.000000	31.501851
517.000000	32.118239
518.000000	32.748272
519.000000	33.410500
520.000000	34.092366
521.000000	34.803884
522.000000	35.522883
523.000000	36.261163
524.000000	37.021283
525.000000	37.795996
526.000000	38.586118
527.000000	39.399510
528.000000	40.218881
529.000000	41.084769
530.000000	41.971362
531.000000	42.880875
532.000000	43.819772
533.000000	44.771529
534.000000	45.722188
535.000000	46.665885
536.000000	47.604624
537.000000	48.531076
538.000000	49.445630
539.000000	50.354553
540.000000	51.215256
541.000000	52.058949
542.000000	52.870387
543.000000	53.622213
544.000000	54.330001
545.000000	54.994334
546.000000	55.585935
547.000000	56.140528
548.000000	56.623114
549.000000	57.068196
550.000000	57.464413
551.000000	57.825072
552.000000	58.137992
553.000000	58.428770
554.000000	58.692559
555.000000	58.924873
556.000000	59.142246
557.000000	59.364379
558.000000	59.534271
559.000000	59.699528
560.000000	59.898141
561.000000	60.043423
562.000000	60.183976
563.000000	60.308632
564.000000	60.395574
565.000000	60.478244
566.000000	60.523365
567.000000	60.567967
568.000000	60.584653
569.000000	60.598799
570.000000	60.596568
571.000000	60.565193
572.000000	60.532430
573.000000	60.521350
574.000000	60.483404
575.000000	60.427657
576.000000	60.389817
577.000000	60.348935
578.000000	60.311384
579.000000	60.304863
580.000000	60.268574
581.000000	60.237445
582.000000	60.213080
583.000000	60.163673
584.000000	60.132398
585.000000	60.066065
586.000000	60.013027
587.000000	59.951213
588.000000	59.842006
589.000000	59.715187
590.000000	59.570262
591.000000	59.417765
592.000000	59.225262
593.000000	59.024932
594.000000	58.828437
595.000000	58.585828
596.000000	58.377418
597.000000	58.149234
598.000000	57.906316
599.000000	57.678486
600.000000	57.434157
601.000000	57.166904
602.000000	56.906444
603.000000	56.622671
604.000000	56.355970
605.000000	56.041554
606.000000	55.757224
607.000000	55.411847
608.000000	55.070911
609.000000	54.707899
610.000000	54.285698
611.000000	53.832283
612.000000	53.350537
613.000000	52.826201
614.000000	52.276118
615.000000	51.692721
616.000000	51.106470
617.000000	50.473148
618.000000	49.823516
619.000000	49.160789
620.000000	48.510641
621.000000	47.846585
622.000000	47.162382
623.000000	46.520896
624.000000	45.882923
625.000000	45.278679
626.000000	44.688540
627.000000	44.132338
628.000000	43.601718
629.000000	43.107219
630.000000	42.665280
631.000000	42.248235
632.000000	41.903371
633.000000	41.596009
634.000000	41.329564
635.000000	41.147440
636.000000	41.013872
637.000000	40.924882
638.000000	40.905383
639.000000	40.953144
640.000000	41.037845
641.000000	41.192050
642.000000	41.367282
643.000000	41.608453
644.000000	41.886778
645.000000	42.193072
646.000000	42.534476
647.000000	42.893931
648.000000	43.245147
649.000000	43.615837
650.000000	43.989302
651.000000	44.342920
652.000000	44.678791
653.000000	44.984735
654.000000	45.265090
655.000000	45.528786
656.000000	45.763202
657.000000	45.962812
658.000000	46.149796
659.000000	46.304253
660.000000	46.460682
661.000000	46.540796
662.000000	46.642056
663.000000	46.731162
664.000000	46.803057
665.000000	46.853353
666.000000	46.889080
667.000000	46.927085
668.000000	46.978552
669.000000	46.994768
670.000000	46.999382
671.000000	47.013012
672.000000	47.016887
673.000000	47.000574
674.000000	46.993312
675.000000	46.959837
676.000000	46.952878
677.000000	46.906676
678.000000	46.859699
679.000000	46.825654
680.000000	46.802442
681.000000	46.745541
682.000000	46.722248
683.000000	46.696210
684.000000	46.662348
685.000000	46.642966
686.000000	46.678075
687.000000	46.689796
688.000000	46.726762
689.000000	46.776645
690.000000	46.833427
691.000000	46.897689
692.000000	46.953387
693.000000	47.054984
694.000000	47.155009
695.000000	47.270458
696.000000	47.352468
697.000000	47.453335
698.000000	47.554158
699.000000	47.663385
700.000000	47.788234
701.000000	47.886633
702.000000	48.006523
703.000000	48.116495
704.000000	48.218531
705.000000	48.332312
706.000000	48.458721
707.000000	48.586683
708.000000	48.727095
709.000000	48.838726
710.000000	48.943996
711.000000	49.076408
712.000000	49.219496
713.000000	49.336061
714.000000	49.458146
715.000000	49.592524
716.000000	49.726046
717.000000	49.834983
718.000000	49.926989
719.000000	50.054082
720.000000	50.165544
721.000000	50.268670
722.000000	50.386453
723.000000	50.490122
724.000000	50.579594
725.000000	50.678063
726.000000	50.757471
727.000000	50.827354
728.000000	50.887978
729.000000	50.936971
730.000000	51.012839
731.000000	51.085968
732.000000	51.176752
733.000000	51.255749
734.000000	51.320723
735.000000	51.383966
736.000000	51.467020
737.000000	51.554066
738.000000	51.611071
739.000000	51.653427
740.000000	51.725461
741.000000	51.790595
742.000000	51.822766
743.000000	51.862976
744.000000	51.918917
745.000000	51.961195
746.000000	51.990955
747.000000	52.013076
748.000000	52.056719
749.000000	52.104960
750.000000	52.134202
751.000000	52.149788
752.000000	52.177179
753.000000	52.219371
754.000000	52.277132
755.000000	52.336323
756.000000	52.402752
757.000000	52.449983
758.000000	52.499232
759.000000	52.556574
760.000000	52.608607
761.000000	52.685683
762.000000	52.724260
763.000000	52.768873
764.000000	52.844426
765.000000	52.929634
766.000000	52.996458
767.000000	53.052795
768.000000	53.130783
769.000000	53.234490
770.000000	53.299937
771.000000	53.352617
772.000000	53.450604
773.000000	53.555921
774.000000	53.650806
775.000000	53.737637
776.000000	53.814594
777.000000	53.936323
778.000000	54.045789
779.000000	54.132843
780.000000	54.235021
781.000000	54.335878
782.000000	54.441562
783.000000	54.590484
784.000000	54.694914
785.000000	54.780827
786.000000	54.879146
787.000000	54.997540
788.000000	55.096925
789.000000	55.211605
790.000000	55.327641
791.000000	55.427223
792.000000	55.543065
793.000000	55.705598
794.000000	55.800227
795.000000	55.879000
796.000000	55.968251
797.000000	56.097417
798.000000	56.207442
799.000000	56.326102
800.000000	56.463385
801.000000	56.524570
802.000000	56.610226
803.000000	56.732231
804.000000	56.838897
805.000000	56.877191
806.000000	56.992520
807.000000	57.084957
808.000000	57.152225
809.000000	57.221689
810.000000	57.288662
811.000000	57.459741
812.000000	57.509946
813.000000	57.529668
814.000000	57.588019
815.000000	57.616923
816.000000	57.734102
817.000000	57.854679
818.000000	57.834689
819.000000	57.849740
820.000000	57.948173
821.000000	57.940469
822.000000	57.996305
823.000000	58.014159
824.000000	58.084465
825.000000	58.169189
826.000000	58.164319
827.000000	58.180397
828.000000	58.162718
829.000000	58.184122
830.000000	58.249929
831.000000	58.302577
832.000000	58.355348
833.000000	58.383732
834.000000	58.402664
835.000000	58.407141
836.000000	58.365501
837.000000	58.484721
838.000000	58.395063
839.000000	58.496637
840.000000	58.544381
841.000000	58.491751
842.000000	58.485019
843.000000	58.550365
844.000000	58.567935
845.000000	58.597320
846.000000	58.542497
847.000000	58.514991
848.000000	58.379670
849.000000	58.529322
850.000000	58.367982
851.000000	58.294908
852.000000	58.349196
853.000000	58.136351
854.000000	58.101914
855.000000	58.195107
856.000000	58.163660
857.000000	58.414250
858.000000	59.651525
859.000000	58.144475
860.000000	58.091750
861.000000	58.044775
862.000000	58.000950
863.000000	57.940650
864.000000	57.869400
865.000000	57.807975
866.000000	57.829475
867.000000	58.022900
868.000000	58.339750
869.000000	58.704300
870.000000	59.105550
871.000000	59.499625
872.000000	59.875850
873.000000	60.176450
874.000000	60.440075
875.000000	60.717550
876.000000	60.949850
877.000000	61.147625
878.000000	61.338750
879.000000	61.528800
880.000000	61.697650
881.000000	61.829400
882.000000	61.974275
883.000000	62.097200
884.000000	62.200975
885.000000	62.335200
886.000000	62.441725
887.000000	62.526175
888.000000	62.567225
889.000000	62.611200
890.000000	62.648000
891.000000	62.687225
892.000000	62.681550
893.000000	62.703450
894.000000	62.712325
895.000000	62.678075
896.000000	62.640000
897.000000	62.598150
898.000000	62.554850
899.000000	62.498450
900.000000	62.430225
901.000000	62.397650
902.000000	62.344075
903.000000	62.261400
904.000000	62.180125
905.000000	62.094550
906.000000	62.016100
907.000000	61.935200
908.000000	61.878200
909.000000	61.807175
910.000000	61.765075
911.000000	61.688375
912.000000	61.643375
913.000000	61.584200
914.000000	61.530550
915.000000	61.486375
916.000000	61.445450
917.000000	61.403250
918.000000	61.368500
919.000000	61.319150
920.000000	61.267675
921.000000	61.222550
922.000000	61.180750
923.000000	61.099250
924.000000	61.045825
925.000000	60.992625
926.000000	60.940125
927.000000	60.879475
928.000000	60.839050
929.000000	60.758925
930.000000	60.703425
931.000000	60.639775
932.000000	60.561725
933.000000	60.510500
934.000000	60.454825
935.000000	60.398025
936.000000	60.314750
937.000000	60.248750
938.000000	60.197600
939.000000	60.143700
940.000000	60.092025
941.000000	60.041425
942.000000	59.976200
943.000000	59.923700
944.000000	59.862550
945.000000	59.798475
946.000000	59.742600
947.000000	59.671375
948.000000	59.583400
949.000000	59.520575
950.000000	59.440675
951.000000	59.372525
952.000000	59.282475
953.000000	59.191675
954.000000	59.109450
955.000000	59.024925
956.000000	58.931500
957.000000	58.835750
958.000000	58.736200
959.000000	58.641425
960.000000	58.533400
961.000000	58.420675
962.000000	58.328000
963.000000	58.225850
964.000000	58.126100
965.000000	58.024750
966.000000	57.915475
967.000000	57.831100
968.000000	57.742475
969.000000	57.647125
970.000000	57.559925
971.000000	57.462250
972.000000	57.378575
973.000000	57.291875
974.000000	57.201750
975.000000	57.118575
976.000000	57.043825
977.000000	56.964875
978.000000	56.883925
979.000000	56.818825
980.000000	56.739100
981.000000	56.673500
982.000000	56.608600
983.000000	56.537650
984.000000	56.474600
985.000000	56.414125
986.000000	56.350950
987.000000	56.297950
988.000000	56.244525
989.000000	56.189625
990.000000	56.143475
991.000000	56.095625
992.000000	56.053850
993.000000	56.011450
994.000000	55.974825
995.000000	55.935300
996.000000	55.901525
997.000000	55.863275
998.000000	55.831200
999.000000	55.809050
1000.000000	55.780025
1001.000000	55.740650
1002.000000	55.712650
1003.000000	55.685875
1004.000000	55.657475
1005.000000	55.631675
1006.000000	55.598025
1007.000000	55.562800
1008.000000	55.535750
1009.000000	55.500550
1010.000000	55.468475
1011.000000	55.440175
1012.000000	55.412625
1013.000000	55.387600
1014.000000	55.368100
1015.000000	55.355925
1016.000000	55.347250
1017.000000	55.341325
1018.000000	55.343375
1019.000000	55.349675
1020.000000	55.356025
1021.000000	55.370575
1022.000000	55.378250
1023.000000	55.385975
1024.000000	55.392675
1025.000000	55.400400
1026.000000	55.422775
1027.000000	55.434975
1028.000000	55.436050
1029.000000	55.446300
1030.000000	55.453750
1031.000000	55.452325
1032.000000	55.450900
1033.000000	55.451325
1034.000000	55.460125
1035.000000	55.461550
1036.000000	55.456325
1037.000000	55.455375
1038.000000	55.453000
1039.000000	55.446350
1040.000000	55.440250
1041.000000	55.434750
1042.000000	55.430325
1043.000000	55.421000
1044.000000	55.411350
1045.000000	55.416000
1046.000000	55.412950
1047.000000	55.407525
1048.000000	55.409875
1049.000000	55.415300
1050.000000	55.421150
1051.000000	55.419100
1052.000000	55.427500
1053.000000	55.439650
1054.000000	55.457525
1055.000000	55.481325
1056.000000	55.494975
1057.000000	55.513525
1058.000000	55.540750
1059.000000	55.569025
1060.000000	55.592200
1061.000000	55.621000
1062.000000	55.641075
1063.000000	55.670375
1064.000000	55.699050
1065.000000	55.720200
1066.000000	55.745625
1067.000000	55.766450
1068.000000	55.789275
1069.000000	55.823450
1070.000000	55.843725
1071.000000	55.870725
1072.000000	55.901450
1073.000000	55.931950
1074.000000	55.962900
1075.000000	55.988175
1076.000000	56.020200
1077.000000	56.049450
1078.000000	56.080850
1079.000000	56.107325
1080.000000	56.132925
1081.000000	56.164800
1082.000000	56.204650
1083.000000	56.234750
1084.000000	56.262450
1085.000000	56.301350
1086.000000	56.335800
1087.000000	56.368975
1088.000000	56.400650
1089.000000	56.429275
1090.000000	56.455950
1091.000000	56.484975
1092.000000	56.516925
1093.000000	56.538475
1094.000000	56.564625
1095.000000	56.579600
1096.000000	56.598625
1097.000000	56.619300
1098.000000	56.638375
1099.000000	56.659525
1100.000000	56.668300
1101.000000	56.684725
1102.000000	56.696125
1103.000000	56.697625
1104.000000	56.702975
1105.000000	56.712375
1106.000000	56.711025
1107.000000	56.714700
1108.000000	56.710300
1109.000000	56.717025
1110.000000	56.715575
1111.000000	56.715600
1112.000000	56.717900
1113.000000	56.717750
1114.000000	56.716675
1115.000000	56.717425
1116.000000	56.715450
1117.000000	56.717075
1118.000000	56.705625
1119.000000	56.694625
1120.000000	56.665000
1121.000000	56.639700
1122.000000	56.605450
1123.000000	56.558100
1124.000000	56.500725
1125.000000	56.430875
1126.000000	56.354375
1127.000000	56.272100
1128.000000	56.170175
1129.000000	56.052925
1130.000000	55.892800
1131.000000	55.706250
1132.000000	55.499925
1133.000000	55.288825
1134.000000	55.066875
1135.000000	54.808025
1136.000000	54.504375
1137.000000	54.190175
1138.000000	53.869650
1139.000000	53.567225
1140.000000	53.277900
1141.000000	53.002075
1142.000000	52.719150
1143.000000	52.448125
1144.000000	52.198000
1145.000000	51.964825
1146.000000	51.780950
1147.000000	51.657500
1148.000000	51.572225
1149.000000	51.530425
1150.000000	51.514025
1151.000000	51.498900
1152.000000	51.476125
1153.000000	51.448025
1154.000000	51.377025
1155.000000	51.270575
1156.000000	51.108050
1157.000000	50.925075
1158.000000	50.691500
1159.000000	50.427525
1160.000000	50.135950
1161.000000	49.851075
1162.000000	49.526525
1163.000000	49.218225
1164.000000	48.886925
1165.000000	48.552650
1166.000000	48.225975
1167.000000	47.891025
