PE UV       SUBTECH     SPECTRUM    ASCII       PEDS        4.00        
   -1
CICIMAUCR0116-3.Sample.ASC
24/04/11
14:13:42.00
24/04/11
14:13:42.00
Vinicio Soto Monge
C. kalinini
250,000000
1
Lambda 1050
1050L1511233
PerkinElmer UV WinLab 6.3.2.0749 / 2.02.05 Lambda 900 UV/VIS/NIR, Aug  7 2015 09:38:08

0
0
3350/2 860,8/2
0
0
UV/VIS
1
1
1
DoubleDePol,CommonBeamDepol,RBeamAtt,SBeamAtt,60mm sphere, WB InGaAs Detector
0
0
0
0
Program
Program
3350/2 860,8/2
3350/0,2 860,8/0,2
3350/0,2 860,8/0,2
0
15.00
 
 
 
0
 
860,8
319,2
860,8
Front
100
on
S:100 R:100
0
0
0
0
 
0
 
 
 
0
 
 
0
0
0
0
0
 
 
 
 
0
0


0
0
#HDR
-1
-1
#GR
nm
%R
1.0
0.0
2400,000000
-1,000000
2151
8
95,435400
5,183200
#DATA
250.000000	6.077967
251.000000	6.042900
252.000000	6.015433
253.000000	6.005967
254.000000	6.013433
255.000000	5.987967
256.000000	6.003767
257.000000	6.013733
258.000000	5.977900
259.000000	5.972033
260.000000	5.933933
261.000000	5.895667
262.000000	5.886567
263.000000	5.870767
264.000000	5.839267
265.000000	5.829733
266.000000	5.788200
267.000000	5.792033
268.000000	5.772267
269.000000	5.756767
270.000000	5.723533
271.000000	5.706733
272.000000	5.668333
273.000000	5.689900
274.000000	5.676900
275.000000	5.649100
276.000000	5.689467
277.000000	5.633433
278.000000	5.642000
279.000000	5.635267
280.000000	5.625500
281.000000	5.599567
282.000000	5.583367
283.000000	5.561567
284.000000	5.580500
285.000000	5.594533
286.000000	5.561900
287.000000	5.528900
288.000000	5.519067
289.000000	5.533833
290.000000	5.508067
291.000000	5.530633
292.000000	5.530433
293.000000	5.525500
294.000000	5.541000
295.000000	5.516333
296.000000	5.512967
297.000000	5.504933
298.000000	5.480900
299.000000	5.490200
300.000000	5.511767
301.000000	5.494167
302.000000	5.497067
303.000000	5.491667
304.000000	5.472533
305.000000	5.483933
306.000000	5.467667
307.000000	5.506367
308.000000	5.488100
309.000000	5.450333
310.000000	5.436533
311.000000	5.447633
312.000000	5.442133
313.000000	5.448600
314.000000	5.450800
315.000000	5.471367
316.000000	5.593233
317.000000	5.853233
318.000000	5.722600
319.000000	5.832633
320.000000	5.796667
321.000000	5.838267
322.000000	5.705400
323.000000	5.559500
324.000000	6.026467
325.000000	6.078667
326.000000	5.702400
327.000000	5.698733
328.000000	5.649333
329.000000	5.585767
330.000000	5.585200
331.000000	5.663700
332.000000	5.614400
333.000000	5.589000
334.000000	5.562767
335.000000	5.603267
336.000000	5.610700
337.000000	5.589433
338.000000	5.655733
339.000000	5.642967
340.000000	5.606033
341.000000	5.630367
342.000000	5.645867
343.000000	5.680200
344.000000	5.692600
345.000000	5.693133
346.000000	5.704667
347.000000	5.671833
348.000000	5.713200
349.000000	5.712067
350.000000	5.715500
351.000000	5.796433
352.000000	5.825600
353.000000	5.831133
354.000000	5.816833
355.000000	5.807467
356.000000	5.854833
357.000000	5.891400
358.000000	5.928333
359.000000	6.015100
360.000000	6.004333
361.000000	5.990367
362.000000	5.991867
363.000000	6.017900
364.000000	6.041867
365.000000	6.100433
366.000000	6.096100
367.000000	6.070333
368.000000	6.137533
369.000000	6.143067
370.000000	6.118333
371.000000	6.136800
372.000000	6.148800
373.000000	6.122200
374.000000	6.135033
375.000000	6.281633
376.000000	6.349267
377.000000	6.374933
378.000000	6.413533
379.000000	6.446433
380.000000	6.483967
381.000000	6.523200
382.000000	6.569000
383.000000	6.620700
384.000000	6.668267
385.000000	6.718567
386.000000	6.772433
387.000000	6.831367
388.000000	6.889967
389.000000	6.959833
390.000000	7.036633
391.000000	7.108567
392.000000	7.196000
393.000000	7.290667
394.000000	7.377167
395.000000	7.482167
396.000000	7.593433
397.000000	7.708667
398.000000	7.829733
399.000000	7.966000
400.000000	8.100133
401.000000	8.246700
402.000000	8.418467
403.000000	8.593500
404.000000	8.773500
405.000000	8.964567
406.000000	9.163200
407.000000	9.386133
408.000000	9.610500
409.000000	9.851233
410.000000	10.110533
411.000000	10.379167
412.000000	10.655767
413.000000	10.955433
414.000000	11.271300
415.000000	11.599633
416.000000	11.940633
417.000000	12.282467
418.000000	12.639200
419.000000	13.008333
420.000000	13.397067
421.000000	13.797933
422.000000	14.207267
423.000000	14.638600
424.000000	15.063533
425.000000	15.503733
426.000000	15.954300
427.000000	16.411100
428.000000	16.871900
429.000000	17.340700
430.000000	17.817867
431.000000	18.295800
432.000000	18.792367
433.000000	19.284567
434.000000	19.781400
435.000000	20.265667
436.000000	20.751100
437.000000	21.232667
438.000000	21.696633
439.000000	22.156767
440.000000	22.632200
441.000000	23.087233
442.000000	23.537333
443.000000	23.973200
444.000000	24.385967
445.000000	24.790700
446.000000	25.190467
447.000000	25.550200
448.000000	25.916033
449.000000	26.275000
450.000000	26.607067
451.000000	26.921933
452.000000	27.234167
453.000000	27.514767
454.000000	27.791533
455.000000	28.063233
456.000000	28.297433
457.000000	28.544600
458.000000	28.762833
459.000000	28.972733
460.000000	29.177500
461.000000	29.350733
462.000000	29.531967
463.000000	29.707367
464.000000	29.871967
465.000000	30.031267
466.000000	30.177567
467.000000	30.322967
468.000000	30.449333
469.000000	30.585633
470.000000	30.696767
471.000000	30.799633
472.000000	30.915800
473.000000	31.021933
474.000000	31.110033
475.000000	31.216400
476.000000	31.301400
477.000000	31.378333
478.000000	31.470200
479.000000	31.539533
480.000000	31.659667
481.000000	31.759433
482.000000	31.854933
483.000000	31.954667
484.000000	32.025800
485.000000	32.091967
486.000000	32.165700
487.000000	32.236400
488.000000	32.338700
489.000000	32.431433
490.000000	32.534800
491.000000	32.634967
492.000000	32.756400
493.000000	32.903300
494.000000	33.054633
495.000000	33.235333
496.000000	33.437567
497.000000	33.664967
498.000000	33.886633
499.000000	34.165100
500.000000	34.489267
501.000000	34.809567
502.000000	35.168867
503.000000	35.563800
504.000000	35.986467
505.000000	36.427533
506.000000	36.902733
507.000000	37.391800
508.000000	37.905567
509.000000	38.458033
510.000000	39.041433
511.000000	39.643400
512.000000	40.272133
513.000000	40.909467
514.000000	41.574800
515.000000	42.254267
516.000000	42.952100
517.000000	43.655000
518.000000	44.359800
519.000000	45.078167
520.000000	45.782533
521.000000	46.491700
522.000000	47.195433
523.000000	47.879000
524.000000	48.553067
525.000000	49.222900
526.000000	49.879033
527.000000	50.498700
528.000000	51.117667
529.000000	51.720300
530.000000	52.301900
531.000000	52.895200
532.000000	53.466933
533.000000	54.023167
534.000000	54.590600
535.000000	55.118767
536.000000	55.659567
537.000000	56.187600
538.000000	56.698867
539.000000	57.211533
540.000000	57.715933
541.000000	58.230233
542.000000	58.746400
543.000000	59.256533
544.000000	59.740533
545.000000	60.217733
546.000000	60.700000
547.000000	61.171500
548.000000	61.635467
549.000000	62.092933
550.000000	62.537500
551.000000	62.986400
552.000000	63.444100
553.000000	63.836167
554.000000	64.253500
555.000000	64.642100
556.000000	65.014400
557.000000	65.381000
558.000000	65.713200
559.000000	66.033633
560.000000	66.351433
561.000000	66.644033
562.000000	66.929133
563.000000	67.175167
564.000000	67.418367
565.000000	67.636400
566.000000	67.870033
567.000000	68.075600
568.000000	68.277200
569.000000	68.434800
570.000000	68.585067
571.000000	68.728133
572.000000	68.847000
573.000000	68.938467
574.000000	69.059867
575.000000	69.155700
576.000000	69.212600
577.000000	69.278100
578.000000	69.321500
579.000000	69.370600
580.000000	69.386000
581.000000	69.402067
582.000000	69.374267
583.000000	69.332133
584.000000	69.284733
585.000000	69.251800
586.000000	69.176700
587.000000	69.097567
588.000000	68.992033
589.000000	68.907900
590.000000	68.793933
591.000000	68.657067
592.000000	68.484567
593.000000	68.316933
594.000000	68.127300
595.000000	67.941567
596.000000	67.714833
597.000000	67.500433
598.000000	67.289500
599.000000	67.071900
600.000000	66.822133
601.000000	66.550600
602.000000	66.258700
603.000000	65.970900
604.000000	65.662867
605.000000	65.361133
606.000000	65.054400
607.000000	64.753667
608.000000	64.433667
609.000000	64.141467
610.000000	63.843800
611.000000	63.565533
612.000000	63.263767
613.000000	62.989433
614.000000	62.719967
615.000000	62.463867
616.000000	62.216000
617.000000	61.980067
618.000000	61.734400
619.000000	61.507800
620.000000	61.332000
621.000000	61.146967
622.000000	60.985633
623.000000	60.852833
624.000000	60.709233
625.000000	60.578100
626.000000	60.480767
627.000000	60.399933
628.000000	60.341033
629.000000	60.279600
630.000000	60.246433
631.000000	60.211933
632.000000	60.222500
633.000000	60.230100
634.000000	60.268800
635.000000	60.308433
636.000000	60.377300
637.000000	60.474433
638.000000	60.597333
639.000000	60.732333
640.000000	60.863300
641.000000	61.011967
642.000000	61.189667
643.000000	61.362300
644.000000	61.542633
645.000000	61.708700
646.000000	61.875067
647.000000	62.039933
648.000000	62.208533
649.000000	62.366600
650.000000	62.539867
651.000000	62.715467
652.000000	62.861400
653.000000	63.012767
654.000000	63.186500
655.000000	63.360533
656.000000	63.546800
657.000000	63.739500
658.000000	63.949500
659.000000	64.140967
660.000000	64.365433
661.000000	64.560933
662.000000	64.737133
663.000000	64.945000
664.000000	65.143267
665.000000	65.345700
666.000000	65.546133
667.000000	65.711433
668.000000	65.880667
669.000000	66.052567
670.000000	66.256667
671.000000	66.443067
672.000000	66.645067
673.000000	66.862600
674.000000	67.089333
675.000000	67.324733
676.000000	67.551233
677.000000	67.846767
678.000000	68.144033
679.000000	68.435900
680.000000	68.782700
681.000000	69.135567
682.000000	69.468033
683.000000	69.834067
684.000000	70.186067
685.000000	70.573300
686.000000	71.008200
687.000000	71.392967
688.000000	71.783633
689.000000	72.193567
690.000000	72.603500
691.000000	73.009233
692.000000	73.449200
693.000000	73.849467
694.000000	74.256200
695.000000	74.694033
696.000000	75.136267
697.000000	75.583200
698.000000	75.995767
699.000000	76.427833
700.000000	76.895400
701.000000	77.348267
702.000000	77.784500
703.000000	78.219100
704.000000	78.677400
705.000000	79.101733
706.000000	79.499367
707.000000	79.935233
708.000000	80.375733
709.000000	80.746900
710.000000	81.132800
711.000000	81.512600
712.000000	81.880100
713.000000	82.231133
714.000000	82.587800
715.000000	82.931900
716.000000	83.299967
717.000000	83.638933
718.000000	83.960033
719.000000	84.294200
720.000000	84.632867
721.000000	84.958100
722.000000	85.278167
723.000000	85.621000
724.000000	85.916933
725.000000	86.233633
726.000000	86.580667
727.000000	86.874400
728.000000	87.145967
729.000000	87.480867
730.000000	87.731300
731.000000	88.065500
732.000000	88.315200
733.000000	88.618667
734.000000	88.808367
735.000000	89.061367
736.000000	89.315200
737.000000	89.562200
738.000000	89.804733
739.000000	90.024333
740.000000	90.319067
741.000000	90.569933
742.000000	90.784067
743.000000	91.077900
744.000000	91.290433
745.000000	91.518367
746.000000	91.734900
747.000000	91.943800
748.000000	92.168067
749.000000	92.346367
750.000000	92.570567
751.000000	92.797400
752.000000	92.994067
753.000000	93.166533
754.000000	93.423633
755.000000	93.604600
756.000000	93.748167
757.000000	93.953067
758.000000	94.155933
759.000000	94.303767
760.000000	94.560267
761.000000	94.672233
762.000000	94.873300
763.000000	95.009633
764.000000	95.103833
765.000000	95.280233
766.000000	95.395300
767.000000	95.611600
768.000000	95.751600
769.000000	95.910167
770.000000	96.076000
771.000000	96.167700
772.000000	96.323967
773.000000	96.435733
774.000000	96.491233
775.000000	96.656567
776.000000	96.830533
777.000000	96.854600
778.000000	96.994400
779.000000	97.118533
780.000000	97.159567
781.000000	97.237967
782.000000	97.370767
783.000000	97.372633
784.000000	97.464800
785.000000	97.597433
786.000000	97.606467
787.000000	97.625967
788.000000	97.582800
789.000000	97.668767
790.000000	97.726700
791.000000	97.592167
792.000000	97.677633
793.000000	97.648300
794.000000	97.597133
795.000000	97.531833
796.000000	97.474233
797.000000	97.465700
798.000000	97.448667
799.000000	97.426200
800.000000	97.348400
801.000000	97.130033
802.000000	96.984000
803.000000	96.984800
804.000000	96.834733
805.000000	96.706800
806.000000	96.671433
807.000000	96.481400
808.000000	96.258300
809.000000	96.139000
810.000000	95.986967
811.000000	95.784200
812.000000	95.650133
813.000000	95.417500
814.000000	95.070900
815.000000	94.938900
816.000000	94.699800
817.000000	94.490467
818.000000	94.273567
819.000000	94.035867
820.000000	93.666633
821.000000	93.379933
822.000000	93.088333
823.000000	92.751233
824.000000	92.496633
825.000000	92.119600
826.000000	91.920000
827.000000	91.706267
828.000000	91.268000
829.000000	91.105467
830.000000	90.744833
831.000000	90.459133
832.000000	90.190233
833.000000	89.850300
834.000000	89.377200
835.000000	89.178233
836.000000	88.893167
837.000000	88.422633
838.000000	88.101733
839.000000	87.739967
840.000000	87.391300
841.000000	87.076633
842.000000	86.774233
843.000000	86.444533
844.000000	86.170667
845.000000	85.687633
846.000000	85.357500
847.000000	85.181200
848.000000	84.842267
849.000000	84.348767
850.000000	84.144967
851.000000	83.727833
852.000000	83.342233
853.000000	83.109700
854.000000	82.740433
855.000000	82.438667
856.000000	82.175633
857.000000	81.864467
858.000000	82.159589
859.000000	83.272619
860.000000	83.083133
861.000000	83.067094
862.000000	82.758751
863.000000	82.674676
864.000000	82.369825
865.000000	81.950690
866.000000	81.562933
867.000000	81.527500
868.000000	81.420600
869.000000	81.223073
870.000000	81.030881
871.000000	80.643253
872.000000	80.297759
873.000000	80.232453
874.000000	80.173693
875.000000	79.903448
876.000000	79.559618
877.000000	79.170655
878.000000	79.171744
879.000000	78.859501
880.000000	78.493135
881.000000	78.512821
882.000000	78.433013
883.000000	78.190075
884.000000	77.977754
885.000000	77.742351
886.000000	77.506992
887.000000	77.211717
888.000000	76.988109
889.000000	76.940339
890.000000	76.772758
891.000000	76.555247
892.000000	76.283233
893.000000	76.102113
894.000000	75.901698
895.000000	75.656871
896.000000	75.445218
897.000000	75.415283
898.000000	75.149622
899.000000	74.728972
900.000000	74.567198
901.000000	74.362437
902.000000	74.224441
903.000000	74.067606
904.000000	73.807109
905.000000	73.509998
906.000000	73.298576
907.000000	73.173922
908.000000	72.950281
909.000000	72.644889
910.000000	72.463223
911.000000	72.358204
912.000000	72.301331
913.000000	72.131611
914.000000	71.867772
915.000000	71.677840
916.000000	71.532474
917.000000	71.408338
918.000000	71.276379
919.000000	71.110311
920.000000	70.944866
921.000000	70.687913
922.000000	70.510715
923.000000	70.456768
924.000000	70.241984
925.000000	70.055183
926.000000	69.953339
927.000000	69.811046
928.000000	69.661990
929.000000	69.474183
930.000000	69.307676
931.000000	69.228689
932.000000	69.171471
933.000000	69.027095
934.000000	68.908847
935.000000	68.783463
936.000000	68.596139
937.000000	68.428293
938.000000	68.283381
939.000000	68.161022
940.000000	68.017479
941.000000	67.908279
942.000000	67.803942
943.000000	67.682165
944.000000	67.522091
945.000000	67.356634
946.000000	67.248765
947.000000	67.128574
948.000000	66.960822
949.000000	66.865822
950.000000	66.773132
951.000000	66.645981
952.000000	66.520642
953.000000	66.371626
954.000000	66.288444
955.000000	66.162339
956.000000	66.025998
957.000000	65.891138
958.000000	65.767188
959.000000	65.646433
960.000000	65.555317
961.000000	65.416849
962.000000	65.301681
963.000000	65.194607
964.000000	65.066244
965.000000	64.938243
966.000000	64.832234
967.000000	64.702772
968.000000	64.623989
969.000000	64.531688
970.000000	64.408972
971.000000	64.335061
972.000000	64.261068
973.000000	64.160307
974.000000	64.060959
975.000000	63.971974
976.000000	63.869563
977.000000	63.835876
978.000000	63.759739
979.000000	63.685598
980.000000	63.610215
981.000000	63.566370
982.000000	63.475226
983.000000	63.418250
984.000000	63.375431
985.000000	63.312674
986.000000	63.247532
987.000000	63.201896
988.000000	63.155864
989.000000	63.083290
990.000000	63.040887
991.000000	63.030089
992.000000	62.969236
993.000000	62.908123
994.000000	62.850573
995.000000	62.819686
996.000000	62.782154
997.000000	62.770311
998.000000	62.719407
999.000000	62.671823
1000.000000	62.642766
1001.000000	62.614573
1002.000000	62.598718
1003.000000	62.575419
1004.000000	62.548626
1005.000000	62.499283
1006.000000	62.453789
1007.000000	62.443472
1008.000000	62.424239
1009.000000	62.400202
1010.000000	62.387711
1011.000000	62.380775
1012.000000	62.337684
1013.000000	62.350532
1014.000000	62.350584
1015.000000	62.355315
1016.000000	62.370494
1017.000000	62.387157
1018.000000	62.409994
1019.000000	62.440535
1020.000000	62.472867
1021.000000	62.540399
1022.000000	62.578018
1023.000000	62.604425
1024.000000	62.651350
1025.000000	62.716067
1026.000000	62.767998
1027.000000	62.833060
1028.000000	62.868173
1029.000000	62.939956
1030.000000	62.985084
1031.000000	63.050718
1032.000000	63.114399
1033.000000	63.151727
1034.000000	63.213458
1035.000000	63.258805
1036.000000	63.322498
1037.000000	63.372622
1038.000000	63.435527
1039.000000	63.527059
1040.000000	63.556149
1041.000000	63.613449
1042.000000	63.690518
1043.000000	63.759495
1044.000000	63.787004
1045.000000	63.850519
1046.000000	63.908142
1047.000000	64.005806
1048.000000	64.052858
1049.000000	64.113902
1050.000000	64.195268
1051.000000	64.270250
1052.000000	64.322484
1053.000000	64.394088
1054.000000	64.473064
1055.000000	64.525568
1056.000000	64.624621
1057.000000	64.714196
1058.000000	64.807040
1059.000000	64.846608
1060.000000	64.926980
1061.000000	65.004788
1062.000000	65.062067
1063.000000	65.153287
1064.000000	65.202981
1065.000000	65.282818
1066.000000	65.341688
1067.000000	65.454035
1068.000000	65.509530
1069.000000	65.580535
1070.000000	65.639843
1071.000000	65.718252
1072.000000	65.793576
1073.000000	65.856965
1074.000000	65.949293
1075.000000	66.000793
1076.000000	66.079712
1077.000000	66.150496
1078.000000	66.230001
1079.000000	66.292724
1080.000000	66.377313
1081.000000	66.455079
1082.000000	66.494284
1083.000000	66.575825
1084.000000	66.647714
1085.000000	66.727020
1086.000000	66.816135
1087.000000	66.872760
1088.000000	66.953853
1089.000000	67.023183
1090.000000	67.101284
1091.000000	67.174917
1092.000000	67.256892
1093.000000	67.313336
1094.000000	67.379918
1095.000000	67.424677
1096.000000	67.493058
1097.000000	67.555891
1098.000000	67.633124
1099.000000	67.672906
1100.000000	67.736863
1101.000000	67.797649
1102.000000	67.831585
1103.000000	67.899207
1104.000000	67.945184
1105.000000	67.998813
1106.000000	68.040015
1107.000000	68.088443
1108.000000	68.137180
1109.000000	68.187528
1110.000000	68.222341
1111.000000	68.269843
1112.000000	68.320296
1113.000000	68.361970
1114.000000	68.396647
1115.000000	68.439902
1116.000000	68.476403
1117.000000	68.518096
1118.000000	68.553011
1119.000000	68.577449
1120.000000	68.574777
1121.000000	68.579417
1122.000000	68.596212
1123.000000	68.595516
1124.000000	68.556687
1125.000000	68.525134
1126.000000	68.482451
1127.000000	68.418170
1128.000000	68.343162
1129.000000	68.246518
1130.000000	68.104250
1131.000000	67.916878
1132.000000	67.712833
1133.000000	67.504740
1134.000000	67.325467
1135.000000	67.121039
1136.000000	66.823621
1137.000000	66.532770
1138.000000	66.249738
1139.000000	65.985495
1140.000000	65.760085
1141.000000	65.528583
1142.000000	65.290475
1143.000000	65.067949
1144.000000	64.875685
1145.000000	64.707772
1146.000000	64.579060
1147.000000	64.508581
1148.000000	64.448102
1149.000000	64.449434
1150.000000	64.461677
1151.000000	64.452639
1152.000000	64.440400
1153.000000	64.403518
1154.000000	64.328426
1155.000000	64.219092
1156.000000	64.082775
1157.000000	63.884456
1158.000000	63.680501
1159.000000	63.449805
1160.000000	63.205891
1161.000000	62.937963
1162.000000	62.666824
1163.000000	62.386898
1164.000000	62.112965
1165.000000	61.830663
1166.000000	61.558312
1167.000000	61.301967
1168.000000	61.045903
