PE UV       SUBTECH     SPECTRUM    ASCII       PEDS        4.00        
   -1
CICIMAUCR0113-6.Sample.ASC
24/04/25
11:40:20.00
24/04/25
11:40:20.00
Vinicio Soto Monge
C. kalinini
250,000000
1
Lambda 1050
1050L1511233
PerkinElmer UV WinLab 6.3.2.0749 / 2.02.05 Lambda 900 UV/VIS/NIR, Aug  7 2015 09:38:08

0
0
3350/servo 860,8/2
0
0
UV/VIS
1
1
1
DoubleDePol,CommonBeamDepol,RBeamAtt,SBeamAtt,60mm sphere, WB InGaAs Detector
0
0
0
0
Program
Program
3350/servo 860,8/2
3350/0,2 860,8/0,2
3350/0,2 860,8/0,2
0
15.00
 
 
 
0
 
860,8
319,2
860,8
Front
100
on
S:100 R:100
0
0
0
0
 
0
 
 
 
0
 
 
0
0
0
0
0
 
 
 
 
0
0


0
0
#HDR
-1
-1
#GR
nm
%R
1.0
0.0
2500,000000
-1,000000
2251
8
101,774400
5,807200
#DATA
250.000000	6.259033
251.000000	6.240933
252.000000	6.239333
253.000000	6.206267
254.000000	6.186733
255.000000	6.167133
256.000000	6.154533
257.000000	6.148300
258.000000	6.152233
259.000000	6.112367
260.000000	6.090733
261.000000	6.071433
262.000000	6.051000
263.000000	6.011767
264.000000	5.979067
265.000000	5.997433
266.000000	5.929267
267.000000	5.907233
268.000000	5.870233
269.000000	5.889233
270.000000	5.868100
271.000000	5.850267
272.000000	5.818467
273.000000	5.823300
274.000000	5.784033
275.000000	5.806600
276.000000	5.775600
277.000000	5.759733
278.000000	5.749467
279.000000	5.733267
280.000000	5.719300
281.000000	5.706667
282.000000	5.708467
283.000000	5.676800
284.000000	5.717967
285.000000	5.685367
286.000000	5.711200
287.000000	5.685967
288.000000	5.683200
289.000000	5.671133
290.000000	5.673733
291.000000	5.671033
292.000000	5.682933
293.000000	5.645867
294.000000	5.636300
295.000000	5.660567
296.000000	5.673033
297.000000	5.645767
298.000000	5.617067
299.000000	5.619500
300.000000	5.614700
301.000000	5.638300
302.000000	5.588367
303.000000	5.574233
304.000000	5.616233
305.000000	5.583767
306.000000	5.625933
307.000000	5.605167
308.000000	5.588467
309.000000	5.566567
310.000000	5.584700
311.000000	5.573933
312.000000	5.610333
313.000000	5.580267
314.000000	5.582700
315.000000	5.554267
316.000000	5.606600
317.000000	5.914500
318.000000	6.118967
319.000000	5.946633
320.000000	5.771400
321.000000	5.664367
322.000000	5.889600
323.000000	5.895733
324.000000	5.858900
325.000000	5.723767
326.000000	5.844667
327.000000	5.745433
328.000000	5.805167
329.000000	5.817733
330.000000	5.728233
331.000000	5.749867
332.000000	5.602433
333.000000	5.765600
334.000000	5.790700
335.000000	5.667667
336.000000	5.755833
337.000000	5.751333
338.000000	5.689567
339.000000	5.694400
340.000000	5.712333
341.000000	5.753533
342.000000	5.784467
343.000000	5.797933
344.000000	5.806367
345.000000	5.771133
346.000000	5.791433
347.000000	5.731667
348.000000	5.807200
349.000000	5.755033
350.000000	5.851967
351.000000	5.905633
352.000000	5.881067
353.000000	5.814200
354.000000	5.899800
355.000000	5.951933
356.000000	5.946500
357.000000	5.921233
358.000000	6.012133
359.000000	6.009867
360.000000	5.959500
361.000000	6.009033
362.000000	5.928533
363.000000	6.020933
364.000000	6.089100
365.000000	6.037200
366.000000	6.072400
367.000000	6.107933
368.000000	6.080567
369.000000	6.184567
370.000000	6.191867
371.000000	6.114800
372.000000	6.157433
373.000000	6.174700
374.000000	6.151200
375.000000	6.256767
376.000000	6.443700
377.000000	6.426300
378.000000	6.467033
379.000000	6.493500
380.000000	6.529867
381.000000	6.577000
382.000000	6.610233
383.000000	6.644767
384.000000	6.687800
385.000000	6.738200
386.000000	6.788933
387.000000	6.847333
388.000000	6.905200
389.000000	6.970567
390.000000	7.041000
391.000000	7.110767
392.000000	7.198467
393.000000	7.284933
394.000000	7.368600
395.000000	7.460100
396.000000	7.570100
397.000000	7.683467
398.000000	7.801933
399.000000	7.933600
400.000000	8.073500
401.000000	8.235667
402.000000	8.401833
403.000000	8.583933
404.000000	8.771833
405.000000	8.977367
406.000000	9.203833
407.000000	9.435467
408.000000	9.681933
409.000000	9.940133
410.000000	10.222433
411.000000	10.528400
412.000000	10.843700
413.000000	11.175700
414.000000	11.531133
415.000000	11.906300
416.000000	12.285600
417.000000	12.667133
418.000000	13.064333
419.000000	13.483433
420.000000	13.922433
421.000000	14.376733
422.000000	14.822900
423.000000	15.271067
424.000000	15.746233
425.000000	16.227100
426.000000	16.700133
427.000000	17.169300
428.000000	17.643200
429.000000	18.116300
430.000000	18.594600
431.000000	19.081733
432.000000	19.551200
433.000000	20.010467
434.000000	20.472033
435.000000	20.927133
436.000000	21.361900
437.000000	21.796167
438.000000	22.217567
439.000000	22.611533
440.000000	23.018367
441.000000	23.414333
442.000000	23.790600
443.000000	24.153900
444.000000	24.490067
445.000000	24.807100
446.000000	25.121200
447.000000	25.427733
448.000000	25.715767
449.000000	25.988167
450.000000	26.258000
451.000000	26.508567
452.000000	26.755933
453.000000	26.994867
454.000000	27.201933
455.000000	27.409967
456.000000	27.618300
457.000000	27.797967
458.000000	27.958367
459.000000	28.135600
460.000000	28.299867
461.000000	28.437233
462.000000	28.585433
463.000000	28.724300
464.000000	28.848167
465.000000	28.956367
466.000000	29.056767
467.000000	29.158533
468.000000	29.255833
469.000000	29.341633
470.000000	29.413833
471.000000	29.477433
472.000000	29.540233
473.000000	29.594800
474.000000	29.635100
475.000000	29.672767
476.000000	29.688167
477.000000	29.694900
478.000000	29.696200
479.000000	29.680767
480.000000	29.684767
481.000000	29.698800
482.000000	29.698033
483.000000	29.664467
484.000000	29.587200
485.000000	29.510967
486.000000	29.432533
487.000000	29.342933
488.000000	29.262533
489.000000	29.182233
490.000000	29.108500
491.000000	29.071467
492.000000	29.030633
493.000000	29.032167
494.000000	29.066667
495.000000	29.132800
496.000000	29.228267
497.000000	29.398467
498.000000	29.615067
499.000000	29.895733
500.000000	30.226633
501.000000	30.637733
502.000000	31.103267
503.000000	31.619800
504.000000	32.199333
505.000000	32.820600
506.000000	33.480400
507.000000	34.179133
508.000000	34.915133
509.000000	35.674700
510.000000	36.461767
511.000000	37.270800
512.000000	38.080300
513.000000	38.890467
514.000000	39.699100
515.000000	40.511100
516.000000	41.304500
517.000000	42.103633
518.000000	42.881500
519.000000	43.655133
520.000000	44.435567
521.000000	45.188500
522.000000	45.946833
523.000000	46.688233
524.000000	47.424800
525.000000	48.139667
526.000000	48.858367
527.000000	49.576133
528.000000	50.280967
529.000000	50.990600
530.000000	51.680333
531.000000	52.382667
532.000000	53.089633
533.000000	53.788500
534.000000	54.489433
535.000000	55.177500
536.000000	55.883767
537.000000	56.584900
538.000000	57.279500
539.000000	57.978567
540.000000	58.681267
541.000000	59.363700
542.000000	60.053667
543.000000	60.741933
544.000000	61.438933
545.000000	62.121767
546.000000	62.761033
547.000000	63.408567
548.000000	64.037100
549.000000	64.637700
550.000000	65.251433
551.000000	65.843167
552.000000	66.404733
553.000000	66.966367
554.000000	67.499567
555.000000	68.013700
556.000000	68.536433
557.000000	69.008067
558.000000	69.457933
559.000000	69.898200
560.000000	70.351300
561.000000	70.774833
562.000000	71.143700
563.000000	71.501167
564.000000	71.856700
565.000000	72.181233
566.000000	72.498767
567.000000	72.762867
568.000000	73.016567
569.000000	73.245067
570.000000	73.473933
571.000000	73.681767
572.000000	73.874200
573.000000	74.026000
574.000000	74.220867
575.000000	74.359567
576.000000	74.506433
577.000000	74.620900
578.000000	74.713700
579.000000	74.821067
580.000000	74.967567
581.000000	75.036000
582.000000	75.098800
583.000000	75.191367
584.000000	75.240633
585.000000	75.290733
586.000000	75.321033
587.000000	75.351167
588.000000	75.345233
589.000000	75.321000
590.000000	75.299967
591.000000	75.258333
592.000000	75.176800
593.000000	75.106033
594.000000	75.001700
595.000000	74.873800
596.000000	74.759633
597.000000	74.549700
598.000000	74.367633
599.000000	74.177433
600.000000	73.972967
601.000000	73.724700
602.000000	73.461933
603.000000	73.194333
604.000000	72.884600
605.000000	72.593767
606.000000	72.297567
607.000000	71.977000
608.000000	71.676400
609.000000	71.388867
610.000000	71.026333
611.000000	70.693200
612.000000	70.367567
613.000000	70.034867
614.000000	69.659067
615.000000	69.315200
616.000000	68.943900
617.000000	68.575100
618.000000	68.204533
619.000000	67.837500
620.000000	67.492733
621.000000	67.111933
622.000000	66.720600
623.000000	66.337567
624.000000	65.983600
625.000000	65.611900
626.000000	65.246400
627.000000	64.916433
628.000000	64.566700
629.000000	64.256467
630.000000	63.994133
631.000000	63.710933
632.000000	63.483200
633.000000	63.278033
634.000000	63.100500
635.000000	62.966333
636.000000	62.852433
637.000000	62.730100
638.000000	62.649233
639.000000	62.626633
640.000000	62.568933
641.000000	62.559033
642.000000	62.577367
643.000000	62.595033
644.000000	62.635767
645.000000	62.711467
646.000000	62.764000
647.000000	62.839600
648.000000	62.936233
649.000000	63.060667
650.000000	63.170533
651.000000	63.384967
652.000000	63.568300
653.000000	63.808467
654.000000	64.067767
655.000000	64.373200
656.000000	64.707800
657.000000	65.055100
658.000000	65.437833
659.000000	65.844833
660.000000	66.275833
661.000000	66.743467
662.000000	67.208500
663.000000	67.684133
664.000000	68.146167
665.000000	68.613933
666.000000	69.048000
667.000000	69.496833
668.000000	69.979267
669.000000	70.418467
670.000000	70.825167
671.000000	71.269167
672.000000	71.707900
673.000000	72.151033
674.000000	72.520033
675.000000	72.886367
676.000000	73.282333
677.000000	73.679900
678.000000	74.048800
679.000000	74.410700
680.000000	74.753600
681.000000	75.060000
682.000000	75.396200
683.000000	75.711033
684.000000	75.984100
685.000000	76.280633
686.000000	76.525367
687.000000	76.765533
688.000000	76.976400
689.000000	77.160033
690.000000	77.334300
691.000000	77.518700
692.000000	77.709267
693.000000	77.880800
694.000000	78.041300
695.000000	78.232767
696.000000	78.420367
697.000000	78.617933
698.000000	78.807300
699.000000	79.083333
700.000000	79.343533
701.000000	79.642533
702.000000	79.974500
703.000000	80.300933
704.000000	80.647567
705.000000	81.027733
706.000000	81.418933
707.000000	81.832533
708.000000	82.221200
709.000000	82.625867
710.000000	83.099167
711.000000	83.523867
712.000000	83.930833
713.000000	84.350400
714.000000	84.798100
715.000000	85.264167
716.000000	85.700300
717.000000	86.126967
718.000000	86.595300
719.000000	87.051900
720.000000	87.528667
721.000000	87.983433
722.000000	88.411833
723.000000	88.871233
724.000000	89.335233
725.000000	89.798667
726.000000	90.200600
727.000000	90.620600
728.000000	91.042233
729.000000	91.400100
730.000000	91.789233
731.000000	92.131367
732.000000	92.480033
733.000000	92.831500
734.000000	93.152767
735.000000	93.462167
736.000000	93.756600
737.000000	94.047567
738.000000	94.274067
739.000000	94.504400
740.000000	94.789367
741.000000	95.030167
742.000000	95.287167
743.000000	95.530400
744.000000	95.724267
745.000000	95.866533
746.000000	96.018233
747.000000	96.212067
748.000000	96.355300
749.000000	96.481167
750.000000	96.626367
751.000000	96.783833
752.000000	96.919500
753.000000	97.028400
754.000000	97.127833
755.000000	97.198300
756.000000	97.235567
757.000000	97.310000
758.000000	97.414167
759.000000	97.492933
760.000000	97.551567
761.000000	97.546533
762.000000	97.531367
763.000000	97.554333
764.000000	97.603733
765.000000	97.627233
766.000000	97.622600
767.000000	97.604600
768.000000	97.624800
769.000000	97.681733
770.000000	97.639800
771.000000	97.586867
772.000000	97.514267
773.000000	97.563733
774.000000	97.637233
775.000000	97.585000
776.000000	97.535300
777.000000	97.468633
778.000000	97.448067
779.000000	97.351567
780.000000	97.315433
781.000000	97.337700
782.000000	97.270467
783.000000	97.154200
784.000000	97.122767
785.000000	97.001267
786.000000	96.936333
787.000000	96.863000
788.000000	96.714167
789.000000	96.612833
790.000000	96.535200
791.000000	96.391167
792.000000	96.194433
793.000000	96.059833
794.000000	95.886467
795.000000	95.704567
796.000000	95.544700
797.000000	95.339300
798.000000	95.142333
799.000000	94.981367
800.000000	94.746833
801.000000	94.586633
802.000000	94.324633
803.000000	93.975667
804.000000	93.708200
805.000000	93.519200
806.000000	93.238433
807.000000	93.014233
808.000000	92.747000
809.000000	92.305733
810.000000	91.939067
811.000000	91.683567
812.000000	91.387700
813.000000	91.022533
814.000000	90.696300
815.000000	90.274733
816.000000	90.057133
817.000000	89.752500
818.000000	89.379767
819.000000	88.970967
820.000000	88.589267
821.000000	88.232833
822.000000	87.918700
823.000000	87.528800
824.000000	87.092167
825.000000	86.660767
826.000000	86.267300
827.000000	85.909433
828.000000	85.466867
829.000000	85.008467
830.000000	84.705267
831.000000	84.270800
832.000000	83.893000
833.000000	83.375800
834.000000	82.964067
835.000000	82.562233
836.000000	82.232900
837.000000	81.797433
838.000000	81.357633
839.000000	80.944233
840.000000	80.665500
841.000000	80.357200
842.000000	79.831567
843.000000	79.570567
844.000000	79.027600
845.000000	78.508767
846.000000	78.302200
847.000000	77.785033
848.000000	77.192633
849.000000	77.149933
850.000000	76.892667
851.000000	76.291300
852.000000	76.013433
853.000000	75.819533
854.000000	74.996400
855.000000	74.861700
856.000000	74.499167
857.000000	74.335900
858.000000	74.565589
859.000000	71.865472
860.000000	71.599560
861.000000	71.321758
862.000000	71.067069
863.000000	70.782518
864.000000	70.485127
865.000000	70.207324
866.000000	69.961258
867.000000	69.924421
868.000000	70.127629
869.000000	70.401531
870.000000	70.574771
871.000000	70.851741
872.000000	71.049661
873.000000	71.222579
874.000000	71.307889
875.000000	71.461921
876.000000	71.528378
877.000000	71.653379
878.000000	71.683890
879.000000	71.788534
880.000000	71.818486
881.000000	71.908478
882.000000	71.896539
883.000000	71.968049
884.000000	71.946622
885.000000	71.913290
886.000000	71.848402
887.000000	71.820308
888.000000	71.749338
889.000000	71.721886
890.000000	71.666491
891.000000	71.534080
892.000000	71.391984
893.000000	71.269209
894.000000	71.167704
895.000000	71.052223
896.000000	70.865918
897.000000	70.667018
898.000000	70.471470
899.000000	70.269264
900.000000	70.099147
901.000000	69.887002
902.000000	69.714909
903.000000	69.504514
904.000000	69.287979
905.000000	69.077114
906.000000	68.856871
907.000000	68.648394
908.000000	68.432464
909.000000	68.229956
910.000000	68.034800
911.000000	67.824016
912.000000	67.640512
913.000000	67.455164
914.000000	67.249983
915.000000	67.068586
916.000000	66.857946
917.000000	66.690966
918.000000	66.454473
919.000000	66.254575
920.000000	66.075735
921.000000	65.883166
922.000000	65.681763
923.000000	65.406955
924.000000	65.189378
925.000000	64.999080
926.000000	64.799935
927.000000	64.613588
928.000000	64.390856
929.000000	64.169786
930.000000	63.992020
931.000000	63.798395
932.000000	63.568044
933.000000	63.380573
934.000000	63.164200
935.000000	62.964382
936.000000	62.746646
937.000000	62.551372
938.000000	62.384438
939.000000	62.220205
940.000000	62.079658
941.000000	61.905398
942.000000	61.765326
943.000000	61.643013
944.000000	61.507126
945.000000	61.347805
946.000000	61.227830
947.000000	61.120131
948.000000	60.984855
949.000000	60.875936
950.000000	60.782682
951.000000	60.672286
952.000000	60.569518
953.000000	60.479579
954.000000	60.375882
955.000000	60.286517
956.000000	60.190920
957.000000	60.094026
958.000000	60.003300
959.000000	59.910619
960.000000	59.814636
961.000000	59.742763
962.000000	59.640853
963.000000	59.554228
964.000000	59.487161
965.000000	59.428054
966.000000	59.369227
967.000000	59.290917
968.000000	59.242594
969.000000	59.206446
970.000000	59.141625
971.000000	59.096552
972.000000	59.047496
973.000000	59.017442
974.000000	58.970196
975.000000	58.935329
976.000000	58.893560
977.000000	58.854102
978.000000	58.824628
979.000000	58.797830
980.000000	58.761488
981.000000	58.729511
982.000000	58.701287
983.000000	58.662127
984.000000	58.644396
985.000000	58.621781
986.000000	58.595124
987.000000	58.560292
988.000000	58.548189
989.000000	58.525144
990.000000	58.506359
991.000000	58.506045
992.000000	58.492539
993.000000	58.483640
994.000000	58.476484
995.000000	58.479705
996.000000	58.475109
997.000000	58.462920
998.000000	58.463575
999.000000	58.477280
1000.000000	58.484901
1001.000000	58.480283
1002.000000	58.497791
1003.000000	58.516315
1004.000000	58.530050
1005.000000	58.543637
1006.000000	58.547778
1007.000000	58.548149
1008.000000	58.551393
1009.000000	58.557115
1010.000000	58.569646
1011.000000	58.590640
1012.000000	58.604845
1013.000000	58.639282
1014.000000	58.687591
1015.000000	58.732917
1016.000000	58.793732
1017.000000	58.867484
1018.000000	58.937616
1019.000000	59.014132
1020.000000	59.101435
1021.000000	59.186448
1022.000000	59.274253
1023.000000	59.360568
1024.000000	59.448172
1025.000000	59.536797
1026.000000	59.628409
1027.000000	59.720681
1028.000000	59.815648
1029.000000	59.899251
1030.000000	59.975905
1031.000000	60.069619
1032.000000	60.147726
1033.000000	60.225073
1034.000000	60.303342
1035.000000	60.368193
1036.000000	60.447779
1037.000000	60.531203
1038.000000	60.591052
1039.000000	60.651901
1040.000000	60.718072
1041.000000	60.776099
1042.000000	60.839785
1043.000000	60.906784
1044.000000	60.979853
1045.000000	61.052639
1046.000000	61.114838
1047.000000	61.183374
1048.000000	61.260703
1049.000000	61.339637
1050.000000	61.408016
1051.000000	61.482871
1052.000000	61.563563
1053.000000	61.653040
1054.000000	61.748736
1055.000000	61.848358
1056.000000	61.945319
1057.000000	62.045895
1058.000000	62.143352
1059.000000	62.245814
1060.000000	62.345904
1061.000000	62.446495
1062.000000	62.538629
1063.000000	62.625864
1064.000000	62.717062
1065.000000	62.803450
1066.000000	62.882336
1067.000000	62.976438
1068.000000	63.064337
1069.000000	63.145744
1070.000000	63.228012
1071.000000	63.310118
1072.000000	63.394974
1073.000000	63.469580
1074.000000	63.554700
1075.000000	63.634402
1076.000000	63.713537
1077.000000	63.796763
1078.000000	63.877340
1079.000000	63.945274
1080.000000	64.022586
1081.000000	64.107901
1082.000000	64.180626
1083.000000	64.264191
1084.000000	64.342817
1085.000000	64.432720
1086.000000	64.513547
1087.000000	64.592156
1088.000000	64.673755
1089.000000	64.758172
1090.000000	64.841336
1091.000000	64.920373
1092.000000	65.006358
1093.000000	65.084604
1094.000000	65.163219
1095.000000	65.231449
1096.000000	65.301664
1097.000000	65.370276
1098.000000	65.428003
1099.000000	65.493868
1100.000000	65.560438
1101.000000	65.627577
1102.000000	65.666635
1103.000000	65.713617
1104.000000	65.772701
1105.000000	65.822335
1106.000000	65.871131
1107.000000	65.903533
1108.000000	65.945542
1109.000000	65.990505
1110.000000	66.032824
1111.000000	66.078391
1112.000000	66.096307
1113.000000	66.125446
1114.000000	66.165605
1115.000000	66.196753
1116.000000	66.229107
1117.000000	66.252764
1118.000000	66.267489
1119.000000	66.264883
1120.000000	66.246379
1121.000000	66.232413
1122.000000	66.209875
1123.000000	66.144279
1124.000000	66.076992
1125.000000	65.998557
1126.000000	65.919201
1127.000000	65.800544
1128.000000	65.669812
1129.000000	65.516806
1130.000000	65.301084
1131.000000	65.040662
1132.000000	64.739562
1133.000000	64.417009
1134.000000	64.115208
1135.000000	63.723929
1136.000000	63.256283
1137.000000	62.810681
1138.000000	62.341954
1139.000000	61.894118
1140.000000	61.458028
1141.000000	61.039173
1142.000000	60.626176
1143.000000	60.228823
1144.000000	59.878738
1145.000000	59.532373
1146.000000	59.279458
1147.000000	59.118443
1148.000000	59.060428
1149.000000	59.052841
1150.000000	59.090556
1151.000000	59.132469
1152.000000	59.163451
1153.000000	59.158598
1154.000000	59.097714
1155.000000	58.982221
1156.000000	58.775595
1157.000000	58.507352
1158.000000	58.162429
1159.000000	57.772534
1160.000000	57.370037
1161.000000	56.919701
1162.000000	56.474056
1163.000000	56.015433
1164.000000	55.522523
1165.000000	55.062851
1166.000000	54.562405
1167.000000	54.084860
