PE UV       SUBTECH     SPECTRUM    ASCII       PEDS        4.00        
   -1
CICIMAUCR0020-7.Sample.ASC
24/04/25
16:24:51.00
24/04/25
16:24:51.00
Vinicio Soto Monge
C. resplendens
250,000000
1
Lambda 1050
1050L1511233
PerkinElmer UV WinLab 6.3.2.0749 / 2.02.05 Lambda 900 UV/VIS/NIR, Aug  7 2015 09:38:08

0
0
3350/servo 860,8/2
0
0
UV/VIS
1
1
1
DoubleDePol,CommonBeamDepol,RBeamAtt,SBeamAtt,60mm sphere, WB InGaAs Detector
0
0
0
0
Program
Program
3350/servo 860,8/2
3350/0,2 860,8/0,2
3350/0,2 860,8/0,2
0
15.00
 
 
 
0
 
860,8
319,2
860,8
Front
100
on
S:100 R:100
0
0
0
0
 
0
 
 
 
0
 
 
0
0
0
0
0
 
 
 
 
0
0


0
0
#HDR
-1
-1
#GR
nm
%R
1.0
0.0
2500,000000
-1,000000
2251
8
81,082400
5,554700
#DATA
250.000000	4.920326
251.000000	4.893769
252.000000	4.903625
253.000000	4.909103
254.000000	4.881777
255.000000	4.851974
256.000000	4.831474
257.000000	4.836864
258.000000	4.839362
259.000000	4.841424
260.000000	4.803813
261.000000	4.773667
262.000000	4.762374
263.000000	4.747025
264.000000	4.731226
265.000000	4.693226
266.000000	4.698283
267.000000	4.679871
268.000000	4.685092
269.000000	4.647347
270.000000	4.646194
271.000000	4.644037
272.000000	4.643798
273.000000	4.620189
274.000000	4.618254
275.000000	4.624343
276.000000	4.595984
277.000000	4.619005
278.000000	4.591513
279.000000	4.609100
280.000000	4.607238
281.000000	4.604045
282.000000	4.602696
283.000000	4.588683
284.000000	4.599833
285.000000	4.613140
286.000000	4.595204
287.000000	4.606495
288.000000	4.607373
289.000000	4.581324
290.000000	4.605236
291.000000	4.600632
292.000000	4.567360
293.000000	4.597168
294.000000	4.597367
295.000000	4.579038
296.000000	4.600015
297.000000	4.560973
298.000000	4.563445
299.000000	4.576763
300.000000	4.588504
301.000000	4.596474
302.000000	4.571716
303.000000	4.570575
304.000000	4.599424
305.000000	4.559104
306.000000	4.564780
307.000000	4.585460
308.000000	4.568639
309.000000	4.571562
310.000000	4.557407
311.000000	4.568390
312.000000	4.556822
313.000000	4.564262
314.000000	4.522863
315.000000	4.574096
316.000000	4.611479
317.000000	5.178728
318.000000	4.969348
319.000000	4.958267
320.000000	4.972097
321.000000	5.053386
322.000000	4.934050
323.000000	4.927614
324.000000	4.915265
325.000000	4.752140
326.000000	4.777429
327.000000	4.765534
328.000000	4.791982
329.000000	4.628324
330.000000	4.729790
331.000000	4.778287
332.000000	4.697597
333.000000	4.769112
334.000000	4.738078
335.000000	4.781473
336.000000	4.777665
337.000000	4.758973
338.000000	4.735517
339.000000	4.773289
340.000000	4.782378
341.000000	4.788144
342.000000	4.822211
343.000000	4.759440
344.000000	4.795734
345.000000	4.877653
346.000000	4.842636
347.000000	4.822035
348.000000	4.866626
349.000000	4.827831
350.000000	4.927898
351.000000	4.958931
352.000000	4.931792
353.000000	5.023825
354.000000	5.025626
355.000000	5.024679
356.000000	5.049018
357.000000	5.101304
358.000000	5.110185
359.000000	5.131589
360.000000	5.173753
361.000000	5.195138
362.000000	5.190637
363.000000	5.218545
364.000000	5.245267
365.000000	5.284022
366.000000	5.267064
367.000000	5.329417
368.000000	5.362390
369.000000	5.390288
370.000000	5.366693
371.000000	5.385782
372.000000	5.418502
373.000000	5.458229
374.000000	5.477455
375.000000	5.532681
376.000000	5.795277
377.000000	5.827072
378.000000	5.887729
379.000000	5.950239
380.000000	6.011289
381.000000	6.083334
382.000000	6.169640
383.000000	6.258568
384.000000	6.338928
385.000000	6.434267
386.000000	6.535152
387.000000	6.637127
388.000000	6.741325
389.000000	6.857926
390.000000	6.981382
391.000000	7.104801
392.000000	7.242157
393.000000	7.384906
394.000000	7.543373
395.000000	7.697381
396.000000	7.853254
397.000000	8.033242
398.000000	8.213439
399.000000	8.395388
400.000000	8.591800
401.000000	8.797994
402.000000	9.014343
403.000000	9.234299
404.000000	9.462771
405.000000	9.713842
406.000000	9.964220
407.000000	10.219811
408.000000	10.476882
409.000000	10.742478
410.000000	11.024505
411.000000	11.309632
412.000000	11.598846
413.000000	11.884825
414.000000	12.183510
415.000000	12.490043
416.000000	12.793700
417.000000	13.091438
418.000000	13.392147
419.000000	13.695159
420.000000	13.992733
421.000000	14.284929
422.000000	14.583457
423.000000	14.872202
424.000000	15.148097
425.000000	15.427325
426.000000	15.707495
427.000000	15.973252
428.000000	16.226744
429.000000	16.480497
430.000000	16.720650
431.000000	16.954100
432.000000	17.185920
433.000000	17.402366
434.000000	17.612472
435.000000	17.814179
436.000000	18.003335
437.000000	18.176620
438.000000	18.346320
439.000000	18.518217
440.000000	18.677475
441.000000	18.819102
442.000000	18.961297
443.000000	19.094884
444.000000	19.209429
445.000000	19.299475
446.000000	19.375524
447.000000	19.444845
448.000000	19.502311
449.000000	19.559111
450.000000	19.607674
451.000000	19.639682
452.000000	19.659228
453.000000	19.663133
454.000000	19.657368
455.000000	19.655609
456.000000	19.649022
457.000000	19.623949
458.000000	19.589342
459.000000	19.554415
460.000000	19.512690
461.000000	19.461180
462.000000	19.398343
463.000000	19.332562
464.000000	19.267139
465.000000	19.198940
466.000000	19.129071
467.000000	19.057396
468.000000	18.996845
469.000000	18.941963
470.000000	18.885744
471.000000	18.841352
472.000000	18.815239
473.000000	18.801461
474.000000	18.805272
475.000000	18.824501
476.000000	18.860847
477.000000	18.927721
478.000000	19.019950
479.000000	19.134344
480.000000	19.288860
481.000000	19.486627
482.000000	19.716332
483.000000	19.966611
484.000000	20.252396
485.000000	20.560072
486.000000	20.903894
487.000000	21.288104
488.000000	21.704536
489.000000	22.154058
490.000000	22.629997
491.000000	23.137703
492.000000	23.679916
493.000000	24.234214
494.000000	24.809751
495.000000	25.397973
496.000000	25.989051
497.000000	26.576625
498.000000	27.173372
499.000000	27.782869
500.000000	28.398819
501.000000	29.007875
502.000000	29.619396
503.000000	30.228168
504.000000	30.829651
505.000000	31.433008
506.000000	32.020267
507.000000	32.595066
508.000000	33.170681
509.000000	33.759724
510.000000	34.342867
511.000000	34.925531
512.000000	35.507270
513.000000	36.087435
514.000000	36.672656
515.000000	37.250609
516.000000	37.823953
517.000000	38.392443
518.000000	38.965203
519.000000	39.539213
520.000000	40.105669
521.000000	40.681843
522.000000	41.254417
523.000000	41.840190
524.000000	42.451650
525.000000	43.034984
526.000000	43.628422
527.000000	44.236882
528.000000	44.850502
529.000000	45.485337
530.000000	46.133484
531.000000	46.801742
532.000000	47.475954
533.000000	48.166356
534.000000	48.869772
535.000000	49.572708
536.000000	50.286245
537.000000	50.998236
538.000000	51.704927
539.000000	52.424974
540.000000	53.149350
541.000000	53.831987
542.000000	54.499296
543.000000	55.167484
544.000000	55.822027
545.000000	56.445362
546.000000	57.068051
547.000000	57.630590
548.000000	58.159876
549.000000	58.662623
550.000000	59.139680
551.000000	59.606523
552.000000	60.024648
553.000000	60.418560
554.000000	60.788920
555.000000	61.127255
556.000000	61.439240
557.000000	61.732017
558.000000	61.984058
559.000000	62.243256
560.000000	62.437271
561.000000	62.653847
562.000000	62.875598
563.000000	63.069977
564.000000	63.237852
565.000000	63.381160
566.000000	63.515519
567.000000	63.647919
568.000000	63.773847
569.000000	63.866823
570.000000	63.977306
571.000000	64.041139
572.000000	64.116062
573.000000	64.189666
574.000000	64.287286
575.000000	64.368652
576.000000	64.431214
577.000000	64.487405
578.000000	64.509066
579.000000	64.541618
580.000000	64.589717
581.000000	64.620208
582.000000	64.652850
583.000000	64.671543
584.000000	64.661424
585.000000	64.678125
586.000000	64.657351
587.000000	64.638176
588.000000	64.582547
589.000000	64.529360
590.000000	64.454039
591.000000	64.368345
592.000000	64.218631
593.000000	64.093740
594.000000	63.924533
595.000000	63.734184
596.000000	63.576943
597.000000	63.368054
598.000000	63.125597
599.000000	62.853731
600.000000	62.564100
601.000000	62.272251
602.000000	61.961384
603.000000	61.633498
604.000000	61.288301
605.000000	60.951428
606.000000	60.569195
607.000000	60.205745
608.000000	59.822622
609.000000	59.432399
610.000000	59.049056
611.000000	58.654515
612.000000	58.233696
613.000000	57.825551
614.000000	57.420696
615.000000	57.034982
616.000000	56.635423
617.000000	56.242478
618.000000	55.851439
619.000000	55.429371
620.000000	54.995230
621.000000	54.569535
622.000000	54.127312
623.000000	53.686302
624.000000	53.232590
625.000000	52.778131
626.000000	52.294992
627.000000	51.817772
628.000000	51.311810
629.000000	50.808430
630.000000	50.277612
631.000000	49.746906
632.000000	49.218529
633.000000	48.669214
634.000000	48.150860
635.000000	47.658699
636.000000	47.178330
637.000000	46.727026
638.000000	46.327723
639.000000	45.916205
640.000000	45.574368
641.000000	45.252140
642.000000	44.987886
643.000000	44.749122
644.000000	44.581982
645.000000	44.460676
646.000000	44.353826
647.000000	44.359893
648.000000	44.377140
649.000000	44.432507
650.000000	44.544305
651.000000	44.718863
652.000000	44.907681
653.000000	45.161541
654.000000	45.435884
655.000000	45.732515
656.000000	46.058235
657.000000	46.420023
658.000000	46.802871
659.000000	47.213482
660.000000	47.654231
661.000000	48.100279
662.000000	48.546518
663.000000	49.044345
664.000000	49.562084
665.000000	50.053879
666.000000	50.561337
667.000000	51.089303
668.000000	51.593162
669.000000	52.122119
670.000000	52.624262
671.000000	53.148911
672.000000	53.651379
673.000000	54.148995
674.000000	54.630934
675.000000	55.064025
676.000000	55.532969
677.000000	55.926298
678.000000	56.366265
679.000000	56.763920
680.000000	57.126551
681.000000	57.475676
682.000000	57.808108
683.000000	58.135207
684.000000	58.438614
685.000000	58.730777
686.000000	58.994561
687.000000	59.232887
688.000000	59.446400
689.000000	59.677394
690.000000	59.879348
691.000000	60.070473
692.000000	60.285377
693.000000	60.463202
694.000000	60.619138
695.000000	60.750768
696.000000	60.884754
697.000000	60.999173
698.000000	61.127974
699.000000	61.228200
700.000000	61.314538
701.000000	61.405547
702.000000	61.458889
703.000000	61.526399
704.000000	61.582993
705.000000	61.612315
706.000000	61.641351
707.000000	61.663009
708.000000	61.681839
709.000000	61.681619
710.000000	61.697676
711.000000	61.684057
712.000000	61.681532
713.000000	61.666057
714.000000	61.658093
715.000000	61.630043
716.000000	61.614005
717.000000	61.603665
718.000000	61.596302
719.000000	61.589864
720.000000	61.583889
721.000000	61.563722
722.000000	61.582978
723.000000	61.605053
724.000000	61.613945
725.000000	61.631795
726.000000	61.621334
727.000000	61.661180
728.000000	61.709256
729.000000	61.735116
730.000000	61.793867
731.000000	61.842132
732.000000	61.889333
733.000000	61.971213
734.000000	62.041154
735.000000	62.132891
736.000000	62.243260
737.000000	62.333557
738.000000	62.449929
739.000000	62.569115
740.000000	62.685182
741.000000	62.825229
742.000000	62.957378
743.000000	63.101297
744.000000	63.235123
745.000000	63.371569
746.000000	63.523372
747.000000	63.680079
748.000000	63.826649
749.000000	63.960209
750.000000	64.095935
751.000000	64.234830
752.000000	64.396523
753.000000	64.566394
754.000000	64.714721
755.000000	64.846405
756.000000	64.959859
757.000000	65.101130
758.000000	65.249034
759.000000	65.367628
760.000000	65.493102
761.000000	65.583226
762.000000	65.722768
763.000000	65.845864
764.000000	65.915961
765.000000	66.032386
766.000000	66.117500
767.000000	66.155783
768.000000	66.231134
769.000000	66.346064
770.000000	66.444811
771.000000	66.497453
772.000000	66.531224
773.000000	66.577472
774.000000	66.610408
775.000000	66.662472
776.000000	66.699013
777.000000	66.708303
778.000000	66.707154
779.000000	66.721762
780.000000	66.752658
781.000000	66.760023
782.000000	66.739836
783.000000	66.758201
784.000000	66.787822
785.000000	66.745705
786.000000	66.742828
787.000000	66.692488
788.000000	66.667672
789.000000	66.660986
790.000000	66.621897
791.000000	66.582630
792.000000	66.486554
793.000000	66.443870
794.000000	66.387119
795.000000	66.341245
796.000000	66.268286
797.000000	66.186517
798.000000	66.110188
799.000000	66.044881
800.000000	65.912804
801.000000	65.857922
802.000000	65.728029
803.000000	65.610613
804.000000	65.560595
805.000000	65.460909
806.000000	65.366826
807.000000	65.228188
808.000000	65.138700
809.000000	65.081684
810.000000	64.870511
811.000000	64.784597
812.000000	64.649596
813.000000	64.561090
814.000000	64.410839
815.000000	64.283877
816.000000	64.166976
817.000000	63.981251
818.000000	63.955829
819.000000	63.855387
820.000000	63.747800
821.000000	63.598269
822.000000	63.512762
823.000000	63.388963
824.000000	63.201643
825.000000	63.144769
826.000000	63.058432
827.000000	62.959136
828.000000	62.824044
829.000000	62.749420
830.000000	62.594256
831.000000	62.532232
832.000000	62.497507
833.000000	62.414434
834.000000	62.301238
835.000000	62.215253
836.000000	62.038158
837.000000	61.915097
838.000000	61.871170
839.000000	61.859870
840.000000	61.758030
841.000000	61.662783
842.000000	61.649395
843.000000	61.577375
844.000000	61.288811
845.000000	61.245530
846.000000	61.224233
847.000000	61.190682
848.000000	61.065331
849.000000	60.980883
850.000000	60.978711
851.000000	60.798870
852.000000	60.557740
853.000000	60.463259
854.000000	60.330138
855.000000	60.234871
856.000000	59.994802
857.000000	60.018724
858.000000	61.367700
859.000000	59.826560
860.000000	59.633120
861.000000	59.451980
862.000000	59.242860
863.000000	59.040360
864.000000	58.822300
865.000000	58.628460
866.000000	58.530340
867.000000	58.561940
868.000000	58.666220
869.000000	58.854520
870.000000	59.034380
871.000000	59.206620
872.000000	59.349420
873.000000	59.416200
874.000000	59.492760
875.000000	59.559640
876.000000	59.606240
877.000000	59.653440
878.000000	59.694600
879.000000	59.729760
880.000000	59.780420
881.000000	59.779260
882.000000	59.803920
883.000000	59.846420
884.000000	59.870460
885.000000	59.897920
886.000000	59.901140
887.000000	59.889280
888.000000	59.887640
889.000000	59.905880
890.000000	59.934060
891.000000	59.944220
892.000000	59.955940
893.000000	59.973440
894.000000	59.976420
895.000000	59.977760
896.000000	59.985840
897.000000	59.971040
898.000000	59.988800
899.000000	59.977440
900.000000	59.980800
901.000000	60.003440
902.000000	60.000760
903.000000	59.983440
904.000000	59.976920
905.000000	59.960740
906.000000	59.954660
907.000000	59.953900
908.000000	59.964720
909.000000	59.967700
910.000000	59.983640
911.000000	59.972820
912.000000	59.947580
913.000000	59.954100
914.000000	59.958500
915.000000	59.951100
916.000000	59.949980
917.000000	59.959780
918.000000	59.928000
919.000000	59.881460
920.000000	59.854600
921.000000	59.818300
922.000000	59.784640
923.000000	59.750220
924.000000	59.710560
925.000000	59.661300
926.000000	59.601000
927.000000	59.538440
928.000000	59.486680
929.000000	59.418920
930.000000	59.351940
931.000000	59.285080
932.000000	59.217020
933.000000	59.149440
934.000000	59.051800
935.000000	58.965860
936.000000	58.867640
937.000000	58.778920
938.000000	58.708020
939.000000	58.613680
940.000000	58.551380
941.000000	58.477360
942.000000	58.412640
943.000000	58.345220
944.000000	58.248160
945.000000	58.163320
946.000000	58.078100
947.000000	57.999600
948.000000	57.923000
949.000000	57.845000
950.000000	57.773740
951.000000	57.692640
952.000000	57.607640
953.000000	57.532160
954.000000	57.467960
955.000000	57.396420
956.000000	57.321440
957.000000	57.252740
958.000000	57.179540
959.000000	57.108220
960.000000	57.047720
961.000000	56.980600
962.000000	56.918520
963.000000	56.860440
964.000000	56.800820
965.000000	56.741740
966.000000	56.689600
967.000000	56.627200
968.000000	56.577400
969.000000	56.514580
970.000000	56.471500
971.000000	56.417460
972.000000	56.369640
973.000000	56.323220
974.000000	56.279440
975.000000	56.233020
976.000000	56.184460
977.000000	56.144300
978.000000	56.106420
979.000000	56.072760
980.000000	56.031960
981.000000	55.990780
982.000000	55.963400
983.000000	55.934680
984.000000	55.900640
985.000000	55.866500
986.000000	55.838220
987.000000	55.814620
988.000000	55.793480
989.000000	55.772040
990.000000	55.748680
991.000000	55.721780
992.000000	55.703020
993.000000	55.681320
994.000000	55.655320
995.000000	55.642680
996.000000	55.625820
997.000000	55.589680
998.000000	55.560000
999.000000	55.539320
1000.000000	55.512380
1001.000000	55.477680
1002.000000	55.439660
1003.000000	55.407520
1004.000000	55.370560
1005.000000	55.324600
1006.000000	55.280880
1007.000000	55.226800
1008.000000	55.174960
1009.000000	55.117920
1010.000000	55.054760
1011.000000	54.993980
1012.000000	54.935660
1013.000000	54.882680
1014.000000	54.823800
1015.000000	54.767620
1016.000000	54.721900
1017.000000	54.672760
1018.000000	54.617660
1019.000000	54.570980
1020.000000	54.528800
1021.000000	54.485440
1022.000000	54.442720
1023.000000	54.399760
1024.000000	54.363520
1025.000000	54.339860
1026.000000	54.315560
1027.000000	54.284960
1028.000000	54.258000
1029.000000	54.230440
1030.000000	54.204700
1031.000000	54.195020
1032.000000	54.178740
1033.000000	54.155660
1034.000000	54.140980
1035.000000	54.129460
1036.000000	54.124720
1037.000000	54.124420
1038.000000	54.121560
1039.000000	54.117000
1040.000000	54.119300
1041.000000	54.121220
1042.000000	54.121860
1043.000000	54.125320
1044.000000	54.134860
1045.000000	54.148880
1046.000000	54.159080
1047.000000	54.174220
1048.000000	54.192140
1049.000000	54.206640
1050.000000	54.220360
1051.000000	54.246480
1052.000000	54.277380
1053.000000	54.300380
1054.000000	54.321440
1055.000000	54.351120
1056.000000	54.378140
1057.000000	54.406120
1058.000000	54.433380
1059.000000	54.460040
1060.000000	54.481600
1061.000000	54.498320
1062.000000	54.514760
1063.000000	54.532860
1064.000000	54.551000
1065.000000	54.571940
1066.000000	54.587260
1067.000000	54.605600
1068.000000	54.610260
1069.000000	54.616860
1070.000000	54.634080
1071.000000	54.640060
1072.000000	54.641560
1073.000000	54.642900
1074.000000	54.650000
1075.000000	54.655940
1076.000000	54.655280
1077.000000	54.659780
1078.000000	54.667360
1079.000000	54.664940
1080.000000	54.669060
1081.000000	54.673400
1082.000000	54.678580
1083.000000	54.684020
1084.000000	54.687980
1085.000000	54.686780
1086.000000	54.694840
1087.000000	54.705160
1088.000000	54.713260
1089.000000	54.712540
1090.000000	54.722280
1091.000000	54.726280
1092.000000	54.731680
1093.000000	54.746980
1094.000000	54.755100
1095.000000	54.758660
1096.000000	54.759780
1097.000000	54.767300
1098.000000	54.770100
1099.000000	54.777140
1100.000000	54.781420
1101.000000	54.777400
1102.000000	54.779460
1103.000000	54.782320
1104.000000	54.780860
1105.000000	54.785380
1106.000000	54.788400
1107.000000	54.788800
1108.000000	54.780840
1109.000000	54.786080
1110.000000	54.785340
1111.000000	54.776880
1112.000000	54.761780
1113.000000	54.769100
1114.000000	54.775340
1115.000000	54.775240
1116.000000	54.773800
1117.000000	54.770880
1118.000000	54.758460
1119.000000	54.743320
1120.000000	54.726340
1121.000000	54.706280
1122.000000	54.675320
1123.000000	54.630480
1124.000000	54.587100
1125.000000	54.536660
1126.000000	54.482960
1127.000000	54.415420
1128.000000	54.347120
1129.000000	54.245980
1130.000000	54.125780
1131.000000	54.000680
1132.000000	53.857120
1133.000000	53.709460
1134.000000	53.552600
1135.000000	53.352160
1136.000000	53.105720
1137.000000	52.878760
1138.000000	52.650460
1139.000000	52.431220
1140.000000	52.230080
1141.000000	52.028440
1142.000000	51.821780
1143.000000	51.637560
1144.000000	51.454780
1145.000000	51.291700
1146.000000	51.172940
1147.000000	51.074840
1148.000000	51.022120
1149.000000	51.006400
1150.000000	51.012200
1151.000000	51.013480
1152.000000	51.009640
1153.000000	50.993940
1154.000000	50.946800
1155.000000	50.875900
1156.000000	50.777740
1157.000000	50.627980
1158.000000	50.463580
1159.000000	50.267200
1160.000000	50.073260
1161.000000	49.861740
1162.000000	49.637360
1163.000000	49.405560
1164.000000	49.165040
1165.000000	48.927340
1166.000000	48.683940
1167.000000	48.453660
