PE UV       SUBTECH     SPECTRUM    ASCII       PEDS        4.00        
   -1
CICIMAUCR0009-3.Sample.ASC
24/04/17
14:06:27.00
24/04/17
14:06:27.00
Vinicio Soto Monge
C. kalinini
250,000000
1
Lambda 1050
1050L1511233
PerkinElmer UV WinLab 6.3.2.0749 / 2.02.05 Lambda 900 UV/VIS/NIR, Aug  7 2015 09:38:08

0
0
3350/servo 860,8/2
0
0
UV/VIS
1
1
1
DoubleDePol,CommonBeamDepol,RBeamAtt,SBeamAtt,60mm sphere, WB InGaAs Detector
0
0
0
0
Program
Program
3350/servo 860,8/2
3350/0,2 860,8/0,2
3350/0,2 860,8/0,2
0
15.00
 
 
 
0
 
860,8
319,2
860,8
Front
100
on
S:100 R:100
0
0
0
0
 
0
 
 
 
0
 
 
0
0
0
0
0
 
 
 
 
0
0


0
0
#HDR
-1
-1
#GR
nm
%R
1.0
0.0
2500,000000
-1,000000
2251
8
78,444600
4,431300
#DATA
250.000000	5.509600
251.000000	5.488533
252.000000	5.508600
253.000000	5.471700
254.000000	5.464967
255.000000	5.455167
256.000000	5.465167
257.000000	5.430433
258.000000	5.437800
259.000000	5.421267
260.000000	5.404233
261.000000	5.373867
262.000000	5.386267
263.000000	5.344400
264.000000	5.317600
265.000000	5.321367
266.000000	5.285167
267.000000	5.261900
268.000000	5.250233
269.000000	5.227067
270.000000	5.218800
271.000000	5.212167
272.000000	5.195300
273.000000	5.175500
274.000000	5.166467
275.000000	5.165967
276.000000	5.150900
277.000000	5.154933
278.000000	5.145633
279.000000	5.129633
280.000000	5.101133
281.000000	5.130100
282.000000	5.110800
283.000000	5.090467
284.000000	5.104333
285.000000	5.060400
286.000000	5.104967
287.000000	5.074000
288.000000	5.066967
289.000000	5.075467
290.000000	5.050867
291.000000	5.051200
292.000000	5.047533
293.000000	5.030400
294.000000	5.057733
295.000000	5.057100
296.000000	5.019233
297.000000	5.034267
298.000000	5.049833
299.000000	5.012767
300.000000	5.027533
301.000000	5.041400
302.000000	5.014233
303.000000	4.983500
304.000000	4.979167
305.000000	5.005133
306.000000	5.008533
307.000000	5.009500
308.000000	4.996200
309.000000	5.017667
310.000000	5.001633
311.000000	4.995000
312.000000	5.012433
313.000000	5.014667
314.000000	5.005867
315.000000	4.995400
316.000000	5.034867
317.000000	5.292833
318.000000	5.176033
319.000000	5.129900
320.000000	5.240867
321.000000	5.233400
322.000000	5.135400
323.000000	4.994967
324.000000	5.150767
325.000000	5.182833
326.000000	5.247200
327.000000	5.183767
328.000000	5.178100
329.000000	5.217133
330.000000	5.213200
331.000000	5.188833
332.000000	5.276933
333.000000	5.215800
334.000000	5.247167
335.000000	5.224567
336.000000	5.263467
337.000000	5.258067
338.000000	5.250300
339.000000	5.203367
340.000000	5.256300
341.000000	5.216900
342.000000	5.233100
343.000000	5.238467
344.000000	5.292967
345.000000	5.308500
346.000000	5.284333
347.000000	5.315900
348.000000	5.303533
349.000000	5.345700
350.000000	5.314233
351.000000	5.382467
352.000000	5.436300
353.000000	5.522100
354.000000	5.537600
355.000000	5.587567
356.000000	5.604767
357.000000	5.624567
358.000000	5.702267
359.000000	5.712100
360.000000	5.768500
361.000000	5.835667
362.000000	5.834733
363.000000	5.905067
364.000000	5.932233
365.000000	5.957267
366.000000	6.023467
367.000000	6.074233
368.000000	6.136400
369.000000	6.180500
370.000000	6.250433
371.000000	6.318467
372.000000	6.364833
373.000000	6.390767
374.000000	6.434300
375.000000	6.548533
376.000000	6.701800
377.000000	6.770733
378.000000	6.881233
379.000000	7.005033
380.000000	7.142200
381.000000	7.296500
382.000000	7.461433
383.000000	7.639967
384.000000	7.824200
385.000000	8.019967
386.000000	8.234033
387.000000	8.467400
388.000000	8.700967
389.000000	8.955067
390.000000	9.233700
391.000000	9.527400
392.000000	9.823700
393.000000	10.137667
394.000000	10.474800
395.000000	10.824967
396.000000	11.183000
397.000000	11.551733
398.000000	11.929767
399.000000	12.312967
400.000000	12.712300
401.000000	13.116900
402.000000	13.528700
403.000000	13.964300
404.000000	14.390133
405.000000	14.811100
406.000000	15.248600
407.000000	15.674033
408.000000	16.095367
409.000000	16.524967
410.000000	16.941100
411.000000	17.363233
412.000000	17.782567
413.000000	18.186000
414.000000	18.577967
415.000000	18.960967
416.000000	19.340867
417.000000	19.709033
418.000000	20.054967
419.000000	20.392267
420.000000	20.722367
421.000000	21.035233
422.000000	21.339667
423.000000	21.618200
424.000000	21.886233
425.000000	22.153667
426.000000	22.398933
427.000000	22.611800
428.000000	22.819567
429.000000	23.031833
430.000000	23.225067
431.000000	23.401067
432.000000	23.568733
433.000000	23.725400
434.000000	23.866733
435.000000	24.002700
436.000000	24.114700
437.000000	24.221867
438.000000	24.318000
439.000000	24.394767
440.000000	24.478900
441.000000	24.548433
442.000000	24.600667
443.000000	24.648667
444.000000	24.692300
445.000000	24.723867
446.000000	24.752067
447.000000	24.781300
448.000000	24.818167
449.000000	24.859600
450.000000	24.892567
451.000000	24.933267
452.000000	24.989367
453.000000	25.055600
454.000000	25.130133
455.000000	25.213267
456.000000	25.308233
457.000000	25.414467
458.000000	25.544333
459.000000	25.687267
460.000000	25.845100
461.000000	26.018467
462.000000	26.210300
463.000000	26.410267
464.000000	26.623600
465.000000	26.848600
466.000000	27.081800
467.000000	27.318833
468.000000	27.564700
469.000000	27.821933
470.000000	28.078533
471.000000	28.340833
472.000000	28.589167
473.000000	28.832733
474.000000	29.085333
475.000000	29.332633
476.000000	29.563933
477.000000	29.797200
478.000000	30.023967
479.000000	30.247700
480.000000	30.467433
481.000000	30.688500
482.000000	30.896367
483.000000	31.099133
484.000000	31.314667
485.000000	31.532100
486.000000	31.746733
487.000000	31.972433
488.000000	32.202667
489.000000	32.456333
490.000000	32.702767
491.000000	32.979567
492.000000	33.277467
493.000000	33.584900
494.000000	33.889600
495.000000	34.225667
496.000000	34.585800
497.000000	34.936967
498.000000	35.318833
499.000000	35.715400
500.000000	36.130333
501.000000	36.558667
502.000000	36.984167
503.000000	37.456000
504.000000	37.919500
505.000000	38.394133
506.000000	38.881000
507.000000	39.379533
508.000000	39.887100
509.000000	40.395167
510.000000	40.924233
511.000000	41.467900
512.000000	42.035167
513.000000	42.612633
514.000000	43.224033
515.000000	43.825600
516.000000	44.445600
517.000000	45.075367
518.000000	45.725700
519.000000	46.397733
520.000000	47.087567
521.000000	47.776333
522.000000	48.493800
523.000000	49.233000
524.000000	49.979567
525.000000	50.745100
526.000000	51.505000
527.000000	52.276867
528.000000	53.056167
529.000000	53.853600
530.000000	54.634733
531.000000	55.425067
532.000000	56.213167
533.000000	56.994167
534.000000	57.757667
535.000000	58.498733
536.000000	59.220500
537.000000	59.923367
538.000000	60.613233
539.000000	61.253767
540.000000	61.902233
541.000000	62.549567
542.000000	63.161067
543.000000	63.764600
544.000000	64.366333
545.000000	64.935967
546.000000	65.466333
547.000000	65.995400
548.000000	66.505400
549.000000	66.990700
550.000000	67.483367
551.000000	67.913933
552.000000	68.364400
553.000000	68.802333
554.000000	69.201667
555.000000	69.571600
556.000000	69.919167
557.000000	70.226100
558.000000	70.508133
559.000000	70.807333
560.000000	70.988833
561.000000	71.247767
562.000000	71.496167
563.000000	71.740433
564.000000	71.957467
565.000000	72.153600
566.000000	72.343567
567.000000	72.483833
568.000000	72.639533
569.000000	72.781700
570.000000	72.913967
571.000000	73.030600
572.000000	73.145933
573.000000	73.279167
574.000000	73.340800
575.000000	73.399033
576.000000	73.431433
577.000000	73.434467
578.000000	73.427767
579.000000	73.401133
580.000000	73.378533
581.000000	73.343100
582.000000	73.320067
583.000000	73.219300
584.000000	73.141800
585.000000	73.049533
586.000000	72.946533
587.000000	72.783600
588.000000	72.629533
589.000000	72.447767
590.000000	72.237233
591.000000	71.980067
592.000000	71.769367
593.000000	71.533600
594.000000	71.274833
595.000000	71.006867
596.000000	70.738300
597.000000	70.457267
598.000000	70.150100
599.000000	69.871600
600.000000	69.487833
601.000000	69.120567
602.000000	68.732433
603.000000	68.345733
604.000000	67.935767
605.000000	67.521100
606.000000	67.091467
607.000000	66.676400
608.000000	66.221167
609.000000	65.757200
610.000000	65.307233
611.000000	64.822433
612.000000	64.347167
613.000000	63.874433
614.000000	63.370000
615.000000	62.858067
616.000000	62.377267
617.000000	61.899367
618.000000	61.446733
619.000000	60.981067
620.000000	60.522033
621.000000	60.079300
622.000000	59.694033
623.000000	59.344367
624.000000	58.985500
625.000000	58.675933
626.000000	58.379333
627.000000	58.134400
628.000000	57.884833
629.000000	57.721867
630.000000	57.533333
631.000000	57.387900
632.000000	57.263833
633.000000	57.169133
634.000000	57.148767
635.000000	57.112433
636.000000	57.094833
637.000000	57.077267
638.000000	57.116933
639.000000	57.137467
640.000000	57.197533
641.000000	57.249667
642.000000	57.315400
643.000000	57.362867
644.000000	57.449700
645.000000	57.503267
646.000000	57.554067
647.000000	57.643967
648.000000	57.718233
649.000000	57.800267
650.000000	57.886067
651.000000	57.927300
652.000000	58.037700
653.000000	58.108167
654.000000	58.201300
655.000000	58.276667
656.000000	58.351467
657.000000	58.426067
658.000000	58.528433
659.000000	58.600767
660.000000	58.717867
661.000000	58.842000
662.000000	58.967767
663.000000	59.095733
664.000000	59.260167
665.000000	59.422300
666.000000	59.596233
667.000000	59.794700
668.000000	60.015333
669.000000	60.222500
670.000000	60.424533
671.000000	60.704867
672.000000	60.984167
673.000000	61.247933
674.000000	61.558733
675.000000	61.837300
676.000000	62.134400
677.000000	62.478300
678.000000	62.799933
679.000000	63.122133
680.000000	63.454967
681.000000	63.764033
682.000000	64.079967
683.000000	64.383800
684.000000	64.660833
685.000000	64.931233
686.000000	65.194100
687.000000	65.424200
688.000000	65.645233
689.000000	65.861267
690.000000	66.076267
691.000000	66.281067
692.000000	66.467033
693.000000	66.650833
694.000000	66.840067
695.000000	67.017500
696.000000	67.193400
697.000000	67.372200
698.000000	67.535367
699.000000	67.744100
700.000000	67.919467
701.000000	68.144233
702.000000	68.323800
703.000000	68.531733
704.000000	68.763967
705.000000	68.983733
706.000000	69.209967
707.000000	69.476333
708.000000	69.750367
709.000000	70.027000
710.000000	70.324533
711.000000	70.652233
712.000000	70.970433
713.000000	71.307933
714.000000	71.646567
715.000000	72.031067
716.000000	72.464600
717.000000	72.876367
718.000000	73.322633
719.000000	73.812033
720.000000	74.268833
721.000000	74.761867
722.000000	75.260100
723.000000	75.748100
724.000000	76.273600
725.000000	76.808967
726.000000	77.332700
727.000000	77.828767
728.000000	78.290833
729.000000	78.809833
730.000000	79.314500
731.000000	79.764133
732.000000	80.244833
733.000000	80.684633
734.000000	81.110933
735.000000	81.549700
736.000000	81.948600
737.000000	82.293167
738.000000	82.652933
739.000000	82.984000
740.000000	83.329900
741.000000	83.654067
742.000000	83.910267
743.000000	84.152700
744.000000	84.455167
745.000000	84.769267
746.000000	84.982200
747.000000	85.177767
748.000000	85.404267
749.000000	85.616933
750.000000	85.799367
751.000000	85.972333
752.000000	86.181900
753.000000	86.334800
754.000000	86.499333
755.000000	86.684733
756.000000	86.850767
757.000000	86.940800
758.000000	87.097933
759.000000	87.219467
760.000000	87.283433
761.000000	87.447133
762.000000	87.560333
763.000000	87.657800
764.000000	87.758133
765.000000	87.840200
766.000000	87.913733
767.000000	87.946933
768.000000	88.022233
769.000000	88.100700
770.000000	88.148700
771.000000	88.191900
772.000000	88.205800
773.000000	88.235167
774.000000	88.267533
775.000000	88.364500
776.000000	88.400500
777.000000	88.418033
778.000000	88.499733
779.000000	88.584367
780.000000	88.596267
781.000000	88.627000
782.000000	88.649967
783.000000	88.727867
784.000000	88.766133
785.000000	88.870800
786.000000	88.935100
787.000000	88.932367
788.000000	88.956233
789.000000	88.946267
790.000000	88.996700
791.000000	89.063800
792.000000	89.109533
793.000000	89.038367
794.000000	89.114400
795.000000	89.130067
796.000000	89.116367
797.000000	89.162567
798.000000	89.051033
799.000000	89.014000
800.000000	88.976667
801.000000	88.993000
802.000000	88.890300
803.000000	88.782633
804.000000	88.699167
805.000000	88.634733
806.000000	88.531333
807.000000	88.404900
808.000000	88.336300
809.000000	88.294800
810.000000	88.160567
811.000000	88.011367
812.000000	87.700700
813.000000	87.532733
814.000000	87.394033
815.000000	87.173367
816.000000	86.915933
817.000000	86.681633
818.000000	86.435200
819.000000	86.271300
820.000000	86.019033
821.000000	85.668000
822.000000	85.350867
823.000000	85.115333
824.000000	84.766367
825.000000	84.462000
826.000000	84.096600
827.000000	83.787867
828.000000	83.521500
829.000000	83.191767
830.000000	82.790067
831.000000	82.494933
832.000000	82.124233
833.000000	81.806800
834.000000	81.573833
835.000000	81.265300
836.000000	80.790900
837.000000	80.447400
838.000000	80.158867
839.000000	79.779333
840.000000	79.441767
841.000000	79.262933
842.000000	78.763033
843.000000	78.587267
844.000000	78.200833
845.000000	77.989233
846.000000	77.551933
847.000000	77.240900
848.000000	76.840233
849.000000	76.380433
850.000000	76.089400
851.000000	75.692600
852.000000	75.466667
853.000000	75.052200
854.000000	74.985700
855.000000	74.623833
856.000000	74.258700
857.000000	73.887700
858.000000	74.256744
859.000000	73.611485
860.000000	73.578699
861.000000	73.544897
862.000000	73.521936
863.000000	73.463445
864.000000	73.348732
865.000000	73.223852
866.000000	73.111617
867.000000	72.995952
868.000000	72.853488
869.000000	72.739270
870.000000	72.600018
871.000000	72.429047
872.000000	72.318481
873.000000	72.168863
874.000000	72.044110
875.000000	71.891813
876.000000	71.753022
877.000000	71.623002
878.000000	71.496376
879.000000	71.338088
880.000000	71.223042
881.000000	71.071376
882.000000	70.950243
883.000000	70.814681
884.000000	70.681272
885.000000	70.551231
886.000000	70.422678
887.000000	70.274021
888.000000	70.123532
889.000000	70.012034
890.000000	69.871157
891.000000	69.735204
892.000000	69.595415
893.000000	69.435880
894.000000	69.299921
895.000000	69.147462
896.000000	68.995675
897.000000	68.854441
898.000000	68.705348
899.000000	68.558798
900.000000	68.367293
901.000000	68.210586
902.000000	68.071509
903.000000	67.919480
904.000000	67.757257
905.000000	67.627770
906.000000	67.459100
907.000000	67.327456
908.000000	67.206626
909.000000	67.106010
910.000000	66.989498
911.000000	66.856352
912.000000	66.744494
913.000000	66.640215
914.000000	66.540272
915.000000	66.423250
916.000000	66.316629
917.000000	66.214724
918.000000	66.102607
919.000000	65.985642
920.000000	65.862838
921.000000	65.760535
922.000000	65.611159
923.000000	65.495312
924.000000	65.385031
925.000000	65.274611
926.000000	65.166074
927.000000	65.028846
928.000000	64.922146
929.000000	64.818251
930.000000	64.708442
931.000000	64.608078
932.000000	64.495185
933.000000	64.356238
934.000000	64.246159
935.000000	64.114914
936.000000	64.012105
937.000000	63.907633
938.000000	63.795041
939.000000	63.681879
940.000000	63.593716
941.000000	63.505861
942.000000	63.408326
943.000000	63.315422
944.000000	63.240900
945.000000	63.138200
946.000000	63.061416
947.000000	62.989016
948.000000	62.904037
949.000000	62.830124
950.000000	62.746022
951.000000	62.671987
952.000000	62.589078
953.000000	62.514388
954.000000	62.440001
955.000000	62.341624
956.000000	62.237181
957.000000	62.152555
958.000000	62.054726
959.000000	61.964263
960.000000	61.860320
961.000000	61.760878
962.000000	61.668067
963.000000	61.585772
964.000000	61.503129
965.000000	61.420073
966.000000	61.357545
967.000000	61.290097
968.000000	61.230693
969.000000	61.168963
970.000000	61.114087
971.000000	61.037710
972.000000	60.989249
973.000000	60.932596
974.000000	60.864958
975.000000	60.830528
976.000000	60.787211
977.000000	60.733811
978.000000	60.683738
979.000000	60.654879
980.000000	60.611233
981.000000	60.563067
982.000000	60.515029
983.000000	60.489617
984.000000	60.451329
985.000000	60.428089
986.000000	60.396631
987.000000	60.369547
988.000000	60.342925
989.000000	60.318264
990.000000	60.309981
991.000000	60.293651
992.000000	60.284298
993.000000	60.284672
994.000000	60.279028
995.000000	60.274444
996.000000	60.273228
997.000000	60.259288
998.000000	60.250236
999.000000	60.260716
1000.000000	60.262309
1001.000000	60.261394
1002.000000	60.259353
1003.000000	60.266711
1004.000000	60.283999
1005.000000	60.286323
1006.000000	60.286704
1007.000000	60.301612
1008.000000	60.299618
1009.000000	60.310299
1010.000000	60.320597
1011.000000	60.331990
1012.000000	60.355449
1013.000000	60.384892
1014.000000	60.423593
1015.000000	60.484743
1016.000000	60.550755
1017.000000	60.615557
1018.000000	60.693833
1019.000000	60.765931
1020.000000	60.849788
1021.000000	60.943757
1022.000000	61.032936
1023.000000	61.128734
1024.000000	61.229404
1025.000000	61.328221
1026.000000	61.418199
1027.000000	61.520608
1028.000000	61.620542
1029.000000	61.716264
1030.000000	61.803634
1031.000000	61.888835
1032.000000	61.972869
1033.000000	62.057921
1034.000000	62.150718
1035.000000	62.233596
1036.000000	62.314687
1037.000000	62.397378
1038.000000	62.477416
1039.000000	62.547701
1040.000000	62.626629
1041.000000	62.706227
1042.000000	62.774357
1043.000000	62.846733
1044.000000	62.923552
1045.000000	63.009283
1046.000000	63.086568
1047.000000	63.161526
1048.000000	63.248104
1049.000000	63.340894
1050.000000	63.423777
1051.000000	63.505377
1052.000000	63.597814
1053.000000	63.703384
1054.000000	63.803138
1055.000000	63.907691
1056.000000	64.006711
1057.000000	64.108998
1058.000000	64.207985
1059.000000	64.298467
1060.000000	64.394428
1061.000000	64.486718
1062.000000	64.588442
1063.000000	64.692698
1064.000000	64.786604
1065.000000	64.877543
1066.000000	64.977106
1067.000000	65.071801
1068.000000	65.155012
1069.000000	65.246474
1070.000000	65.344291
1071.000000	65.429865
1072.000000	65.512237
1073.000000	65.605757
1074.000000	65.692913
1075.000000	65.780713
1076.000000	65.865139
1077.000000	65.952897
1078.000000	66.035193
1079.000000	66.124085
1080.000000	66.222609
1081.000000	66.313575
1082.000000	66.408489
1083.000000	66.496623
1084.000000	66.585614
1085.000000	66.686723
1086.000000	66.780964
1087.000000	66.882647
1088.000000	66.969827
1089.000000	67.060764
1090.000000	67.146469
1091.000000	67.242073
1092.000000	67.326263
1093.000000	67.410670
1094.000000	67.482346
1095.000000	67.562366
1096.000000	67.641543
1097.000000	67.714260
1098.000000	67.778934
1099.000000	67.843846
1100.000000	67.906445
1101.000000	67.966979
1102.000000	68.018996
1103.000000	68.070562
1104.000000	68.125709
1105.000000	68.172683
1106.000000	68.229580
1107.000000	68.270507
1108.000000	68.310795
1109.000000	68.356129
1110.000000	68.398502
1111.000000	68.441545
1112.000000	68.467454
1113.000000	68.507152
1114.000000	68.550206
1115.000000	68.594420
1116.000000	68.623556
1117.000000	68.652146
1118.000000	68.668811
1119.000000	68.669209
1120.000000	68.668664
1121.000000	68.639999
1122.000000	68.604541
1123.000000	68.548776
1124.000000	68.490885
1125.000000	68.410491
1126.000000	68.333705
1127.000000	68.210049
1128.000000	68.070534
1129.000000	67.906325
1130.000000	67.665973
1131.000000	67.385590
1132.000000	67.069369
1133.000000	66.754325
1134.000000	66.433084
1135.000000	66.001991
1136.000000	65.548576
1137.000000	65.076106
1138.000000	64.624856
1139.000000	64.185813
1140.000000	63.758560
1141.000000	63.367898
1142.000000	62.971019
1143.000000	62.579584
1144.000000	62.250961
1145.000000	61.975690
1146.000000	61.778540
1147.000000	61.676384
1148.000000	61.671494
1149.000000	61.698624
1150.000000	61.745616
1151.000000	61.800431
1152.000000	61.827583
1153.000000	61.811155
1154.000000	61.735348
1155.000000	61.569313
1156.000000	61.343682
1157.000000	61.049196
1158.000000	60.679737
1159.000000	60.302397
1160.000000	59.881208
1161.000000	59.457757
1162.000000	59.029618
1163.000000	58.563364
1164.000000	58.113688
1165.000000	57.661616
1166.000000	57.217010
