PE UV       SUBTECH     SPECTRUM    ASCII       PEDS        4.00        
   -1
CICIMAUCR0008-5.Sample.ASC
24/04/25
10:02:58.00
24/04/25
10:02:58.00
Vinicio Soto Monge
C. kalinini
250,000000
1
Lambda 1050
1050L1511233
PerkinElmer UV WinLab 6.3.2.0749 / 2.02.05 Lambda 900 UV/VIS/NIR, Aug  7 2015 09:38:08

0
0
3350/servo 860,8/2
0
0
UV/VIS
1
1
1
DoubleDePol,CommonBeamDepol,RBeamAtt,SBeamAtt,60mm sphere, WB InGaAs Detector
0
0
0
0
Program
Program
3350/servo 860,8/2
3350/0,2 860,8/0,2
3350/0,2 860,8/0,2
0
15.00
 
 
 
0
 
860,8
319,2
860,8
Front
100
on
S:100 R:100
0
0
0
0
 
0
 
 
 
0
 
 
0
0
0
0
0
 
 
 
 
0
0


0
0
#HDR
-1
-1
#GR
nm
%R
1.0
0.0
2500,000000
-1,000000
2251
8
95,184700
4,916500
#DATA
250.000000	5.152933
251.000000	5.116800
252.000000	5.088767
253.000000	5.104833
254.000000	5.092867
255.000000	5.100600
256.000000	5.083700
257.000000	5.094733
258.000000	5.060667
259.000000	5.041667
260.000000	5.015367
261.000000	5.047800
262.000000	5.016800
263.000000	5.005500
264.000000	4.964167
265.000000	4.948033
266.000000	4.937600
267.000000	4.933767
268.000000	4.920400
269.000000	4.912633
270.000000	4.871433
271.000000	4.860433
272.000000	4.862267
273.000000	4.864233
274.000000	4.828533
275.000000	4.822000
276.000000	4.809067
277.000000	4.825500
278.000000	4.799233
279.000000	4.849667
280.000000	4.812867
281.000000	4.788767
282.000000	4.776033
283.000000	4.782400
284.000000	4.773767
285.000000	4.758767
286.000000	4.741067
287.000000	4.765833
288.000000	4.731833
289.000000	4.770167
290.000000	4.757267
291.000000	4.714367
292.000000	4.776867
293.000000	4.745233
294.000000	4.740567
295.000000	4.713733
296.000000	4.731967
297.000000	4.741000
298.000000	4.734567
299.000000	4.729267
300.000000	4.687033
301.000000	4.707500
302.000000	4.719467
303.000000	4.694833
304.000000	4.712000
305.000000	4.714833
306.000000	4.709667
307.000000	4.716567
308.000000	4.707067
309.000000	4.696367
310.000000	4.679567
311.000000	4.691967
312.000000	4.675133
313.000000	4.678733
314.000000	4.674867
315.000000	4.663100
316.000000	4.759267
317.000000	5.351700
318.000000	5.105767
319.000000	5.109733
320.000000	5.003267
321.000000	5.091667
322.000000	5.109400
323.000000	5.161500
324.000000	5.137033
325.000000	5.035533
326.000000	4.974467
327.000000	4.966667
328.000000	4.932233
329.000000	5.000833
330.000000	4.948967
331.000000	4.944433
332.000000	4.968033
333.000000	5.007300
334.000000	4.975133
335.000000	4.897633
336.000000	4.929333
337.000000	4.988533
338.000000	4.962400
339.000000	4.923733
340.000000	5.024167
341.000000	5.031667
342.000000	4.916833
343.000000	5.003067
344.000000	5.068467
345.000000	5.055267
346.000000	5.020233
347.000000	5.044700
348.000000	5.083400
349.000000	5.072933
350.000000	5.110800
351.000000	5.160900
352.000000	5.132633
353.000000	5.172500
354.000000	5.260667
355.000000	5.241133
356.000000	5.260733
357.000000	5.292333
358.000000	5.357133
359.000000	5.390900
360.000000	5.350500
361.000000	5.417267
362.000000	5.494233
363.000000	5.483900
364.000000	5.526867
365.000000	5.511467
366.000000	5.597667
367.000000	5.574267
368.000000	5.608333
369.000000	5.674600
370.000000	5.671333
371.000000	5.713167
372.000000	5.808533
373.000000	5.887733
374.000000	5.888900
375.000000	6.019067
376.000000	6.257167
377.000000	6.272000
378.000000	6.366333
379.000000	6.475333
380.000000	6.576700
381.000000	6.701900
382.000000	6.813233
383.000000	6.931867
384.000000	7.069900
385.000000	7.221067
386.000000	7.374100
387.000000	7.541467
388.000000	7.710900
389.000000	7.888800
390.000000	8.088633
391.000000	8.290700
392.000000	8.502633
393.000000	8.736100
394.000000	8.983467
395.000000	9.226100
396.000000	9.472267
397.000000	9.741767
398.000000	10.018400
399.000000	10.302833
400.000000	10.602433
401.000000	10.920500
402.000000	11.233200
403.000000	11.561300
404.000000	11.910233
405.000000	12.257367
406.000000	12.602500
407.000000	12.960000
408.000000	13.323667
409.000000	13.691033
410.000000	14.057633
411.000000	14.431500
412.000000	14.818900
413.000000	15.209100
414.000000	15.591667
415.000000	15.969967
416.000000	16.333933
417.000000	16.705700
418.000000	17.072700
419.000000	17.425267
420.000000	17.781100
421.000000	18.124967
422.000000	18.462633
423.000000	18.788533
424.000000	19.102067
425.000000	19.397000
426.000000	19.679933
427.000000	19.957400
428.000000	20.201867
429.000000	20.445433
430.000000	20.697133
431.000000	20.925000
432.000000	21.141367
433.000000	21.353033
434.000000	21.551833
435.000000	21.753100
436.000000	21.937267
437.000000	22.095333
438.000000	22.262567
439.000000	22.420800
440.000000	22.567833
441.000000	22.714333
442.000000	22.846167
443.000000	22.976500
444.000000	23.091333
445.000000	23.177033
446.000000	23.257933
447.000000	23.335533
448.000000	23.394433
449.000000	23.459433
450.000000	23.529600
451.000000	23.591233
452.000000	23.642000
453.000000	23.681000
454.000000	23.717800
455.000000	23.750567
456.000000	23.786267
457.000000	23.814567
458.000000	23.849567
459.000000	23.882200
460.000000	23.908400
461.000000	23.940533
462.000000	23.972400
463.000000	24.014567
464.000000	24.063067
465.000000	24.118933
466.000000	24.186800
467.000000	24.282600
468.000000	24.378333
469.000000	24.483367
470.000000	24.622633
471.000000	24.777500
472.000000	24.948567
473.000000	25.152200
474.000000	25.373167
475.000000	25.617767
476.000000	25.885500
477.000000	26.176067
478.000000	26.501833
479.000000	26.836500
480.000000	27.212967
481.000000	27.625500
482.000000	28.037067
483.000000	28.460167
484.000000	28.881800
485.000000	29.300200
486.000000	29.712200
487.000000	30.143900
488.000000	30.570600
489.000000	30.989600
490.000000	31.402267
491.000000	31.819933
492.000000	32.221367
493.000000	32.615667
494.000000	32.984500
495.000000	33.343067
496.000000	33.709333
497.000000	34.065567
498.000000	34.418200
499.000000	34.754733
500.000000	35.096333
501.000000	35.458133
502.000000	35.830200
503.000000	36.199600
504.000000	36.599500
505.000000	37.004533
506.000000	37.415500
507.000000	37.841433
508.000000	38.283233
509.000000	38.765300
510.000000	39.262067
511.000000	39.786400
512.000000	40.327933
513.000000	40.901833
514.000000	41.497900
515.000000	42.113500
516.000000	42.756900
517.000000	43.393833
518.000000	44.052033
519.000000	44.709600
520.000000	45.382567
521.000000	46.071000
522.000000	46.750767
523.000000	47.421167
524.000000	48.082900
525.000000	48.751667
526.000000	49.404367
527.000000	50.063500
528.000000	50.718200
529.000000	51.358200
530.000000	51.984733
531.000000	52.570033
532.000000	53.165933
533.000000	53.756833
534.000000	54.336833
535.000000	54.880800
536.000000	55.426633
537.000000	55.940633
538.000000	56.443567
539.000000	56.933467
540.000000	57.401233
541.000000	57.845033
542.000000	58.283900
543.000000	58.680633
544.000000	59.099267
545.000000	59.464000
546.000000	59.806500
547.000000	60.147767
548.000000	60.477900
549.000000	60.815433
550.000000	61.134400
551.000000	61.444500
552.000000	61.709433
553.000000	61.975167
554.000000	62.223767
555.000000	62.442500
556.000000	62.650833
557.000000	62.847467
558.000000	63.041733
559.000000	63.195767
560.000000	63.192267
561.000000	63.324200
562.000000	63.473667
563.000000	63.607567
564.000000	63.730333
565.000000	63.827633
566.000000	63.890200
567.000000	63.950167
568.000000	63.991933
569.000000	64.060100
570.000000	64.102400
571.000000	64.133600
572.000000	64.183300
573.000000	64.217533
574.000000	64.209367
575.000000	64.166967
576.000000	64.154467
577.000000	64.078267
578.000000	63.988933
579.000000	63.904633
580.000000	63.811567
581.000000	63.691367
582.000000	63.537067
583.000000	63.395633
584.000000	63.241300
585.000000	63.044700
586.000000	62.830167
587.000000	62.593600
588.000000	62.345000
589.000000	62.085133
590.000000	61.835300
591.000000	61.570533
592.000000	61.319300
593.000000	61.008000
594.000000	60.770633
595.000000	60.515433
596.000000	60.250767
597.000000	59.954533
598.000000	59.671933
599.000000	59.358333
600.000000	59.033267
601.000000	58.736900
602.000000	58.400167
603.000000	58.071933
604.000000	57.732467
605.000000	57.411967
606.000000	57.074367
607.000000	56.806233
608.000000	56.516433
609.000000	56.248400
610.000000	55.996833
611.000000	55.759733
612.000000	55.525167
613.000000	55.289767
614.000000	55.078700
615.000000	54.845000
616.000000	54.683600
617.000000	54.504567
618.000000	54.358800
619.000000	54.213867
620.000000	54.105467
621.000000	53.999667
622.000000	53.916633
623.000000	53.846400
624.000000	53.789433
625.000000	53.789567
626.000000	53.814133
627.000000	53.884200
628.000000	53.986167
629.000000	54.123967
630.000000	54.305967
631.000000	54.508233
632.000000	54.769433
633.000000	55.037767
634.000000	55.325700
635.000000	55.635167
636.000000	55.974100
637.000000	56.288667
638.000000	56.650467
639.000000	57.037500
640.000000	57.401233
641.000000	57.782633
642.000000	58.144367
643.000000	58.550700
644.000000	58.928133
645.000000	59.306400
646.000000	59.672033
647.000000	59.998400
648.000000	60.360867
649.000000	60.674600
650.000000	60.987900
651.000000	61.297433
652.000000	61.611100
653.000000	61.937200
654.000000	62.214467
655.000000	62.504200
656.000000	62.746167
657.000000	63.027600
658.000000	63.286767
659.000000	63.519033
660.000000	63.765000
661.000000	64.007567
662.000000	64.264600
663.000000	64.527933
664.000000	64.789367
665.000000	65.049700
666.000000	65.326767
667.000000	65.629200
668.000000	65.966533
669.000000	66.313933
670.000000	66.685467
671.000000	67.080867
672.000000	67.454700
673.000000	67.879167
674.000000	68.299500
675.000000	68.756000
676.000000	69.205033
677.000000	69.677300
678.000000	70.148767
679.000000	70.613267
680.000000	71.105233
681.000000	71.590733
682.000000	72.049933
683.000000	72.555600
684.000000	73.051733
685.000000	73.555900
686.000000	74.033933
687.000000	74.458900
688.000000	74.844200
689.000000	75.255500
690.000000	75.634533
691.000000	76.017133
692.000000	76.410600
693.000000	76.761567
694.000000	77.071267
695.000000	77.381933
696.000000	77.684833
697.000000	77.917833
698.000000	78.164133
699.000000	78.396533
700.000000	78.627367
701.000000	78.840200
702.000000	79.048767
703.000000	79.241733
704.000000	79.439300
705.000000	79.635767
706.000000	79.812067
707.000000	79.951700
708.000000	80.084967
709.000000	80.239767
710.000000	80.353367
711.000000	80.483933
712.000000	80.598233
713.000000	80.762800
714.000000	80.896233
715.000000	80.999233
716.000000	81.130567
717.000000	81.239933
718.000000	81.323967
719.000000	81.431067
720.000000	81.562967
721.000000	81.704967
722.000000	81.817567
723.000000	81.918967
724.000000	82.015700
725.000000	82.064400
726.000000	82.179567
727.000000	82.292467
728.000000	82.311033
729.000000	82.359367
730.000000	82.474167
731.000000	82.549267
732.000000	82.623600
733.000000	82.664933
734.000000	82.708467
735.000000	82.747567
736.000000	82.780033
737.000000	82.824300
738.000000	82.861700
739.000000	82.861833
740.000000	82.894900
741.000000	82.940367
742.000000	82.966433
743.000000	82.963500
744.000000	82.927300
745.000000	82.910467
746.000000	82.920933
747.000000	82.938200
748.000000	82.909067
749.000000	82.850933
750.000000	82.804533
751.000000	82.734233
752.000000	82.648300
753.000000	82.567500
754.000000	82.479867
755.000000	82.408967
756.000000	82.285833
757.000000	82.190467
758.000000	82.145133
759.000000	82.053733
760.000000	81.919600
761.000000	81.779833
762.000000	81.637333
763.000000	81.476100
764.000000	81.316467
765.000000	81.127100
766.000000	80.908267
767.000000	80.698800
768.000000	80.501100
769.000000	80.346900
770.000000	80.144800
771.000000	79.885600
772.000000	79.605533
773.000000	79.347800
774.000000	79.074067
775.000000	78.818533
776.000000	78.525400
777.000000	78.273700
778.000000	78.003867
779.000000	77.684433
780.000000	77.325633
781.000000	76.988267
782.000000	76.636167
783.000000	76.273267
784.000000	75.909633
785.000000	75.459033
786.000000	75.114500
787.000000	74.808967
788.000000	74.404033
789.000000	74.032233
790.000000	73.619267
791.000000	73.227600
792.000000	72.775367
793.000000	72.340233
794.000000	71.973100
795.000000	71.631233
796.000000	71.203267
797.000000	70.770167
798.000000	70.404733
799.000000	69.984700
800.000000	69.608500
801.000000	69.205567
802.000000	68.714167
803.000000	68.352967
804.000000	67.991300
805.000000	67.573067
806.000000	67.181033
807.000000	66.831467
808.000000	66.428300
809.000000	66.057700
810.000000	65.672333
811.000000	65.338900
812.000000	64.991367
813.000000	64.670600
814.000000	64.348933
815.000000	64.003667
816.000000	63.690033
817.000000	63.402200
818.000000	63.130900
819.000000	62.837600
820.000000	62.630533
821.000000	62.398667
822.000000	62.164733
823.000000	61.897867
824.000000	61.826233
825.000000	61.627767
826.000000	61.320633
827.000000	61.177133
828.000000	61.068333
829.000000	60.951200
830.000000	60.853533
831.000000	60.790267
832.000000	60.584633
833.000000	60.409867
834.000000	60.369000
835.000000	60.270467
836.000000	60.224000
837.000000	60.113867
838.000000	59.923600
839.000000	59.825367
840.000000	59.806033
841.000000	59.659033
842.000000	59.549600
843.000000	59.384400
844.000000	59.116500
845.000000	59.075100
846.000000	59.061367
847.000000	58.795333
848.000000	58.779133
849.000000	58.771500
850.000000	58.404867
851.000000	58.362167
852.000000	58.181267
853.000000	57.938433
854.000000	57.650900
855.000000	57.539200
856.000000	57.511167
857.000000	57.576967
858.000000	57.542444
859.000000	56.404949
860.000000	56.231386
861.000000	56.044295
862.000000	55.864860
863.000000	55.681320
864.000000	55.516425
865.000000	55.328347
866.000000	55.120440
867.000000	54.946501
868.000000	54.857628
869.000000	54.913681
870.000000	55.051995
871.000000	55.167310
872.000000	55.294399
873.000000	55.404612
874.000000	55.473920
875.000000	55.492849
876.000000	55.520421
877.000000	55.516371
878.000000	55.519265
879.000000	55.524632
880.000000	55.508218
881.000000	55.495916
882.000000	55.475364
883.000000	55.456999
884.000000	55.446322
885.000000	55.411561
886.000000	55.318136
887.000000	55.237150
888.000000	55.223994
889.000000	55.148032
890.000000	55.091593
891.000000	55.031906
892.000000	54.960057
893.000000	54.830372
894.000000	54.718305
895.000000	54.614626
896.000000	54.533631
897.000000	54.434805
898.000000	54.314326
899.000000	54.177111
900.000000	54.053992
901.000000	53.925463
902.000000	53.792859
903.000000	53.657195
904.000000	53.536374
905.000000	53.433830
906.000000	53.321505
907.000000	53.182108
908.000000	53.064714
909.000000	52.960928
910.000000	52.874703
911.000000	52.780588
912.000000	52.686746
913.000000	52.599076
914.000000	52.525796
915.000000	52.461528
916.000000	52.399896
917.000000	52.330083
918.000000	52.234226
919.000000	52.157538
920.000000	52.096981
921.000000	52.022171
922.000000	51.954570
923.000000	51.864895
924.000000	51.796888
925.000000	51.726777
926.000000	51.675301
927.000000	51.634672
928.000000	51.568103
929.000000	51.514220
930.000000	51.466332
931.000000	51.412078
932.000000	51.360967
933.000000	51.294418
934.000000	51.242705
935.000000	51.178414
936.000000	51.110304
937.000000	51.070485
938.000000	51.022638
939.000000	50.987695
940.000000	50.940364
941.000000	50.900502
942.000000	50.859756
943.000000	50.829669
944.000000	50.805752
945.000000	50.780405
946.000000	50.777314
947.000000	50.760959
948.000000	50.731106
949.000000	50.699929
950.000000	50.688010
951.000000	50.672028
952.000000	50.638476
953.000000	50.621954
954.000000	50.590586
955.000000	50.573777
956.000000	50.535138
957.000000	50.515652
958.000000	50.485425
959.000000	50.466294
960.000000	50.438070
961.000000	50.403827
962.000000	50.378753
963.000000	50.369145
964.000000	50.353593
965.000000	50.347048
966.000000	50.344342
967.000000	50.331838
968.000000	50.327678
969.000000	50.335457
970.000000	50.342860
971.000000	50.350950
972.000000	50.337849
973.000000	50.337688
974.000000	50.351052
975.000000	50.345585
976.000000	50.349283
977.000000	50.353557
978.000000	50.352831
979.000000	50.359083
980.000000	50.369192
981.000000	50.369344
982.000000	50.372040
983.000000	50.377126
984.000000	50.377239
985.000000	50.387660
986.000000	50.398871
987.000000	50.390925
988.000000	50.392729
989.000000	50.398778
990.000000	50.399922
991.000000	50.407978
992.000000	50.415276
993.000000	50.437231
994.000000	50.449112
995.000000	50.450647
996.000000	50.470489
997.000000	50.488926
998.000000	50.502754
999.000000	50.512416
1000.000000	50.535658
1001.000000	50.560897
1002.000000	50.579687
1003.000000	50.596455
1004.000000	50.602186
1005.000000	50.618098
1006.000000	50.635840
1007.000000	50.650779
1008.000000	50.659698
1009.000000	50.673621
1010.000000	50.690095
1011.000000	50.711238
1012.000000	50.736685
1013.000000	50.770218
1014.000000	50.809524
1015.000000	50.856615
1016.000000	50.911752
1017.000000	50.970400
1018.000000	51.036038
1019.000000	51.099447
1020.000000	51.186051
1021.000000	51.270982
1022.000000	51.345945
1023.000000	51.430340
1024.000000	51.501103
1025.000000	51.582958
1026.000000	51.673170
1027.000000	51.759824
1028.000000	51.847271
1029.000000	51.922638
1030.000000	51.996900
1031.000000	52.077900
1032.000000	52.157448
1033.000000	52.230822
1034.000000	52.312961
1035.000000	52.379769
1036.000000	52.439207
1037.000000	52.515445
1038.000000	52.590932
1039.000000	52.650845
1040.000000	52.715818
1041.000000	52.784707
1042.000000	52.838754
1043.000000	52.900350
1044.000000	52.970637
1045.000000	53.041456
1046.000000	53.106902
1047.000000	53.174869
1048.000000	53.251335
1049.000000	53.309580
1050.000000	53.379663
1051.000000	53.457597
1052.000000	53.520687
1053.000000	53.595457
1054.000000	53.675873
1055.000000	53.760810
1056.000000	53.846187
1057.000000	53.921246
1058.000000	54.000973
1059.000000	54.091929
1060.000000	54.175709
1061.000000	54.249767
1062.000000	54.326639
1063.000000	54.405541
1064.000000	54.482287
1065.000000	54.557108
1066.000000	54.629909
1067.000000	54.698004
1068.000000	54.762875
1069.000000	54.840852
1070.000000	54.907672
1071.000000	54.975318
1072.000000	55.049778
1073.000000	55.124084
1074.000000	55.184756
1075.000000	55.250155
1076.000000	55.326270
1077.000000	55.389429
1078.000000	55.453803
1079.000000	55.524593
1080.000000	55.589739
1081.000000	55.662291
1082.000000	55.732521
1083.000000	55.803925
1084.000000	55.875549
1085.000000	55.956473
1086.000000	56.033202
1087.000000	56.110825
1088.000000	56.190984
1089.000000	56.268409
1090.000000	56.347081
1091.000000	56.416759
1092.000000	56.489652
1093.000000	56.557514
1094.000000	56.631012
1095.000000	56.695476
1096.000000	56.758796
1097.000000	56.828604
1098.000000	56.889686
1099.000000	56.951844
1100.000000	57.015469
1101.000000	57.062604
1102.000000	57.102016
1103.000000	57.146197
1104.000000	57.192612
1105.000000	57.233966
1106.000000	57.270791
1107.000000	57.309137
1108.000000	57.344967
1109.000000	57.376380
1110.000000	57.404629
1111.000000	57.437057
1112.000000	57.460370
1113.000000	57.486357
1114.000000	57.514492
1115.000000	57.549090
1116.000000	57.585518
1117.000000	57.607089
1118.000000	57.612689
1119.000000	57.606413
1120.000000	57.590494
1121.000000	57.572292
1122.000000	57.547649
1123.000000	57.505841
1124.000000	57.448750
1125.000000	57.387716
1126.000000	57.323865
1127.000000	57.230964
1128.000000	57.118228
1129.000000	56.982393
1130.000000	56.805722
1131.000000	56.578871
1132.000000	56.321816
1133.000000	56.059672
1134.000000	55.773007
1135.000000	55.450733
1136.000000	55.071418
1137.000000	54.663347
1138.000000	54.258350
1139.000000	53.858744
1140.000000	53.475942
1141.000000	53.105864
1142.000000	52.732510
1143.000000	52.383424
1144.000000	52.051031
1145.000000	51.754965
1146.000000	51.508911
1147.000000	51.346811
1148.000000	51.266266
1149.000000	51.250787
1150.000000	51.289753
1151.000000	51.308777
1152.000000	51.358741
1153.000000	51.355430
1154.000000	51.303812
1155.000000	51.224608
1156.000000	51.048817
1157.000000	50.832455
1158.000000	50.524811
1159.000000	50.198909
1160.000000	49.817741
1161.000000	49.434880
1162.000000	49.022412
1163.000000	48.615381
1164.000000	48.172645
1165.000000	47.741732
1166.000000	47.290416
1167.000000	46.851254
