PE UV       SUBTECH     SPECTRUM    ASCII       PEDS        4.00        
   -1
CICIMAUCR0021-3.Sample.ASC
24/04/17
14:19:58.00
24/04/17
14:19:58.00
Vinicio Soto Monge
C. resplendens. 
250,000000
1
Lambda 1050
1050L1511233
PerkinElmer UV WinLab 6.3.2.0749 / 2.02.05 Lambda 900 UV/VIS/NIR, Aug  7 2015 09:38:08

0
0
3350/servo 860,8/2
0
0
UV/VIS
1
1
1
DoubleDePol,CommonBeamDepol,RBeamAtt,SBeamAtt,60mm sphere, WB InGaAs Detector
0
0
0
0
Program
Program
3350/servo 860,8/2
3350/0,2 860,8/0,2
3350/0,2 860,8/0,2
0
15.00
 
 
 
0
 
860,8
319,2
860,8
Front
100
on
S:100 R:100
0
0
0
0
 
0
 
 
 
0
 
 
0
0
0
0
0
 
 
 
 
0
0


0
0
#HDR
-1
-1
#GR
nm
%R
1.0
0.0
2500,000000
-1,000000
2251
8
79,251800
5,023200
#DATA
250.000000	4.810733
251.000000	4.811067
252.000000	4.789733
253.000000	4.784733
254.000000	4.791533
255.000000	4.778300
256.000000	4.767100
257.000000	4.784533
258.000000	4.746667
259.000000	4.762067
260.000000	4.725000
261.000000	4.704700
262.000000	4.703633
263.000000	4.659867
264.000000	4.655500
265.000000	4.650700
266.000000	4.596200
267.000000	4.623333
268.000000	4.605300
269.000000	4.603867
270.000000	4.542467
271.000000	4.537067
272.000000	4.550467
273.000000	4.527033
274.000000	4.489000
275.000000	4.518667
276.000000	4.509867
277.000000	4.492800
278.000000	4.531367
279.000000	4.522467
280.000000	4.432033
281.000000	4.460267
282.000000	4.473233
283.000000	4.480533
284.000000	4.463933
285.000000	4.461033
286.000000	4.478333
287.000000	4.492900
288.000000	4.476367
289.000000	4.467200
290.000000	4.423900
291.000000	4.465900
292.000000	4.471967
293.000000	4.439233
294.000000	4.422800
295.000000	4.435100
296.000000	4.431400
297.000000	4.448233
298.000000	4.415333
299.000000	4.396767
300.000000	4.397333
301.000000	4.399800
302.000000	4.432133
303.000000	4.434533
304.000000	4.371000
305.000000	4.372467
306.000000	4.398633
307.000000	4.396567
308.000000	4.374233
309.000000	4.412833
310.000000	4.397467
311.000000	4.371667
312.000000	4.378533
313.000000	4.373633
314.000000	4.376600
315.000000	4.385000
316.000000	4.369200
317.000000	4.717467
318.000000	4.764567
319.000000	4.568967
320.000000	4.714933
321.000000	4.870200
322.000000	4.584767
323.000000	4.604467
324.000000	4.819133
325.000000	4.713600
326.000000	4.757700
327.000000	4.635533
328.000000	4.665567
329.000000	4.564500
330.000000	4.587000
331.000000	4.569100
332.000000	4.566600
333.000000	4.600400
334.000000	4.604333
335.000000	4.545167
336.000000	4.569233
337.000000	4.679833
338.000000	4.588900
339.000000	4.637633
340.000000	4.651133
341.000000	4.668233
342.000000	4.664900
343.000000	4.685133
344.000000	4.654167
345.000000	4.658433
346.000000	4.675767
347.000000	4.608533
348.000000	4.704067
349.000000	4.722867
350.000000	4.744767
351.000000	4.759533
352.000000	4.787733
353.000000	4.737867
354.000000	4.840433
355.000000	4.910000
356.000000	4.864600
357.000000	4.923400
358.000000	4.936533
359.000000	5.035333
360.000000	5.034433
361.000000	5.068567
362.000000	5.140033
363.000000	5.163033
364.000000	5.204567
365.000000	5.212200
366.000000	5.191267
367.000000	5.231967
368.000000	5.271000
369.000000	5.296100
370.000000	5.287567
371.000000	5.380733
372.000000	5.454867
373.000000	5.452600
374.000000	5.529900
375.000000	5.561133
376.000000	5.639133
377.000000	5.551000
378.000000	5.619067
379.000000	5.692933
380.000000	5.783700
381.000000	5.879833
382.000000	5.987867
383.000000	6.073600
384.000000	6.172900
385.000000	6.284767
386.000000	6.409967
387.000000	6.531300
388.000000	6.673000
389.000000	6.823533
390.000000	6.972467
391.000000	7.130133
392.000000	7.293633
393.000000	7.459567
394.000000	7.639567
395.000000	7.824467
396.000000	8.019867
397.000000	8.226767
398.000000	8.426933
399.000000	8.638333
400.000000	8.861100
401.000000	9.086700
402.000000	9.319533
403.000000	9.565467
404.000000	9.815800
405.000000	10.064367
406.000000	10.319300
407.000000	10.584333
408.000000	10.849500
409.000000	11.118533
410.000000	11.385133
411.000000	11.666233
412.000000	11.958233
413.000000	12.245200
414.000000	12.532200
415.000000	12.820367
416.000000	13.113367
417.000000	13.404700
418.000000	13.703733
419.000000	13.990800
420.000000	14.280500
421.000000	14.584033
422.000000	14.875333
423.000000	15.172467
424.000000	15.466833
425.000000	15.745567
426.000000	16.024367
427.000000	16.297667
428.000000	16.554133
429.000000	16.807633
430.000000	17.060667
431.000000	17.303533
432.000000	17.547967
433.000000	17.793300
434.000000	18.024733
435.000000	18.251833
436.000000	18.468233
437.000000	18.669833
438.000000	18.861000
439.000000	19.050667
440.000000	19.236600
441.000000	19.410367
442.000000	19.567433
443.000000	19.729167
444.000000	19.883667
445.000000	19.995933
446.000000	20.096467
447.000000	20.198767
448.000000	20.290633
449.000000	20.383533
450.000000	20.477433
451.000000	20.559167
452.000000	20.622367
453.000000	20.682467
454.000000	20.745233
455.000000	20.790467
456.000000	20.824100
457.000000	20.870900
458.000000	20.904533
459.000000	20.925100
460.000000	20.952400
461.000000	20.969567
462.000000	20.983933
463.000000	20.997733
464.000000	21.009967
465.000000	21.021033
466.000000	21.029133
467.000000	21.027367
468.000000	21.037367
469.000000	21.042500
470.000000	21.042367
471.000000	21.042800
472.000000	21.036367
473.000000	21.021833
474.000000	21.014700
475.000000	21.020800
476.000000	21.019367
477.000000	21.012700
478.000000	21.020067
479.000000	21.033333
480.000000	21.090567
481.000000	21.178633
482.000000	21.278533
483.000000	21.392067
484.000000	21.498600
485.000000	21.617933
486.000000	21.766100
487.000000	21.952800
488.000000	22.164133
489.000000	22.391667
490.000000	22.659400
491.000000	22.957433
492.000000	23.287767
493.000000	23.655733
494.000000	24.060400
495.000000	24.481300
496.000000	24.922967
497.000000	25.395733
498.000000	25.896767
499.000000	26.419067
500.000000	26.974800
501.000000	27.531800
502.000000	28.098767
503.000000	28.682833
504.000000	29.278100
505.000000	29.894133
506.000000	30.497633
507.000000	31.091167
508.000000	31.696267
509.000000	32.297533
510.000000	32.901567
511.000000	33.510267
512.000000	34.125767
513.000000	34.725667
514.000000	35.320500
515.000000	35.920700
516.000000	36.519367
517.000000	37.118667
518.000000	37.719633
519.000000	38.323467
520.000000	38.946067
521.000000	39.568533
522.000000	40.190300
523.000000	40.829667
524.000000	41.481100
525.000000	42.154000
526.000000	42.817600
527.000000	43.479500
528.000000	44.136100
529.000000	44.810167
530.000000	45.489833
531.000000	46.184067
532.000000	46.878033
533.000000	47.557833
534.000000	48.229367
535.000000	48.908967
536.000000	49.576433
537.000000	50.235200
538.000000	50.864467
539.000000	51.472300
540.000000	52.129600
541.000000	52.732200
542.000000	53.344533
543.000000	53.932767
544.000000	54.488767
545.000000	55.026867
546.000000	55.530600
547.000000	56.014767
548.000000	56.494133
549.000000	56.965867
550.000000	57.403933
551.000000	57.809933
552.000000	58.222333
553.000000	58.562200
554.000000	58.915033
555.000000	59.254300
556.000000	59.562367
557.000000	59.867100
558.000000	60.142733
559.000000	60.393233
560.000000	60.107900
561.000000	60.279200
562.000000	60.495100
563.000000	60.669133
564.000000	60.856767
565.000000	61.038000
566.000000	61.193533
567.000000	61.351033
568.000000	61.464267
569.000000	61.608400
570.000000	61.689733
571.000000	61.786433
572.000000	61.868367
573.000000	61.923567
574.000000	61.949467
575.000000	62.002900
576.000000	62.013933
577.000000	62.050833
578.000000	62.047900
579.000000	62.043433
580.000000	62.035100
581.000000	61.998600
582.000000	61.955333
583.000000	61.912000
584.000000	61.834200
585.000000	61.764433
586.000000	61.700633
587.000000	61.642600
588.000000	61.516700
589.000000	61.410267
590.000000	61.275433
591.000000	61.129700
592.000000	60.948367
593.000000	60.781033
594.000000	60.613333
595.000000	60.415567
596.000000	60.198433
597.000000	59.979767
598.000000	59.722533
599.000000	59.491200
600.000000	59.253167
601.000000	58.962533
602.000000	58.711700
603.000000	58.438133
604.000000	58.140767
605.000000	57.820067
606.000000	57.555133
607.000000	57.287733
608.000000	56.984733
609.000000	56.678867
610.000000	56.380033
611.000000	56.075633
612.000000	55.778533
613.000000	55.458400
614.000000	55.144500
615.000000	54.870233
616.000000	54.540633
617.000000	54.211533
618.000000	53.882500
619.000000	53.546900
620.000000	53.253933
621.000000	52.903500
622.000000	52.573433
623.000000	52.227033
624.000000	51.870733
625.000000	51.525967
626.000000	51.181967
627.000000	50.841267
628.000000	50.519367
629.000000	50.175200
630.000000	49.814033
631.000000	49.460267
632.000000	49.117200
633.000000	48.764767
634.000000	48.456233
635.000000	48.185467
636.000000	47.923367
637.000000	47.640833
638.000000	47.380900
639.000000	47.089600
640.000000	46.853300
641.000000	46.583067
642.000000	46.318400
643.000000	46.046133
644.000000	45.821867
645.000000	45.564500
646.000000	45.316233
647.000000	45.032333
648.000000	44.774767
649.000000	44.511267
650.000000	44.247533
651.000000	44.050800
652.000000	43.825433
653.000000	43.615767
654.000000	43.421767
655.000000	43.271533
656.000000	43.147167
657.000000	43.030500
658.000000	42.947967
659.000000	42.853333
660.000000	42.786300
661.000000	42.762900
662.000000	42.740500
663.000000	42.715967
664.000000	42.727867
665.000000	42.763100
666.000000	42.793833
667.000000	42.835667
668.000000	42.915133
669.000000	42.992267
670.000000	43.075333
671.000000	43.178333
672.000000	43.291200
673.000000	43.430100
674.000000	43.600267
675.000000	43.813133
676.000000	43.998767
677.000000	44.194767
678.000000	44.396467
679.000000	44.622700
680.000000	44.873067
681.000000	45.133000
682.000000	45.391333
683.000000	45.686000
684.000000	45.963267
685.000000	46.242333
686.000000	46.532433
687.000000	46.781233
688.000000	47.014500
689.000000	47.315433
690.000000	47.595967
691.000000	47.910900
692.000000	48.184567
693.000000	48.441100
694.000000	48.725667
695.000000	48.970467
696.000000	49.199167
697.000000	49.444567
698.000000	49.671567
699.000000	49.900633
700.000000	50.132600
701.000000	50.340167
702.000000	50.541833
703.000000	50.743267
704.000000	50.955633
705.000000	51.144233
706.000000	51.329467
707.000000	51.511833
708.000000	51.717867
709.000000	51.877267
710.000000	52.041267
711.000000	52.226200
712.000000	52.369900
713.000000	52.506400
714.000000	52.658233
715.000000	52.807533
716.000000	52.959633
717.000000	53.093567
718.000000	53.240200
719.000000	53.385033
720.000000	53.521800
721.000000	53.650900
722.000000	53.760600
723.000000	53.890533
724.000000	54.013900
725.000000	54.130367
726.000000	54.247767
727.000000	54.371233
728.000000	54.481533
729.000000	54.598700
730.000000	54.695000
731.000000	54.804700
732.000000	54.939433
733.000000	55.072233
734.000000	55.207400
735.000000	55.317500
736.000000	55.412300
737.000000	55.538567
738.000000	55.679700
739.000000	55.808567
740.000000	55.943500
741.000000	56.060933
742.000000	56.183267
743.000000	56.315333
744.000000	56.422467
745.000000	56.524500
746.000000	56.640067
747.000000	56.765800
748.000000	56.900867
749.000000	57.027733
750.000000	57.128733
751.000000	57.247467
752.000000	57.399633
753.000000	57.493100
754.000000	57.628800
755.000000	57.792000
756.000000	57.886900
757.000000	58.009833
758.000000	58.126633
759.000000	58.271267
760.000000	58.459500
761.000000	58.573067
762.000000	58.699600
763.000000	58.875633
764.000000	59.026267
765.000000	59.166667
766.000000	59.314567
767.000000	59.463233
768.000000	59.585333
769.000000	59.706867
770.000000	59.865333
771.000000	60.036967
772.000000	60.182533
773.000000	60.321033
774.000000	60.510433
775.000000	60.657033
776.000000	60.780400
777.000000	60.957500
778.000000	61.108467
779.000000	61.247033
780.000000	61.389233
781.000000	61.521633
782.000000	61.684000
783.000000	61.792633
784.000000	61.956567
785.000000	62.109767
786.000000	62.248167
787.000000	62.318500
788.000000	62.450567
789.000000	62.537300
790.000000	62.595900
791.000000	62.691433
792.000000	62.768600
793.000000	62.888767
794.000000	62.940600
795.000000	63.021133
796.000000	63.046800
797.000000	63.138633
798.000000	63.147533
799.000000	63.214400
800.000000	63.288367
801.000000	63.280700
802.000000	63.318300
803.000000	63.339200
804.000000	63.325700
805.000000	63.323267
806.000000	63.308267
807.000000	63.250333
808.000000	63.304467
809.000000	63.330433
810.000000	63.246067
811.000000	63.172767
812.000000	63.105033
813.000000	63.082000
814.000000	62.991433
815.000000	62.951333
816.000000	62.921233
817.000000	62.802000
818.000000	62.788767
819.000000	62.695933
820.000000	62.584233
821.000000	62.546700
822.000000	62.464100
823.000000	62.340667
824.000000	62.212033
825.000000	62.225833
826.000000	62.075167
827.000000	61.980733
828.000000	61.940900
829.000000	61.790033
830.000000	61.593433
831.000000	61.518833
832.000000	61.412567
833.000000	61.230567
834.000000	61.106900
835.000000	61.053033
836.000000	60.936233
837.000000	60.750767
838.000000	60.706300
839.000000	60.519067
840.000000	60.373567
841.000000	60.190600
842.000000	60.058600
843.000000	59.826133
844.000000	59.769033
845.000000	59.673733
846.000000	59.395600
847.000000	59.140633
848.000000	59.089067
849.000000	58.725567
850.000000	58.574200
851.000000	58.487200
852.000000	58.379633
853.000000	58.026000
854.000000	57.830100
855.000000	57.568033
856.000000	57.381200
857.000000	57.351467
858.000000	57.433567
859.000000	56.232709
860.000000	56.214706
861.000000	56.222876
862.000000	56.258426
863.000000	56.268534
864.000000	56.240963
865.000000	56.226750
866.000000	56.188785
867.000000	56.149902
868.000000	56.122351
869.000000	56.088415
870.000000	56.048186
871.000000	55.988175
872.000000	55.974515
873.000000	55.891056
874.000000	55.889309
875.000000	55.824343
876.000000	55.794372
877.000000	55.730038
878.000000	55.675382
879.000000	55.600238
880.000000	55.563751
881.000000	55.496008
882.000000	55.381719
883.000000	55.301250
884.000000	55.250905
885.000000	55.153139
886.000000	55.064142
887.000000	54.957220
888.000000	54.843802
889.000000	54.794044
890.000000	54.705291
891.000000	54.591366
892.000000	54.487880
893.000000	54.392465
894.000000	54.295228
895.000000	54.191567
896.000000	54.072338
897.000000	53.979431
898.000000	53.879853
899.000000	53.697838
900.000000	53.584918
901.000000	53.486398
902.000000	53.405316
903.000000	53.305601
904.000000	53.217373
905.000000	53.082114
906.000000	52.981886
907.000000	52.883148
908.000000	52.806560
909.000000	52.711525
910.000000	52.575635
911.000000	52.528534
912.000000	52.473732
913.000000	52.423394
914.000000	52.354985
915.000000	52.268282
916.000000	52.198245
917.000000	52.122100
918.000000	52.053955
919.000000	52.000657
920.000000	51.938520
921.000000	51.868295
922.000000	51.805592
923.000000	51.735862
924.000000	51.684012
925.000000	51.644820
926.000000	51.626027
927.000000	51.546991
928.000000	51.497321
929.000000	51.472128
930.000000	51.429875
931.000000	51.370223
932.000000	51.334454
933.000000	51.264855
934.000000	51.212755
935.000000	51.161375
936.000000	51.117430
937.000000	51.075945
938.000000	51.057347
939.000000	51.023471
940.000000	51.000473
941.000000	51.001575
942.000000	51.009811
943.000000	50.993859
944.000000	50.969873
945.000000	50.948302
946.000000	50.916635
947.000000	50.949475
948.000000	50.957850
949.000000	50.932746
950.000000	50.922768
951.000000	50.930029
952.000000	50.905985
953.000000	50.891176
954.000000	50.892210
955.000000	50.892549
956.000000	50.884164
957.000000	50.854711
958.000000	50.841493
959.000000	50.823994
960.000000	50.817108
961.000000	50.784726
962.000000	50.745974
963.000000	50.736597
964.000000	50.724504
965.000000	50.719530
966.000000	50.693728
967.000000	50.672930
968.000000	50.681724
969.000000	50.680062
970.000000	50.655468
971.000000	50.641950
972.000000	50.623481
973.000000	50.615431
974.000000	50.615412
975.000000	50.596580
976.000000	50.561258
977.000000	50.550623
978.000000	50.539522
979.000000	50.532170
980.000000	50.523342
981.000000	50.507990
982.000000	50.497327
983.000000	50.493091
984.000000	50.481615
985.000000	50.464588
986.000000	50.447463
987.000000	50.441874
988.000000	50.444841
989.000000	50.431059
990.000000	50.424807
991.000000	50.422339
992.000000	50.426149
993.000000	50.428207
994.000000	50.437878
995.000000	50.447038
996.000000	50.444761
997.000000	50.445638
998.000000	50.459893
999.000000	50.460186
1000.000000	50.458339
1001.000000	50.473500
1002.000000	50.481901
1003.000000	50.497375
1004.000000	50.510772
1005.000000	50.511395
1006.000000	50.519393
1007.000000	50.535923
1008.000000	50.546704
1009.000000	50.562455
1010.000000	50.565797
1011.000000	50.577121
1012.000000	50.597588
1013.000000	50.624118
1014.000000	50.655115
1015.000000	50.685885
1016.000000	50.719033
1017.000000	50.764678
1018.000000	50.820643
1019.000000	50.856464
1020.000000	50.903297
1021.000000	50.966791
1022.000000	51.016267
1023.000000	51.073191
1024.000000	51.137551
1025.000000	51.184596
1026.000000	51.240449
1027.000000	51.299887
1028.000000	51.346750
1029.000000	51.393673
1030.000000	51.448862
1031.000000	51.502854
1032.000000	51.548633
1033.000000	51.598484
1034.000000	51.652687
1035.000000	51.700636
1036.000000	51.739399
1037.000000	51.781277
1038.000000	51.824076
1039.000000	51.866023
1040.000000	51.905281
1041.000000	51.944322
1042.000000	51.982029
1043.000000	52.018082
1044.000000	52.065245
1045.000000	52.114575
1046.000000	52.156314
1047.000000	52.210503
1048.000000	52.266404
1049.000000	52.308680
1050.000000	52.358381
1051.000000	52.405966
1052.000000	52.452215
1053.000000	52.490487
1054.000000	52.543186
1055.000000	52.602751
1056.000000	52.664153
1057.000000	52.729319
1058.000000	52.786366
1059.000000	52.852032
1060.000000	52.911011
1061.000000	52.967698
1062.000000	53.025884
1063.000000	53.083342
1064.000000	53.145326
1065.000000	53.195016
1066.000000	53.250475
1067.000000	53.305423
1068.000000	53.366518
1069.000000	53.421278
1070.000000	53.474897
1071.000000	53.534816
1072.000000	53.584744
1073.000000	53.631784
1074.000000	53.693678
1075.000000	53.748680
1076.000000	53.800755
1077.000000	53.861018
1078.000000	53.923048
1079.000000	53.974947
1080.000000	54.029845
1081.000000	54.092985
1082.000000	54.151996
1083.000000	54.211618
1084.000000	54.262190
1085.000000	54.334403
1086.000000	54.393004
1087.000000	54.445073
1088.000000	54.495077
1089.000000	54.555699
1090.000000	54.610242
1091.000000	54.660496
1092.000000	54.708576
1093.000000	54.753828
1094.000000	54.819494
1095.000000	54.856651
1096.000000	54.897789
1097.000000	54.938620
1098.000000	54.998564
1099.000000	55.049353
1100.000000	55.081878
1101.000000	55.115945
1102.000000	55.162943
1103.000000	55.201735
1104.000000	55.247199
1105.000000	55.277205
1106.000000	55.314817
1107.000000	55.340962
1108.000000	55.368110
1109.000000	55.411526
1110.000000	55.443757
1111.000000	55.470034
1112.000000	55.487585
1113.000000	55.522451
1114.000000	55.549364
1115.000000	55.580412
1116.000000	55.628384
1117.000000	55.640075
1118.000000	55.655695
1119.000000	55.658258
1120.000000	55.656685
1121.000000	55.663792
1122.000000	55.655372
1123.000000	55.621832
1124.000000	55.587212
1125.000000	55.548337
1126.000000	55.488478
1127.000000	55.436888
1128.000000	55.373753
1129.000000	55.269536
1130.000000	55.132119
1131.000000	54.976609
1132.000000	54.838885
1133.000000	54.700910
1134.000000	54.537477
1135.000000	54.251537
1136.000000	53.962187
1137.000000	53.746767
1138.000000	53.526551
1139.000000	53.286634
1140.000000	53.049473
1141.000000	52.815709
1142.000000	52.598792
1143.000000	52.395483
1144.000000	52.195648
1145.000000	52.028886
1146.000000	51.906194
1147.000000	51.821874
1148.000000	51.817703
1149.000000	51.831518
1150.000000	51.841200
1151.000000	51.847384
1152.000000	51.857589
1153.000000	51.825055
1154.000000	51.786832
1155.000000	51.671492
1156.000000	51.521896
1157.000000	51.308137
1158.000000	51.083857
1159.000000	50.863500
1160.000000	50.608048
1161.000000	50.335550
1162.000000	50.071998
1163.000000	49.791402
1164.000000	49.513152
1165.000000	49.240486
1166.000000	48.952676
1167.000000	48.675284
