PE UV       SUBTECH     SPECTRUM    ASCII       PEDS        4.00        
   -1
CICIMAUCR0018-7.Sample.ASC
24/04/25
15:44:01.00
24/04/25
15:44:01.00
Vinicio Soto Monge
C. cupreomarginata
250,000000
1
Lambda 1050
1050L1511233
PerkinElmer UV WinLab 6.3.2.0749 / 2.02.05 Lambda 900 UV/VIS/NIR, Aug  7 2015 09:38:08

0
0
3350/servo 860,8/2
0
0
UV/VIS
1
1
1
DoubleDePol,CommonBeamDepol,RBeamAtt,SBeamAtt,60mm sphere, WB InGaAs Detector
0
0
0
0
Program
Program
3350/servo 860,8/2
3350/0,2 860,8/0,2
3350/0,2 860,8/0,2
0
15.00
 
 
 
0
 
860,8
319,2
860,8
Front
100
on
S:100 R:100
0
0
0
0
 
0
 
 
 
0
 
 
0
0
0
0
0
 
 
 
 
0
0


0
0
#HDR
-1
-1
#GR
nm
%R
1.0
0.0
2500,000000
-1,000000
2251
8
71,516000
5,467700
#DATA
250.000000	6.522400
251.000000	6.509100
252.000000	6.472900
253.000000	6.470850
254.000000	6.405500
255.000000	6.401075
256.000000	6.396950
257.000000	6.394150
258.000000	6.375200
259.000000	6.313325
260.000000	6.301100
261.000000	6.302200
262.000000	6.276875
263.000000	6.203475
264.000000	6.158950
265.000000	6.152375
266.000000	6.130175
267.000000	6.087175
268.000000	6.062650
269.000000	6.029025
270.000000	6.039425
271.000000	6.007875
272.000000	5.951275
273.000000	5.955450
274.000000	5.970050
275.000000	5.904000
276.000000	5.932200
277.000000	5.911150
278.000000	5.900825
279.000000	5.900200
280.000000	5.878850
281.000000	5.846750
282.000000	5.837750
283.000000	5.834950
284.000000	5.848050
285.000000	5.846700
286.000000	5.820275
287.000000	5.811275
288.000000	5.832825
289.000000	5.815375
290.000000	5.789875
291.000000	5.827625
292.000000	5.783025
293.000000	5.753800
294.000000	5.758875
295.000000	5.800925
296.000000	5.776975
297.000000	5.752350
298.000000	5.748450
299.000000	5.748525
300.000000	5.752050
301.000000	5.721725
302.000000	5.712800
303.000000	5.743850
304.000000	5.733000
305.000000	5.752400
306.000000	5.718850
307.000000	5.708050
308.000000	5.716250
309.000000	5.705500
310.000000	5.691175
311.000000	5.692700
312.000000	5.681100
313.000000	5.688350
314.000000	5.651300
315.000000	5.686575
316.000000	5.769125
317.000000	6.751925
318.000000	6.328775
319.000000	6.481700
320.000000	6.581550
321.000000	6.285400
322.000000	6.225775
323.000000	6.333675
324.000000	6.356675
325.000000	6.085175
326.000000	6.080900
327.000000	5.973000
328.000000	5.852400
329.000000	5.922475
330.000000	5.894725
331.000000	5.750900
332.000000	5.895700
333.000000	5.806575
334.000000	5.875825
335.000000	5.809950
336.000000	5.811325
337.000000	5.795700
338.000000	5.778100
339.000000	5.746575
340.000000	5.787700
341.000000	5.749000
342.000000	5.885000
343.000000	5.750700
344.000000	5.791050
345.000000	5.835975
346.000000	5.737375
347.000000	5.724850
348.000000	5.836300
349.000000	5.717950
350.000000	5.744675
351.000000	5.779725
352.000000	5.821675
353.000000	5.773275
354.000000	5.773800
355.000000	5.763725
356.000000	5.784525
357.000000	5.813225
358.000000	5.807425
359.000000	5.849250
360.000000	5.799125
361.000000	5.818375
362.000000	5.808225
363.000000	5.759950
364.000000	5.827400
365.000000	5.781175
366.000000	5.749500
367.000000	5.890675
368.000000	5.906850
369.000000	5.884400
370.000000	5.799850
371.000000	5.822475
372.000000	5.851850
373.000000	5.761475
374.000000	5.616850
375.000000	5.848975
376.000000	6.259450
377.000000	6.285500
378.000000	6.339525
379.000000	6.397125
380.000000	6.464350
381.000000	6.527575
382.000000	6.603475
383.000000	6.693700
384.000000	6.788625
385.000000	6.892275
386.000000	7.002175
387.000000	7.130675
388.000000	7.258450
389.000000	7.387725
390.000000	7.547825
391.000000	7.698325
392.000000	7.872400
393.000000	8.054975
394.000000	8.254225
395.000000	8.446850
396.000000	8.650225
397.000000	8.857600
398.000000	9.077925
399.000000	9.308250
400.000000	9.536250
401.000000	9.767025
402.000000	10.008550
403.000000	10.247400
404.000000	10.499675
405.000000	10.745825
406.000000	10.981225
407.000000	11.220000
408.000000	11.449525
409.000000	11.687475
410.000000	11.935600
411.000000	12.158000
412.000000	12.377150
413.000000	12.592600
414.000000	12.804250
415.000000	13.012125
416.000000	13.207550
417.000000	13.394525
418.000000	13.577075
419.000000	13.757550
420.000000	13.929900
421.000000	14.098150
422.000000	14.264700
423.000000	14.422600
424.000000	14.566750
425.000000	14.708450
426.000000	14.844825
427.000000	14.988475
428.000000	15.126125
429.000000	15.247375
430.000000	15.370025
431.000000	15.487650
432.000000	15.607150
433.000000	15.717475
434.000000	15.813050
435.000000	15.906575
436.000000	15.991600
437.000000	16.070200
438.000000	16.148500
439.000000	16.225675
440.000000	16.284225
441.000000	16.333850
442.000000	16.371375
443.000000	16.382500
444.000000	16.387475
445.000000	16.383200
446.000000	16.366100
447.000000	16.342525
448.000000	16.301175
449.000000	16.262275
450.000000	16.225925
451.000000	16.174200
452.000000	16.131025
453.000000	16.088400
454.000000	16.060700
455.000000	16.041625
456.000000	16.026275
457.000000	16.031850
458.000000	16.044625
459.000000	16.082000
460.000000	16.136450
461.000000	16.211750
462.000000	16.319800
463.000000	16.440350
464.000000	16.584450
465.000000	16.766000
466.000000	16.965700
467.000000	17.183975
468.000000	17.424725
469.000000	17.695975
470.000000	17.997950
471.000000	18.321925
472.000000	18.667150
473.000000	19.025000
474.000000	19.399400
475.000000	19.778150
476.000000	20.159575
477.000000	20.549225
478.000000	20.930750
479.000000	21.300925
480.000000	21.663950
481.000000	22.018750
482.000000	22.360900
483.000000	22.683950
484.000000	22.995200
485.000000	23.269125
486.000000	23.539150
487.000000	23.807025
488.000000	24.064400
489.000000	24.321275
490.000000	24.591925
491.000000	24.868425
492.000000	25.134575
493.000000	25.413650
494.000000	25.712150
495.000000	26.011525
496.000000	26.334875
497.000000	26.674450
498.000000	27.024425
499.000000	27.395975
500.000000	27.782400
501.000000	28.189975
502.000000	28.620325
503.000000	29.069000
504.000000	29.542550
505.000000	30.036875
506.000000	30.540625
507.000000	31.067550
508.000000	31.596775
509.000000	32.169725
510.000000	32.762650
511.000000	33.366475
512.000000	34.000850
513.000000	34.664425
514.000000	35.361075
515.000000	36.045350
516.000000	36.752325
517.000000	37.472375
518.000000	38.208400
519.000000	38.982025
520.000000	39.778475
521.000000	40.609625
522.000000	41.449350
523.000000	42.311425
524.000000	43.198700
525.000000	44.103300
526.000000	45.025550
527.000000	45.974625
528.000000	46.930625
529.000000	47.940750
530.000000	48.974700
531.000000	50.035375
532.000000	51.129525
533.000000	52.238425
534.000000	53.346325
535.000000	54.445350
536.000000	55.538650
537.000000	56.617750
538.000000	57.682550
539.000000	58.740600
540.000000	59.742850
541.000000	60.724575
542.000000	61.669225
543.000000	62.544275
544.000000	63.368550
545.000000	64.142050
546.000000	64.830925
547.000000	65.477375
548.000000	66.039500
549.000000	66.558125
550.000000	67.020100
551.000000	67.440450
552.000000	67.805000
553.000000	68.144100
554.000000	68.452000
555.000000	68.722625
556.000000	68.975850
557.000000	69.234650
558.000000	69.432875
559.000000	69.625100
560.000000	69.855275
561.000000	70.024175
562.000000	70.187750
563.000000	70.332200
564.000000	70.433675
565.000000	70.529800
566.000000	70.581850
567.000000	70.633525
568.000000	70.653450
569.000000	70.669425
570.000000	70.666375
571.000000	70.629950
572.000000	70.591400
573.000000	70.578550
574.000000	70.534100
575.000000	70.469300
576.000000	70.424575
577.000000	70.376900
578.000000	70.332825
579.000000	70.325475
580.000000	70.283025
581.000000	70.246200
582.000000	70.217400
583.000000	70.159525
584.000000	70.122175
585.000000	70.044425
586.000000	69.981925
587.000000	69.909675
588.000000	69.781775
589.000000	69.633775
590.000000	69.464875
591.000000	69.286450
592.000000	69.061925
593.000000	68.827575
594.000000	68.599700
595.000000	68.316475
596.000000	68.073450
597.000000	67.807500
598.000000	67.523900
599.000000	67.257525
600.000000	66.972250
601.000000	66.660125
602.000000	66.355650
603.000000	66.023875
604.000000	65.711200
605.000000	65.344075
606.000000	65.011275
607.000000	64.606925
608.000000	64.208000
609.000000	63.783975
610.000000	63.290500
611.000000	62.761175
612.000000	62.198775
613.000000	61.587250
614.000000	60.945775
615.000000	60.265025
616.000000	59.581350
617.000000	58.843675
618.000000	58.086875
619.000000	57.315600
620.000000	56.558400
621.000000	55.785275
622.000000	54.989250
623.000000	54.242775
624.000000	53.500475
625.000000	52.797550
626.000000	52.110850
627.000000	51.464675
628.000000	50.847750
629.000000	50.273800
630.000000	49.760650
631.000000	49.276725
632.000000	48.877050
633.000000	48.520675
634.000000	48.212375
635.000000	48.001600
636.000000	47.847100
637.000000	47.744450
638.000000	47.722950
639.000000	47.779300
640.000000	47.878600
641.000000	48.058500
642.000000	48.262975
643.000000	48.543975
644.000000	48.868000
645.000000	49.224250
646.000000	49.621875
647.000000	50.040650
648.000000	50.448900
649.000000	50.880075
650.000000	51.314575
651.000000	51.725525
652.000000	52.115700
653.000000	52.471325
654.000000	52.797125
655.000000	53.104225
656.000000	53.377000
657.000000	53.608700
658.000000	53.827075
659.000000	54.006850
660.000000	54.190050
661.000000	54.283600
662.000000	54.401475
663.000000	54.505650
664.000000	54.589275
665.000000	54.647600
666.000000	54.689600
667.000000	54.734075
668.000000	54.794375
669.000000	54.813250
670.000000	54.818525
671.000000	54.833950
672.000000	54.838825
673.000000	54.820000
674.000000	54.811750
675.000000	54.773225
676.000000	54.765150
677.000000	54.710575
678.000000	54.656275
679.000000	54.617150
680.000000	54.590375
681.000000	54.524150
682.000000	54.497500
683.000000	54.467900
684.000000	54.428625
685.000000	54.405900
686.000000	54.447625
687.000000	54.461450
688.000000	54.504500
689.000000	54.562425
690.000000	54.628275
691.000000	54.702625
692.000000	54.767025
693.000000	54.885300
694.000000	55.001375
695.000000	55.136000
696.000000	55.230975
697.000000	55.347775
698.000000	55.465125
699.000000	55.592225
700.000000	55.737425
701.000000	55.852225
702.000000	55.992025
703.000000	56.119625
704.000000	56.238650
705.000000	56.371725
706.000000	56.518200
707.000000	56.667350
708.000000	56.830925
709.000000	56.960625
710.000000	57.083750
711.000000	57.238100
712.000000	57.404675
713.000000	57.540125
714.000000	57.682275
715.000000	57.839550
716.000000	57.995025
717.000000	58.121950
718.000000	58.228850
719.000000	58.377550
720.000000	58.507650
721.000000	58.627150
722.000000	58.763800
723.000000	58.884675
724.000000	58.988825
725.000000	59.103325
726.000000	59.195225
727.000000	59.277100
728.000000	59.348400
729.000000	59.405575
730.000000	59.493975
731.000000	59.578550
732.000000	59.684225
733.000000	59.776275
734.000000	59.851350
735.000000	59.924900
736.000000	60.021825
737.000000	60.123075
738.000000	60.189075
739.000000	60.237875
740.000000	60.321100
741.000000	60.396225
742.000000	60.433750
743.000000	60.480300
744.000000	60.545575
745.000000	60.595000
746.000000	60.629500
747.000000	60.655800
748.000000	60.705975
749.000000	60.762125
750.000000	60.796625
751.000000	60.815125
752.000000	60.847375
753.000000	60.896525
754.000000	60.962975
755.000000	61.031825
756.000000	61.110250
757.000000	61.165850
758.000000	61.223775
759.000000	61.290275
760.000000	61.350200
761.000000	61.439775
762.000000	61.484925
763.000000	61.537075
764.000000	61.626050
765.000000	61.725125
766.000000	61.803300
767.000000	61.870275
768.000000	61.960125
769.000000	62.080400
770.000000	62.156725
771.000000	62.217675
772.000000	62.333625
773.000000	62.456400
774.000000	62.566925
775.000000	62.668750
776.000000	62.757675
777.000000	62.899300
778.000000	63.028050
779.000000	63.129350
780.000000	63.246300
781.000000	63.363725
782.000000	63.487775
783.000000	63.661300
784.000000	63.782950
785.000000	63.882000
786.000000	63.997125
787.000000	64.135150
788.000000	64.251050
789.000000	64.385000
790.000000	64.520350
791.000000	64.637025
792.000000	64.770150
793.000000	64.960125
794.000000	65.069575
795.000000	65.161575
796.000000	65.266050
797.000000	65.418475
798.000000	65.545425
799.000000	65.683175
800.000000	65.842900
801.000000	65.912575
802.000000	66.012975
803.000000	66.155925
804.000000	66.279225
805.000000	66.322300
806.000000	66.458250
807.000000	66.565100
808.000000	66.643450
809.000000	66.725000
810.000000	66.801500
811.000000	67.001125
812.000000	67.061375
813.000000	67.084350
814.000000	67.151500
815.000000	67.185450
816.000000	67.321975
817.000000	67.463150
818.000000	67.437600
819.000000	67.456250
820.000000	67.571325
821.000000	67.561225
822.000000	67.626725
823.000000	67.647400
824.000000	67.728475
825.000000	67.826625
826.000000	67.820350
827.000000	67.838975
828.000000	67.817925
829.000000	67.844350
830.000000	67.921250
831.000000	67.981375
832.000000	68.043200
833.000000	68.075575
834.000000	68.095825
835.000000	68.100550
836.000000	68.053275
837.000000	68.194475
838.000000	68.085900
839.000000	68.204025
840.000000	68.258900
841.000000	68.196950
842.000000	68.192100
843.000000	68.263600
844.000000	68.285700
845.000000	68.317150
846.000000	68.253650
847.000000	68.221375
848.000000	68.060800
849.000000	68.240875
850.000000	68.049650
851.000000	67.966250
852.000000	68.026075
853.000000	67.775375
854.000000	67.737125
855.000000	67.849900
856.000000	67.816050
857.000000	68.106100
858.000000	67.924017
859.000000	66.201099
860.000000	66.140733
861.000000	66.086945
862.000000	66.037091
863.000000	65.968765
864.000000	65.887799
865.000000	65.818134
866.000000	65.842733
867.000000	66.063596
868.000000	66.425128
869.000000	66.839917
870.000000	67.297781
871.000000	67.746397
872.000000	68.174318
873.000000	68.516554
874.000000	68.818512
875.000000	69.135421
876.000000	69.400688
877.000000	69.626933
878.000000	69.845567
879.000000	70.062899
880.000000	70.255917
881.000000	70.406211
882.000000	70.571650
883.000000	70.713008
884.000000	70.832807
885.000000	70.985999
886.000000	71.108545
887.000000	71.204470
888.000000	71.251334
889.000000	71.302322
890.000000	71.345448
891.000000	71.389948
892.000000	71.384448
893.000000	71.410595
894.000000	71.421432
895.000000	71.382609
896.000000	71.339579
897.000000	71.292654
898.000000	71.243984
899.000000	71.180009
900.000000	71.103061
901.000000	71.067650
902.000000	71.007076
903.000000	70.913476
904.000000	70.821537
905.000000	70.724761
906.000000	70.635665
907.000000	70.544212
908.000000	70.479731
909.000000	70.399827
910.000000	70.352176
911.000000	70.264642
912.000000	70.213680
913.000000	70.147216
914.000000	70.086490
915.000000	70.036628
916.000000	69.990540
917.000000	69.943259
918.000000	69.903920
919.000000	69.848096
920.000000	69.789819
921.000000	69.738723
922.000000	69.691552
923.000000	69.599218
924.000000	69.538834
925.000000	69.478654
926.000000	69.418790
927.000000	69.350213
928.000000	69.304344
929.000000	69.213423
930.000000	69.150257
931.000000	69.077656
932.000000	68.988788
933.000000	68.930613
934.000000	68.867628
935.000000	68.802516
936.000000	68.707690
937.000000	68.632415
938.000000	68.574325
939.000000	68.513034
940.000000	68.454395
941.000000	68.396646
942.000000	68.322772
943.000000	68.263186
944.000000	68.193364
945.000000	68.120390
946.000000	68.057422
947.000000	67.976754
948.000000	67.876663
949.000000	67.805499
950.000000	67.714821
951.000000	67.637459
952.000000	67.535318
953.000000	67.432463
954.000000	67.338808
955.000000	67.243400
956.000000	67.137481
957.000000	67.028703
958.000000	66.915778
959.000000	66.808718
960.000000	66.686348
961.000000	66.558402
962.000000	66.453353
963.000000	66.337758
964.000000	66.224877
965.000000	66.109981
966.000000	65.986048
967.000000	65.890374
968.000000	65.790050
969.000000	65.682054
970.000000	65.583390
971.000000	65.472486
972.000000	65.377361
973.000000	65.279184
974.000000	65.177063
975.000000	65.082528
976.000000	64.997331
977.000000	64.907551
978.000000	64.815646
979.000000	64.741495
980.000000	64.650886
981.000000	64.576057
982.000000	64.502130
983.000000	64.421143
984.000000	64.349256
985.000000	64.280426
986.000000	64.208392
987.000000	64.147944
988.000000	64.087058
989.000000	64.024626
990.000000	63.972018
991.000000	63.917519
992.000000	63.869894
993.000000	63.821660
994.000000	63.780243
995.000000	63.735526
996.000000	63.697062
997.000000	63.653464
998.000000	63.617159
999.000000	63.592152
1000.000000	63.559309
1001.000000	63.514664
1002.000000	63.482950
1003.000000	63.452804
1004.000000	63.420522
1005.000000	63.391240
1006.000000	63.353359
1007.000000	63.313434
1008.000000	63.282848
1009.000000	63.243096
1010.000000	63.206954
1011.000000	63.175110
1012.000000	63.143989
1013.000000	63.115907
1014.000000	63.094197
1015.000000	63.080616
1016.000000	63.071123
1017.000000	63.064667
1018.000000	63.067257
1019.000000	63.074765
1020.000000	63.082284
1021.000000	63.099158
1022.000000	63.108301
1023.000000	63.117339
1024.000000	63.125114
1025.000000	63.134194
1026.000000	63.159841
1027.000000	63.173856
1028.000000	63.175246
1029.000000	63.187064
1030.000000	63.195700
1031.000000	63.194181
1032.000000	63.192625
1033.000000	63.193247
1034.000000	63.203320
1035.000000	63.204729
1036.000000	63.198893
1037.000000	63.198003
1038.000000	63.195143
1039.000000	63.187476
1040.000000	63.180725
1041.000000	63.174457
1042.000000	63.169305
1043.000000	63.158859
1044.000000	63.147864
1045.000000	63.153123
1046.000000	63.149603
1047.000000	63.143440
1048.000000	63.146154
1049.000000	63.152156
1050.000000	63.158788
1051.000000	63.156331
1052.000000	63.165566
1053.000000	63.179319
1054.000000	63.199463
1055.000000	63.226401
1056.000000	63.241887
1057.000000	63.262668
1058.000000	63.293431
1059.000000	63.325454
1060.000000	63.351529
1061.000000	63.384231
1062.000000	63.406960
1063.000000	63.440179
1064.000000	63.472617
1065.000000	63.496363
1066.000000	63.525233
1067.000000	63.548943
1068.000000	63.574842
1069.000000	63.613732
1070.000000	63.636546
1071.000000	63.667212
1072.000000	63.702288
1073.000000	63.736987
1074.000000	63.772038
1075.000000	63.800798
1076.000000	63.837215
1077.000000	63.870450
1078.000000	63.906118
1079.000000	63.936212
1080.000000	63.965375
1081.000000	64.001470
1082.000000	64.046864
1083.000000	64.081302
1084.000000	64.112616
1085.000000	64.157025
1086.000000	64.196262
1087.000000	64.234067
1088.000000	64.270202
1089.000000	64.302681
1090.000000	64.332781
1091.000000	64.366073
1092.000000	64.402684
1093.000000	64.427085
1094.000000	64.456872
1095.000000	64.473802
1096.000000	64.495696
1097.000000	64.519469
1098.000000	64.541346
1099.000000	64.565419
1100.000000	64.575426
1101.000000	64.594262
1102.000000	64.607317
1103.000000	64.609305
1104.000000	64.615557
1105.000000	64.626430
1106.000000	64.625252
1107.000000	64.629457
1108.000000	64.624682
1109.000000	64.632452
1110.000000	64.630817
1111.000000	64.631110
1112.000000	64.633778
1113.000000	64.633700
1114.000000	64.632738
1115.000000	64.633787
1116.000000	64.631790
1117.000000	64.633621
1118.000000	64.620779
1119.000000	64.608531
1120.000000	64.574894
1121.000000	64.546144
1122.000000	64.507479
1123.000000	64.453988
1124.000000	64.388742
1125.000000	64.309426
1126.000000	64.222598
1127.000000	64.129192
1128.000000	64.013408
1129.000000	63.880454
1130.000000	63.698667
1131.000000	63.487089
1132.000000	63.252736
1133.000000	63.013544
1134.000000	62.761834
1135.000000	62.468090
1136.000000	62.123351
1137.000000	61.766616
1138.000000	61.403072
1139.000000	61.059698
1140.000000	60.731549
1141.000000	60.418745
1142.000000	60.097688
1143.000000	59.790209
1144.000000	59.506376
1145.000000	59.241838
1146.000000	59.033106
1147.000000	58.893182
1148.000000	58.796044
1149.000000	58.748379
1150.000000	58.729554
1151.000000	58.711996
1152.000000	58.685908
1153.000000	58.653589
1154.000000	58.572802
1155.000000	58.451608
1156.000000	58.266892
1157.000000	58.058813
1158.000000	57.793566
1159.000000	57.493738
1160.000000	57.162753
1161.000000	56.839229
1162.000000	56.470552
1163.000000	56.120661
1164.000000	55.744526
1165.000000	55.365195
1166.000000	54.994269
