PE UV       SUBTECH     SPECTRUM    ASCII       PEDS        4.00        
   -1
CICIMAUCR0104-3.Sample.ASC
24/04/22
09:54:19.00
24/04/22
09:54:19.00
Vinicio Soto Monge
C. resplendens
250,000000
1
Lambda 1050
1050L1511233
PerkinElmer UV WinLab 6.3.2.0749 / 2.02.05 Lambda 900 UV/VIS/NIR, Aug  7 2015 09:38:08

0
0
3350/servo 860,8/2
0
0
UV/VIS
1
1
1
DoubleDePol,CommonBeamDepol,RBeamAtt,SBeamAtt,60mm sphere, WB InGaAs Detector
0
0
0
0
Program
Program
3350/servo 860,8/2
3350/0,2 860,8/0,2
3350/0,2 860,8/0,2
0
15.00
 
 
 
0
 
860,8
319,2
860,8
Front
100
on
S:100 R:100
0
0
0
0
 
0
 
 
 
0
 
 
0
0
0
0
0
 
 
 
 
0
0


0
0
#HDR
-1
-1
#GR
nm
%R
1.0
0.0
2500,000000
-1,000000
2251
8
90,434600
6,014800
#DATA
250.000000	6.735933
251.000000	6.753967
252.000000	6.719933
253.000000	6.718033
254.000000	6.693367
255.000000	6.674067
256.000000	6.668700
257.000000	6.669867
258.000000	6.644867
259.000000	6.643733
260.000000	6.639700
261.000000	6.610167
262.000000	6.537400
263.000000	6.537433
264.000000	6.498867
265.000000	6.476467
266.000000	6.460600
267.000000	6.446333
268.000000	6.458933
269.000000	6.453800
270.000000	6.381767
271.000000	6.392433
272.000000	6.341000
273.000000	6.370467
274.000000	6.342500
275.000000	6.339167
276.000000	6.345567
277.000000	6.326500
278.000000	6.342767
279.000000	6.297800
280.000000	6.294400
281.000000	6.325100
282.000000	6.316333
283.000000	6.313567
284.000000	6.306800
285.000000	6.264133
286.000000	6.262900
287.000000	6.264133
288.000000	6.258367
289.000000	6.231400
290.000000	6.267600
291.000000	6.236033
292.000000	6.241633
293.000000	6.231100
294.000000	6.204367
295.000000	6.211933
296.000000	6.219567
297.000000	6.156100
298.000000	6.158533
299.000000	6.173367
300.000000	6.154467
301.000000	6.180367
302.000000	6.190100
303.000000	6.168267
304.000000	6.175667
305.000000	6.137400
306.000000	6.116133
307.000000	6.080067
308.000000	6.126400
309.000000	6.127233
310.000000	6.149867
311.000000	6.101900
312.000000	6.085333
313.000000	6.078833
314.000000	6.075567
315.000000	6.060333
316.000000	6.079500
317.000000	6.290067
318.000000	6.254133
319.000000	6.301033
320.000000	6.325133
321.000000	6.251000
322.000000	6.323533
323.000000	6.294300
324.000000	6.194700
325.000000	6.246867
326.000000	6.299533
327.000000	6.207000
328.000000	6.203067
329.000000	6.185533
330.000000	6.130867
331.000000	6.249933
332.000000	6.216633
333.000000	6.169467
334.000000	6.135700
335.000000	6.219300
336.000000	6.235033
337.000000	6.272700
338.000000	6.236933
339.000000	6.205733
340.000000	6.295000
341.000000	6.276900
342.000000	6.280633
343.000000	6.323200
344.000000	6.320600
345.000000	6.346667
346.000000	6.326300
347.000000	6.358300
348.000000	6.333233
349.000000	6.397067
350.000000	6.350233
351.000000	6.430533
352.000000	6.470233
353.000000	6.549600
354.000000	6.586533
355.000000	6.620467
356.000000	6.633567
357.000000	6.740067
358.000000	6.747800
359.000000	6.816100
360.000000	6.837133
361.000000	6.872067
362.000000	6.965367
363.000000	6.983100
364.000000	6.999100
365.000000	7.105667
366.000000	7.166433
367.000000	7.216300
368.000000	7.252967
369.000000	7.276200
370.000000	7.343967
371.000000	7.500700
372.000000	7.521167
373.000000	7.602467
374.000000	7.669867
375.000000	7.733767
376.000000	7.952700
377.000000	8.107900
378.000000	8.239433
379.000000	8.389400
380.000000	8.543633
381.000000	8.715933
382.000000	8.900967
383.000000	9.108433
384.000000	9.333067
385.000000	9.555567
386.000000	9.783567
387.000000	10.044300
388.000000	10.326167
389.000000	10.613633
390.000000	10.925900
391.000000	11.260333
392.000000	11.614167
393.000000	11.981333
394.000000	12.360300
395.000000	12.768833
396.000000	13.187233
397.000000	13.611833
398.000000	14.061733
399.000000	14.519900
400.000000	14.989533
401.000000	15.469000
402.000000	15.960033
403.000000	16.466400
404.000000	16.963500
405.000000	17.477667
406.000000	18.005400
407.000000	18.502000
408.000000	18.987167
409.000000	19.499000
410.000000	19.998200
411.000000	20.494067
412.000000	20.997400
413.000000	21.473733
414.000000	21.939167
415.000000	22.399633
416.000000	22.844333
417.000000	23.268367
418.000000	23.670033
419.000000	24.067933
420.000000	24.457033
421.000000	24.830667
422.000000	25.192900
423.000000	25.536167
424.000000	25.863067
425.000000	26.168033
426.000000	26.459900
427.000000	26.729100
428.000000	26.977900
429.000000	27.210800
430.000000	27.437800
431.000000	27.650767
432.000000	27.838533
433.000000	28.005500
434.000000	28.150967
435.000000	28.279467
436.000000	28.394867
437.000000	28.481267
438.000000	28.542500
439.000000	28.593633
440.000000	28.615233
441.000000	28.601367
442.000000	28.573067
443.000000	28.527200
444.000000	28.444800
445.000000	28.314733
446.000000	28.145600
447.000000	27.963767
448.000000	27.773600
449.000000	27.561033
450.000000	27.321733
451.000000	27.064667
452.000000	26.797667
453.000000	26.520800
454.000000	26.244567
455.000000	25.964933
456.000000	25.686767
457.000000	25.436433
458.000000	25.226733
459.000000	25.047767
460.000000	24.901200
461.000000	24.812367
462.000000	24.783967
463.000000	24.823400
464.000000	24.939300
465.000000	25.127567
466.000000	25.396033
467.000000	25.731967
468.000000	26.148467
469.000000	26.652333
470.000000	27.196700
471.000000	27.800100
472.000000	28.467900
473.000000	29.165100
474.000000	29.883767
475.000000	30.619133
476.000000	31.358933
477.000000	32.087633
478.000000	32.791733
479.000000	33.471800
480.000000	34.130833
481.000000	34.759033
482.000000	35.337400
483.000000	35.872067
484.000000	36.357167
485.000000	36.785267
486.000000	37.160633
487.000000	37.496767
488.000000	37.771167
489.000000	37.984567
490.000000	38.160367
491.000000	38.280133
492.000000	38.327033
493.000000	38.340033
494.000000	38.300033
495.000000	38.256933
496.000000	38.183500
497.000000	38.079533
498.000000	37.966333
499.000000	37.864633
500.000000	37.800567
501.000000	37.751833
502.000000	37.747167
503.000000	37.822767
504.000000	37.938933
505.000000	38.139767
506.000000	38.423500
507.000000	38.774567
508.000000	39.219267
509.000000	39.762100
510.000000	40.394700
511.000000	41.138567
512.000000	41.960000
513.000000	42.873967
514.000000	43.874500
515.000000	44.957000
516.000000	46.115633
517.000000	47.320367
518.000000	48.572833
519.000000	49.891067
520.000000	51.264000
521.000000	52.665333
522.000000	54.092633
523.000000	55.548233
524.000000	57.007400
525.000000	58.466533
526.000000	59.927000
527.000000	61.358167
528.000000	62.780633
529.000000	64.183967
530.000000	65.564067
531.000000	66.904000
532.000000	68.205200
533.000000	69.463300
534.000000	70.667267
535.000000	71.799867
536.000000	72.885633
537.000000	73.916000
538.000000	74.881400
539.000000	75.832900
540.000000	76.747500
541.000000	77.638833
542.000000	78.468600
543.000000	79.290100
544.000000	80.111100
545.000000	80.853267
546.000000	81.599100
547.000000	82.328067
548.000000	83.003433
549.000000	83.673000
550.000000	84.320200
551.000000	84.942400
552.000000	85.533233
553.000000	86.087900
554.000000	86.626933
555.000000	87.114967
556.000000	87.571000
557.000000	87.954767
558.000000	88.394267
559.000000	88.745000
560.000000	89.086433
561.000000	89.423700
562.000000	89.715067
563.000000	90.013167
564.000000	90.296700
565.000000	90.568067
566.000000	90.824367
567.000000	91.063000
568.000000	91.299467
569.000000	91.540700
570.000000	91.731933
571.000000	91.930100
572.000000	92.113667
573.000000	92.294700
574.000000	92.484600
575.000000	92.640233
576.000000	92.780700
577.000000	92.936467
578.000000	93.026867
579.000000	93.137967
580.000000	93.187533
581.000000	93.311133
582.000000	93.332967
583.000000	93.366633
584.000000	93.412467
585.000000	93.389167
586.000000	93.416433
587.000000	93.409933
588.000000	93.337200
589.000000	93.300700
590.000000	93.213133
591.000000	93.087867
592.000000	92.987567
593.000000	92.877400
594.000000	92.709933
595.000000	92.529267
596.000000	92.300333
597.000000	92.084733
598.000000	91.837600
599.000000	91.550000
600.000000	91.274567
601.000000	90.928933
602.000000	90.599000
603.000000	90.221900
604.000000	89.792633
605.000000	89.371600
606.000000	88.918500
607.000000	88.442933
608.000000	87.957200
609.000000	87.396367
610.000000	86.870600
611.000000	86.225800
612.000000	85.588733
613.000000	84.900767
614.000000	84.229400
615.000000	83.492833
616.000000	82.743500
617.000000	81.978667
618.000000	81.235400
619.000000	80.426333
620.000000	79.614600
621.000000	78.807733
622.000000	77.989167
623.000000	77.140567
624.000000	76.258333
625.000000	75.409600
626.000000	74.506000
627.000000	73.623900
628.000000	72.702800
629.000000	71.741967
630.000000	70.807167
631.000000	69.849467
632.000000	68.885067
633.000000	67.932200
634.000000	66.931167
635.000000	65.998033
636.000000	65.070033
637.000000	64.173467
638.000000	63.314600
639.000000	62.487200
640.000000	61.732133
641.000000	61.052033
642.000000	60.424867
643.000000	59.856400
644.000000	59.426333
645.000000	59.149100
646.000000	58.939267
647.000000	58.897433
648.000000	58.955833
649.000000	59.123900
650.000000	59.410667
651.000000	59.842000
652.000000	60.372200
653.000000	60.974033
654.000000	61.655333
655.000000	62.401800
656.000000	63.193867
657.000000	64.011500
658.000000	64.851067
659.000000	65.756133
660.000000	66.657867
661.000000	67.582700
662.000000	68.479200
663.000000	69.388533
664.000000	70.253733
665.000000	71.128700
666.000000	71.903633
667.000000	72.673300
668.000000	73.394800
669.000000	74.090333
670.000000	74.759767
671.000000	75.343633
672.000000	75.907900
673.000000	76.424267
674.000000	76.875567
675.000000	77.282000
676.000000	77.655067
677.000000	78.014500
678.000000	78.312000
679.000000	78.570467
680.000000	78.822367
681.000000	79.009167
682.000000	79.198767
683.000000	79.393367
684.000000	79.536300
685.000000	79.664333
686.000000	79.783567
687.000000	79.941267
688.000000	80.037567
689.000000	80.130533
690.000000	80.218900
691.000000	80.339200
692.000000	80.426567
693.000000	80.520200
694.000000	80.601000
695.000000	80.666000
696.000000	80.760700
697.000000	80.883600
698.000000	80.964667
699.000000	81.056433
700.000000	81.156833
701.000000	81.291633
702.000000	81.401433
703.000000	81.480667
704.000000	81.545200
705.000000	81.670200
706.000000	81.844000
707.000000	81.966400
708.000000	82.105167
709.000000	82.257667
710.000000	82.440400
711.000000	82.613033
712.000000	82.794867
713.000000	82.980933
714.000000	83.197800
715.000000	83.449733
716.000000	83.680867
717.000000	83.944433
718.000000	84.215200
719.000000	84.497400
720.000000	84.833133
721.000000	85.136533
722.000000	85.450967
723.000000	85.829400
724.000000	86.205300
725.000000	86.528733
726.000000	86.820500
727.000000	87.155233
728.000000	87.496867
729.000000	87.828433
730.000000	88.098767
731.000000	88.449100
732.000000	88.773767
733.000000	89.038900
734.000000	89.334933
735.000000	89.624567
736.000000	89.947367
737.000000	90.197700
738.000000	90.391533
739.000000	90.602133
740.000000	90.817333
741.000000	91.024633
742.000000	91.240567
743.000000	91.431600
744.000000	91.590200
745.000000	91.742700
746.000000	91.877467
747.000000	92.021533
748.000000	92.181100
749.000000	92.254300
750.000000	92.360000
751.000000	92.480333
752.000000	92.528067
753.000000	92.566167
754.000000	92.606600
755.000000	92.636533
756.000000	92.672367
757.000000	92.666267
758.000000	92.631267
759.000000	92.607067
760.000000	92.577500
761.000000	92.538500
762.000000	92.506833
763.000000	92.439333
764.000000	92.297467
765.000000	92.177667
766.000000	92.058767
767.000000	91.929633
768.000000	91.802067
769.000000	91.671067
770.000000	91.519200
771.000000	91.379367
772.000000	91.264900
773.000000	91.094367
774.000000	90.976733
775.000000	90.835900
776.000000	90.679867
777.000000	90.562100
778.000000	90.475200
779.000000	90.426900
780.000000	90.329300
781.000000	90.189267
782.000000	90.037800
783.000000	89.919100
784.000000	89.842700
785.000000	89.836300
786.000000	89.706433
787.000000	89.579833
788.000000	89.572900
789.000000	89.449067
790.000000	89.358000
791.000000	89.334667
792.000000	89.242700
793.000000	89.174433
794.000000	89.141800
795.000000	89.004267
796.000000	88.887767
797.000000	88.846800
798.000000	88.687700
799.000000	88.535800
800.000000	88.449000
801.000000	88.298933
802.000000	88.136800
803.000000	87.939433
804.000000	87.767533
805.000000	87.683500
806.000000	87.419267
807.000000	87.309500
808.000000	87.192833
809.000000	86.889933
810.000000	86.703600
811.000000	86.638233
812.000000	86.408367
813.000000	86.119100
814.000000	85.971067
815.000000	85.728433
816.000000	85.554033
817.000000	85.442867
818.000000	85.236533
819.000000	85.013300
820.000000	84.776167
821.000000	84.640700
822.000000	84.449267
823.000000	84.220867
824.000000	83.993633
825.000000	83.793767
826.000000	83.587933
827.000000	83.314100
828.000000	83.109333
829.000000	82.763033
830.000000	82.485467
831.000000	82.285233
832.000000	82.024133
833.000000	81.738733
834.000000	81.477200
835.000000	80.986700
836.000000	80.774067
837.000000	80.580533
838.000000	80.215100
839.000000	79.931367
840.000000	79.652367
841.000000	79.174033
842.000000	78.809267
843.000000	78.612833
844.000000	78.546867
845.000000	78.239000
846.000000	77.811500
847.000000	77.619600
848.000000	77.490733
849.000000	77.325200
850.000000	76.999333
851.000000	76.919567
852.000000	76.674567
853.000000	76.740000
854.000000	76.389467
855.000000	76.465133
856.000000	76.410500
857.000000	76.282767
858.000000	76.386133
859.000000	75.167092
860.000000	75.487933
861.000000	75.914175
862.000000	76.347569
863.000000	76.666878
864.000000	76.965242
865.000000	77.264346
866.000000	77.548686
867.000000	77.765896
868.000000	78.000361
869.000000	78.174984
870.000000	78.376090
871.000000	78.481666
872.000000	78.661179
873.000000	78.775921
874.000000	78.832093
875.000000	78.948543
876.000000	79.008275
877.000000	79.099016
878.000000	79.129179
879.000000	79.118229
880.000000	79.150468
881.000000	79.160728
882.000000	79.129706
883.000000	79.136444
884.000000	79.119541
885.000000	79.068697
886.000000	78.978013
887.000000	78.932298
888.000000	78.856124
889.000000	78.784176
890.000000	78.705902
891.000000	78.600370
892.000000	78.492137
893.000000	78.403712
894.000000	78.307753
895.000000	78.193626
896.000000	78.075032
897.000000	77.980974
898.000000	77.876113
899.000000	77.787282
900.000000	77.689091
901.000000	77.558452
902.000000	77.409573
903.000000	77.322100
904.000000	77.222838
905.000000	77.132056
906.000000	77.065447
907.000000	76.960615
908.000000	76.900051
909.000000	76.753266
910.000000	76.680857
911.000000	76.632106
912.000000	76.562222
913.000000	76.530087
914.000000	76.445119
915.000000	76.357072
916.000000	76.295078
917.000000	76.238972
918.000000	76.166178
919.000000	76.109864
920.000000	76.047211
921.000000	75.990106
922.000000	75.914284
923.000000	75.846718
924.000000	75.758193
925.000000	75.676107
926.000000	75.594847
927.000000	75.533447
928.000000	75.437062
929.000000	75.344532
930.000000	75.272425
931.000000	75.164628
932.000000	75.044734
933.000000	74.956876
934.000000	74.850389
935.000000	74.727989
936.000000	74.602109
937.000000	74.483228
938.000000	74.370567
939.000000	74.273715
940.000000	74.147775
941.000000	74.026307
942.000000	73.934048
943.000000	73.810662
944.000000	73.692492
945.000000	73.598563
946.000000	73.486207
947.000000	73.372109
948.000000	73.265758
949.000000	73.155270
950.000000	73.053742
951.000000	72.972393
952.000000	72.869528
953.000000	72.755731
954.000000	72.640969
955.000000	72.556552
956.000000	72.458585
957.000000	72.354161
958.000000	72.259480
959.000000	72.167448
960.000000	72.078731
961.000000	71.996081
962.000000	71.907367
963.000000	71.828660
964.000000	71.766963
965.000000	71.698893
966.000000	71.619876
967.000000	71.550994
968.000000	71.497734
969.000000	71.444977
970.000000	71.380966
971.000000	71.321207
972.000000	71.257749
973.000000	71.204844
974.000000	71.144529
975.000000	71.098397
976.000000	71.032975
977.000000	70.979841
978.000000	70.935434
979.000000	70.887379
980.000000	70.837064
981.000000	70.790289
982.000000	70.735322
983.000000	70.693439
984.000000	70.650761
985.000000	70.596963
986.000000	70.554703
987.000000	70.517277
988.000000	70.477306
989.000000	70.441967
990.000000	70.401006
991.000000	70.363113
992.000000	70.318697
993.000000	70.285788
994.000000	70.253366
995.000000	70.224020
996.000000	70.182065
997.000000	70.147581
998.000000	70.119531
999.000000	70.087434
1000.000000	70.065700
1001.000000	70.030200
1002.000000	70.000775
1003.000000	69.984638
1004.000000	69.956552
1005.000000	69.924759
1006.000000	69.890215
1007.000000	69.855569
1008.000000	69.826629
1009.000000	69.802481
1010.000000	69.767716
1011.000000	69.743538
1012.000000	69.726003
1013.000000	69.700011
1014.000000	69.688095
1015.000000	69.691536
1016.000000	69.689581
1017.000000	69.696822
1018.000000	69.707765
1019.000000	69.719014
1020.000000	69.740609
1021.000000	69.765514
1022.000000	69.781516
1023.000000	69.811459
1024.000000	69.838782
1025.000000	69.871219
1026.000000	69.914649
1027.000000	69.955478
1028.000000	69.995528
1029.000000	70.042974
1030.000000	70.088579
1031.000000	70.132971
1032.000000	70.181359
1033.000000	70.229250
1034.000000	70.273563
1035.000000	70.322414
1036.000000	70.377294
1037.000000	70.424906
1038.000000	70.478475
1039.000000	70.534024
1040.000000	70.590665
1041.000000	70.642974
1042.000000	70.696702
1043.000000	70.761574
1044.000000	70.827542
1045.000000	70.881255
1046.000000	70.944585
1047.000000	71.015789
1048.000000	71.082641
1049.000000	71.153269
1050.000000	71.218801
1051.000000	71.289034
1052.000000	71.368865
1053.000000	71.443555
1054.000000	71.519739
1055.000000	71.601254
1056.000000	71.680538
1057.000000	71.760003
1058.000000	71.835747
1059.000000	71.910098
1060.000000	71.989416
1061.000000	72.067581
1062.000000	72.145650
1063.000000	72.213371
1064.000000	72.287271
1065.000000	72.353513
1066.000000	72.416363
1067.000000	72.487709
1068.000000	72.550094
1069.000000	72.603669
1070.000000	72.669176
1071.000000	72.735826
1072.000000	72.795244
1073.000000	72.854643
1074.000000	72.913206
1075.000000	72.968561
1076.000000	73.034440
1077.000000	73.087504
1078.000000	73.135600
1079.000000	73.194335
1080.000000	73.247891
1081.000000	73.308023
1082.000000	73.362881
1083.000000	73.421985
1084.000000	73.486874
1085.000000	73.544165
1086.000000	73.602421
1087.000000	73.663001
1088.000000	73.727287
1089.000000	73.784171
1090.000000	73.838331
1091.000000	73.888058
1092.000000	73.947977
1093.000000	74.005965
1094.000000	74.060441
1095.000000	74.116320
1096.000000	74.173602
1097.000000	74.225569
1098.000000	74.272810
1099.000000	74.326659
1100.000000	74.368962
1101.000000	74.418887
1102.000000	74.470281
1103.000000	74.509379
1104.000000	74.557520
1105.000000	74.594717
1106.000000	74.643532
1107.000000	74.677548
1108.000000	74.724018
1109.000000	74.758002
1110.000000	74.792034
1111.000000	74.840624
1112.000000	74.884723
1113.000000	74.921728
1114.000000	74.964752
1115.000000	75.016463
1116.000000	75.065590
1117.000000	75.101882
1118.000000	75.135693
1119.000000	75.166499
1120.000000	75.176323
1121.000000	75.186726
1122.000000	75.194042
1123.000000	75.196279
1124.000000	75.176323
1125.000000	75.147104
1126.000000	75.116671
1127.000000	75.059358
1128.000000	75.004689
1129.000000	74.920127
1130.000000	74.812638
1131.000000	74.645612
1132.000000	74.464342
1133.000000	74.272545
1134.000000	74.114122
1135.000000	73.902775
1136.000000	73.636754
1137.000000	73.344912
1138.000000	73.038876
1139.000000	72.769075
1140.000000	72.500610
1141.000000	72.252324
1142.000000	72.009564
1143.000000	71.765329
1144.000000	71.539952
1145.000000	71.355039
1146.000000	71.205238
1147.000000	71.125266
1148.000000	71.075567
1149.000000	71.074640
1150.000000	71.089755
1151.000000	71.110655
1152.000000	71.120711
1153.000000	71.110750
1154.000000	71.046837
1155.000000	70.954464
1156.000000	70.809513
1157.000000	70.620052
1158.000000	70.386332
1159.000000	70.118412
1160.000000	69.854906
1161.000000	69.562681
1162.000000	69.246091
1163.000000	68.943622
1164.000000	68.616176
1165.000000	68.290870
1166.000000	67.960038
