PE UV       SUBTECH     SPECTRUM    ASCII       PEDS        4.00        
   -1
CICIMAUCR0098-5.Sample.ASC
24/04/25
11:55:07.00
24/04/25
11:55:07.00
Vinicio Soto Monge
C. cupreomarginata
250,000000
1
Lambda 1050
1050L1511233
PerkinElmer UV WinLab 6.3.2.0749 / 2.02.05 Lambda 900 UV/VIS/NIR, Aug  7 2015 09:38:08

0
0
3350/servo 860,8/2
0
0
UV/VIS
1
1
1
DoubleDePol,CommonBeamDepol,RBeamAtt,SBeamAtt,60mm sphere, WB InGaAs Detector
0
0
0
0
Program
Program
3350/servo 860,8/2
3350/0,2 860,8/0,2
3350/0,2 860,8/0,2
0
15.00
 
 
 
0
 
860,8
319,2
860,8
Front
100
on
S:100 R:100
0
0
0
0
 
0
 
 
 
0
 
 
0
0
0
0
0
 
 
 
 
0
0


0
0
#HDR
-1
-1
#GR
nm
%R
1.0
0.0
2500,000000
-1,000000
2251
8
65,296400
4,773000
#DATA
250.000000	6.059033
251.000000	6.052233
252.000000	6.033967
253.000000	6.025833
254.000000	5.993167
255.000000	6.004867
256.000000	5.973633
257.000000	5.963067
258.000000	5.983400
259.000000	5.928800
260.000000	5.908633
261.000000	5.871000
262.000000	5.851567
263.000000	5.842133
264.000000	5.812533
265.000000	5.777267
266.000000	5.782500
267.000000	5.719600
268.000000	5.692667
269.000000	5.711000
270.000000	5.659800
271.000000	5.664633
272.000000	5.643133
273.000000	5.623033
274.000000	5.634600
275.000000	5.594800
276.000000	5.554467
277.000000	5.580567
278.000000	5.593133
279.000000	5.532267
280.000000	5.551667
281.000000	5.484600
282.000000	5.508967
283.000000	5.506967
284.000000	5.490433
285.000000	5.484000
286.000000	5.487833
287.000000	5.468300
288.000000	5.431433
289.000000	5.474767
290.000000	5.449233
291.000000	5.445800
292.000000	5.419767
293.000000	5.416233
294.000000	5.413100
295.000000	5.410033
296.000000	5.407567
297.000000	5.374467
298.000000	5.381933
299.000000	5.323500
300.000000	5.347467
301.000000	5.359467
302.000000	5.333633
303.000000	5.366800
304.000000	5.342167
305.000000	5.337533
306.000000	5.320933
307.000000	5.342867
308.000000	5.341733
309.000000	5.342500
310.000000	5.326600
311.000000	5.314800
312.000000	5.296433
313.000000	5.294267
314.000000	5.302133
315.000000	5.280167
316.000000	5.312700
317.000000	5.645067
318.000000	5.805333
319.000000	5.924767
320.000000	5.652667
321.000000	5.589533
322.000000	5.440500
323.000000	5.464133
324.000000	5.526167
325.000000	5.450900
326.000000	5.565767
327.000000	5.396433
328.000000	5.479300
329.000000	5.494800
330.000000	5.369400
331.000000	5.438967
332.000000	5.313467
333.000000	5.354133
334.000000	5.473700
335.000000	5.313400
336.000000	5.312067
337.000000	5.290233
338.000000	5.241267
339.000000	5.235733
340.000000	5.282233
341.000000	5.349600
342.000000	5.297733
343.000000	5.271100
344.000000	5.232333
345.000000	5.194767
346.000000	5.290100
347.000000	5.248933
348.000000	5.207533
349.000000	5.241333
350.000000	5.180467
351.000000	5.224733
352.000000	5.256733
353.000000	5.194300
354.000000	5.219500
355.000000	5.200500
356.000000	5.204233
357.000000	5.177200
358.000000	5.186267
359.000000	5.178300
360.000000	5.167167
361.000000	5.150933
362.000000	5.164167
363.000000	5.195067
364.000000	5.147767
365.000000	5.187333
366.000000	5.199633
367.000000	5.171633
368.000000	5.184133
369.000000	5.124633
370.000000	5.103600
371.000000	5.091267
372.000000	5.116500
373.000000	5.102667
374.000000	4.983933
375.000000	4.985833
376.000000	5.217667
377.000000	5.278767
378.000000	5.294067
379.000000	5.310367
380.000000	5.328833
381.000000	5.337733
382.000000	5.343233
383.000000	5.361167
384.000000	5.382800
385.000000	5.387367
386.000000	5.410600
387.000000	5.417167
388.000000	5.422367
389.000000	5.449767
390.000000	5.473167
391.000000	5.486633
392.000000	5.498400
393.000000	5.527933
394.000000	5.556167
395.000000	5.587200
396.000000	5.612733
397.000000	5.635967
398.000000	5.670333
399.000000	5.703533
400.000000	5.739233
401.000000	5.791233
402.000000	5.847367
403.000000	5.895367
404.000000	5.954200
405.000000	6.019967
406.000000	6.091867
407.000000	6.172667
408.000000	6.257000
409.000000	6.350600
410.000000	6.448000
411.000000	6.554033
412.000000	6.670067
413.000000	6.796967
414.000000	6.931767
415.000000	7.074633
416.000000	7.228367
417.000000	7.394567
418.000000	7.568300
419.000000	7.755133
420.000000	7.955800
421.000000	8.166200
422.000000	8.383333
423.000000	8.599433
424.000000	8.833533
425.000000	9.077433
426.000000	9.332433
427.000000	9.590733
428.000000	9.848700
429.000000	10.116133
430.000000	10.393433
431.000000	10.678433
432.000000	10.961167
433.000000	11.251033
434.000000	11.564733
435.000000	11.865000
436.000000	12.152367
437.000000	12.457400
438.000000	12.758733
439.000000	13.047667
440.000000	13.347967
441.000000	13.654333
442.000000	13.954633
443.000000	14.241167
444.000000	14.519033
445.000000	14.815733
446.000000	15.102567
447.000000	15.370000
448.000000	15.632033
449.000000	15.879667
450.000000	16.122000
451.000000	16.367767
452.000000	16.610100
453.000000	16.840733
454.000000	17.062800
455.000000	17.282133
456.000000	17.476733
457.000000	17.680633
458.000000	17.877200
459.000000	18.066867
460.000000	18.258000
461.000000	18.439333
462.000000	18.616367
463.000000	18.794033
464.000000	18.965600
465.000000	19.122733
466.000000	19.282567
467.000000	19.438733
468.000000	19.586333
469.000000	19.728567
470.000000	19.866467
471.000000	20.003300
472.000000	20.136767
473.000000	20.255233
474.000000	20.367033
475.000000	20.498100
476.000000	20.617567
477.000000	20.721233
478.000000	20.822867
479.000000	20.920967
480.000000	21.011933
481.000000	21.093667
482.000000	21.156733
483.000000	21.224433
484.000000	21.298800
485.000000	21.371333
486.000000	21.460067
487.000000	21.542567
488.000000	21.634567
489.000000	21.727533
490.000000	21.834833
491.000000	21.965900
492.000000	22.115400
493.000000	22.285133
494.000000	22.497033
495.000000	22.728233
496.000000	23.002167
497.000000	23.306900
498.000000	23.650567
499.000000	24.020567
500.000000	24.429433
501.000000	24.888733
502.000000	25.360633
503.000000	25.862867
504.000000	26.387667
505.000000	26.924667
506.000000	27.496267
507.000000	28.062700
508.000000	28.641667
509.000000	29.259100
510.000000	29.869267
511.000000	30.487633
512.000000	31.129567
513.000000	31.770100
514.000000	32.415367
515.000000	33.076367
516.000000	33.738500
517.000000	34.419933
518.000000	35.110200
519.000000	35.833733
520.000000	36.567367
521.000000	37.320033
522.000000	38.085300
523.000000	38.883000
524.000000	39.705233
525.000000	40.542300
526.000000	41.396767
527.000000	42.268567
528.000000	43.152033
529.000000	44.050367
530.000000	44.991900
531.000000	45.954867
532.000000	46.925567
533.000000	47.923433
534.000000	48.929400
535.000000	49.928733
536.000000	50.906067
537.000000	51.889800
538.000000	52.823900
539.000000	53.716867
540.000000	54.575267
541.000000	55.437400
542.000000	56.244400
543.000000	57.033700
544.000000	57.777333
545.000000	58.485800
546.000000	59.172167
547.000000	59.814300
548.000000	60.448000
549.000000	61.009800
550.000000	61.523100
551.000000	61.985533
552.000000	62.405467
553.000000	62.778700
554.000000	63.071733
555.000000	63.342867
556.000000	63.577300
557.000000	63.795000
558.000000	63.989500
559.000000	64.174300
560.000000	64.435300
561.000000	64.607033
562.000000	64.767567
563.000000	64.907567
564.000000	65.022933
565.000000	65.107167
566.000000	65.189867
567.000000	65.222700
568.000000	65.261300
569.000000	65.248667
570.000000	65.216933
571.000000	65.159000
572.000000	65.082367
573.000000	65.018067
574.000000	64.921433
575.000000	64.846167
576.000000	64.742900
577.000000	64.679600
578.000000	64.639700
579.000000	64.560533
580.000000	64.531333
581.000000	64.459833
582.000000	64.410767
583.000000	64.371100
584.000000	64.263500
585.000000	64.148900
586.000000	64.017567
587.000000	63.794867
588.000000	63.543700
589.000000	63.269200
590.000000	62.959100
591.000000	62.576667
592.000000	62.213567
593.000000	61.822900
594.000000	61.432833
595.000000	61.047767
596.000000	60.655467
597.000000	60.232733
598.000000	59.858400
599.000000	59.467933
600.000000	59.042867
601.000000	58.642833
602.000000	58.197733
603.000000	57.757033
604.000000	57.344067
605.000000	56.904700
606.000000	56.427433
607.000000	55.908500
608.000000	55.410000
609.000000	54.832900
610.000000	54.222933
611.000000	53.537000
612.000000	52.853267
613.000000	52.107367
614.000000	51.359800
615.000000	50.664167
616.000000	49.935033
617.000000	49.241733
618.000000	48.595467
619.000000	47.993400
620.000000	47.426633
621.000000	46.921500
622.000000	46.471533
623.000000	46.087800
624.000000	45.762700
625.000000	45.495667
626.000000	45.280933
627.000000	45.100433
628.000000	44.985867
629.000000	44.908933
630.000000	44.902300
631.000000	44.898267
632.000000	44.955567
633.000000	45.061233
634.000000	45.192867
635.000000	45.341300
636.000000	45.534267
637.000000	45.749000
638.000000	45.961900
639.000000	46.207733
640.000000	46.459800
641.000000	46.680667
642.000000	46.909600
643.000000	47.160700
644.000000	47.371667
645.000000	47.603400
646.000000	47.780767
647.000000	47.947400
648.000000	48.145733
649.000000	48.279867
650.000000	48.410633
651.000000	48.523667
652.000000	48.651667
653.000000	48.752767
654.000000	48.835867
655.000000	48.898033
656.000000	48.930667
657.000000	48.982633
658.000000	49.047467
659.000000	49.077333
660.000000	49.091667
661.000000	49.147400
662.000000	49.173800
663.000000	49.171800
664.000000	49.199967
665.000000	49.224867
666.000000	49.274533
667.000000	49.317633
668.000000	49.380200
669.000000	49.434500
670.000000	49.496033
671.000000	49.579633
672.000000	49.670300
673.000000	49.752567
674.000000	49.847600
675.000000	49.936033
676.000000	50.045500
677.000000	50.187433
678.000000	50.328467
679.000000	50.489100
680.000000	50.636767
681.000000	50.831267
682.000000	51.046867
683.000000	51.274267
684.000000	51.452167
685.000000	51.705533
686.000000	51.927733
687.000000	52.147000
688.000000	52.389433
689.000000	52.623900
690.000000	52.828067
691.000000	53.033733
692.000000	53.251133
693.000000	53.441633
694.000000	53.630833
695.000000	53.809200
696.000000	53.993333
697.000000	54.196467
698.000000	54.369167
699.000000	54.535433
700.000000	54.728833
701.000000	54.872700
702.000000	55.031500
703.000000	55.204200
704.000000	55.364600
705.000000	55.518800
706.000000	55.639333
707.000000	55.737433
708.000000	55.864433
709.000000	55.947800
710.000000	56.038500
711.000000	56.162733
712.000000	56.246267
713.000000	56.342167
714.000000	56.440933
715.000000	56.544133
716.000000	56.617300
717.000000	56.693167
718.000000	56.759200
719.000000	56.822867
720.000000	56.897267
721.000000	56.948867
722.000000	57.001567
723.000000	57.036400
724.000000	57.066267
725.000000	57.124733
726.000000	57.198400
727.000000	57.228367
728.000000	57.268967
729.000000	57.323000
730.000000	57.385133
731.000000	57.452067
732.000000	57.510867
733.000000	57.566200
734.000000	57.649433
735.000000	57.730100
736.000000	57.794733
737.000000	57.860667
738.000000	57.933267
739.000000	57.978967
740.000000	58.013567
741.000000	58.075500
742.000000	58.154167
743.000000	58.185733
744.000000	58.258633
745.000000	58.342233
746.000000	58.391800
747.000000	58.438967
748.000000	58.503600
749.000000	58.580500
750.000000	58.655667
751.000000	58.767500
752.000000	58.853900
753.000000	58.948533
754.000000	59.083533
755.000000	59.179833
756.000000	59.218900
757.000000	59.277033
758.000000	59.405733
759.000000	59.443500
760.000000	59.520633
761.000000	59.639333
762.000000	59.676233
763.000000	59.703600
764.000000	59.786567
765.000000	59.827500
766.000000	59.840600
767.000000	59.945733
768.000000	60.060967
769.000000	60.139533
770.000000	60.172133
771.000000	60.243333
772.000000	60.338767
773.000000	60.454833
774.000000	60.539800
775.000000	60.556400
776.000000	60.628133
777.000000	60.681967
778.000000	60.696233
779.000000	60.733833
780.000000	60.768333
781.000000	60.839067
782.000000	60.886900
783.000000	60.914700
784.000000	60.980967
785.000000	61.064733
786.000000	61.115300
787.000000	61.161900
788.000000	61.225200
789.000000	61.283967
790.000000	61.373500
791.000000	61.505100
792.000000	61.561900
793.000000	61.612067
794.000000	61.692800
795.000000	61.680367
796.000000	61.756167
797.000000	61.909167
798.000000	61.953133
799.000000	61.986800
800.000000	62.053067
801.000000	62.108367
802.000000	62.206033
803.000000	62.266933
804.000000	62.352433
805.000000	62.409200
806.000000	62.547233
807.000000	62.644100
808.000000	62.685667
809.000000	62.789933
810.000000	62.866067
811.000000	62.961500
812.000000	63.047367
813.000000	63.191433
814.000000	63.270567
815.000000	63.380433
816.000000	63.418667
817.000000	63.550167
818.000000	63.707033
819.000000	63.662300
820.000000	63.876633
821.000000	64.050600
822.000000	64.196700
823.000000	64.219967
824.000000	64.279833
825.000000	64.312367
826.000000	64.390133
827.000000	64.540833
828.000000	64.645467
829.000000	64.659667
830.000000	64.631733
831.000000	64.805833
832.000000	64.855833
833.000000	64.868867
834.000000	64.900467
835.000000	65.040000
836.000000	65.046233
837.000000	64.971267
838.000000	65.086767
839.000000	65.184233
840.000000	65.223900
841.000000	65.172967
842.000000	65.174267
843.000000	65.220800
844.000000	65.206100
845.000000	65.247900
846.000000	65.106267
847.000000	65.213533
848.000000	65.159167
849.000000	65.168933
850.000000	65.045967
851.000000	65.172033
852.000000	64.887500
853.000000	65.116300
854.000000	65.177367
855.000000	65.022667
856.000000	65.026967
857.000000	65.166967
858.000000	65.072200
859.000000	64.420940
860.000000	64.385229
861.000000	64.327811
862.000000	64.277235
863.000000	64.196890
864.000000	64.124130
865.000000	64.046343
866.000000	64.004347
867.000000	64.060425
868.000000	64.172597
869.000000	64.281227
870.000000	64.389739
871.000000	64.503597
872.000000	64.558933
873.000000	64.638076
874.000000	64.679262
875.000000	64.684024
876.000000	64.709405
877.000000	64.693123
878.000000	64.709036
879.000000	64.682773
880.000000	64.664881
881.000000	64.626973
882.000000	64.561256
883.000000	64.544013
884.000000	64.489117
885.000000	64.459087
886.000000	64.380677
887.000000	64.287728
888.000000	64.216738
889.000000	64.152687
890.000000	64.074319
891.000000	63.977097
892.000000	63.892470
893.000000	63.780840
894.000000	63.642991
895.000000	63.514164
896.000000	63.373742
897.000000	63.243640
898.000000	63.088614
899.000000	62.962446
900.000000	62.808765
901.000000	62.661437
902.000000	62.507024
903.000000	62.335071
904.000000	62.192517
905.000000	62.048725
906.000000	61.916966
907.000000	61.767634
908.000000	61.642164
909.000000	61.537367
910.000000	61.432526
911.000000	61.351108
912.000000	61.279605
913.000000	61.165526
914.000000	61.092966
915.000000	61.012504
916.000000	60.946771
917.000000	60.862419
918.000000	60.774985
919.000000	60.702314
920.000000	60.627411
921.000000	60.529364
922.000000	60.444682
923.000000	60.326930
924.000000	60.231804
925.000000	60.140335
926.000000	60.039743
927.000000	59.947778
928.000000	59.858033
929.000000	59.763943
930.000000	59.680467
931.000000	59.577398
932.000000	59.504211
933.000000	59.406009
934.000000	59.327978
935.000000	59.232220
936.000000	59.161744
937.000000	59.094741
938.000000	59.002729
939.000000	58.927579
940.000000	58.844728
941.000000	58.755445
942.000000	58.673394
943.000000	58.594599
944.000000	58.519326
945.000000	58.434884
946.000000	58.367599
947.000000	58.281167
948.000000	58.202673
949.000000	58.109710
950.000000	58.034245
951.000000	57.974148
952.000000	57.883745
953.000000	57.813052
954.000000	57.725861
955.000000	57.656840
956.000000	57.564684
957.000000	57.458928
958.000000	57.369176
959.000000	57.287551
960.000000	57.176235
961.000000	57.076944
962.000000	56.973642
963.000000	56.874718
964.000000	56.800768
965.000000	56.704698
966.000000	56.617806
967.000000	56.537768
968.000000	56.460919
969.000000	56.386643
970.000000	56.311102
971.000000	56.234892
972.000000	56.170433
973.000000	56.101707
974.000000	56.028903
975.000000	55.963796
976.000000	55.899130
977.000000	55.823090
978.000000	55.759441
979.000000	55.691360
980.000000	55.619958
981.000000	55.552446
982.000000	55.477372
983.000000	55.416963
984.000000	55.347725
985.000000	55.278198
986.000000	55.218996
987.000000	55.166596
988.000000	55.108628
989.000000	55.045290
990.000000	54.996864
991.000000	54.949814
992.000000	54.900637
993.000000	54.862881
994.000000	54.829882
995.000000	54.793022
996.000000	54.760539
997.000000	54.726595
998.000000	54.686074
999.000000	54.649643
1000.000000	54.625031
1001.000000	54.612417
1002.000000	54.580178
1003.000000	54.551268
1004.000000	54.530545
1005.000000	54.494778
1006.000000	54.473697
1007.000000	54.445642
1008.000000	54.413326
1009.000000	54.395132
1010.000000	54.373862
1011.000000	54.354608
1012.000000	54.353455
1013.000000	54.359249
1014.000000	54.364786
1015.000000	54.382353
1016.000000	54.409966
1017.000000	54.453236
1018.000000	54.493643
1019.000000	54.531935
1020.000000	54.591669
1021.000000	54.642984
1022.000000	54.692777
1023.000000	54.749038
1024.000000	54.814113
1025.000000	54.873537
1026.000000	54.932811
1027.000000	55.005216
1028.000000	55.061601
1029.000000	55.117683
1030.000000	55.178960
1031.000000	55.227748
1032.000000	55.279290
1033.000000	55.332046
1034.000000	55.379441
1035.000000	55.428262
1036.000000	55.474439
1037.000000	55.524126
1038.000000	55.567568
1039.000000	55.614273
1040.000000	55.658585
1041.000000	55.689040
1042.000000	55.722583
1043.000000	55.752561
1044.000000	55.787356
1045.000000	55.828994
1046.000000	55.873215
1047.000000	55.913949
1048.000000	55.957980
1049.000000	56.000088
1050.000000	56.043501
1051.000000	56.094034
1052.000000	56.138579
1053.000000	56.184266
1054.000000	56.243759
1055.000000	56.304866
1056.000000	56.360382
1057.000000	56.419618
1058.000000	56.485574
1059.000000	56.552524
1060.000000	56.603134
1061.000000	56.647373
1062.000000	56.703877
1063.000000	56.760558
1064.000000	56.808302
1065.000000	56.850667
1066.000000	56.901076
1067.000000	56.949643
1068.000000	56.990650
1069.000000	57.038506
1070.000000	57.084578
1071.000000	57.126871
1072.000000	57.169978
1073.000000	57.214239
1074.000000	57.252068
1075.000000	57.291441
1076.000000	57.328795
1077.000000	57.372192
1078.000000	57.411308
1079.000000	57.454253
1080.000000	57.492535
1081.000000	57.528060
1082.000000	57.573751
1083.000000	57.616361
1084.000000	57.665707
1085.000000	57.709100
1086.000000	57.745811
1087.000000	57.790103
1088.000000	57.830458
1089.000000	57.872595
1090.000000	57.902213
1091.000000	57.944077
1092.000000	57.975260
1093.000000	58.006275
1094.000000	58.032599
1095.000000	58.059659
1096.000000	58.087881
1097.000000	58.129983
1098.000000	58.155412
1099.000000	58.173844
1100.000000	58.195994
1101.000000	58.209898
1102.000000	58.233504
1103.000000	58.243638
1104.000000	58.253705
1105.000000	58.265697
1106.000000	58.273498
1107.000000	58.273196
1108.000000	58.288967
1109.000000	58.298347
1110.000000	58.308043
1111.000000	58.323194
1112.000000	58.330943
1113.000000	58.323045
1114.000000	58.351930
1115.000000	58.353685
1116.000000	58.365336
1117.000000	58.368463
1118.000000	58.360000
1119.000000	58.339924
1120.000000	58.321135
1121.000000	58.291031
1122.000000	58.247734
1123.000000	58.204428
1124.000000	58.129681
1125.000000	58.047699
1126.000000	57.967323
1127.000000	57.854179
1128.000000	57.714004
1129.000000	57.553302
1130.000000	57.354991
1131.000000	57.101979
1132.000000	56.813264
1133.000000	56.498239
1134.000000	56.186169
1135.000000	55.818058
1136.000000	55.396062
1137.000000	54.966888
1138.000000	54.542633
1139.000000	54.137253
1140.000000	53.736660
1141.000000	53.358279
1142.000000	52.975663
1143.000000	52.611170
1144.000000	52.266493
1145.000000	51.970915
1146.000000	51.747935
1147.000000	51.605425
1148.000000	51.529178
1149.000000	51.506754
1150.000000	51.502191
1151.000000	51.498949
1152.000000	51.488608
1153.000000	51.432916
1154.000000	51.338503
1155.000000	51.181815
1156.000000	50.966859
1157.000000	50.705160
1158.000000	50.368087
1159.000000	50.033333
1160.000000	49.633994
1161.000000	49.253164
1162.000000	48.831889
1163.000000	48.427416
1164.000000	47.997792
1165.000000	47.554397
1166.000000	47.135524
1167.000000	46.723217
1168.000000	46.301101
