PE UV       SUBTECH     SPECTRUM    ASCII       PEDS        4.00        
   -1
CICIMAUCR0113-6.Sample.ASC
24/04/25
11:40:20.00
24/04/25
11:40:20.00
Vinicio Soto Monge
C. kalinini
250,000000
1
Lambda 1050
1050L1511233
PerkinElmer UV WinLab 6.3.2.0749 / 2.02.05 Lambda 900 UV/VIS/NIR, Aug  7 2015 09:38:08

0
0
3350/servo 860,8/2
0
0
UV/VIS
1
1
1
DoubleDePol,CommonBeamDepol,RBeamAtt,SBeamAtt,60mm sphere, WB InGaAs Detector
0
0
0
0
Program
Program
3350/servo 860,8/2
3350/0,2 860,8/0,2
3350/0,2 860,8/0,2
0
15.00
 
 
 
0
 
860,8
319,2
860,8
Front
100
on
S:100 R:100
0
0
0
0
 
0
 
 
 
0
 
 
0
0
0
0
0
 
 
 
 
0
0


0
0
#HDR
-1
-1
#GR
nm
%R
1.0
0.0
2500,000000
-1,000000
2251
8
101,774400
5,807200
#DATA
250.000000	4.155766
251.000000	4.148681
252.000000	4.154325
253.000000	4.126286
254.000000	4.116519
255.000000	4.117544
256.000000	4.108710
257.000000	4.096418
258.000000	4.099366
259.000000	4.078657
260.000000	4.061511
261.000000	4.068066
262.000000	4.049757
263.000000	4.024355
264.000000	4.005972
265.000000	4.002617
266.000000	3.966165
267.000000	3.961712
268.000000	3.945394
269.000000	3.946737
270.000000	3.935199
271.000000	3.920766
272.000000	3.900853
273.000000	3.887412
274.000000	3.877220
275.000000	3.877361
276.000000	3.868980
277.000000	3.860271
278.000000	3.855533
279.000000	3.849457
280.000000	3.843525
281.000000	3.824404
282.000000	3.831249
283.000000	3.816314
284.000000	3.828347
285.000000	3.808064
286.000000	3.836073
287.000000	3.816805
288.000000	3.814163
289.000000	3.817498
290.000000	3.818590
291.000000	3.804074
292.000000	3.827003
293.000000	3.802236
294.000000	3.819802
295.000000	3.817225
296.000000	3.831844
297.000000	3.819033
298.000000	3.798496
299.000000	3.802903
300.000000	3.801636
301.000000	3.810718
302.000000	3.781247
303.000000	3.772351
304.000000	3.784266
305.000000	3.799468
306.000000	3.798706
307.000000	3.803974
308.000000	3.803482
309.000000	3.794900
310.000000	3.808818
311.000000	3.786289
312.000000	3.814973
313.000000	3.810176
314.000000	3.800233
315.000000	3.812474
316.000000	3.851081
317.000000	4.291427
318.000000	4.317524
319.000000	4.183028
320.000000	4.217087
321.000000	4.062150
322.000000	4.090565
323.000000	4.077149
324.000000	4.145699
325.000000	4.070947
326.000000	4.025888
327.000000	4.082243
328.000000	3.985962
329.000000	4.011824
330.000000	3.951640
331.000000	3.996623
332.000000	3.878034
333.000000	3.981031
334.000000	4.046085
335.000000	4.027375
336.000000	4.025570
337.000000	4.031564
338.000000	4.007589
339.000000	4.023442
340.000000	4.004960
341.000000	4.084247
342.000000	4.053926
343.000000	4.038747
344.000000	4.051605
345.000000	4.037996
346.000000	4.004188
347.000000	4.019185
348.000000	4.085484
349.000000	4.061282
350.000000	4.113587
351.000000	4.114477
352.000000	4.087675
353.000000	4.073774
354.000000	4.108884
355.000000	4.167577
356.000000	4.191608
357.000000	4.186571
358.000000	4.233523
359.000000	4.219156
360.000000	4.220599
361.000000	4.247993
362.000000	4.215473
363.000000	4.246336
364.000000	4.300140
365.000000	4.271847
366.000000	4.311193
367.000000	4.348373
368.000000	4.321008
369.000000	4.343380
370.000000	4.366538
371.000000	4.355042
372.000000	4.352578
373.000000	4.351587
374.000000	4.348681
375.000000	4.450067
376.000000	4.604398
377.000000	4.585265
378.000000	4.620506
379.000000	4.652058
380.000000	4.692272
381.000000	4.735075
382.000000	4.778512
383.000000	4.821244
384.000000	4.870792
385.000000	4.922891
386.000000	4.975859
387.000000	5.037930
388.000000	5.100002
389.000000	5.166210
390.000000	5.232539
391.000000	5.304974
392.000000	5.390630
393.000000	5.475441
394.000000	5.559354
395.000000	5.651536
396.000000	5.747781
397.000000	5.847857
398.000000	5.955701
399.000000	6.069174
400.000000	6.189468
401.000000	6.320475
402.000000	6.448855
403.000000	6.582640
404.000000	6.718793
405.000000	6.867145
406.000000	7.022087
407.000000	7.177611
408.000000	7.341191
409.000000	7.508403
410.000000	7.689327
411.000000	7.876408
412.000000	8.062885
413.000000	8.261798
414.000000	8.469762
415.000000	8.680648
416.000000	8.890323
417.000000	9.102733
418.000000	9.321594
419.000000	9.549419
420.000000	9.785114
421.000000	10.023501
422.000000	10.257764
423.000000	10.492179
424.000000	10.733802
425.000000	10.983449
426.000000	11.231261
427.000000	11.471395
428.000000	11.711154
429.000000	11.950103
430.000000	12.194284
431.000000	12.439039
432.000000	12.676887
433.000000	12.909309
434.000000	13.141448
435.000000	13.372168
436.000000	13.594316
437.000000	13.812192
438.000000	14.025186
439.000000	14.231445
440.000000	14.439948
441.000000	14.636259
442.000000	14.826807
443.000000	15.017323
444.000000	15.195434
445.000000	15.357062
446.000000	15.508738
447.000000	15.660203
448.000000	15.805500
449.000000	15.940643
450.000000	16.069177
451.000000	16.188427
452.000000	16.315455
453.000000	16.438410
454.000000	16.537265
455.000000	16.636300
456.000000	16.736024
457.000000	16.821389
458.000000	16.900957
459.000000	16.986740
460.000000	17.066860
461.000000	17.133742
462.000000	17.205927
463.000000	17.275692
464.000000	17.337086
465.000000	17.392415
466.000000	17.449229
467.000000	17.504293
468.000000	17.559177
469.000000	17.614669
470.000000	17.666023
471.000000	17.715122
472.000000	17.768595
473.000000	17.824613
474.000000	17.876084
475.000000	17.927883
476.000000	17.975438
477.000000	18.027744
478.000000	18.085757
479.000000	18.139061
480.000000	18.206274
481.000000	18.288364
482.000000	18.374540
483.000000	18.449408
484.000000	18.504231
485.000000	18.561708
486.000000	18.624274
487.000000	18.681839
488.000000	18.743545
489.000000	18.809558
490.000000	18.886479
491.000000	18.980741
492.000000	19.071482
493.000000	19.179115
494.000000	19.298286
495.000000	19.434055
496.000000	19.582084
497.000000	19.759735
498.000000	19.957667
499.000000	20.182322
500.000000	20.432413
501.000000	20.710730
502.000000	21.011975
503.000000	21.337518
504.000000	21.687714
505.000000	22.050529
506.000000	22.433735
507.000000	22.831389
508.000000	23.237356
509.000000	23.659115
510.000000	24.091286
511.000000	24.526179
512.000000	24.966661
513.000000	25.406134
514.000000	25.842569
515.000000	26.279000
516.000000	26.702581
517.000000	27.124551
518.000000	27.535593
519.000000	27.947831
520.000000	28.358118
521.000000	28.756016
522.000000	29.151892
523.000000	29.542759
524.000000	29.933558
525.000000	30.315781
526.000000	30.692674
527.000000	31.061298
528.000000	31.433129
529.000000	31.803838
530.000000	32.164443
531.000000	32.527670
532.000000	32.895655
533.000000	33.253484
534.000000	33.615302
535.000000	33.974316
536.000000	34.333824
537.000000	34.688838
538.000000	35.038947
539.000000	35.384396
540.000000	35.721869
541.000000	36.052763
542.000000	36.384163
543.000000	36.722237
544.000000	37.055252
545.000000	37.381760
546.000000	37.686286
547.000000	37.992049
548.000000	38.292680
549.000000	38.580433
550.000000	38.874792
551.000000	39.141902
552.000000	39.411557
553.000000	39.672262
554.000000	39.917116
555.000000	40.163979
556.000000	40.399016
557.000000	40.607055
558.000000	40.804903
559.000000	41.001517
560.000000	41.127765
561.000000	41.309078
562.000000	41.485302
563.000000	41.650233
564.000000	41.805043
565.000000	41.946206
566.000000	42.082620
567.000000	42.198166
568.000000	42.317390
569.000000	42.402294
570.000000	42.491859
571.000000	42.563702
572.000000	42.626203
573.000000	42.681016
574.000000	42.743489
575.000000	42.780980
576.000000	42.814781
577.000000	42.840762
578.000000	42.854467
579.000000	42.888291
580.000000	42.935030
581.000000	42.945936
582.000000	42.950037
583.000000	42.963695
584.000000	42.959843
585.000000	42.972298
586.000000	42.964739
587.000000	42.964231
588.000000	42.938914
589.000000	42.915898
590.000000	42.891747
591.000000	42.868302
592.000000	42.827209
593.000000	42.787610
594.000000	42.749904
595.000000	42.696619
596.000000	42.637897
597.000000	42.538665
598.000000	42.470865
599.000000	42.393559
600.000000	42.315538
601.000000	42.211788
602.000000	42.118467
603.000000	42.013935
604.000000	41.899499
605.000000	41.798783
606.000000	41.688673
607.000000	41.561779
608.000000	41.451993
609.000000	41.358020
610.000000	41.231254
611.000000	41.123128
612.000000	41.009643
613.000000	40.901929
614.000000	40.776963
615.000000	40.677155
616.000000	40.556667
617.000000	40.426357
618.000000	40.316394
619.000000	40.218774
620.000000	40.118260
621.000000	40.003543
622.000000	39.885506
623.000000	39.780571
624.000000	39.685598
625.000000	39.580513
626.000000	39.479806
627.000000	39.399614
628.000000	39.296694
629.000000	39.218067
630.000000	39.162436
631.000000	39.098772
632.000000	39.056506
633.000000	39.010966
634.000000	38.978731
635.000000	38.976280
636.000000	38.980683
637.000000	38.971158
638.000000	38.974565
639.000000	39.005944
640.000000	39.021741
641.000000	39.057884
642.000000	39.097756
643.000000	39.145327
644.000000	39.206736
645.000000	39.282570
646.000000	39.349616
647.000000	39.416310
648.000000	39.501914
649.000000	39.590433
650.000000	39.686521
651.000000	39.828888
652.000000	39.946966
653.000000	40.087200
654.000000	40.234188
655.000000	40.402890
656.000000	40.600405
657.000000	40.785205
658.000000	40.995776
659.000000	41.221287
660.000000	41.455626
661.000000	41.714821
662.000000	41.974140
663.000000	42.221283
664.000000	42.476894
665.000000	42.739003
666.000000	42.986879
667.000000	43.248583
668.000000	43.528306
669.000000	43.770363
670.000000	44.010596
671.000000	44.277331
672.000000	44.532607
673.000000	44.798261
674.000000	45.025605
675.000000	45.262211
676.000000	45.500862
677.000000	45.750202
678.000000	45.990125
679.000000	46.226859
680.000000	46.459115
681.000000	46.669826
682.000000	46.895339
683.000000	47.128842
684.000000	47.335671
685.000000	47.553464
686.000000	47.744291
687.000000	47.935322
688.000000	48.089474
689.000000	48.252921
690.000000	48.413738
691.000000	48.584734
692.000000	48.749757
693.000000	48.911265
694.000000	49.053521
695.000000	49.216708
696.000000	49.376751
697.000000	49.545837
698.000000	49.698899
699.000000	49.882469
700.000000	50.066181
701.000000	50.268810
702.000000	50.476945
703.000000	50.676853
704.000000	50.899570
705.000000	51.137310
706.000000	51.371757
707.000000	51.606850
708.000000	51.826525
709.000000	52.048606
710.000000	52.303136
711.000000	52.536015
712.000000	52.766152
713.000000	52.995303
714.000000	53.230901
715.000000	53.484258
716.000000	53.707284
717.000000	53.927823
718.000000	54.185104
719.000000	54.426904
720.000000	54.659016
721.000000	54.877572
722.000000	55.091510
723.000000	55.326810
724.000000	55.567208
725.000000	55.803055
726.000000	56.008830
727.000000	56.211848
728.000000	56.413838
729.000000	56.594119
730.000000	56.795721
731.000000	56.962746
732.000000	57.125602
733.000000	57.301939
734.000000	57.470127
735.000000	57.629808
736.000000	57.774994
737.000000	57.904539
738.000000	58.011385
739.000000	58.135982
740.000000	58.258696
741.000000	58.382492
742.000000	58.515097
743.000000	58.630602
744.000000	58.731867
745.000000	58.806350
746.000000	58.876099
747.000000	58.977401
748.000000	59.055441
749.000000	59.111171
750.000000	59.199569
751.000000	59.291266
752.000000	59.328891
753.000000	59.370634
754.000000	59.435643
755.000000	59.474229
756.000000	59.488529
757.000000	59.525493
758.000000	59.582190
759.000000	59.622289
760.000000	59.664804
761.000000	59.654624
762.000000	59.638959
763.000000	59.650267
764.000000	59.659666
765.000000	59.659143
766.000000	59.661594
767.000000	59.646750
768.000000	59.650274
769.000000	59.671910
770.000000	59.632583
771.000000	59.592399
772.000000	59.557891
773.000000	59.563844
774.000000	59.572907
775.000000	59.524015
776.000000	59.492886
777.000000	59.448494
778.000000	59.415820
779.000000	59.359799
780.000000	59.304973
781.000000	59.281125
782.000000	59.252244
783.000000	59.190432
784.000000	59.175589
785.000000	59.091327
786.000000	59.037478
787.000000	58.987541
788.000000	58.898104
789.000000	58.811036
790.000000	58.741067
791.000000	58.665600
792.000000	58.562246
793.000000	58.486010
794.000000	58.375669
795.000000	58.266283
796.000000	58.174723
797.000000	58.055798
798.000000	57.929630
799.000000	57.825263
800.000000	57.702276
801.000000	57.606690
802.000000	57.446781
803.000000	57.284912
804.000000	57.135528
805.000000	57.035523
806.000000	56.892970
807.000000	56.789527
808.000000	56.669634
809.000000	56.460251
810.000000	56.246992
811.000000	56.112500
812.000000	56.001089
813.000000	55.850281
814.000000	55.679369
815.000000	55.486907
816.000000	55.359686
817.000000	55.199064
818.000000	55.010563
819.000000	54.821087
820.000000	54.629202
821.000000	54.471780
822.000000	54.358872
823.000000	54.178219
824.000000	53.949152
825.000000	53.755947
826.000000	53.625790
827.000000	53.435553
828.000000	53.256287
829.000000	53.031471
830.000000	52.877721
831.000000	52.651107
832.000000	52.480497
833.000000	52.263531
834.000000	52.072076
835.000000	51.892372
836.000000	51.722860
837.000000	51.502681
838.000000	51.331274
839.000000	51.117570
840.000000	51.007367
841.000000	50.855241
842.000000	50.582015
843.000000	50.469833
844.000000	50.243918
845.000000	49.983227
846.000000	49.895986
847.000000	49.638511
848.000000	49.370342
849.000000	49.358996
850.000000	49.220743
851.000000	48.863267
852.000000	48.772829
853.000000	48.672896
854.000000	48.238049
855.000000	48.069923
856.000000	47.971495
857.000000	47.995020
858.000000	48.830683
859.000000	47.885917
860.000000	47.752833
861.000000	47.618867
862.000000	47.479250
863.000000	47.321800
864.000000	47.146867
865.000000	46.996117
866.000000	46.848033
867.000000	46.785267
868.000000	46.808050
869.000000	46.878300
870.000000	46.905633
871.000000	46.972250
872.000000	47.009400
873.000000	47.029200
874.000000	47.021067
875.000000	47.031800
876.000000	47.018767
877.000000	47.029250
878.000000	46.988933
879.000000	46.994967
880.000000	46.967700
881.000000	46.970950
882.000000	46.924350
883.000000	46.912450
884.000000	46.870883
885.000000	46.813367
886.000000	46.753483
887.000000	46.713717
888.000000	46.655033
889.000000	46.621867
890.000000	46.574517
891.000000	46.497517
892.000000	46.406417
893.000000	46.335650
894.000000	46.267950
895.000000	46.200083
896.000000	46.101583
897.000000	45.999850
898.000000	45.913450
899.000000	45.816900
900.000000	45.738750
901.000000	45.643667
902.000000	45.558533
903.000000	45.465933
904.000000	45.384200
905.000000	45.299150
906.000000	45.202617
907.000000	45.122867
908.000000	45.032050
909.000000	44.960167
910.000000	44.895850
911.000000	44.829583
912.000000	44.771600
913.000000	44.719250
914.000000	44.651250
915.000000	44.606267
916.000000	44.539817
917.000000	44.489817
918.000000	44.412267
919.000000	44.355183
920.000000	44.309617
921.000000	44.258433
922.000000	44.197350
923.000000	44.111033
924.000000	44.049850
925.000000	44.012033
926.000000	43.959900
927.000000	43.909033
928.000000	43.849267
929.000000	43.791883
930.000000	43.750850
931.000000	43.705583
932.000000	43.648983
933.000000	43.608517
934.000000	43.545317
935.000000	43.492500
936.000000	43.439800
937.000000	43.395167
938.000000	43.352200
939.000000	43.320250
940.000000	43.304383
941.000000	43.265100
942.000000	43.247533
943.000000	43.227383
944.000000	43.213650
945.000000	43.176533
946.000000	43.163033
947.000000	43.153350
948.000000	43.143450
949.000000	43.122217
950.000000	43.125917
951.000000	43.109067
952.000000	43.102567
953.000000	43.104550
954.000000	43.091733
955.000000	43.082283
956.000000	43.082450
957.000000	43.081233
958.000000	43.068767
959.000000	43.057167
960.000000	43.050883
961.000000	43.057317
962.000000	43.055300
963.000000	43.042833
964.000000	43.036433
965.000000	43.051483
966.000000	43.064183
967.000000	43.069250
968.000000	43.075833
969.000000	43.090050
970.000000	43.100533
971.000000	43.123483
972.000000	43.131833
973.000000	43.145867
974.000000	43.159300
975.000000	43.185083
976.000000	43.196000
977.000000	43.207100
978.000000	43.230500
979.000000	43.253100
980.000000	43.264950
981.000000	43.277467
982.000000	43.295950
983.000000	43.315850
984.000000	43.335833
985.000000	43.354100
986.000000	43.368750
987.000000	43.387283
988.000000	43.415333
989.000000	43.430033
990.000000	43.452367
991.000000	43.481717
992.000000	43.508383
993.000000	43.532517
994.000000	43.558417
995.000000	43.588600
996.000000	43.614117
997.000000	43.633433
998.000000	43.662300
999.000000	43.698283
1000.000000	43.728383
1001.000000	43.754517
1002.000000	43.790150
1003.000000	43.827650
1004.000000	43.858800
1005.000000	43.888333
1006.000000	43.914633
1007.000000	43.935567
1008.000000	43.959550
1009.000000	43.986117
1010.000000	44.016617
1011.000000	44.055517
1012.000000	44.086917
1013.000000	44.128767
1014.000000	44.172267
1015.000000	44.218200
1016.000000	44.278067
1017.000000	44.343983
1018.000000	44.408900
1019.000000	44.474467
1020.000000	44.538600
1021.000000	44.603217
1022.000000	44.678633
1023.000000	44.753617
1024.000000	44.828583
1025.000000	44.906200
1026.000000	44.979800
1027.000000	45.051583
1028.000000	45.125917
1029.000000	45.193533
1030.000000	45.260417
1031.000000	45.339417
1032.000000	45.407217
1033.000000	45.473867
1034.000000	45.538067
1035.000000	45.598550
1036.000000	45.662983
1037.000000	45.726250
1038.000000	45.784067
1039.000000	45.845083
1040.000000	45.905183
1041.000000	45.959983
1042.000000	46.017050
1043.000000	46.073467
1044.000000	46.135600
1045.000000	46.199400
1046.000000	46.253900
1047.000000	46.310200
1048.000000	46.372300
1049.000000	46.434200
1050.000000	46.495367
1051.000000	46.557217
1052.000000	46.624800
1053.000000	46.693083
1054.000000	46.765000
1055.000000	46.842167
1056.000000	46.912800
1057.000000	46.982317
1058.000000	47.058467
1059.000000	47.135317
1060.000000	47.208417
1061.000000	47.281283
1062.000000	47.347150
1063.000000	47.412450
1064.000000	47.481233
1065.000000	47.545983
1066.000000	47.608183
1067.000000	47.676133
1068.000000	47.745317
1069.000000	47.805883
1070.000000	47.871917
1071.000000	47.935283
1072.000000	47.998033
1073.000000	48.058267
1074.000000	48.121050
1075.000000	48.180500
1076.000000	48.242250
1077.000000	48.305750
1078.000000	48.372350
1079.000000	48.430783
1080.000000	48.495567
1081.000000	48.556133
1082.000000	48.613650
1083.000000	48.672033
1084.000000	48.737150
1085.000000	48.804333
1086.000000	48.865150
1087.000000	48.928800
1088.000000	48.992817
1089.000000	49.062267
1090.000000	49.120950
1091.000000	49.180200
1092.000000	49.238667
1093.000000	49.301683
1094.000000	49.362267
1095.000000	49.412300
1096.000000	49.464333
1097.000000	49.519817
1098.000000	49.566933
1099.000000	49.611333
1100.000000	49.660183
1101.000000	49.709983
1102.000000	49.748450
1103.000000	49.783967
1104.000000	49.821967
1105.000000	49.869317
1106.000000	49.911617
1107.000000	49.940700
1108.000000	49.973783
1109.000000	50.010833
1110.000000	50.047750
1111.000000	50.081950
1112.000000	50.107983
1113.000000	50.142250
1114.000000	50.177200
1115.000000	50.202167
1116.000000	50.231883
1117.000000	50.254400
1118.000000	50.271967
1119.000000	50.280250
1120.000000	50.283183
1121.000000	50.281283
1122.000000	50.275933
1123.000000	50.241867
1124.000000	50.209500
1125.000000	50.175350
1126.000000	50.130617
1127.000000	50.063300
1128.000000	49.997750
1129.000000	49.901833
1130.000000	49.769400
1131.000000	49.626617
1132.000000	49.463933
1133.000000	49.296517
1134.000000	49.117200
1135.000000	48.878500
1136.000000	48.609750
1137.000000	48.352767
1138.000000	48.096033
1139.000000	47.841233
1140.000000	47.602117
1141.000000	47.365683
1142.000000	47.138683
1143.000000	46.917667
1144.000000	46.734800
1145.000000	46.546667
1146.000000	46.409350
1147.000000	46.322100
1148.000000	46.289133
1149.000000	46.286900
1150.000000	46.306900
1151.000000	46.331233
1152.000000	46.338850
1153.000000	46.325783
1154.000000	46.282400
1155.000000	46.207100
1156.000000	46.078083
1157.000000	45.909100
1158.000000	45.701183
1159.000000	45.467883
1160.000000	45.223767
1161.000000	44.958933
1162.000000	44.691133
1163.000000	44.411500
1164.000000	44.120083
1165.000000	43.840750
1166.000000	43.543983
1167.000000	43.265050
1168.000000	42.983050
