PE UV       SUBTECH     SPECTRUM    ASCII       PEDS        4.00        
   -1
CICIMAUCR0158-5.Sample.ASC
24/04/25
13:52:02.00
24/04/25
13:52:02.00
Vinicio Soto Monge
C. cupreomarginata
250,000000
1
Lambda 1050
1050L1511233
PerkinElmer UV WinLab 6.3.2.0749 / 2.02.05 Lambda 900 UV/VIS/NIR, Aug  7 2015 09:38:08

0
0
3350/servo 860,8/2
0
0
UV/VIS
1
1
1
DoubleDePol,CommonBeamDepol,RBeamAtt,SBeamAtt,60mm sphere, WB InGaAs Detector
0
0
0
0
Program
Program
3350/servo 860,8/2
3350/0,2 860,8/0,2
3350/0,2 860,8/0,2
0
15.00
 
 
 
0
 
860,8
319,2
860,8
Front
100
on
S:100 R:100
0
0
0
0
 
0
 
 
 
0
 
 
0
0
0
0
0
 
 
 
 
0
0


0
0
#HDR
-1
-1
#GR
nm
%R
1.0
0.0
2500,000000
-1,000000
2251
8
68,614000
5,280700
#DATA
250.000000	4.838739
251.000000	4.815612
252.000000	4.797858
253.000000	4.803464
254.000000	4.776124
255.000000	4.770770
256.000000	4.784469
257.000000	4.777670
258.000000	4.746673
259.000000	4.733817
260.000000	4.715547
261.000000	4.690889
262.000000	4.677960
263.000000	4.651579
264.000000	4.640211
265.000000	4.612285
266.000000	4.601127
267.000000	4.575063
268.000000	4.568734
269.000000	4.550822
270.000000	4.537660
271.000000	4.539984
272.000000	4.521256
273.000000	4.496968
274.000000	4.498104
275.000000	4.477027
276.000000	4.451828
277.000000	4.454806
278.000000	4.433267
279.000000	4.436221
280.000000	4.433436
281.000000	4.402935
282.000000	4.405042
283.000000	4.397068
284.000000	4.392351
285.000000	4.386151
286.000000	4.393473
287.000000	4.402253
288.000000	4.375804
289.000000	4.359896
290.000000	4.375354
291.000000	4.386057
292.000000	4.385807
293.000000	4.360706
294.000000	4.403164
295.000000	4.364106
296.000000	4.381794
297.000000	4.369868
298.000000	4.374664
299.000000	4.382211
300.000000	4.373486
301.000000	4.366464
302.000000	4.364541
303.000000	4.375990
304.000000	4.386345
305.000000	4.407981
306.000000	4.388530
307.000000	4.378637
308.000000	4.401208
309.000000	4.415949
310.000000	4.418829
311.000000	4.390551
312.000000	4.411313
313.000000	4.404919
314.000000	4.399807
315.000000	4.432642
316.000000	4.533726
317.000000	5.004350
318.000000	4.839455
319.000000	4.735915
320.000000	4.796577
321.000000	4.747037
322.000000	4.777398
323.000000	4.705618
324.000000	4.686224
325.000000	4.650132
326.000000	4.691914
327.000000	4.593238
328.000000	4.532054
329.000000	4.634210
330.000000	4.586194
331.000000	4.488123
332.000000	4.505144
333.000000	4.544111
334.000000	4.550399
335.000000	4.476893
336.000000	4.487048
337.000000	4.519863
338.000000	4.474396
339.000000	4.491979
340.000000	4.514240
341.000000	4.507674
342.000000	4.562954
343.000000	4.554289
344.000000	4.520554
345.000000	4.538327
346.000000	4.500368
347.000000	4.521277
348.000000	4.526535
349.000000	4.534554
350.000000	4.535865
351.000000	4.592297
352.000000	4.634839
353.000000	4.627168
354.000000	4.639227
355.000000	4.676953
356.000000	4.727892
357.000000	4.712235
358.000000	4.737130
359.000000	4.794233
360.000000	4.905239
361.000000	4.869278
362.000000	4.906148
363.000000	4.939562
364.000000	5.003083
365.000000	5.029262
366.000000	5.061680
367.000000	5.135332
368.000000	5.219675
369.000000	5.286007
370.000000	5.306884
371.000000	5.344381
372.000000	5.384211
373.000000	5.490344
374.000000	5.509973
375.000000	5.711670
376.000000	6.027151
377.000000	6.117655
378.000000	6.245575
379.000000	6.384490
380.000000	6.528835
381.000000	6.688189
382.000000	6.842899
383.000000	6.996343
384.000000	7.166027
385.000000	7.350568
386.000000	7.514293
387.000000	7.688860
388.000000	7.871709
389.000000	8.046554
390.000000	8.222640
391.000000	8.402651
392.000000	8.572499
393.000000	8.739826
394.000000	8.897488
395.000000	9.065048
396.000000	9.220569
397.000000	9.377219
398.000000	9.522767
399.000000	9.664588
400.000000	9.792868
401.000000	9.914322
402.000000	10.035692
403.000000	10.146902
404.000000	10.255717
405.000000	10.354600
406.000000	10.447475
407.000000	10.539376
408.000000	10.622196
409.000000	10.694066
410.000000	10.756334
411.000000	10.816759
412.000000	10.874876
413.000000	10.928492
414.000000	10.977046
415.000000	11.018786
416.000000	11.049205
417.000000	11.068213
418.000000	11.086332
419.000000	11.101175
420.000000	11.114081
421.000000	11.118855
422.000000	11.117755
423.000000	11.115947
424.000000	11.106014
425.000000	11.093997
426.000000	11.086544
427.000000	11.082728
428.000000	11.071060
429.000000	11.065919
430.000000	11.070573
431.000000	11.083106
432.000000	11.102317
433.000000	11.121264
434.000000	11.154727
435.000000	11.205091
436.000000	11.273188
437.000000	11.342484
438.000000	11.426665
439.000000	11.541404
440.000000	11.656902
441.000000	11.792118
442.000000	11.945323
443.000000	12.119496
444.000000	12.312160
445.000000	12.500644
446.000000	12.697031
447.000000	12.905998
448.000000	13.119666
449.000000	13.351971
450.000000	13.576464
451.000000	13.800830
452.000000	14.022574
453.000000	14.250548
454.000000	14.464869
455.000000	14.669471
456.000000	14.869460
457.000000	15.053617
458.000000	15.242173
459.000000	15.408230
460.000000	15.571757
461.000000	15.742690
462.000000	15.902741
463.000000	16.049855
464.000000	16.203531
465.000000	16.349265
466.000000	16.493893
467.000000	16.642173
468.000000	16.799297
469.000000	16.956839
470.000000	17.115354
471.000000	17.286917
472.000000	17.473756
473.000000	17.652190
474.000000	17.845812
475.000000	18.043851
476.000000	18.252482
477.000000	18.470506
478.000000	18.696634
479.000000	18.930281
480.000000	19.174806
481.000000	19.438038
482.000000	19.718424
483.000000	19.998270
484.000000	20.278591
485.000000	20.547490
486.000000	20.823306
487.000000	21.110103
488.000000	21.400080
489.000000	21.701234
490.000000	22.001258
491.000000	22.316373
492.000000	22.606592
493.000000	22.904415
494.000000	23.197480
495.000000	23.507833
496.000000	23.829602
497.000000	24.130876
498.000000	24.419972
499.000000	24.729650
500.000000	25.046808
501.000000	25.365785
502.000000	25.677522
503.000000	26.013991
504.000000	26.351345
505.000000	26.691771
506.000000	27.049351
507.000000	27.406386
508.000000	27.776282
509.000000	28.169078
510.000000	28.581851
511.000000	29.000985
512.000000	29.434786
513.000000	29.888319
514.000000	30.345821
515.000000	30.808519
516.000000	31.280698
517.000000	31.765666
518.000000	32.248458
519.000000	32.746310
520.000000	33.262065
521.000000	33.786037
522.000000	34.322674
523.000000	34.853659
524.000000	35.400864
525.000000	35.953343
526.000000	36.510181
527.000000	37.062000
528.000000	37.618103
529.000000	38.180842
530.000000	38.760874
531.000000	39.331505
532.000000	39.912907
533.000000	40.511339
534.000000	41.101526
535.000000	41.679150
536.000000	42.251759
537.000000	42.802730
538.000000	43.345261
539.000000	43.866286
540.000000	44.372969
541.000000	44.861163
542.000000	45.327620
543.000000	45.754608
544.000000	46.158798
545.000000	46.525206
546.000000	46.869861
547.000000	47.184691
548.000000	47.459487
549.000000	47.692196
550.000000	47.910210
551.000000	48.114371
552.000000	48.269702
553.000000	48.402335
554.000000	48.513060
555.000000	48.620938
556.000000	48.717679
557.000000	48.804012
558.000000	48.842100
559.000000	48.877474
560.000000	48.894927
561.000000	48.937022
562.000000	48.961830
563.000000	48.997076
564.000000	49.030232
565.000000	49.038203
566.000000	49.052642
567.000000	49.038610
568.000000	49.012804
569.000000	48.965292
570.000000	48.908837
571.000000	48.841408
572.000000	48.767919
573.000000	48.683999
574.000000	48.605603
575.000000	48.513410
576.000000	48.415995
577.000000	48.315921
578.000000	48.228644
579.000000	48.119995
580.000000	48.016315
581.000000	47.893828
582.000000	47.796884
583.000000	47.697823
584.000000	47.591901
585.000000	47.475380
586.000000	47.367883
587.000000	47.285687
588.000000	47.186900
589.000000	47.076533
590.000000	46.969001
591.000000	46.858279
592.000000	46.744649
593.000000	46.609271
594.000000	46.495258
595.000000	46.357540
596.000000	46.215742
597.000000	46.073335
598.000000	45.898733
599.000000	45.733563
600.000000	45.539246
601.000000	45.334981
602.000000	45.107868
603.000000	44.861267
604.000000	44.623060
605.000000	44.362846
606.000000	44.111717
607.000000	43.860257
608.000000	43.600085
609.000000	43.348890
610.000000	43.078578
611.000000	42.824351
612.000000	42.549433
613.000000	42.274243
614.000000	42.035830
615.000000	41.782314
616.000000	41.552100
617.000000	41.293489
618.000000	41.053260
619.000000	40.817985
620.000000	40.568843
621.000000	40.329586
622.000000	40.083664
623.000000	39.839570
624.000000	39.598000
625.000000	39.369551
626.000000	39.156144
627.000000	38.963133
628.000000	38.780871
629.000000	38.622148
630.000000	38.470492
631.000000	38.359226
632.000000	38.273152
633.000000	38.213525
634.000000	38.195590
635.000000	38.214650
636.000000	38.255730
637.000000	38.339454
638.000000	38.462885
639.000000	38.587193
640.000000	38.744215
641.000000	38.916288
642.000000	39.122757
643.000000	39.338300
644.000000	39.563731
645.000000	39.785164
646.000000	40.033529
647.000000	40.290883
648.000000	40.508856
649.000000	40.751266
650.000000	40.981725
651.000000	41.220763
652.000000	41.466002
653.000000	41.682660
654.000000	41.894442
655.000000	42.110739
656.000000	42.311452
657.000000	42.498166
658.000000	42.689826
659.000000	42.853365
660.000000	43.029215
661.000000	43.167866
662.000000	43.300206
663.000000	43.430429
664.000000	43.545487
665.000000	43.650110
666.000000	43.745934
667.000000	43.827780
668.000000	43.906961
669.000000	43.966486
670.000000	44.025462
671.000000	44.087977
672.000000	44.124807
673.000000	44.170327
674.000000	44.216196
675.000000	44.260611
676.000000	44.316060
677.000000	44.348254
678.000000	44.397249
679.000000	44.427654
680.000000	44.460647
681.000000	44.503342
682.000000	44.554311
683.000000	44.588035
684.000000	44.636464
685.000000	44.703885
686.000000	44.745277
687.000000	44.782720
688.000000	44.835739
689.000000	44.924223
690.000000	44.991372
691.000000	45.058001
692.000000	45.130564
693.000000	45.221487
694.000000	45.312243
695.000000	45.419886
696.000000	45.532854
697.000000	45.641111
698.000000	45.732182
699.000000	45.842185
700.000000	45.971837
701.000000	46.101851
702.000000	46.229586
703.000000	46.362965
704.000000	46.485982
705.000000	46.616018
706.000000	46.743792
707.000000	46.865473
708.000000	46.977608
709.000000	47.110847
710.000000	47.253962
711.000000	47.354980
712.000000	47.480845
713.000000	47.584787
714.000000	47.682293
715.000000	47.819045
716.000000	47.932054
717.000000	48.020761
718.000000	48.114354
719.000000	48.221292
720.000000	48.287003
721.000000	48.368345
722.000000	48.471265
723.000000	48.549329
724.000000	48.601547
725.000000	48.674735
726.000000	48.745501
727.000000	48.804508
728.000000	48.874685
729.000000	48.944289
730.000000	48.995602
731.000000	49.052465
732.000000	49.120623
733.000000	49.201555
734.000000	49.239805
735.000000	49.309002
736.000000	49.372616
737.000000	49.424067
738.000000	49.491135
739.000000	49.536618
740.000000	49.599152
741.000000	49.668854
742.000000	49.727835
743.000000	49.778594
744.000000	49.836784
745.000000	49.925144
746.000000	49.973379
747.000000	50.056030
748.000000	50.149505
749.000000	50.219598
750.000000	50.304919
751.000000	50.396393
752.000000	50.463996
753.000000	50.537813
754.000000	50.634482
755.000000	50.710584
756.000000	50.803511
757.000000	50.904448
758.000000	50.984690
759.000000	51.097913
760.000000	51.194768
761.000000	51.326726
762.000000	51.396630
763.000000	51.489262
764.000000	51.596928
765.000000	51.700338
766.000000	51.800768
767.000000	51.920953
768.000000	52.006388
769.000000	52.117792
770.000000	52.251319
771.000000	52.360362
772.000000	52.467913
773.000000	52.607240
774.000000	52.711141
775.000000	52.783564
776.000000	52.861272
777.000000	52.955471
778.000000	53.084824
779.000000	53.167514
780.000000	53.233405
781.000000	53.310575
782.000000	53.392643
783.000000	53.459258
784.000000	53.547403
785.000000	53.625367
786.000000	53.759199
787.000000	53.828567
788.000000	53.856609
789.000000	53.939007
790.000000	54.005625
791.000000	54.068006
792.000000	54.157442
793.000000	54.219275
794.000000	54.242417
795.000000	54.302133
796.000000	54.342858
797.000000	54.405942
798.000000	54.440861
799.000000	54.511678
800.000000	54.576242
801.000000	54.604689
802.000000	54.675513
803.000000	54.728520
804.000000	54.807051
805.000000	54.850183
806.000000	54.869127
807.000000	54.930969
808.000000	54.957957
809.000000	55.047163
810.000000	55.137718
811.000000	55.159111
812.000000	55.216901
813.000000	55.241416
814.000000	55.237612
815.000000	55.361989
816.000000	55.451474
817.000000	55.410972
818.000000	55.477378
819.000000	55.468006
820.000000	55.541855
821.000000	55.596281
822.000000	55.624321
823.000000	55.659567
824.000000	55.626061
825.000000	55.737850
826.000000	55.735312
827.000000	55.761050
828.000000	55.758843
829.000000	55.780036
830.000000	55.767668
831.000000	55.740554
832.000000	55.720961
833.000000	55.800829
834.000000	55.706125
835.000000	55.676445
836.000000	55.690751
837.000000	55.634983
838.000000	55.618441
839.000000	55.566676
840.000000	55.660997
841.000000	55.551403
842.000000	55.505195
843.000000	55.598113
844.000000	55.456553
845.000000	55.268953
846.000000	55.364302
847.000000	55.108598
848.000000	55.090194
849.000000	55.008889
850.000000	54.920858
851.000000	54.901781
852.000000	54.921425
853.000000	54.901899
854.000000	54.721564
855.000000	54.765555
856.000000	54.554099
857.000000	54.790016
858.000000	55.404040
859.000000	54.369960
860.000000	54.725360
861.000000	54.713200
862.000000	54.448920
863.000000	54.553360
864.000000	54.727760
865.000000	54.401140
866.000000	54.429220
867.000000	54.734720
868.000000	54.932720
869.000000	55.137260
870.000000	55.177880
871.000000	55.362020
872.000000	55.393940
873.000000	55.808280
874.000000	55.849960
875.000000	55.872460
876.000000	56.117140
877.000000	56.215100
878.000000	56.255180
879.000000	56.367220
880.000000	56.366200
881.000000	56.464780
882.000000	56.527880
883.000000	56.633200
884.000000	56.804280
885.000000	56.850520
886.000000	56.686020
887.000000	56.784840
888.000000	56.794080
889.000000	56.805280
890.000000	56.891700
891.000000	56.784640
892.000000	56.823560
893.000000	56.852220
894.000000	56.900620
895.000000	56.862960
896.000000	56.865460
897.000000	56.828400
898.000000	56.813240
899.000000	56.769940
900.000000	56.711240
901.000000	56.823680
902.000000	56.750920
903.000000	56.713480
904.000000	56.684900
905.000000	56.637480
906.000000	56.622540
907.000000	56.609080
908.000000	56.594900
909.000000	56.580120
910.000000	56.539500
911.000000	56.531060
912.000000	56.493860
913.000000	56.457120
914.000000	56.434940
915.000000	56.460500
916.000000	56.527240
917.000000	56.508900
918.000000	56.504000
919.000000	56.525680
920.000000	56.538220
921.000000	56.526740
922.000000	56.497400
923.000000	56.516860
924.000000	56.520300
925.000000	56.510260
926.000000	56.520300
927.000000	56.562600
928.000000	56.596960
929.000000	56.611400
930.000000	56.612380
931.000000	56.593020
932.000000	56.600020
933.000000	56.660180
934.000000	56.668980
935.000000	56.664900
936.000000	56.675720
937.000000	56.660820
938.000000	56.683680
939.000000	56.700660
940.000000	56.719380
941.000000	56.733460
942.000000	56.737860
943.000000	56.762600
944.000000	56.770180
945.000000	56.744520
946.000000	56.773520
947.000000	56.791840
948.000000	56.808120
949.000000	56.813920
950.000000	56.834140
951.000000	56.849400
952.000000	56.821480
953.000000	56.801680
954.000000	56.807260
955.000000	56.821600
956.000000	56.847080
957.000000	56.830160
958.000000	56.824680
959.000000	56.820640
960.000000	56.815680
961.000000	56.826860
962.000000	56.843500
963.000000	56.854320
964.000000	56.899700
965.000000	56.891640
966.000000	56.902680
967.000000	56.909140
968.000000	56.924040
969.000000	56.936340
970.000000	56.967060
971.000000	56.999980
972.000000	57.012260
973.000000	57.061400
974.000000	57.065500
975.000000	57.081800
976.000000	57.122800
977.000000	57.136900
978.000000	57.147840
979.000000	57.209200
980.000000	57.219760
981.000000	57.252320
982.000000	57.294840
983.000000	57.349400
984.000000	57.380180
985.000000	57.409880
986.000000	57.434760
987.000000	57.450340
988.000000	57.494660
989.000000	57.531520
990.000000	57.582840
991.000000	57.630820
992.000000	57.657060
993.000000	57.694440
994.000000	57.732820
995.000000	57.775300
996.000000	57.811940
997.000000	57.842280
998.000000	57.885920
999.000000	57.923600
1000.000000	57.958660
1001.000000	57.984400
1002.000000	58.022320
1003.000000	58.060640
1004.000000	58.101240
1005.000000	58.155780
1006.000000	58.186220
1007.000000	58.216300
1008.000000	58.254520
1009.000000	58.279240
1010.000000	58.309080
1011.000000	58.333720
1012.000000	58.374400
1013.000000	58.394240
1014.000000	58.439280
1015.000000	58.477540
1016.000000	58.489340
1017.000000	58.550660
1018.000000	58.587760
1019.000000	58.602780
1020.000000	58.644700
1021.000000	58.681420
1022.000000	58.706120
1023.000000	58.745960
1024.000000	58.769300
1025.000000	58.797620
1026.000000	58.839300
1027.000000	58.881520
1028.000000	58.924260
1029.000000	58.962100
1030.000000	59.000900
1031.000000	59.025700
1032.000000	59.049880
1033.000000	59.079220
1034.000000	59.125380
1035.000000	59.156940
1036.000000	59.211240
1037.000000	59.236560
1038.000000	59.251580
1039.000000	59.274380
1040.000000	59.303920
1041.000000	59.339120
1042.000000	59.382220
1043.000000	59.403340
1044.000000	59.435860
1045.000000	59.460740
1046.000000	59.503340
1047.000000	59.529220
1048.000000	59.553420
1049.000000	59.606680
1050.000000	59.630880
1051.000000	59.662100
1052.000000	59.707980
1053.000000	59.735360
1054.000000	59.774740
1055.000000	59.812080
1056.000000	59.829100
1057.000000	59.865960
1058.000000	59.909520
1059.000000	59.958640
1060.000000	59.995840
1061.000000	60.018300
1062.000000	60.067300
1063.000000	60.086320
1064.000000	60.137960
1065.000000	60.165820
1066.000000	60.215340
1067.000000	60.239020
1068.000000	60.282120
1069.000000	60.327700
1070.000000	60.358200
1071.000000	60.400280
1072.000000	60.425540
1073.000000	60.465680
1074.000000	60.508100
1075.000000	60.544560
1076.000000	60.589360
1077.000000	60.609760
1078.000000	60.647380
1079.000000	60.686260
1080.000000	60.717200
1081.000000	60.751780
1082.000000	60.781580
1083.000000	60.805060
1084.000000	60.844360
1085.000000	60.879600
1086.000000	60.914440
1087.000000	60.940340
1088.000000	60.985320
1089.000000	60.998860
1090.000000	61.029020
1091.000000	61.049420
1092.000000	61.076580
1093.000000	61.113640
1094.000000	61.122420
1095.000000	61.147400
1096.000000	61.170080
1097.000000	61.175680
1098.000000	61.202680
1099.000000	61.228100
1100.000000	61.247440
1101.000000	61.265760
1102.000000	61.280380
1103.000000	61.288160
1104.000000	61.301680
1105.000000	61.316660
1106.000000	61.345620
1107.000000	61.357560
1108.000000	61.368980
1109.000000	61.373220
1110.000000	61.384580
1111.000000	61.404780
1112.000000	61.413120
1113.000000	61.417660
1114.000000	61.432720
1115.000000	61.443020
1116.000000	61.455840
1117.000000	61.460640
1118.000000	61.475840
1119.000000	61.484380
1120.000000	61.475080
1121.000000	61.468340
1122.000000	61.485380
1123.000000	61.491000
1124.000000	61.480320
1125.000000	61.449740
1126.000000	61.431480
1127.000000	61.388660
1128.000000	61.362360
1129.000000	61.333600
1130.000000	61.285340
1131.000000	61.224580
1132.000000	61.170800
1133.000000	61.116340
1134.000000	61.104500
1135.000000	61.067580
1136.000000	60.966640
1137.000000	60.880420
1138.000000	60.799520
1139.000000	60.728260
1140.000000	60.664740
1141.000000	60.607000
1142.000000	60.550780
1143.000000	60.492700
1144.000000	60.458460
1145.000000	60.416780
1146.000000	60.376700
1147.000000	60.335240
1148.000000	60.274820
1149.000000	60.233340
1150.000000	60.192160
1151.000000	60.142940
1152.000000	60.102220
1153.000000	60.067800
1154.000000	59.988760
1155.000000	59.934580
1156.000000	59.869380
1157.000000	59.813800
1158.000000	59.737360
1159.000000	59.653800
1160.000000	59.561500
1161.000000	59.473620
1162.000000	59.400000
1163.000000	59.313540
1164.000000	59.221200
1165.000000	59.137140
1166.000000	59.052300
