PE UV       SUBTECH     SPECTRUM    ASCII       PEDS        4.00        
   -1
CICIMAUCR0070-3.Sample.ASC
24/04/18
13:44:03.00
24/04/18
13:44:03.00
Vinicio Soto Monge
C. resplendens
250,000000
1
Lambda 1050
1050L1511233
PerkinElmer UV WinLab 6.3.2.0749 / 2.02.05 Lambda 900 UV/VIS/NIR, Aug  7 2015 09:38:08

0
0
3350/servo 860,8/2
0
0
UV/VIS
1
1
1
DoubleDePol,CommonBeamDepol,RBeamAtt,SBeamAtt,60mm sphere, WB InGaAs Detector
0
0
0
0
Program
Program
3350/servo 860,8/2
3350/0,2 860,8/0,2
3350/0,2 860,8/0,2
0
15.00
 
 
 
0
 
860,8
319,2
860,8
Front
100
on
S:100 R:100
0
0
0
0
 
0
 
 
 
0
 
 
0
0
0
0
0
 
 
 
 
0
0


0
0
#HDR
-1
-1
#GR
nm
%R
1.0
0.0
2500,000000
-1,000000
2251
8
85,171500
5,254500
#DATA
250.000000	5.486122
251.000000	5.488945
252.000000	5.472655
253.000000	5.488091
254.000000	5.452876
255.000000	5.438612
256.000000	5.448520
257.000000	5.411351
258.000000	5.369915
259.000000	5.400310
260.000000	5.363932
261.000000	5.331116
262.000000	5.316748
263.000000	5.289561
264.000000	5.255246
265.000000	5.248599
266.000000	5.223796
267.000000	5.177061
268.000000	5.214930
269.000000	5.139617
270.000000	5.127867
271.000000	5.104218
272.000000	5.094065
273.000000	5.089913
274.000000	5.076788
275.000000	5.061870
276.000000	5.058382
277.000000	5.009598
278.000000	5.054666
279.000000	5.027015
280.000000	4.994866
281.000000	5.010578
282.000000	4.986812
283.000000	4.992290
284.000000	4.980076
285.000000	4.975691
286.000000	4.968361
287.000000	4.941871
288.000000	4.950307
289.000000	4.926071
290.000000	4.926514
291.000000	4.907591
292.000000	4.903785
293.000000	4.886073
294.000000	4.882097
295.000000	4.895012
296.000000	4.872124
297.000000	4.854480
298.000000	4.876784
299.000000	4.835252
300.000000	4.853241
301.000000	4.870184
302.000000	4.850121
303.000000	4.824594
304.000000	4.822806
305.000000	4.840578
306.000000	4.837434
307.000000	4.851345
308.000000	4.823158
309.000000	4.820669
310.000000	4.805711
311.000000	4.846055
312.000000	4.825509
313.000000	4.816866
314.000000	4.828882
315.000000	4.864430
316.000000	4.828921
317.000000	5.103771
318.000000	5.042118
319.000000	5.014511
320.000000	5.025331
321.000000	4.944048
322.000000	4.875122
323.000000	4.859857
324.000000	4.958272
325.000000	4.943342
326.000000	4.842929
327.000000	4.814851
328.000000	4.814168
329.000000	4.761731
330.000000	4.765462
331.000000	4.781110
332.000000	4.881565
333.000000	4.732006
334.000000	4.772997
335.000000	4.711387
336.000000	4.719655
337.000000	4.688199
338.000000	4.704307
339.000000	4.747606
340.000000	4.706764
341.000000	4.693387
342.000000	4.759510
343.000000	4.711152
344.000000	4.756747
345.000000	4.777671
346.000000	4.704050
347.000000	4.717264
348.000000	4.726661
349.000000	4.736152
350.000000	4.716991
351.000000	4.718121
352.000000	4.703223
353.000000	4.713312
354.000000	4.729337
355.000000	4.735297
356.000000	4.727378
357.000000	4.705607
358.000000	4.720952
359.000000	4.742485
360.000000	4.740791
361.000000	4.733865
362.000000	4.701280
363.000000	4.733072
364.000000	4.726792
365.000000	4.695358
366.000000	4.696897
367.000000	4.710987
368.000000	4.711903
369.000000	4.719869
370.000000	4.725896
371.000000	4.685421
372.000000	4.666242
373.000000	4.595671
374.000000	4.587493
375.000000	4.613043
376.000000	4.773918
377.000000	4.853970
378.000000	4.853831
379.000000	4.852187
380.000000	4.860069
381.000000	4.867689
382.000000	4.865395
383.000000	4.872428
384.000000	4.880126
385.000000	4.887763
386.000000	4.893185
387.000000	4.895043
388.000000	4.909593
389.000000	4.913789
390.000000	4.918942
391.000000	4.925723
392.000000	4.927291
393.000000	4.927327
394.000000	4.937421
395.000000	4.943181
396.000000	4.946092
397.000000	4.945489
398.000000	4.952127
399.000000	4.962555
400.000000	4.974454
401.000000	4.978179
402.000000	4.988659
403.000000	5.004454
404.000000	5.016109
405.000000	5.033026
406.000000	5.052164
407.000000	5.070383
408.000000	5.093522
409.000000	5.111053
410.000000	5.132722
411.000000	5.155686
412.000000	5.179670
413.000000	5.214439
414.000000	5.253672
415.000000	5.293961
416.000000	5.338286
417.000000	5.386402
418.000000	5.441925
419.000000	5.497103
420.000000	5.563797
421.000000	5.633442
422.000000	5.703044
423.000000	5.781254
424.000000	5.869336
425.000000	5.967122
426.000000	6.074554
427.000000	6.184174
428.000000	6.302009
429.000000	6.435538
430.000000	6.573231
431.000000	6.720655
432.000000	6.884244
433.000000	7.053207
434.000000	7.233370
435.000000	7.427249
436.000000	7.629456
437.000000	7.836129
438.000000	8.051683
439.000000	8.282446
440.000000	8.519504
441.000000	8.765775
442.000000	9.027081
443.000000	9.288182
444.000000	9.549948
445.000000	9.824049
446.000000	10.098910
447.000000	10.377017
448.000000	10.658242
449.000000	10.939105
450.000000	11.230475
451.000000	11.517752
452.000000	11.800054
453.000000	12.086289
454.000000	12.369083
455.000000	12.650425
456.000000	12.920312
457.000000	13.183335
458.000000	13.444855
459.000000	13.705897
460.000000	13.969248
461.000000	14.237030
462.000000	14.489183
463.000000	14.722713
464.000000	14.961798
465.000000	15.201823
466.000000	15.435289
467.000000	15.663745
468.000000	15.896869
469.000000	16.122144
470.000000	16.349287
471.000000	16.579135
472.000000	16.808508
473.000000	17.032796
474.000000	17.260309
475.000000	17.495410
476.000000	17.726767
477.000000	17.959121
478.000000	18.191454
479.000000	18.423757
480.000000	18.667355
481.000000	18.910126
482.000000	19.153260
483.000000	19.383615
484.000000	19.624738
485.000000	19.864740
486.000000	20.094576
487.000000	20.330470
488.000000	20.561732
489.000000	20.800488
490.000000	21.039523
491.000000	21.284689
492.000000	21.532414
493.000000	21.787297
494.000000	22.052252
495.000000	22.303745
496.000000	22.562329
497.000000	22.816959
498.000000	23.063767
499.000000	23.331088
500.000000	23.597819
501.000000	23.877598
502.000000	24.162297
503.000000	24.451159
504.000000	24.747877
505.000000	25.063586
506.000000	25.367941
507.000000	25.664880
508.000000	25.980203
509.000000	26.307378
510.000000	26.640704
511.000000	26.995644
512.000000	27.372205
513.000000	27.766201
514.000000	28.173586
515.000000	28.602142
516.000000	29.032900
517.000000	29.486724
518.000000	29.973669
519.000000	30.480880
520.000000	31.026362
521.000000	31.602170
522.000000	32.212964
523.000000	32.844376
524.000000	33.504710
525.000000	34.189145
526.000000	34.890867
527.000000	35.621502
528.000000	36.378004
529.000000	37.158859
530.000000	37.970590
531.000000	38.803556
532.000000	39.670302
533.000000	40.532963
534.000000	41.413450
535.000000	42.303114
536.000000	43.170943
537.000000	44.035060
538.000000	44.878548
539.000000	45.710205
540.000000	46.533831
541.000000	47.335202
542.000000	48.088904
543.000000	48.845060
544.000000	49.563189
545.000000	50.219464
546.000000	50.833215
547.000000	51.428048
548.000000	51.967755
549.000000	52.452456
550.000000	52.911215
551.000000	53.328673
552.000000	53.722555
553.000000	54.073402
554.000000	54.410178
555.000000	54.724957
556.000000	55.022071
557.000000	55.305978
558.000000	55.565294
559.000000	55.797093
560.000000	56.021142
561.000000	56.224119
562.000000	56.404618
563.000000	56.541681
564.000000	56.681019
565.000000	56.799201
566.000000	56.892335
567.000000	56.954392
568.000000	56.994349
569.000000	57.027425
570.000000	57.042663
571.000000	57.049198
572.000000	57.070006
573.000000	57.096091
574.000000	57.120046
575.000000	57.150757
576.000000	57.176049
577.000000	57.221493
578.000000	57.272681
579.000000	57.295494
580.000000	57.342664
581.000000	57.379752
582.000000	57.392918
583.000000	57.403504
584.000000	57.416235
585.000000	57.380398
586.000000	57.330008
587.000000	57.278574
588.000000	57.197494
589.000000	57.099664
590.000000	56.959837
591.000000	56.802162
592.000000	56.618272
593.000000	56.420842
594.000000	56.206851
595.000000	55.970066
596.000000	55.732405
597.000000	55.486801
598.000000	55.246772
599.000000	54.974237
600.000000	54.735684
601.000000	54.445424
602.000000	54.184185
603.000000	53.904568
604.000000	53.653906
605.000000	53.369507
606.000000	53.089085
607.000000	52.785979
608.000000	52.457928
609.000000	52.161185
610.000000	51.809389
611.000000	51.451527
612.000000	51.066760
613.000000	50.670617
614.000000	50.272820
615.000000	49.842236
616.000000	49.414672
617.000000	49.010785
618.000000	48.589828
619.000000	48.183392
620.000000	47.774863
621.000000	47.399723
622.000000	46.994009
623.000000	46.619797
624.000000	46.231443
625.000000	45.902273
626.000000	45.578982
627.000000	45.272515
628.000000	44.967476
629.000000	44.662735
630.000000	44.390095
631.000000	44.123980
632.000000	43.873150
633.000000	43.665101
634.000000	43.456846
635.000000	43.248256
636.000000	43.061118
637.000000	42.912559
638.000000	42.739155
639.000000	42.618592
640.000000	42.488891
641.000000	42.396352
642.000000	42.322668
643.000000	42.242002
644.000000	42.196083
645.000000	42.141561
646.000000	42.114035
647.000000	42.101450
648.000000	42.101043
649.000000	42.140980
650.000000	42.167151
651.000000	42.197031
652.000000	42.247224
653.000000	42.310854
654.000000	42.392025
655.000000	42.500716
656.000000	42.617453
657.000000	42.727399
658.000000	42.887431
659.000000	43.055482
660.000000	43.237519
661.000000	43.442209
662.000000	43.668969
663.000000	43.890271
664.000000	44.163073
665.000000	44.445494
666.000000	44.704801
667.000000	44.975597
668.000000	45.246413
669.000000	45.512372
670.000000	45.769521
671.000000	46.033147
672.000000	46.253927
673.000000	46.464105
674.000000	46.660869
675.000000	46.855800
676.000000	47.026408
677.000000	47.152369
678.000000	47.246501
679.000000	47.342059
680.000000	47.427584
681.000000	47.497206
682.000000	47.542640
683.000000	47.578097
684.000000	47.628319
685.000000	47.681702
686.000000	47.739106
687.000000	47.786488
688.000000	47.881908
689.000000	47.959301
690.000000	48.059720
691.000000	48.181108
692.000000	48.325455
693.000000	48.503433
694.000000	48.668113
695.000000	48.879548
696.000000	49.095848
697.000000	49.310156
698.000000	49.575294
699.000000	49.819916
700.000000	50.070827
701.000000	50.291407
702.000000	50.524792
703.000000	50.788016
704.000000	51.043827
705.000000	51.283936
706.000000	51.514089
707.000000	51.744854
708.000000	51.983913
709.000000	52.218812
710.000000	52.429257
711.000000	52.617203
712.000000	52.852558
713.000000	53.083385
714.000000	53.298636
715.000000	53.504818
716.000000	53.704877
717.000000	53.907550
718.000000	54.108163
719.000000	54.316306
720.000000	54.527201
721.000000	54.764884
722.000000	54.970895
723.000000	55.194013
724.000000	55.442030
725.000000	55.667419
726.000000	55.908843
727.000000	56.165900
728.000000	56.367120
729.000000	56.636021
730.000000	56.895268
731.000000	57.140577
732.000000	57.375666
733.000000	57.608979
734.000000	57.888492
735.000000	58.104939
736.000000	58.283907
737.000000	58.512123
738.000000	58.744705
739.000000	58.932225
740.000000	59.137251
741.000000	59.375581
742.000000	59.575324
743.000000	59.777039
744.000000	59.967866
745.000000	60.127480
746.000000	60.316127
747.000000	60.483268
748.000000	60.623632
749.000000	60.791865
750.000000	60.946052
751.000000	61.093468
752.000000	61.255161
753.000000	61.399689
754.000000	61.526586
755.000000	61.696610
756.000000	61.851518
757.000000	62.013725
758.000000	62.183835
759.000000	62.307418
760.000000	62.473787
761.000000	62.654202
762.000000	62.781564
763.000000	62.894795
764.000000	63.047642
765.000000	63.195935
766.000000	63.363268
767.000000	63.504339
768.000000	63.637154
769.000000	63.767411
770.000000	63.919748
771.000000	64.062166
772.000000	64.234620
773.000000	64.333685
774.000000	64.458903
775.000000	64.591933
776.000000	64.712072
777.000000	64.871244
778.000000	65.020316
779.000000	65.133723
780.000000	65.274681
781.000000	65.462148
782.000000	65.622637
783.000000	65.753367
784.000000	65.895672
785.000000	66.013206
786.000000	66.119122
787.000000	66.240600
788.000000	66.422408
789.000000	66.555735
790.000000	66.651431
791.000000	66.810996
792.000000	66.985497
793.000000	67.138116
794.000000	67.269247
795.000000	67.390512
796.000000	67.557816
797.000000	67.718667
798.000000	67.833004
799.000000	68.009500
800.000000	68.214626
801.000000	68.374170
802.000000	68.519269
803.000000	68.643038
804.000000	68.773626
805.000000	68.918545
806.000000	69.033084
807.000000	69.175792
808.000000	69.366874
809.000000	69.482081
810.000000	69.648081
811.000000	69.751199
812.000000	69.887301
813.000000	69.968632
814.000000	70.144969
815.000000	70.259441
816.000000	70.444710
817.000000	70.532694
818.000000	70.682963
819.000000	70.772514
820.000000	70.887363
821.000000	71.039237
822.000000	71.176514
823.000000	71.290504
824.000000	71.491865
825.000000	71.599023
826.000000	71.685327
827.000000	71.738564
828.000000	71.890987
829.000000	72.078729
830.000000	72.088635
831.000000	72.261128
832.000000	72.300310
833.000000	72.412659
834.000000	72.516672
835.000000	72.612522
836.000000	72.692943
837.000000	72.751615
838.000000	72.822876
839.000000	72.955074
840.000000	73.062601
841.000000	73.119109
842.000000	73.240581
843.000000	73.240044
844.000000	73.436724
845.000000	73.507004
846.000000	73.674562
847.000000	73.601794
848.000000	73.631666
849.000000	73.794338
850.000000	73.724735
851.000000	73.694123
852.000000	73.946559
853.000000	73.937149
854.000000	73.719834
855.000000	73.557855
856.000000	73.749190
857.000000	73.945673
858.000000	74.775067
859.000000	73.362800
860.000000	73.863500
861.000000	74.361467
862.000000	74.821300
863.000000	75.250733
864.000000	75.678567
865.000000	76.070333
866.000000	76.387000
867.000000	76.732433
868.000000	77.036500
869.000000	77.365933
870.000000	77.633233
871.000000	77.845433
872.000000	78.093033
873.000000	78.341300
874.000000	78.612700
875.000000	78.833167
876.000000	79.036467
877.000000	79.204367
878.000000	79.385133
879.000000	79.549833
880.000000	79.671167
881.000000	79.813633
882.000000	79.956900
883.000000	80.096133
884.000000	80.227000
885.000000	80.308133
886.000000	80.406200
887.000000	80.503167
888.000000	80.570067
889.000000	80.620267
890.000000	80.685367
891.000000	80.718467
892.000000	80.778233
893.000000	80.826533
894.000000	80.870767
895.000000	80.918900
896.000000	80.930000
897.000000	80.936200
898.000000	80.951533
899.000000	80.974167
900.000000	80.987900
901.000000	80.977500
902.000000	80.938000
903.000000	80.928800
904.000000	80.932700
905.000000	80.938467
906.000000	80.877700
907.000000	80.852200
908.000000	80.786100
909.000000	80.756700
910.000000	80.730033
911.000000	80.702900
912.000000	80.658967
913.000000	80.592800
914.000000	80.547900
915.000000	80.505867
916.000000	80.441967
917.000000	80.389567
918.000000	80.314833
919.000000	80.274567
920.000000	80.210000
921.000000	80.162000
922.000000	80.103600
923.000000	80.061800
924.000000	80.021433
925.000000	79.953300
926.000000	79.898133
927.000000	79.869333
928.000000	79.824033
929.000000	79.755500
930.000000	79.722367
931.000000	79.657467
932.000000	79.602967
933.000000	79.543867
934.000000	79.479200
935.000000	79.437633
936.000000	79.373767
937.000000	79.310267
938.000000	79.261567
939.000000	79.205800
940.000000	79.177000
941.000000	79.106867
942.000000	79.070067
943.000000	79.017200
944.000000	78.977700
945.000000	78.919100
946.000000	78.874100
947.000000	78.805367
948.000000	78.762733
949.000000	78.729767
950.000000	78.664367
951.000000	78.600767
952.000000	78.537167
953.000000	78.484600
954.000000	78.416300
955.000000	78.350033
956.000000	78.293500
957.000000	78.222267
958.000000	78.156067
959.000000	78.099367
960.000000	78.026200
961.000000	77.966400
962.000000	77.902067
963.000000	77.829100
964.000000	77.763067
965.000000	77.703467
966.000000	77.647700
967.000000	77.602233
968.000000	77.543533
969.000000	77.487333
970.000000	77.443167
971.000000	77.392367
972.000000	77.343633
973.000000	77.293133
974.000000	77.254300
975.000000	77.222600
976.000000	77.182133
977.000000	77.143067
978.000000	77.115733
979.000000	77.086133
980.000000	77.057933
981.000000	77.030933
982.000000	77.005533
983.000000	76.988000
984.000000	76.968500
985.000000	76.945000
986.000000	76.929767
987.000000	76.919833
988.000000	76.918133
989.000000	76.899267
990.000000	76.892900
991.000000	76.896267
992.000000	76.892700
993.000000	76.891467
994.000000	76.899233
995.000000	76.893867
996.000000	76.895667
997.000000	76.901467
998.000000	76.905600
999.000000	76.917433
1000.000000	76.913433
1001.000000	76.914033
1002.000000	76.925867
1003.000000	76.919900
1004.000000	76.918233
1005.000000	76.932267
1006.000000	76.928067
1007.000000	76.920733
1008.000000	76.926867
1009.000000	76.911300
1010.000000	76.892900
1011.000000	76.889700
1012.000000	76.884267
1013.000000	76.874600
1014.000000	76.860033
1015.000000	76.857633
1016.000000	76.850300
1017.000000	76.832367
1018.000000	76.823767
1019.000000	76.816667
1020.000000	76.808800
1021.000000	76.798967
1022.000000	76.790200
1023.000000	76.773033
1024.000000	76.758467
1025.000000	76.743733
1026.000000	76.731500
1027.000000	76.730667
1028.000000	76.722933
1029.000000	76.709533
1030.000000	76.695867
1031.000000	76.687600
1032.000000	76.682967
1033.000000	76.668333
1034.000000	76.661133
1035.000000	76.656633
1036.000000	76.644833
1037.000000	76.634900
1038.000000	76.630667
1039.000000	76.630067
1040.000000	76.623700
1041.000000	76.621300
1042.000000	76.621000
1043.000000	76.610333
1044.000000	76.600100
1045.000000	76.603000
1046.000000	76.610300
1047.000000	76.612700
1048.000000	76.620333
1049.000000	76.621200
1050.000000	76.623700
1051.000000	76.641633
1052.000000	76.658667
1053.000000	76.671167
1054.000000	76.683300
1055.000000	76.697367
1056.000000	76.717600
1057.000000	76.742233
1058.000000	76.766200
1059.000000	76.785800
1060.000000	76.811933
1061.000000	76.837100
1062.000000	76.867800
1063.000000	76.894000
1064.000000	76.923367
1065.000000	76.946667
1066.000000	76.980567
1067.000000	77.012167
1068.000000	77.040800
1069.000000	77.080300
1070.000000	77.111600
1071.000000	77.133333
1072.000000	77.163400
1073.000000	77.205733
1074.000000	77.241867
1075.000000	77.272800
1076.000000	77.299933
1077.000000	77.327533
1078.000000	77.358600
1079.000000	77.383233
1080.000000	77.411600
1081.000000	77.449967
1082.000000	77.478000
1083.000000	77.499733
1084.000000	77.522267
1085.000000	77.554033
1086.000000	77.576700
1087.000000	77.592667
1088.000000	77.618300
1089.000000	77.637900
1090.000000	77.655933
1091.000000	77.672000
1092.000000	77.691833
1093.000000	77.710700
1094.000000	77.728967
1095.000000	77.735933
1096.000000	77.743067
1097.000000	77.757433
1098.000000	77.776600
1099.000000	77.786000
1100.000000	77.786967
1101.000000	77.799333
1102.000000	77.808333
1103.000000	77.809967
1104.000000	77.808167
1105.000000	77.810533
1106.000000	77.806467
1107.000000	77.813233
1108.000000	77.821467
1109.000000	77.816033
1110.000000	77.814767
1111.000000	77.817867
1112.000000	77.812000
1113.000000	77.803633
1114.000000	77.805400
1115.000000	77.805833
1116.000000	77.802200
1117.000000	77.803267
1118.000000	77.798300
1119.000000	77.797167
1120.000000	77.782267
1121.000000	77.774300
1122.000000	77.778533
1123.000000	77.754300
1124.000000	77.733400
1125.000000	77.693667
1126.000000	77.654567
1127.000000	77.605800
1128.000000	77.579767
1129.000000	77.549800
1130.000000	77.473600
1131.000000	77.401600
1132.000000	77.334833
1133.000000	77.308900
1134.000000	77.292567
1135.000000	77.228433
1136.000000	77.160567
1137.000000	77.042633
1138.000000	76.952167
1139.000000	76.880467
1140.000000	76.825667
1141.000000	76.777067
1142.000000	76.709467
1143.000000	76.654200
1144.000000	76.627567
1145.000000	76.605000
1146.000000	76.554067
1147.000000	76.506467
1148.000000	76.457333
1149.000000	76.418567
1150.000000	76.378100
1151.000000	76.330767
1152.000000	76.296400
1153.000000	76.247867
1154.000000	76.189100
1155.000000	76.119867
1156.000000	76.067233
1157.000000	75.997300
1158.000000	75.921100
1159.000000	75.857133
1160.000000	75.775867
1161.000000	75.689367
1162.000000	75.604567
1163.000000	75.527933
1164.000000	75.452067
1165.000000	75.362067
1166.000000	75.286867
1167.000000	75.219200
1168.000000	75.144167
1169.000000	75.076067
