PE UV       SUBTECH     SPECTRUM    ASCII       PEDS        4.00        
   -1
CICIMAUCR0070-3.Sample.ASC
24/04/18
13:44:03.00
24/04/18
13:44:03.00
Vinicio Soto Monge
C. resplendens
250,000000
1
Lambda 1050
1050L1511233
PerkinElmer UV WinLab 6.3.2.0749 / 2.02.05 Lambda 900 UV/VIS/NIR, Aug  7 2015 09:38:08

0
0
3350/servo 860,8/2
0
0
UV/VIS
1
1
1
DoubleDePol,CommonBeamDepol,RBeamAtt,SBeamAtt,60mm sphere, WB InGaAs Detector
0
0
0
0
Program
Program
3350/servo 860,8/2
3350/0,2 860,8/0,2
3350/0,2 860,8/0,2
0
15.00
 
 
 
0
 
860,8
319,2
860,8
Front
100
on
S:100 R:100
0
0
0
0
 
0
 
 
 
0
 
 
0
0
0
0
0
 
 
 
 
0
0


0
0
#HDR
-1
-1
#GR
nm
%R
1.0
0.0
2500,000000
-1,000000
2251
8
85,171500
5,254500
#DATA
250.000000	6.293233
251.000000	6.296733
252.000000	6.277967
253.000000	6.295500
254.000000	6.254967
255.000000	6.238900
256.000000	6.250433
257.000000	6.207533
258.000000	6.159933
259.000000	6.195167
260.000000	6.153333
261.000000	6.115400
262.000000	6.099100
263.000000	6.067833
264.000000	6.028433
265.000000	6.021100
266.000000	5.992200
267.000000	5.938833
268.000000	5.982267
269.000000	5.895833
270.000000	5.882300
271.000000	5.855400
272.000000	5.843600
273.000000	5.838700
274.000000	5.823533
275.000000	5.806433
276.000000	5.802500
277.000000	5.746700
278.000000	5.798267
279.000000	5.766667
280.000000	5.729833
281.000000	5.747900
282.000000	5.720467
283.000000	5.726567
284.000000	5.712667
285.000000	5.707600
286.000000	5.699267
287.000000	5.668833
288.000000	5.678533
289.000000	5.650967
290.000000	5.651700
291.000000	5.629667
292.000000	5.625500
293.000000	5.604967
294.000000	5.600433
295.000000	5.615533
296.000000	5.589167
297.000000	5.568933
298.000000	5.594267
299.000000	5.546667
300.000000	5.567333
301.000000	5.586867
302.000000	5.563967
303.000000	5.534600
304.000000	5.532333
305.000000	5.552767
306.000000	5.549400
307.000000	5.565267
308.000000	5.532833
309.000000	5.529933
310.000000	5.512667
311.000000	5.558833
312.000000	5.535300
313.000000	5.525833
314.000000	5.539400
315.000000	5.580333
316.000000	5.539333
317.000000	5.852633
318.000000	5.783267
319.000000	5.753133
320.000000	5.765000
321.000000	5.671333
322.000000	5.591800
323.000000	5.575033
324.000000	5.687500
325.000000	5.670967
326.000000	5.555600
327.000000	5.523400
328.000000	5.522333
329.000000	5.462267
330.000000	5.466933
331.000000	5.484467
332.000000	5.600133
333.000000	5.428033
334.000000	5.475067
335.000000	5.404400
336.000000	5.414467
337.000000	5.377567
338.000000	5.396567
339.000000	5.446133
340.000000	5.399833
341.000000	5.384567
342.000000	5.459933
343.000000	5.404467
344.000000	5.456167
345.000000	5.481167
346.000000	5.396067
347.000000	5.411067
348.000000	5.421833
349.000000	5.433033
350.000000	5.411133
351.000000	5.412233
352.000000	5.395333
353.000000	5.406967
354.000000	5.425100
355.000000	5.432000
356.000000	5.423000
357.000000	5.397933
358.000000	5.415333
359.000000	5.439733
360.000000	5.438200
361.000000	5.430600
362.000000	5.392900
363.000000	5.429733
364.000000	5.422500
365.000000	5.386367
366.000000	5.388000
367.000000	5.403967
368.000000	5.405033
369.000000	5.414067
370.000000	5.420700
371.000000	5.374800
372.000000	5.353000
373.000000	5.272033
374.000000	5.262867
375.000000	5.291933
376.000000	5.476633
377.000000	5.568333
378.000000	5.568133
379.000000	5.566267
380.000000	5.575300
381.000000	5.583967
382.000000	5.581433
383.000000	5.589467
384.000000	5.598300
385.000000	5.607100
386.000000	5.613333
387.000000	5.615433
388.000000	5.632100
389.000000	5.636933
390.000000	5.642833
391.000000	5.650567
392.000000	5.652333
393.000000	5.652333
394.000000	5.663967
395.000000	5.670567
396.000000	5.673900
397.000000	5.673167
398.000000	5.680767
399.000000	5.692700
400.000000	5.706333
401.000000	5.710600
402.000000	5.722633
403.000000	5.740733
404.000000	5.754067
405.000000	5.773400
406.000000	5.795300
407.000000	5.816167
408.000000	5.842700
409.000000	5.862800
410.000000	5.887600
411.000000	5.913900
412.000000	5.941400
413.000000	5.981233
414.000000	6.026167
415.000000	6.072400
416.000000	6.123233
417.000000	6.178367
418.000000	6.242000
419.000000	6.305267
420.000000	6.381733
421.000000	6.461533
422.000000	6.541267
423.000000	6.630933
424.000000	6.731967
425.000000	6.844067
426.000000	6.967200
427.000000	7.092933
428.000000	7.228100
429.000000	7.381233
430.000000	7.539167
431.000000	7.708233
432.000000	7.895867
433.000000	8.089700
434.000000	8.296333
435.000000	8.518700
436.000000	8.750667
437.000000	8.987733
438.000000	9.234967
439.000000	9.499700
440.000000	9.771667
441.000000	10.054133
442.000000	10.353900
443.000000	10.653533
444.000000	10.953833
445.000000	11.268267
446.000000	11.583633
447.000000	11.902700
448.000000	12.225367
449.000000	12.547600
450.000000	12.881967
451.000000	13.211600
452.000000	13.535500
453.000000	13.863967
454.000000	14.188467
455.000000	14.511267
456.000000	14.820967
457.000000	15.122733
458.000000	15.422800
459.000000	15.722367
460.000000	16.024533
461.000000	16.331700
462.000000	16.621000
463.000000	16.888967
464.000000	17.163333
465.000000	17.438733
466.000000	17.706567
467.000000	17.968733
468.000000	18.236200
469.000000	18.494633
470.000000	18.755200
471.000000	19.018933
472.000000	19.282133
473.000000	19.539433
474.000000	19.800433
475.000000	20.070133
476.000000	20.335567
477.000000	20.602100
478.000000	20.868633
479.000000	21.135100
480.000000	21.414500
481.000000	21.692967
482.000000	21.971767
483.000000	22.235933
484.000000	22.512500
485.000000	22.787800
486.000000	23.051333
487.000000	23.321900
488.000000	23.587133
489.000000	23.860967
490.000000	24.135133
491.000000	24.416367
492.000000	24.700500
493.000000	24.992800
494.000000	25.296667
495.000000	25.585100
496.000000	25.881600
497.000000	26.173600
498.000000	26.456633
499.000000	26.763167
500.000000	27.069067
501.000000	27.389900
502.000000	27.716300
503.000000	28.047433
504.000000	28.387600
505.000000	28.749467
506.000000	29.098333
507.000000	29.438567
508.000000	29.799967
509.000000	30.174967
510.000000	30.557033
511.000000	30.963867
512.000000	31.395467
513.000000	31.847133
514.000000	32.314067
515.000000	32.805267
516.000000	33.299033
517.000000	33.819233
518.000000	34.377467
519.000000	34.959000
520.000000	35.584500
521.000000	36.244733
522.000000	36.945067
523.000000	37.669067
524.000000	38.426267
525.000000	39.211200
526.000000	40.015967
527.000000	40.853933
528.000000	41.721700
529.000000	42.617433
530.000000	43.548700
531.000000	44.504333
532.000000	45.498700
533.000000	46.488533
534.000000	47.498900
535.000000	48.519900
536.000000	49.515867
537.000000	50.507633
538.000000	51.475700
539.000000	52.430267
540.000000	53.375500
541.000000	54.295400
542.000000	55.160500
543.000000	56.028367
544.000000	56.852800
545.000000	57.606100
546.000000	58.310667
547.000000	58.993433
548.000000	59.613000
549.000000	60.169467
550.000000	60.696267
551.000000	61.175467
552.000000	61.627633
553.000000	62.030533
554.000000	62.417133
555.000000	62.778467
556.000000	63.119667
557.000000	63.445467
558.000000	63.743100
559.000000	64.009267
560.000000	64.266533
561.000000	64.499633
562.000000	64.706733
563.000000	64.863933
564.000000	65.023967
565.000000	65.159667
566.000000	65.266533
567.000000	65.337800
568.000000	65.383933
569.000000	65.422067
570.000000	65.439533
571.000000	65.447067
572.000000	65.471133
573.000000	65.501200
574.000000	65.528733
575.000000	65.564200
576.000000	65.593300
577.000000	65.645633
578.000000	65.704467
579.000000	65.730800
580.000000	65.784933
581.000000	65.827733
582.000000	65.843100
583.000000	65.855467
584.000000	65.870167
585.000000	65.829000
586.000000	65.771600
587.000000	65.712833
588.000000	65.619900
589.000000	65.507967
590.000000	65.347933
591.000000	65.167300
592.000000	64.956333
593.000000	64.730300
594.000000	64.485267
595.000000	64.213733
596.000000	63.941467
597.000000	63.660000
598.000000	63.384867
599.000000	63.072467
600.000000	62.798867
601.000000	62.466200
602.000000	62.166433
603.000000	61.845600
604.000000	61.558200
605.000000	61.231833
606.000000	60.910233
607.000000	60.562533
608.000000	60.186000
609.000000	59.845500
610.000000	59.441900
611.000000	59.031200
612.000000	58.589433
613.000000	58.135100
614.000000	57.678633
615.000000	57.184400
616.000000	56.693800
617.000000	56.230600
618.000000	55.747500
619.000000	55.281100
620.000000	54.812133
621.000000	54.381433
622.000000	53.915933
623.000000	53.486367
624.000000	53.040567
625.000000	52.663000
626.000000	52.291800
627.000000	51.940067
628.000000	51.589933
629.000000	51.240167
630.000000	50.927333
631.000000	50.621900
632.000000	50.333933
633.000000	50.095033
634.000000	49.855900
635.000000	49.616333
636.000000	49.401367
637.000000	49.230733
638.000000	49.031600
639.000000	48.892833
640.000000	48.743633
641.000000	48.637167
642.000000	48.552300
643.000000	48.459400
644.000000	48.406233
645.000000	48.343300
646.000000	48.311267
647.000000	48.296400
648.000000	48.295633
649.000000	48.341133
650.000000	48.370733
651.000000	48.404833
652.000000	48.462200
653.000000	48.535167
654.000000	48.628133
655.000000	48.752767
656.000000	48.886767
657.000000	49.012933
658.000000	49.196467
659.000000	49.389567
660.000000	49.598600
661.000000	49.833533
662.000000	50.093767
663.000000	50.347967
664.000000	50.661000
665.000000	50.985100
666.000000	51.282600
667.000000	51.593367
668.000000	51.904167
669.000000	52.209367
670.000000	52.504467
671.000000	52.806733
672.000000	53.059933
673.000000	53.300967
674.000000	53.526467
675.000000	53.750033
676.000000	53.945667
677.000000	54.090000
678.000000	54.197933
679.000000	54.307267
680.000000	54.405300
681.000000	54.485067
682.000000	54.537233
683.000000	54.577767
684.000000	54.635267
685.000000	54.696667
686.000000	54.762600
687.000000	54.816933
688.000000	54.926233
689.000000	55.015100
690.000000	55.130300
691.000000	55.269600
692.000000	55.435333
693.000000	55.639533
694.000000	55.828267
695.000000	56.070700
696.000000	56.318800
697.000000	56.564767
698.000000	56.868933
699.000000	57.149300
700.000000	57.437033
701.000000	57.690033
702.000000	57.957500
703.000000	58.259433
704.000000	58.552733
705.000000	58.827933
706.000000	59.091700
707.000000	59.356333
708.000000	59.630500
709.000000	59.899567
710.000000	60.140733
711.000000	60.356367
712.000000	60.626233
713.000000	60.890767
714.000000	61.137633
715.000000	61.374233
716.000000	61.603833
717.000000	61.836333
718.000000	62.066267
719.000000	62.304967
720.000000	62.546933
721.000000	62.819567
722.000000	63.055800
723.000000	63.311800
724.000000	63.596233
725.000000	63.854733
726.000000	64.131700
727.000000	64.426600
728.000000	64.657467
729.000000	64.965900
730.000000	65.263267
731.000000	65.544700
732.000000	65.814533
733.000000	66.082167
734.000000	66.402767
735.000000	66.651100
736.000000	66.856033
737.000000	67.118033
738.000000	67.384967
739.000000	67.600200
740.000000	67.835600
741.000000	68.108767
742.000000	68.337833
743.000000	68.569133
744.000000	68.787967
745.000000	68.971133
746.000000	69.187233
747.000000	69.378867
748.000000	69.540100
749.000000	69.733000
750.000000	69.909600
751.000000	70.078633
752.000000	70.264200
753.000000	70.429967
754.000000	70.575667
755.000000	70.771033
756.000000	70.948367
757.000000	71.134067
758.000000	71.329400
759.000000	71.471100
760.000000	71.661433
761.000000	71.868400
762.000000	72.014867
763.000000	72.144600
764.000000	72.319733
765.000000	72.489933
766.000000	72.682133
767.000000	72.843933
768.000000	72.995667
769.000000	73.145100
770.000000	73.320067
771.000000	73.483533
772.000000	73.681267
773.000000	73.794733
774.000000	73.938133
775.000000	74.090633
776.000000	74.228300
777.000000	74.410833
778.000000	74.582133
779.000000	74.712467
780.000000	74.874100
781.000000	75.089333
782.000000	75.273167
783.000000	75.422800
784.000000	75.585900
785.000000	75.720567
786.000000	75.842233
787.000000	75.982067
788.000000	76.190567
789.000000	76.343200
790.000000	76.452867
791.000000	76.636000
792.000000	76.835867
793.000000	77.010700
794.000000	77.160967
795.000000	77.300300
796.000000	77.492567
797.000000	77.677200
798.000000	77.808167
799.000000	78.010333
800.000000	78.245633
801.000000	78.428300
802.000000	78.594500
803.000000	78.736833
804.000000	78.886533
805.000000	79.052833
806.000000	79.184067
807.000000	79.347400
808.000000	79.566433
809.000000	79.698633
810.000000	79.888967
811.000000	80.007033
812.000000	80.163400
813.000000	80.256667
814.000000	80.459333
815.000000	80.590767
816.000000	80.803300
817.000000	80.903433
818.000000	81.076567
819.000000	81.178567
820.000000	81.310267
821.000000	81.484767
822.000000	81.641867
823.000000	81.772967
824.000000	82.003967
825.000000	82.127300
826.000000	82.225967
827.000000	82.287233
828.000000	82.461967
829.000000	82.677733
830.000000	82.688167
831.000000	82.886400
832.000000	82.931133
833.000000	83.060067
834.000000	83.179900
835.000000	83.289500
836.000000	83.381933
837.000000	83.449533
838.000000	83.531667
839.000000	83.682767
840.000000	83.805900
841.000000	83.871133
842.000000	84.008767
843.000000	84.008900
844.000000	84.234933
845.000000	84.314567
846.000000	84.505633
847.000000	84.423100
848.000000	84.457767
849.000000	84.644367
850.000000	84.564600
851.000000	84.529733
852.000000	84.817800
853.000000	84.808833
854.000000	84.560833
855.000000	84.370867
856.000000	84.592167
857.000000	84.817033
858.000000	84.593356
859.000000	82.994903
860.000000	83.561579
861.000000	84.125278
862.000000	84.645280
863.000000	85.131515
864.000000	85.615915
865.000000	86.059762
866.000000	86.417813
867.000000	86.808953
868.000000	87.152835
869.000000	87.525909
870.000000	87.828052
871.000000	88.067926
872.000000	88.348447
873.000000	88.629065
874.000000	88.936245
875.000000	89.185581
876.000000	89.415858
877.000000	89.605720
878.000000	89.810022
879.000000	89.996639
880.000000	90.134040
881.000000	90.295176
882.000000	90.456988
883.000000	90.614662
884.000000	90.762785
885.000000	90.854524
886.000000	90.965312
887.000000	91.075087
888.000000	91.150854
889.000000	91.207565
890.000000	91.281231
891.000000	91.318678
892.000000	91.386343
893.000000	91.440715
894.000000	91.490773
895.000000	91.545330
896.000000	91.557890
897.000000	91.564729
898.000000	91.582065
899.000000	91.607580
900.000000	91.623020
901.000000	91.611145
902.000000	91.566445
903.000000	91.555956
904.000000	91.560455
905.000000	91.566903
906.000000	91.497776
907.000000	91.468782
908.000000	91.393887
909.000000	91.360547
910.000000	91.330240
911.000000	91.299468
912.000000	91.249615
913.000000	91.174614
914.000000	91.123735
915.000000	91.075972
916.000000	91.003799
917.000000	90.944473
918.000000	90.859517
919.000000	90.813942
920.000000	90.740852
921.000000	90.686456
922.000000	90.620299
923.000000	90.573069
924.000000	90.527392
925.000000	90.450046
926.000000	90.387776
927.000000	90.355117
928.000000	90.303750
929.000000	90.226182
930.000000	90.188610
931.000000	90.115169
932.000000	90.053282
933.000000	89.986443
934.000000	89.913264
935.000000	89.866190
936.000000	89.793665
937.000000	89.721936
938.000000	89.666827
939.000000	89.603662
940.000000	89.571061
941.000000	89.491623
942.000000	89.450003
943.000000	89.390096
944.000000	89.345195
945.000000	89.278939
946.000000	89.227970
947.000000	89.150069
948.000000	89.101789
949.000000	89.064341
950.000000	88.990259
951.000000	88.918155
952.000000	88.846030
953.000000	88.786458
954.000000	88.709043
955.000000	88.634004
956.000000	88.569916
957.000000	88.489076
958.000000	88.413957
959.000000	88.349597
960.000000	88.266732
961.000000	88.198986
962.000000	88.126017
963.000000	88.043244
964.000000	87.968325
965.000000	87.900742
966.000000	87.837527
967.000000	87.785951
968.000000	87.719334
969.000000	87.655633
970.000000	87.605558
971.000000	87.547901
972.000000	87.492562
973.000000	87.435282
974.000000	87.391271
975.000000	87.355333
976.000000	87.309437
977.000000	87.265106
978.000000	87.234098
979.000000	87.200418
980.000000	87.168430
981.000000	87.137775
982.000000	87.108994
983.000000	87.089095
984.000000	87.066961
985.000000	87.040315
986.000000	87.022982
987.000000	87.011645
988.000000	87.009662
989.000000	86.988283
990.000000	86.981046
991.000000	86.984842
992.000000	86.980728
993.000000	86.979371
994.000000	86.988132
995.000000	86.982066
996.000000	86.984098
997.000000	86.990624
998.000000	86.995300
999.000000	87.008624
1000.000000	87.004085
1001.000000	87.004765
1002.000000	87.018130
1003.000000	87.011333
1004.000000	87.009452
1005.000000	87.025303
1006.000000	87.020486
1007.000000	87.012152
1008.000000	87.019023
1009.000000	87.001388
1010.000000	86.980523
1011.000000	86.976841
1012.000000	86.970632
1013.000000	86.959602
1014.000000	86.943026
1015.000000	86.940277
1016.000000	86.931913
1017.000000	86.911557
1018.000000	86.901736
1019.000000	86.893567
1020.000000	86.884622
1021.000000	86.873387
1022.000000	86.863313
1023.000000	86.843799
1024.000000	86.827191
1025.000000	86.810433
1026.000000	86.796512
1027.000000	86.795418
1028.000000	86.786562
1029.000000	86.771317
1030.000000	86.755720
1031.000000	86.746220
1032.000000	86.740854
1033.000000	86.724184
1034.000000	86.715931
1035.000000	86.710719
1036.000000	86.697216
1037.000000	86.685859
1038.000000	86.680947
1039.000000	86.680179
1040.000000	86.672907
1041.000000	86.670094
1042.000000	86.669620
1043.000000	86.657412
1044.000000	86.645740
1045.000000	86.648937
1046.000000	86.657114
1047.000000	86.659771
1048.000000	86.668267
1049.000000	86.669145
1050.000000	86.671922
1051.000000	86.692106
1052.000000	86.711285
1053.000000	86.725391
1054.000000	86.739062
1055.000000	86.754891
1056.000000	86.777715
1057.000000	86.805576
1058.000000	86.832656
1059.000000	86.854780
1060.000000	86.884307
1061.000000	86.912772
1062.000000	86.947478
1063.000000	86.977072
1064.000000	87.010224
1065.000000	87.036555
1066.000000	87.074967
1067.000000	87.110743
1068.000000	87.143078
1069.000000	87.187753
1070.000000	87.223134
1071.000000	87.247682
1072.000000	87.281659
1073.000000	87.329604
1074.000000	87.370524
1075.000000	87.405518
1076.000000	87.436220
1077.000000	87.467446
1078.000000	87.502576
1079.000000	87.530446
1080.000000	87.562535
1081.000000	87.606009
1082.000000	87.637695
1083.000000	87.662252
1084.000000	87.687824
1085.000000	87.723759
1086.000000	87.749447
1087.000000	87.767422
1088.000000	87.796479
1089.000000	87.818680
1090.000000	87.839120
1091.000000	87.857238
1092.000000	87.879680
1093.000000	87.901033
1094.000000	87.921683
1095.000000	87.929589
1096.000000	87.937611
1097.000000	87.953853
1098.000000	87.975494
1099.000000	87.986171
1100.000000	87.987294
1101.000000	88.001179
1102.000000	88.011380
1103.000000	88.013257
1104.000000	88.011229
1105.000000	88.013811
1106.000000	88.009171
1107.000000	88.016856
1108.000000	88.026093
1109.000000	88.019878
1110.000000	88.018452
1111.000000	88.021966
1112.000000	88.015282
1113.000000	88.005776
1114.000000	88.007766
1115.000000	88.008202
1116.000000	88.004055
1117.000000	88.005278
1118.000000	87.999608
1119.000000	87.998217
1120.000000	87.981363
1121.000000	87.972335
1122.000000	87.977091
1123.000000	87.949634
1124.000000	87.925960
1125.000000	87.880974
1126.000000	87.836727
1127.000000	87.781570
1128.000000	87.752050
1129.000000	87.718172
1130.000000	87.631970
1131.000000	87.550483
1132.000000	87.474964
1133.000000	87.445514
1134.000000	87.427045
1135.000000	87.354584
1136.000000	87.277827
1137.000000	87.144469
1138.000000	87.042086
1139.000000	86.961020
1140.000000	86.899056
1141.000000	86.844004
1142.000000	86.767536
1143.000000	86.705083
1144.000000	86.674937
1145.000000	86.649411
1146.000000	86.591809
1147.000000	86.538017
1148.000000	86.482461
1149.000000	86.438599
1150.000000	86.392905
1151.000000	86.339386
1152.000000	86.300528
1153.000000	86.245634
1154.000000	86.179210
1155.000000	86.100916
1156.000000	86.041397
1157.000000	85.962309
1158.000000	85.876175
1159.000000	85.803814
1160.000000	85.711922
1161.000000	85.614153
1162.000000	85.518306
1163.000000	85.431658
1164.000000	85.345884
1165.000000	85.244077
1166.000000	85.159058
1167.000000	85.082544
1168.000000	84.997688
