PE UV       SUBTECH     SPECTRUM    ASCII       PEDS        4.00        
   -1
CICIMAUCR0101-3.Sample.ASC
24/04/11
14:27:02.00
24/04/11
14:27:02.00
Vinicio Soto Monge
C. resplendens
250,000000
1
Lambda 1050
1050L1511233
PerkinElmer UV WinLab 6.3.2.0749 / 2.02.05 Lambda 900 UV/VIS/NIR, Aug  7 2015 09:38:08

0
0
3350/2 860,8/2
0
0
UV/VIS
1
1
1
DoubleDePol,CommonBeamDepol,RBeamAtt,SBeamAtt,60mm sphere, WB InGaAs Detector
0
0
0
0
Program
Program
3350/2 860,8/2
3350/0,2 860,8/0,2
3350/0,2 860,8/0,2
0
15.00
 
 
 
0
 
860,8
319,2
860,8
Front
100
on
S:100 R:100
0
0
0
0
 
0
 
 
 
0
 
 
0
0
0
0
0
 
 
 
 
0
0


0
0
#HDR
-1
-1
#GR
nm
%R
1.0
0.0
2400,000000
-1,000000
2151
8
92,537900
5,932000
#DATA
250.000000	6.822967
251.000000	6.775467
252.000000	6.775167
253.000000	6.801867
254.000000	6.749833
255.000000	6.771567
256.000000	6.749733
257.000000	6.706900
258.000000	6.669733
259.000000	6.657933
260.000000	6.644933
261.000000	6.610100
262.000000	6.585667
263.000000	6.576700
264.000000	6.522733
265.000000	6.493800
266.000000	6.470000
267.000000	6.413267
268.000000	6.421967
269.000000	6.385500
270.000000	6.344133
271.000000	6.351033
272.000000	6.294533
273.000000	6.289033
274.000000	6.291433
275.000000	6.263100
276.000000	6.260533
277.000000	6.274333
278.000000	6.220433
279.000000	6.201967
280.000000	6.207567
281.000000	6.204667
282.000000	6.174500
283.000000	6.185333
284.000000	6.170067
285.000000	6.165633
286.000000	6.183567
287.000000	6.191900
288.000000	6.151333
289.000000	6.133333
290.000000	6.138167
291.000000	6.110667
292.000000	6.109233
293.000000	6.109567
294.000000	6.108700
295.000000	6.106800
296.000000	6.106833
297.000000	6.102400
298.000000	6.093533
299.000000	6.060267
300.000000	6.081900
301.000000	6.094867
302.000000	6.076833
303.000000	6.089300
304.000000	6.068167
305.000000	6.068000
306.000000	6.034933
307.000000	6.015967
308.000000	6.030500
309.000000	6.013667
310.000000	6.006200
311.000000	6.015900
312.000000	6.027233
313.000000	6.001100
314.000000	5.988433
315.000000	5.986833
316.000000	6.126733
317.000000	6.400200
318.000000	6.282800
319.000000	6.285233
320.000000	6.210700
321.000000	6.142400
322.000000	6.160533
323.000000	6.039000
324.000000	6.099533
325.000000	6.179133
326.000000	6.152267
327.000000	6.088700
328.000000	6.099900
329.000000	6.022933
330.000000	6.065733
331.000000	6.041933
332.000000	5.969900
333.000000	5.935733
334.000000	5.951533
335.000000	5.955500
336.000000	6.012400
337.000000	6.032000
338.000000	6.002033
339.000000	5.982800
340.000000	5.935533
341.000000	5.902400
342.000000	5.982233
343.000000	5.975700
344.000000	5.932333
345.000000	5.968933
346.000000	6.017067
347.000000	5.946633
348.000000	5.965000
349.000000	5.956133
350.000000	5.929467
351.000000	5.965900
352.000000	6.057800
353.000000	6.065000
354.000000	6.064500
355.000000	6.070433
356.000000	6.082433
357.000000	6.129433
358.000000	6.143267
359.000000	6.141100
360.000000	6.172433
361.000000	6.144033
362.000000	6.149333
363.000000	6.200867
364.000000	6.259433
365.000000	6.238767
366.000000	6.257533
367.000000	6.292367
368.000000	6.303600
369.000000	6.306933
370.000000	6.330367
371.000000	6.303200
372.000000	6.315667
373.000000	6.355067
374.000000	6.331533
375.000000	6.378300
376.000000	6.568033
377.000000	6.644700
378.000000	6.694233
379.000000	6.751900
380.000000	6.800800
381.000000	6.862667
382.000000	6.931133
383.000000	6.993933
384.000000	7.070333
385.000000	7.152600
386.000000	7.239667
387.000000	7.341067
388.000000	7.431633
389.000000	7.530567
390.000000	7.646367
391.000000	7.778433
392.000000	7.900633
393.000000	8.033367
394.000000	8.180267
395.000000	8.331267
396.000000	8.498400
397.000000	8.676833
398.000000	8.857133
399.000000	9.042567
400.000000	9.232100
401.000000	9.449167
402.000000	9.679033
403.000000	9.914067
404.000000	10.172967
405.000000	10.424600
406.000000	10.711300
407.000000	10.993367
408.000000	11.285700
409.000000	11.596800
410.000000	11.911967
411.000000	12.251067
412.000000	12.587267
413.000000	12.951667
414.000000	13.315767
415.000000	13.688567
416.000000	14.065367
417.000000	14.452000
418.000000	14.820067
419.000000	15.218267
420.000000	15.622267
421.000000	16.018367
422.000000	16.425500
423.000000	16.828533
424.000000	17.216700
425.000000	17.620200
426.000000	18.007600
427.000000	18.382933
428.000000	18.760700
429.000000	19.131833
430.000000	19.479967
431.000000	19.842067
432.000000	20.186267
433.000000	20.545067
434.000000	20.882733
435.000000	21.208733
436.000000	21.504633
437.000000	21.814700
438.000000	22.106967
439.000000	22.389967
440.000000	22.652400
441.000000	22.913767
442.000000	23.179700
443.000000	23.432067
444.000000	23.638400
445.000000	23.854633
446.000000	24.054567
447.000000	24.245133
448.000000	24.414900
449.000000	24.578100
450.000000	24.718833
451.000000	24.870467
452.000000	25.007733
453.000000	25.126700
454.000000	25.232800
455.000000	25.309200
456.000000	25.399333
457.000000	25.488633
458.000000	25.550600
459.000000	25.604633
460.000000	25.651233
461.000000	25.690300
462.000000	25.712900
463.000000	25.751833
464.000000	25.759700
465.000000	25.755367
466.000000	25.770967
467.000000	25.773167
468.000000	25.773167
469.000000	25.783233
470.000000	25.784333
471.000000	25.815067
472.000000	25.859167
473.000000	25.931400
474.000000	26.014733
475.000000	26.121333
476.000000	26.264900
477.000000	26.428567
478.000000	26.633433
479.000000	26.876167
480.000000	27.142133
481.000000	27.433300
482.000000	27.764633
483.000000	28.119900
484.000000	28.524067
485.000000	28.975900
486.000000	29.420400
487.000000	29.868567
488.000000	30.353433
489.000000	30.842767
490.000000	31.348233
491.000000	31.829533
492.000000	32.335267
493.000000	32.813267
494.000000	33.261667
495.000000	33.701500
496.000000	34.131667
497.000000	34.538700
498.000000	34.925767
499.000000	35.302167
500.000000	35.681367
501.000000	36.049567
502.000000	36.410133
503.000000	36.758067
504.000000	37.101933
505.000000	37.450100
506.000000	37.794100
507.000000	38.162800
508.000000	38.550167
509.000000	38.974200
510.000000	39.428167
511.000000	39.938100
512.000000	40.488700
513.000000	41.098133
514.000000	41.783000
515.000000	42.521000
516.000000	43.313367
517.000000	44.170033
518.000000	45.109067
519.000000	46.110900
520.000000	47.166800
521.000000	48.288233
522.000000	49.495100
523.000000	50.756400
524.000000	52.018967
525.000000	53.339600
526.000000	54.656000
527.000000	55.978667
528.000000	57.298100
529.000000	58.640833
530.000000	59.959367
531.000000	61.267100
532.000000	62.548400
533.000000	63.803500
534.000000	65.025733
535.000000	66.202733
536.000000	67.354467
537.000000	68.466733
538.000000	69.549100
539.000000	70.612400
540.000000	71.662667
541.000000	72.670900
542.000000	73.675500
543.000000	74.607800
544.000000	75.538833
545.000000	76.431900
546.000000	77.281767
547.000000	78.099400
548.000000	78.893533
549.000000	79.648167
550.000000	80.411467
551.000000	81.154600
552.000000	81.848267
553.000000	82.540967
554.000000	83.197833
555.000000	83.824200
556.000000	84.411133
557.000000	84.977800
558.000000	85.493167
559.000000	86.030833
560.000000	86.592767
561.000000	87.041867
562.000000	87.472933
563.000000	87.878533
564.000000	88.260400
565.000000	88.608333
566.000000	88.930633
567.000000	89.222867
568.000000	89.511633
569.000000	89.782433
570.000000	90.047567
571.000000	90.244067
572.000000	90.472133
573.000000	90.676933
574.000000	90.891100
575.000000	91.057933
576.000000	91.209700
577.000000	91.383367
578.000000	91.516433
579.000000	91.647867
580.000000	91.758633
581.000000	91.867733
582.000000	91.925100
583.000000	91.994733
584.000000	92.022867
585.000000	92.031667
586.000000	92.017567
587.000000	91.998033
588.000000	91.941233
589.000000	91.870433
590.000000	91.778600
591.000000	91.660167
592.000000	91.510833
593.000000	91.319400
594.000000	91.137600
595.000000	90.900033
596.000000	90.625800
597.000000	90.362433
598.000000	90.056100
599.000000	89.741467
600.000000	89.367467
601.000000	88.964867
602.000000	88.535633
603.000000	88.089100
604.000000	87.600167
605.000000	87.063033
606.000000	86.531533
607.000000	85.957900
608.000000	85.336667
609.000000	84.717000
610.000000	84.071833
611.000000	83.400633
612.000000	82.694400
613.000000	81.966200
614.000000	81.209767
615.000000	80.449867
616.000000	79.682867
617.000000	78.909567
618.000000	78.132133
619.000000	77.317400
620.000000	76.515467
621.000000	75.662200
622.000000	74.786267
623.000000	73.910000
624.000000	72.997000
625.000000	72.090767
626.000000	71.169400
627.000000	70.227100
628.000000	69.279200
629.000000	68.373300
630.000000	67.470867
631.000000	66.585700
632.000000	65.759367
633.000000	65.012767
634.000000	64.323700
635.000000	63.727333
636.000000	63.274133
637.000000	62.894533
638.000000	62.654967
639.000000	62.535300
640.000000	62.564600
641.000000	62.696533
642.000000	62.974533
643.000000	63.350467
644.000000	63.827533
645.000000	64.398133
646.000000	65.030000
647.000000	65.716300
648.000000	66.482633
649.000000	67.289967
650.000000	68.177133
651.000000	69.027933
652.000000	69.901467
653.000000	70.756600
654.000000	71.598800
655.000000	72.414300
656.000000	73.129500
657.000000	73.866233
658.000000	74.529767
659.000000	75.104633
660.000000	75.630767
661.000000	76.120533
662.000000	76.546800
663.000000	76.913200
664.000000	77.229633
665.000000	77.536300
666.000000	77.804167
667.000000	78.070400
668.000000	78.308367
669.000000	78.507367
670.000000	78.737200
671.000000	78.921400
672.000000	79.097333
673.000000	79.263733
674.000000	79.414467
675.000000	79.566833
676.000000	79.687267
677.000000	79.773067
678.000000	79.801867
679.000000	79.847767
680.000000	79.900400
681.000000	79.897033
682.000000	79.931733
683.000000	79.972433
684.000000	80.041000
685.000000	80.058267
686.000000	80.130100
687.000000	80.184133
688.000000	80.217700
689.000000	80.257367
690.000000	80.291500
691.000000	80.383033
692.000000	80.439567
693.000000	80.470933
694.000000	80.503033
695.000000	80.549133
696.000000	80.642200
697.000000	80.708700
698.000000	80.786933
699.000000	80.915067
700.000000	81.050233
701.000000	81.192767
702.000000	81.385367
703.000000	81.596367
704.000000	81.837233
705.000000	82.130233
706.000000	82.468933
707.000000	82.791633
708.000000	83.105967
709.000000	83.464633
710.000000	83.833400
711.000000	84.155900
712.000000	84.493167
713.000000	84.856967
714.000000	85.144400
715.000000	85.411933
716.000000	85.686433
717.000000	85.953200
718.000000	86.203167
719.000000	86.440200
720.000000	86.631933
721.000000	86.759433
722.000000	86.933567
723.000000	87.069933
724.000000	87.215700
725.000000	87.325333
726.000000	87.427900
727.000000	87.452667
728.000000	87.574867
729.000000	87.669700
730.000000	87.722567
731.000000	87.758567
732.000000	87.837933
733.000000	87.890867
734.000000	87.955867
735.000000	88.024400
736.000000	88.011433
737.000000	88.049933
738.000000	88.086633
739.000000	88.179167
740.000000	88.206767
741.000000	88.234667
742.000000	88.209033
743.000000	88.224867
744.000000	88.149133
745.000000	88.071333
746.000000	88.019267
747.000000	87.911733
748.000000	87.730500
749.000000	87.599667
750.000000	87.414867
751.000000	87.182633
752.000000	86.927567
753.000000	86.751833
754.000000	86.485100
755.000000	86.333467
756.000000	86.034833
757.000000	85.814333
758.000000	85.583533
759.000000	85.403733
760.000000	85.135567
761.000000	85.044167
762.000000	84.826600
763.000000	84.625200
764.000000	84.502667
765.000000	84.363367
766.000000	84.328733
767.000000	84.208767
768.000000	84.131900
769.000000	84.182467
770.000000	84.197367
771.000000	84.150867
772.000000	84.252833
773.000000	84.223933
774.000000	84.196700
775.000000	84.282633
776.000000	84.204267
777.000000	84.176267
778.000000	84.173333
779.000000	84.058000
780.000000	83.872500
781.000000	83.791133
782.000000	83.702733
783.000000	83.525133
784.000000	83.250667
785.000000	83.147433
786.000000	82.933967
787.000000	82.617567
788.000000	82.322800
789.000000	82.099500
790.000000	81.783600
791.000000	81.566600
792.000000	81.224600
793.000000	81.052500
794.000000	80.682633
795.000000	80.418967
796.000000	80.151167
797.000000	79.914333
798.000000	79.663967
799.000000	79.533000
800.000000	79.265633
801.000000	79.098200
802.000000	78.771133
803.000000	78.679933
804.000000	78.587333
805.000000	78.460700
806.000000	78.255333
807.000000	78.109600
808.000000	78.035867
809.000000	77.960267
810.000000	77.770667
811.000000	77.755933
812.000000	77.669100
813.000000	77.596500
814.000000	77.496467
815.000000	77.560133
816.000000	77.389900
817.000000	77.219433
818.000000	77.148867
819.000000	77.176233
820.000000	77.125933
821.000000	77.052033
822.000000	77.000200
823.000000	76.993667
824.000000	76.968700
825.000000	77.032133
826.000000	77.021667
827.000000	76.832400
828.000000	76.869133
829.000000	76.860167
830.000000	76.962833
831.000000	76.881000
832.000000	76.785567
833.000000	76.849767
834.000000	76.684433
835.000000	76.790533
836.000000	76.676633
837.000000	76.508300
838.000000	76.440333
839.000000	76.298633
840.000000	76.243933
841.000000	76.040600
842.000000	75.951767
843.000000	75.930167
844.000000	75.699933
845.000000	75.451367
846.000000	75.415100
847.000000	75.144133
848.000000	75.079167
849.000000	74.743067
850.000000	74.780867
851.000000	74.628633
852.000000	74.375267
853.000000	74.071733
854.000000	73.869533
855.000000	73.810833
856.000000	73.741700
857.000000	73.847567
858.000000	73.800033
859.000000	74.263234
860.000000	73.897374
861.000000	73.914393
862.000000	73.756372
863.000000	73.786871
864.000000	73.568193
865.000000	73.375038
866.000000	73.417007
867.000000	73.069782
868.000000	72.932073
869.000000	72.845580
870.000000	72.748087
871.000000	72.726607
872.000000	72.540063
873.000000	72.294596
874.000000	72.356278
875.000000	72.029373
876.000000	72.005923
877.000000	71.717018
878.000000	71.919655
879.000000	71.636089
880.000000	71.736025
881.000000	71.470869
882.000000	71.210060
883.000000	71.029691
884.000000	70.741163
885.000000	70.699524
886.000000	70.549440
887.000000	70.420047
888.000000	70.246122
889.000000	70.079041
890.000000	69.935037
891.000000	69.620077
892.000000	69.392872
893.000000	69.350683
894.000000	69.145716
895.000000	68.722036
896.000000	68.422720
897.000000	68.276015
898.000000	68.011407
899.000000	67.811922
900.000000	67.618115
901.000000	67.381499
902.000000	67.149115
903.000000	66.841186
904.000000	66.459315
905.000000	66.129901
906.000000	66.009006
907.000000	65.803961
908.000000	65.611215
909.000000	65.495124
910.000000	65.420263
911.000000	65.229674
912.000000	65.099958
913.000000	64.996263
914.000000	64.927039
915.000000	64.968616
916.000000	64.845862
917.000000	64.719827
918.000000	64.608622
919.000000	64.562690
920.000000	64.459634
921.000000	64.332342
922.000000	64.237690
923.000000	64.123713
924.000000	64.061012
925.000000	63.887003
926.000000	63.721487
927.000000	63.605755
928.000000	63.468202
929.000000	63.377976
930.000000	63.261691
931.000000	63.189642
932.000000	63.087907
933.000000	62.903742
934.000000	62.761939
935.000000	62.608320
936.000000	62.461149
937.000000	62.336568
938.000000	62.214490
939.000000	62.048183
940.000000	61.880687
941.000000	61.796784
942.000000	61.663661
943.000000	61.542674
944.000000	61.447196
945.000000	61.270982
946.000000	61.148753
947.000000	61.075201
948.000000	60.985264
949.000000	60.889789
950.000000	60.794738
951.000000	60.685147
952.000000	60.600594
953.000000	60.501395
954.000000	60.392516
955.000000	60.296474
956.000000	60.198046
957.000000	60.095130
958.000000	59.983141
959.000000	59.889579
960.000000	59.788189
961.000000	59.618865
962.000000	59.515116
963.000000	59.457264
964.000000	59.376453
965.000000	59.280661
966.000000	59.187146
967.000000	59.123716
968.000000	59.097035
969.000000	59.049869
970.000000	58.972767
971.000000	58.886586
972.000000	58.817539
973.000000	58.775114
974.000000	58.711154
975.000000	58.622319
976.000000	58.578671
977.000000	58.480870
978.000000	58.386709
979.000000	58.304413
980.000000	58.213726
981.000000	58.149626
982.000000	58.059979
983.000000	57.993852
984.000000	57.926581
985.000000	57.865061
986.000000	57.761540
987.000000	57.688733
988.000000	57.631859
989.000000	57.554607
990.000000	57.454235
991.000000	57.368777
992.000000	57.309028
993.000000	57.264499
994.000000	57.215989
995.000000	57.148457
996.000000	57.089095
997.000000	57.048943
998.000000	56.988689
999.000000	56.908431
1000.000000	56.868278
1001.000000	56.788809
1002.000000	56.767419
1003.000000	56.711939
1004.000000	56.663641
1005.000000	56.614773
1006.000000	56.555440
1007.000000	56.504840
1008.000000	56.454800
1009.000000	56.386602
1010.000000	56.265029
1011.000000	56.243778
1012.000000	56.211562
1013.000000	56.176535
1014.000000	56.171237
1015.000000	56.195291
1016.000000	56.203828
1017.000000	56.248652
1018.000000	56.248335
1019.000000	56.306007
1020.000000	56.350983
1021.000000	56.423797
1022.000000	56.498471
1023.000000	56.556677
1024.000000	56.633901
1025.000000	56.728947
1026.000000	56.789890
1027.000000	56.857297
1028.000000	56.937962
1029.000000	57.031640
1030.000000	57.105566
1031.000000	57.197812
1032.000000	57.258352
1033.000000	57.319883
1034.000000	57.416968
1035.000000	57.454489
1036.000000	57.539263
1037.000000	57.589019
1038.000000	57.644487
1039.000000	57.725117
1040.000000	57.780812
1041.000000	57.820761
1042.000000	57.845005
1043.000000	57.911774
1044.000000	57.966056
1045.000000	58.018503
1046.000000	58.075996
1047.000000	58.141241
1048.000000	58.181303
1049.000000	58.240656
1050.000000	58.303537
1051.000000	58.354440
1052.000000	58.432513
1053.000000	58.463064
1054.000000	58.554706
1055.000000	58.660921
1056.000000	58.736107
1057.000000	58.810299
1058.000000	58.890719
1059.000000	58.957304
1060.000000	59.028522
1061.000000	59.087234
1062.000000	59.153951
1063.000000	59.203302
1064.000000	59.258308
1065.000000	59.322147
1066.000000	59.361577
1067.000000	59.435341
1068.000000	59.475182
1069.000000	59.512638
1070.000000	59.587063
1071.000000	59.625825
1072.000000	59.670620
1073.000000	59.729391
1074.000000	59.785430
1075.000000	59.863587
1076.000000	59.910578
1077.000000	59.969809
1078.000000	60.019025
1079.000000	60.087878
1080.000000	60.117804
1081.000000	60.211491
1082.000000	60.264711
1083.000000	60.355929
1084.000000	60.421133
1085.000000	60.499523
1086.000000	60.577917
1087.000000	60.662989
1088.000000	60.741189
1089.000000	60.827940
1090.000000	60.903688
1091.000000	60.979693
1092.000000	61.041177
1093.000000	61.096864
1094.000000	61.166089
1095.000000	61.239625
1096.000000	61.293582
1097.000000	61.357052
1098.000000	61.417262
1099.000000	61.444190
1100.000000	61.513572
1101.000000	61.552575
1102.000000	61.599132
1103.000000	61.649557
1104.000000	61.667035
1105.000000	61.681992
1106.000000	61.706927
1107.000000	61.725419
1108.000000	61.749174
1109.000000	61.781637
1110.000000	61.791134
1111.000000	61.809923
1112.000000	61.822468
1113.000000	61.836650
1114.000000	61.854527
1115.000000	61.863109
1116.000000	61.882360
1117.000000	61.886034
1118.000000	61.870630
1119.000000	61.836701
1120.000000	61.782705
1121.000000	61.702491
1122.000000	61.642509
1123.000000	61.559093
1124.000000	61.416129
1125.000000	61.292001
1126.000000	61.164008
1127.000000	61.007911
1128.000000	60.793964
1129.000000	60.538961
1130.000000	60.223137
1131.000000	59.843313
1132.000000	59.407270
1133.000000	58.937134
1134.000000	58.484926
1135.000000	57.971824
1136.000000	57.349957
1137.000000	56.709819
1138.000000	56.079272
1139.000000	55.480349
1140.000000	54.912205
1141.000000	54.361992
1142.000000	53.809648
1143.000000	53.281532
1144.000000	52.786613
1145.000000	52.366531
1146.000000	52.065154
1147.000000	51.884281
1148.000000	51.845857
1149.000000	51.872952
1150.000000	51.928344
1151.000000	51.983966
1152.000000	52.009938
1153.000000	52.006720
1154.000000	51.915034
1155.000000	51.733607
1156.000000	51.465236
1157.000000	51.089597
1158.000000	50.655993
1159.000000	50.174858
1160.000000	49.655169
1161.000000	49.121486
1162.000000	48.588195
1163.000000	48.037864
1164.000000	47.475739
1165.000000	46.937676
1166.000000	46.393087
1167.000000	45.879021
