PE UV       SUBTECH     SPECTRUM    ASCII       PEDS        4.00        
   -1
CICIMAUCR0112-3.Sample.ASC
24/04/22
10:19:40.00
24/04/22
10:19:40.00
Vinicio Soto Monge
C. resplendens
250,000000
1
Lambda 1050
1050L1511233
PerkinElmer UV WinLab 6.3.2.0749 / 2.02.05 Lambda 900 UV/VIS/NIR, Aug  7 2015 09:38:08

0
0
3350/servo 860,8/2
0
0
UV/VIS
1
1
1
DoubleDePol,CommonBeamDepol,RBeamAtt,SBeamAtt,60mm sphere, WB InGaAs Detector
0
0
0
0
Program
Program
3350/servo 860,8/2
3350/0,2 860,8/0,2
3350/0,2 860,8/0,2
0
15.00
 
 
 
0
 
860,8
319,2
860,8
Front
100
on
S:100 R:100
0
0
0
0
 
0
 
 
 
0
 
 
0
0
0
0
0
 
 
 
 
0
0


0
0
#HDR
-1
-1
#GR
nm
%R
1.0
0.0
2500,000000
-1,000000
2251
8
88,787000
5,681000
#DATA
250.000000	6.253300
251.000000	6.257767
252.000000	6.237900
253.000000	6.215467
254.000000	6.205000
255.000000	6.176967
256.000000	6.201933
257.000000	6.181067
258.000000	6.160900
259.000000	6.136767
260.000000	6.090600
261.000000	6.061167
262.000000	6.035467
263.000000	6.024200
264.000000	6.026800
265.000000	6.014300
266.000000	5.963833
267.000000	5.964367
268.000000	5.916467
269.000000	5.897833
270.000000	5.874400
271.000000	5.848867
272.000000	5.818800
273.000000	5.819067
274.000000	5.814300
275.000000	5.789033
276.000000	5.774567
277.000000	5.779400
278.000000	5.737567
279.000000	5.738133
280.000000	5.724533
281.000000	5.680800
282.000000	5.719100
283.000000	5.675600
284.000000	5.687100
285.000000	5.673833
286.000000	5.657200
287.000000	5.632333
288.000000	5.632233
289.000000	5.641133
290.000000	5.640567
291.000000	5.627567
292.000000	5.650967
293.000000	5.648767
294.000000	5.626933
295.000000	5.628300
296.000000	5.609267
297.000000	5.627600
298.000000	5.602567
299.000000	5.600800
300.000000	5.593467
301.000000	5.613533
302.000000	5.581333
303.000000	5.616033
304.000000	5.595233
305.000000	5.594367
306.000000	5.591100
307.000000	5.590900
308.000000	5.612367
309.000000	5.620733
310.000000	5.581700
311.000000	5.604467
312.000000	5.602333
313.000000	5.578600
314.000000	5.564767
315.000000	5.562633
316.000000	5.550500
317.000000	5.537767
318.000000	5.506100
319.000000	5.664667
320.000000	5.583100
321.000000	5.486033
322.000000	5.705033
323.000000	5.588133
324.000000	5.575833
325.000000	5.645967
326.000000	5.589167
327.000000	5.583467
328.000000	5.592267
329.000000	5.590100
330.000000	5.541633
331.000000	5.549600
332.000000	5.604400
333.000000	5.517367
334.000000	5.570233
335.000000	5.630267
336.000000	5.592767
337.000000	5.584533
338.000000	5.510433
339.000000	5.580100
340.000000	5.556900
341.000000	5.585967
342.000000	5.599567
343.000000	5.601200
344.000000	5.544433
345.000000	5.571533
346.000000	5.588100
347.000000	5.592733
348.000000	5.585700
349.000000	5.583533
350.000000	5.589667
351.000000	5.658267
352.000000	5.658700
353.000000	5.661233
354.000000	5.693900
355.000000	5.692667
356.000000	5.698467
357.000000	5.738000
358.000000	5.769500
359.000000	5.795033
360.000000	5.793633
361.000000	5.803033
362.000000	5.805367
363.000000	5.799967
364.000000	5.845000
365.000000	5.882033
366.000000	5.901400
367.000000	5.910367
368.000000	5.941667
369.000000	5.920333
370.000000	5.953633
371.000000	5.982333
372.000000	5.957100
373.000000	5.961700
374.000000	5.973600
375.000000	6.009133
376.000000	6.052367
377.000000	6.110667
378.000000	6.136767
379.000000	6.161467
380.000000	6.179467
381.000000	6.208333
382.000000	6.232033
383.000000	6.261000
384.000000	6.296133
385.000000	6.324600
386.000000	6.348033
387.000000	6.375300
388.000000	6.414667
389.000000	6.445233
390.000000	6.467967
391.000000	6.505500
392.000000	6.546900
393.000000	6.590533
394.000000	6.628167
395.000000	6.673833
396.000000	6.723167
397.000000	6.769567
398.000000	6.823833
399.000000	6.882033
400.000000	6.951667
401.000000	7.026600
402.000000	7.107133
403.000000	7.195467
404.000000	7.298167
405.000000	7.408467
406.000000	7.520300
407.000000	7.645933
408.000000	7.787067
409.000000	7.946367
410.000000	8.124367
411.000000	8.311167
412.000000	8.517067
413.000000	8.741000
414.000000	8.980967
415.000000	9.235767
416.000000	9.517133
417.000000	9.821400
418.000000	10.138200
419.000000	10.477867
420.000000	10.833133
421.000000	11.207233
422.000000	11.608733
423.000000	12.023200
424.000000	12.455033
425.000000	12.907967
426.000000	13.373533
427.000000	13.847767
428.000000	14.331333
429.000000	14.833533
430.000000	15.349233
431.000000	15.863267
432.000000	16.375500
433.000000	16.898767
434.000000	17.429333
435.000000	17.943600
436.000000	18.454567
437.000000	18.960867
438.000000	19.457800
439.000000	19.953300
440.000000	20.435733
441.000000	20.908600
442.000000	21.369500
443.000000	21.808067
444.000000	22.242467
445.000000	22.663267
446.000000	23.062600
447.000000	23.440400
448.000000	23.787300
449.000000	24.136767
450.000000	24.471267
451.000000	24.786433
452.000000	25.092900
453.000000	25.377433
454.000000	25.651900
455.000000	25.921767
456.000000	26.170233
457.000000	26.401967
458.000000	26.640133
459.000000	26.869600
460.000000	27.074433
461.000000	27.289433
462.000000	27.490367
463.000000	27.673900
464.000000	27.868800
465.000000	28.055433
466.000000	28.228033
467.000000	28.389167
468.000000	28.547400
469.000000	28.705800
470.000000	28.871667
471.000000	29.023400
472.000000	29.170133
473.000000	29.317133
474.000000	29.453300
475.000000	29.578233
476.000000	29.698400
477.000000	29.814367
478.000000	29.910767
479.000000	29.991900
480.000000	30.079100
481.000000	30.156967
482.000000	30.220633
483.000000	30.271100
484.000000	30.296700
485.000000	30.313167
486.000000	30.324367
487.000000	30.335500
488.000000	30.349600
489.000000	30.370233
490.000000	30.396733
491.000000	30.437367
492.000000	30.497800
493.000000	30.582567
494.000000	30.684133
495.000000	30.810133
496.000000	30.976333
497.000000	31.186033
498.000000	31.418233
499.000000	31.707900
500.000000	32.050067
501.000000	32.462733
502.000000	32.942333
503.000000	33.493633
504.000000	34.126167
505.000000	34.849300
506.000000	35.648033
507.000000	36.532600
508.000000	37.492333
509.000000	38.535433
510.000000	39.643700
511.000000	40.841467
512.000000	42.070600
513.000000	43.333867
514.000000	44.634667
515.000000	45.920633
516.000000	47.224167
517.000000	48.540900
518.000000	49.818800
519.000000	51.099467
520.000000	52.365567
521.000000	53.655967
522.000000	54.915267
523.000000	56.179067
524.000000	57.433367
525.000000	58.663700
526.000000	59.870967
527.000000	61.040967
528.000000	62.217933
529.000000	63.372067
530.000000	64.501133
531.000000	65.627433
532.000000	66.723500
533.000000	67.781767
534.000000	68.832600
535.000000	69.852367
536.000000	70.811700
537.000000	71.731400
538.000000	72.599867
539.000000	73.471500
540.000000	74.299033
541.000000	75.116967
542.000000	75.899533
543.000000	76.658033
544.000000	77.363567
545.000000	78.074833
546.000000	78.758333
547.000000	79.396667
548.000000	80.015800
549.000000	80.620400
550.000000	81.189367
551.000000	81.761467
552.000000	82.305567
553.000000	82.785100
554.000000	83.277567
555.000000	83.724100
556.000000	84.150200
557.000000	84.504967
558.000000	84.884467
559.000000	85.205667
560.000000	85.566200
561.000000	85.847200
562.000000	86.124833
563.000000	86.370333
564.000000	86.583333
565.000000	86.806767
566.000000	86.985400
567.000000	87.174867
568.000000	87.335900
569.000000	87.482800
570.000000	87.623067
571.000000	87.741567
572.000000	87.830900
573.000000	87.951200
574.000000	88.049433
575.000000	88.141033
576.000000	88.204867
577.000000	88.250300
578.000000	88.268867
579.000000	88.298667
580.000000	88.276533
581.000000	88.260067
582.000000	88.256800
583.000000	88.184300
584.000000	88.081300
585.000000	87.969433
586.000000	87.833833
587.000000	87.696067
588.000000	87.490000
589.000000	87.323300
590.000000	87.073500
591.000000	86.800067
592.000000	86.491167
593.000000	86.199567
594.000000	85.848000
595.000000	85.477567
596.000000	85.074467
597.000000	84.622667
598.000000	84.189767
599.000000	83.676833
600.000000	83.184300
601.000000	82.612833
602.000000	82.052867
603.000000	81.435700
604.000000	80.823133
605.000000	80.191533
606.000000	79.560400
607.000000	78.879067
608.000000	78.182733
609.000000	77.490633
610.000000	76.719533
611.000000	75.959100
612.000000	75.117633
613.000000	74.224233
614.000000	73.304467
615.000000	72.297067
616.000000	71.305867
617.000000	70.235967
618.000000	69.162867
619.000000	68.098333
620.000000	67.019533
621.000000	65.938133
622.000000	64.912200
623.000000	63.936533
624.000000	63.005933
625.000000	62.153367
626.000000	61.333833
627.000000	60.560633
628.000000	59.827300
629.000000	59.103533
630.000000	58.359433
631.000000	57.596000
632.000000	56.867100
633.000000	56.091567
634.000000	55.341000
635.000000	54.601100
636.000000	53.897500
637.000000	53.270567
638.000000	52.675367
639.000000	52.182767
640.000000	51.809067
641.000000	51.552200
642.000000	51.401100
643.000000	51.416067
644.000000	51.549067
645.000000	51.789533
646.000000	52.131233
647.000000	52.542433
648.000000	53.005133
649.000000	53.498467
650.000000	54.005733
651.000000	54.558900
652.000000	55.058033
653.000000	55.553100
654.000000	56.048600
655.000000	56.550400
656.000000	57.019100
657.000000	57.501167
658.000000	58.026133
659.000000	58.573900
660.000000	59.158233
661.000000	59.758767
662.000000	60.417400
663.000000	61.096433
664.000000	61.767733
665.000000	62.456500
666.000000	63.123167
667.000000	63.739100
668.000000	64.336400
669.000000	64.877700
670.000000	65.346900
671.000000	65.768067
672.000000	66.102867
673.000000	66.438367
674.000000	66.681233
675.000000	66.885033
676.000000	67.050700
677.000000	67.206133
678.000000	67.396967
679.000000	67.598333
680.000000	67.765833
681.000000	67.971067
682.000000	68.195667
683.000000	68.382900
684.000000	68.634067
685.000000	68.873167
686.000000	69.096367
687.000000	69.292867
688.000000	69.451967
689.000000	69.581233
690.000000	69.695367
691.000000	69.756800
692.000000	69.759800
693.000000	69.749200
694.000000	69.723367
695.000000	69.676600
696.000000	69.604567
697.000000	69.566167
698.000000	69.491267
699.000000	69.443700
700.000000	69.431833
701.000000	69.427133
702.000000	69.435467
703.000000	69.455833
704.000000	69.528133
705.000000	69.567467
706.000000	69.637167
707.000000	69.691400
708.000000	69.753367
709.000000	69.855800
710.000000	69.942900
711.000000	70.020367
712.000000	70.088633
713.000000	70.184933
714.000000	70.272400
715.000000	70.367300
716.000000	70.486567
717.000000	70.603267
718.000000	70.752533
719.000000	70.933867
720.000000	71.169400
721.000000	71.450167
722.000000	71.720433
723.000000	72.017567
724.000000	72.344800
725.000000	72.707733
726.000000	73.090267
727.000000	73.479567
728.000000	73.884333
729.000000	74.318267
730.000000	74.765667
731.000000	75.231667
732.000000	75.667333
733.000000	76.122900
734.000000	76.591000
735.000000	77.022633
736.000000	77.450533
737.000000	77.869100
738.000000	78.274767
739.000000	78.679000
740.000000	79.090800
741.000000	79.509600
742.000000	79.942933
743.000000	80.390033
744.000000	80.798300
745.000000	81.186500
746.000000	81.612100
747.000000	82.001333
748.000000	82.398700
749.000000	82.803200
750.000000	83.156167
751.000000	83.511700
752.000000	83.870367
753.000000	84.212700
754.000000	84.470033
755.000000	84.723267
756.000000	84.981767
757.000000	85.181200
758.000000	85.404067
759.000000	85.583667
760.000000	85.780600
761.000000	85.998067
762.000000	86.163633
763.000000	86.330067
764.000000	86.439633
765.000000	86.497667
766.000000	86.571800
767.000000	86.683900
768.000000	86.798100
769.000000	86.876367
770.000000	86.948800
771.000000	86.974467
772.000000	87.064633
773.000000	87.168200
774.000000	87.163600
775.000000	87.196067
776.000000	87.267000
777.000000	87.264833
778.000000	87.300367
779.000000	87.410833
780.000000	87.448633
781.000000	87.466867
782.000000	87.494767
783.000000	87.559233
784.000000	87.634933
785.000000	87.692033
786.000000	87.756233
787.000000	87.764700
788.000000	87.864367
789.000000	87.962167
790.000000	87.981700
791.000000	88.101300
792.000000	88.162633
793.000000	88.113700
794.000000	88.166267
795.000000	88.234600
796.000000	88.274067
797.000000	88.296300
798.000000	88.335567
799.000000	88.393100
800.000000	88.430967
801.000000	88.374533
802.000000	88.354600
803.000000	88.358567
804.000000	88.327867
805.000000	88.368267
806.000000	88.389033
807.000000	88.371900
808.000000	88.277633
809.000000	88.282400
810.000000	88.353600
811.000000	88.282533
812.000000	88.205567
813.000000	88.224433
814.000000	88.172100
815.000000	88.177267
816.000000	88.303067
817.000000	88.248167
818.000000	88.235600
819.000000	88.201133
820.000000	88.222400
821.000000	88.238367
822.000000	88.193867
823.000000	88.243033
824.000000	88.363400
825.000000	88.414600
826.000000	88.374033
827.000000	88.397867
828.000000	88.318433
829.000000	88.289267
830.000000	88.235167
831.000000	88.252467
832.000000	88.218667
833.000000	88.090900
834.000000	88.166767
835.000000	88.072333
836.000000	87.771133
837.000000	87.676600
838.000000	87.503633
839.000000	87.409400
840.000000	87.306133
841.000000	86.987533
842.000000	86.764233
843.000000	86.745133
844.000000	86.418133
845.000000	86.158133
846.000000	85.948500
847.000000	85.781700
848.000000	85.511367
849.000000	85.124200
850.000000	84.894967
851.000000	84.807433
852.000000	84.535133
853.000000	84.101667
854.000000	84.050067
855.000000	83.803567
856.000000	83.562700
857.000000	83.214467
858.000000	83.526911
859.000000	83.244321
860.000000	83.242938
861.000000	83.213659
862.000000	83.118250
863.000000	83.037977
864.000000	82.950227
865.000000	82.848300
866.000000	82.754867
867.000000	82.643675
868.000000	82.558433
869.000000	82.472034
870.000000	82.382241
871.000000	82.297758
872.000000	82.254904
873.000000	82.202911
874.000000	82.171060
875.000000	82.135776
876.000000	82.098755
877.000000	82.047659
878.000000	82.014179
879.000000	82.004400
880.000000	81.980912
881.000000	81.962700
882.000000	81.952233
883.000000	81.907306
884.000000	81.873669
885.000000	81.843083
886.000000	81.826140
887.000000	81.784611
888.000000	81.726703
889.000000	81.678679
890.000000	81.605126
891.000000	81.536992
892.000000	81.448618
893.000000	81.370654
894.000000	81.297025
895.000000	81.218387
896.000000	81.135467
897.000000	81.023976
898.000000	80.925389
899.000000	80.822327
900.000000	80.707580
901.000000	80.600595
902.000000	80.491582
903.000000	80.387090
904.000000	80.275556
905.000000	80.207742
906.000000	80.098775
907.000000	80.028445
908.000000	79.936862
909.000000	79.876876
910.000000	79.814965
911.000000	79.761628
912.000000	79.713559
913.000000	79.654875
914.000000	79.639475
915.000000	79.540471
916.000000	79.504500
917.000000	79.494667
918.000000	79.462524
919.000000	79.434179
920.000000	79.345043
921.000000	79.302189
922.000000	79.254288
923.000000	79.212111
924.000000	79.171419
925.000000	79.153477
926.000000	79.074137
927.000000	79.033583
928.000000	78.996904
929.000000	78.978637
930.000000	78.905981
931.000000	78.862974
932.000000	78.846949
933.000000	78.777536
934.000000	78.731382
935.000000	78.686377
936.000000	78.653134
937.000000	78.593622
938.000000	78.521373
939.000000	78.501047
940.000000	78.475015
941.000000	78.393197
942.000000	78.352585
943.000000	78.324247
944.000000	78.284540
945.000000	78.245815
946.000000	78.204148
947.000000	78.155050
948.000000	78.097151
949.000000	78.055723
950.000000	78.000220
951.000000	77.933783
952.000000	77.892410
953.000000	77.807979
954.000000	77.756906
955.000000	77.701006
956.000000	77.619052
957.000000	77.530879
958.000000	77.451873
959.000000	77.364169
960.000000	77.263534
961.000000	77.175669
962.000000	77.084644
963.000000	76.981687
964.000000	76.901230
965.000000	76.807749
966.000000	76.721844
967.000000	76.643115
968.000000	76.563320
969.000000	76.471294
970.000000	76.394033
971.000000	76.314257
972.000000	76.230889
973.000000	76.139428
974.000000	76.055079
975.000000	75.968710
976.000000	75.880451
977.000000	75.786399
978.000000	75.706823
979.000000	75.616835
980.000000	75.519413
981.000000	75.432748
982.000000	75.348268
983.000000	75.271965
984.000000	75.187534
985.000000	75.091510
986.000000	75.003200
987.000000	74.923383
988.000000	74.840118
989.000000	74.756664
990.000000	74.685902
991.000000	74.606801
992.000000	74.528960
993.000000	74.462510
994.000000	74.388061
995.000000	74.320684
996.000000	74.248208
997.000000	74.174476
998.000000	74.113530
999.000000	74.049008
1000.000000	73.992561
1001.000000	73.942455
1002.000000	73.886111
1003.000000	73.821302
1004.000000	73.762560
1005.000000	73.711505
1006.000000	73.652765
1007.000000	73.592136
1008.000000	73.531849
1009.000000	73.468690
1010.000000	73.416368
1011.000000	73.362850
1012.000000	73.321451
1013.000000	73.285377
1014.000000	73.250623
1015.000000	73.231619
1016.000000	73.217417
1017.000000	73.207398
1018.000000	73.206324
1019.000000	73.200976
1020.000000	73.194263
1021.000000	73.208076
1022.000000	73.227936
1023.000000	73.241585
1024.000000	73.258453
1025.000000	73.272571
1026.000000	73.290225
1027.000000	73.321356
1028.000000	73.342194
1029.000000	73.350797
1030.000000	73.367587
1031.000000	73.397009
1032.000000	73.415346
1033.000000	73.417378
1034.000000	73.434995
1035.000000	73.457108
1036.000000	73.461005
1037.000000	73.475371
1038.000000	73.493543
1039.000000	73.496177
1040.000000	73.499348
1041.000000	73.511829
1042.000000	73.524524
1043.000000	73.528588
1044.000000	73.537739
1045.000000	73.558486
1046.000000	73.583089
1047.000000	73.596839
1048.000000	73.608051
1049.000000	73.637122
1050.000000	73.673798
1051.000000	73.698817
1052.000000	73.727826
1053.000000	73.770955
1054.000000	73.824727
1055.000000	73.873008
1056.000000	73.912404
1057.000000	73.960619
1058.000000	74.023954
1059.000000	74.081962
1060.000000	74.129771
1061.000000	74.181650
1062.000000	74.236219
1063.000000	74.285665
1064.000000	74.335013
1065.000000	74.390299
1066.000000	74.442795
1067.000000	74.488975
1068.000000	74.545462
1069.000000	74.599455
1070.000000	74.653258
1071.000000	74.712390
1072.000000	74.761716
1073.000000	74.807458
1074.000000	74.850065
1075.000000	74.905226
1076.000000	74.966235
1077.000000	75.022690
1078.000000	75.080788
1079.000000	75.126708
1080.000000	75.178631
1081.000000	75.242211
1082.000000	75.303077
1083.000000	75.354944
1084.000000	75.407112
1085.000000	75.463833
1086.000000	75.528549
1087.000000	75.585650
1088.000000	75.637165
1089.000000	75.683416
1090.000000	75.746351
1091.000000	75.798171
1092.000000	75.853531
1093.000000	75.903719
1094.000000	75.952858
1095.000000	75.997882
1096.000000	76.041301
1097.000000	76.088759
1098.000000	76.114234
1099.000000	76.145639
1100.000000	76.187124
1101.000000	76.227564
1102.000000	76.250316
1103.000000	76.275457
1104.000000	76.310219
1105.000000	76.336747
1106.000000	76.357145
1107.000000	76.373054
1108.000000	76.384137
1109.000000	76.405885
1110.000000	76.439396
1111.000000	76.459515
1112.000000	76.473810
1113.000000	76.505639
1114.000000	76.511870
1115.000000	76.537706
1116.000000	76.554260
1117.000000	76.570885
1118.000000	76.579340
1119.000000	76.593451
1120.000000	76.572406
1121.000000	76.543958
1122.000000	76.520209
1123.000000	76.473506
1124.000000	76.413230
1125.000000	76.343711
1126.000000	76.274773
1127.000000	76.174912
1128.000000	76.057955
1129.000000	75.912672
1130.000000	75.730365
1131.000000	75.495674
1132.000000	75.225705
1133.000000	74.939887
1134.000000	74.703799
1135.000000	74.376299
1136.000000	73.989967
1137.000000	73.575010
1138.000000	73.157322
1139.000000	72.771750
1140.000000	72.407897
1141.000000	72.054158
1142.000000	71.687465
1143.000000	71.344641
1144.000000	71.048269
1145.000000	70.773125
1146.000000	70.561622
1147.000000	70.424909
1148.000000	70.372377
1149.000000	70.347420
1150.000000	70.361160
1151.000000	70.377934
1152.000000	70.390775
1153.000000	70.376572
1154.000000	70.293970
1155.000000	70.159402
1156.000000	69.964318
1157.000000	69.716946
1158.000000	69.420439
1159.000000	69.070912
1160.000000	68.699246
1161.000000	68.339441
1162.000000	67.938936
1163.000000	67.544925
1164.000000	67.129058
1165.000000	66.720330
1166.000000	66.312612
1167.000000	65.907968
