PE UV       SUBTECH     SPECTRUM    ASCII       PEDS        4.00        
   -1
CICIMAUCR0001-5.Sample.ASC
24/04/23
10:47:46.00
24/04/23
10:47:46.00
Vinicio Soto Monge
C. kalinini
250,000000
1
Lambda 1050
1050L1511233
PerkinElmer UV WinLab 6.3.2.0749 / 2.02.05 Lambda 900 UV/VIS/NIR, Aug  7 2015 09:38:08

0
0
3350/servo 860,8/2
0
0
UV/VIS
1
1
1
DoubleDePol,CommonBeamDepol,RBeamAtt,SBeamAtt,60mm sphere, WB InGaAs Detector
0
0
0
0
Program
Program
3350/servo 860,8/2
3350/0,2 860,8/0,2
3350/0,2 860,8/0,2
0
15.00
 
 
 
0
 
860,8
319,2
860,8
Front
100
on
S:100 R:100
0
0
0
0
 
0
 
 
 
0
 
 
0
0
0
0
0
 
 
 
 
0
0


0
0
#HDR
-1
-1
#GR
nm
%R
1.0
0.0
2500,000000
-1,000000
2251
8
101,472100
5,465400
#DATA
250.000000	5.702700
251.000000	5.706900
252.000000	5.700400
253.000000	5.654850
254.000000	5.641550
255.000000	5.646625
256.000000	5.628450
257.000000	5.605825
258.000000	5.592475
259.000000	5.580350
260.000000	5.544200
261.000000	5.529025
262.000000	5.499250
263.000000	5.483450
264.000000	5.446925
265.000000	5.423225
266.000000	5.417375
267.000000	5.382275
268.000000	5.397950
269.000000	5.369925
270.000000	5.328125
271.000000	5.313975
272.000000	5.334325
273.000000	5.292100
274.000000	5.296750
275.000000	5.283000
276.000000	5.249725
277.000000	5.256250
278.000000	5.258650
279.000000	5.256750
280.000000	5.256500
281.000000	5.246425
282.000000	5.228050
283.000000	5.227925
284.000000	5.203525
285.000000	5.229100
286.000000	5.198825
287.000000	5.204300
288.000000	5.214775
289.000000	5.225975
290.000000	5.220425
291.000000	5.216650
292.000000	5.216650
293.000000	5.202900
294.000000	5.195650
295.000000	5.209750
296.000000	5.219200
297.000000	5.231150
298.000000	5.242950
299.000000	5.194025
300.000000	5.198125
301.000000	5.197500
302.000000	5.191750
303.000000	5.177950
304.000000	5.175700
305.000000	5.183950
306.000000	5.187100
307.000000	5.167550
308.000000	5.186675
309.000000	5.167475
310.000000	5.188425
311.000000	5.190900
312.000000	5.163350
313.000000	5.162725
314.000000	5.168450
315.000000	5.143550
316.000000	5.293150
317.000000	5.446775
318.000000	5.375125
319.000000	5.336800
320.000000	5.401375
321.000000	5.413275
322.000000	5.420800
323.000000	5.367425
324.000000	5.385050
325.000000	5.446425
326.000000	5.385425
327.000000	5.361000
328.000000	5.364275
329.000000	5.366200
330.000000	5.355800
331.000000	5.321400
332.000000	5.352350
333.000000	5.365325
334.000000	5.280050
335.000000	5.297225
336.000000	5.307600
337.000000	5.327350
338.000000	5.349350
339.000000	5.338950
340.000000	5.306550
341.000000	5.281100
342.000000	5.354625
343.000000	5.357925
344.000000	5.370125
345.000000	5.368450
346.000000	5.320200
347.000000	5.316700
348.000000	5.358150
349.000000	5.384175
350.000000	5.416150
351.000000	5.432125
352.000000	5.480250
353.000000	5.485975
354.000000	5.499325
355.000000	5.494300
356.000000	5.513000
357.000000	5.560275
358.000000	5.588125
359.000000	5.605100
360.000000	5.619325
361.000000	5.671200
362.000000	5.685850
363.000000	5.728225
364.000000	5.739275
365.000000	5.745500
366.000000	5.746900
367.000000	5.797325
368.000000	5.834500
369.000000	5.803725
370.000000	5.817500
371.000000	5.881225
372.000000	5.868400
373.000000	5.818875
374.000000	5.875550
375.000000	6.005225
376.000000	6.088850
377.000000	6.147600
378.000000	6.170600
379.000000	6.199250
380.000000	6.225400
381.000000	6.257250
382.000000	6.285100
383.000000	6.327525
384.000000	6.365525
385.000000	6.398900
386.000000	6.435650
387.000000	6.469425
388.000000	6.511675
389.000000	6.550950
390.000000	6.583525
391.000000	6.626725
392.000000	6.669175
393.000000	6.711025
394.000000	6.755025
395.000000	6.794750
396.000000	6.845150
397.000000	6.893975
398.000000	6.940275
399.000000	6.999200
400.000000	7.064600
401.000000	7.129825
402.000000	7.190600
403.000000	7.267050
404.000000	7.345875
405.000000	7.433500
406.000000	7.529200
407.000000	7.631825
408.000000	7.742450
409.000000	7.853925
410.000000	7.977275
411.000000	8.111900
412.000000	8.260050
413.000000	8.406650
414.000000	8.563500
415.000000	8.740800
416.000000	8.929600
417.000000	9.129975
418.000000	9.338125
419.000000	9.556050
420.000000	9.794450
421.000000	10.045350
422.000000	10.304075
423.000000	10.580725
424.000000	10.864550
425.000000	11.168850
426.000000	11.488100
427.000000	11.818725
428.000000	12.164875
429.000000	12.524150
430.000000	12.897075
431.000000	13.274675
432.000000	13.673525
433.000000	14.084750
434.000000	14.496875
435.000000	14.920825
436.000000	15.354325
437.000000	15.791125
438.000000	16.214050
439.000000	16.656750
440.000000	17.104575
441.000000	17.555075
442.000000	18.013275
443.000000	18.454400
444.000000	18.892650
445.000000	19.316575
446.000000	19.742550
447.000000	20.154300
448.000000	20.565075
449.000000	20.968000
450.000000	21.350950
451.000000	21.732250
452.000000	22.102975
453.000000	22.459925
454.000000	22.810900
455.000000	23.156725
456.000000	23.493400
457.000000	23.805550
458.000000	24.115050
459.000000	24.400650
460.000000	24.692000
461.000000	24.986225
462.000000	25.269675
463.000000	25.529550
464.000000	25.796875
465.000000	26.050675
466.000000	26.303950
467.000000	26.545575
468.000000	26.782675
469.000000	27.030150
470.000000	27.265825
471.000000	27.508300
472.000000	27.751300
473.000000	27.994500
474.000000	28.226875
475.000000	28.464125
476.000000	28.704100
477.000000	28.951175
478.000000	29.190500
479.000000	29.444425
480.000000	29.707975
481.000000	29.984825
482.000000	30.271325
483.000000	30.516650
484.000000	30.753700
485.000000	31.002725
486.000000	31.239175
487.000000	31.479350
488.000000	31.726150
489.000000	31.986400
490.000000	32.240075
491.000000	32.515575
492.000000	32.810375
493.000000	33.119750
494.000000	33.440900
495.000000	33.769650
496.000000	34.102450
497.000000	34.441400
498.000000	34.815725
499.000000	35.206925
500.000000	35.591150
501.000000	36.022200
502.000000	36.461125
503.000000	36.909225
504.000000	37.391525
505.000000	37.854875
506.000000	38.339625
507.000000	38.841325
508.000000	39.367325
509.000000	39.918575
510.000000	40.470250
511.000000	41.049250
512.000000	41.666425
513.000000	42.306200
514.000000	42.979150
515.000000	43.654500
516.000000	44.358650
517.000000	45.074225
518.000000	45.833275
519.000000	46.611025
520.000000	47.402325
521.000000	48.211475
522.000000	49.048800
523.000000	49.901325
524.000000	50.752225
525.000000	51.608825
526.000000	52.474300
527.000000	53.326375
528.000000	54.176850
529.000000	55.023550
530.000000	55.848625
531.000000	56.672850
532.000000	57.456325
533.000000	58.227525
534.000000	58.968575
535.000000	59.687350
536.000000	60.347850
537.000000	60.989750
538.000000	61.570625
539.000000	62.126575
540.000000	62.656500
541.000000	63.153825
542.000000	63.609725
543.000000	64.053250
544.000000	64.450950
545.000000	64.841200
546.000000	65.199500
547.000000	65.507025
548.000000	65.803500
549.000000	66.074400
550.000000	66.332625
551.000000	66.570175
552.000000	66.778525
553.000000	66.994125
554.000000	67.189100
555.000000	67.366450
556.000000	67.530975
557.000000	67.653075
558.000000	67.775500
559.000000	67.901875
560.000000	67.975050
561.000000	68.071350
562.000000	68.151575
563.000000	68.195925
564.000000	68.243900
565.000000	68.291825
566.000000	68.316775
567.000000	68.327250
568.000000	68.295125
569.000000	68.256050
570.000000	68.216300
571.000000	68.142700
572.000000	68.049475
573.000000	67.925875
574.000000	67.813575
575.000000	67.692000
576.000000	67.560075
577.000000	67.383075
578.000000	67.191100
579.000000	66.973000
580.000000	66.747500
581.000000	66.501875
582.000000	66.193400
583.000000	65.906775
584.000000	65.580275
585.000000	65.245450
586.000000	64.877975
587.000000	64.474350
588.000000	64.051425
589.000000	63.612225
590.000000	63.146000
591.000000	62.653025
592.000000	62.155725
593.000000	61.649900
594.000000	61.133550
595.000000	60.607475
596.000000	60.079650
597.000000	59.567850
598.000000	59.036925
599.000000	58.511575
600.000000	58.001825
601.000000	57.501050
602.000000	57.014975
603.000000	56.543525
604.000000	56.088575
605.000000	55.680400
606.000000	55.301275
607.000000	54.933500
608.000000	54.610025
609.000000	54.325050
610.000000	54.046875
611.000000	53.809550
612.000000	53.595100
613.000000	53.441800
614.000000	53.312425
615.000000	53.207950
616.000000	53.102150
617.000000	53.038075
618.000000	52.989150
619.000000	52.969100
620.000000	52.975250
621.000000	53.002125
622.000000	53.051900
623.000000	53.121575
624.000000	53.214850
625.000000	53.366475
626.000000	53.528450
627.000000	53.720700
628.000000	53.935550
629.000000	54.147850
630.000000	54.394050
631.000000	54.643500
632.000000	54.922825
633.000000	55.200600
634.000000	55.481950
635.000000	55.740925
636.000000	55.999500
637.000000	56.219575
638.000000	56.442325
639.000000	56.623425
640.000000	56.828950
641.000000	56.983125
642.000000	57.084925
643.000000	57.182700
644.000000	57.263325
645.000000	57.331325
646.000000	57.399700
647.000000	57.460500
648.000000	57.535000
649.000000	57.639625
650.000000	57.740350
651.000000	57.861400
652.000000	58.021675
653.000000	58.196100
654.000000	58.415800
655.000000	58.668175
656.000000	58.935750
657.000000	59.218125
658.000000	59.513675
659.000000	59.838500
660.000000	60.210650
661.000000	60.551175
662.000000	60.912800
663.000000	61.271850
664.000000	61.634675
665.000000	62.005125
666.000000	62.365100
667.000000	62.727600
668.000000	63.109825
669.000000	63.460600
670.000000	63.866250
671.000000	64.252925
672.000000	64.659150
673.000000	65.064925
674.000000	65.488775
675.000000	65.903025
676.000000	66.345900
677.000000	66.819850
678.000000	67.308100
679.000000	67.797575
680.000000	68.244550
681.000000	68.747200
682.000000	69.271425
683.000000	69.760400
684.000000	70.248925
685.000000	70.746275
686.000000	71.208650
687.000000	71.651750
688.000000	72.077000
689.000000	72.499100
690.000000	72.947025
691.000000	73.370975
692.000000	73.774575
693.000000	74.173375
694.000000	74.546650
695.000000	74.908625
696.000000	75.293200
697.000000	75.695775
698.000000	76.087150
699.000000	76.508000
700.000000	76.922950
701.000000	77.339300
702.000000	77.794100
703.000000	78.254475
704.000000	78.702875
705.000000	79.172750
706.000000	79.650275
707.000000	80.141175
708.000000	80.617950
709.000000	81.105875
710.000000	81.566350
711.000000	82.006275
712.000000	82.453575
713.000000	82.889950
714.000000	83.271800
715.000000	83.661350
716.000000	84.055375
717.000000	84.389375
718.000000	84.710575
719.000000	85.047125
720.000000	85.388500
721.000000	85.704325
722.000000	85.974100
723.000000	86.272400
724.000000	86.557525
725.000000	86.807400
726.000000	87.078950
727.000000	87.304350
728.000000	87.588300
729.000000	87.878450
730.000000	88.071475
731.000000	88.318375
732.000000	88.556975
733.000000	88.806575
734.000000	89.006550
735.000000	89.241850
736.000000	89.424675
737.000000	89.593875
738.000000	89.759925
739.000000	89.991550
740.000000	90.127650
741.000000	90.268775
742.000000	90.440250
743.000000	90.577050
744.000000	90.683525
745.000000	90.824900
746.000000	90.877475
747.000000	91.005850
748.000000	91.126375
749.000000	91.245975
750.000000	91.272775
751.000000	91.356325
752.000000	91.471050
753.000000	91.507875
754.000000	91.605400
755.000000	91.698500
756.000000	91.727700
757.000000	91.849825
758.000000	91.841800
759.000000	91.940575
760.000000	91.950300
761.000000	91.977700
762.000000	91.997350
763.000000	91.987900
764.000000	92.029500
765.000000	92.041525
766.000000	91.988575
767.000000	91.956650
768.000000	91.957700
769.000000	91.873075
770.000000	91.765750
771.000000	91.745775
772.000000	91.667925
773.000000	91.603825
774.000000	91.529850
775.000000	91.354925
776.000000	91.278725
777.000000	91.179325
778.000000	90.997175
779.000000	90.928900
780.000000	90.772350
781.000000	90.622675
782.000000	90.470175
783.000000	90.274025
784.000000	90.092175
785.000000	89.958500
786.000000	89.857200
787.000000	89.649750
788.000000	89.540875
789.000000	89.299225
790.000000	89.050050
791.000000	88.857100
792.000000	88.713175
793.000000	88.422100
794.000000	88.142825
795.000000	87.871150
796.000000	87.714225
797.000000	87.437900
798.000000	87.186725
799.000000	86.884275
800.000000	86.520475
801.000000	86.298725
802.000000	85.953400
803.000000	85.508550
804.000000	85.273400
805.000000	84.974125
806.000000	84.673275
807.000000	84.375575
808.000000	84.038725
809.000000	83.767075
810.000000	83.349075
811.000000	83.007600
812.000000	82.616125
813.000000	82.341775
814.000000	82.049625
815.000000	81.591650
816.000000	81.229850
817.000000	80.962275
818.000000	80.675275
819.000000	80.224800
820.000000	79.802850
821.000000	79.432900
822.000000	79.047375
823.000000	78.669675
824.000000	78.371075
825.000000	77.924775
826.000000	77.628500
827.000000	77.308000
828.000000	76.827075
829.000000	76.578500
830.000000	76.225175
831.000000	75.897150
832.000000	75.455775
833.000000	75.145225
834.000000	74.843075
835.000000	74.538250
836.000000	74.282425
837.000000	74.040675
838.000000	73.782850
839.000000	73.457775
840.000000	73.249875
841.000000	72.998025
842.000000	72.758800
843.000000	72.680500
844.000000	72.285075
845.000000	72.088600
846.000000	71.983875
847.000000	71.675925
848.000000	71.533925
849.000000	71.288550
850.000000	71.367625
851.000000	71.111625
852.000000	70.878975
853.000000	70.750950
854.000000	70.620950
855.000000	70.409250
856.000000	70.315425
857.000000	70.205300
858.000000	70.309992
859.000000	71.045266
860.000000	71.359023
861.000000	71.745179
862.000000	71.639445
863.000000	71.603964
864.000000	71.542233
865.000000	71.732889
866.000000	72.044172
867.000000	72.111339
868.000000	71.883654
869.000000	72.068418
870.000000	72.116726
871.000000	72.099524
872.000000	72.017070
873.000000	71.966995
874.000000	71.994840
875.000000	71.975815
876.000000	72.075615
877.000000	71.918467
878.000000	71.797915
879.000000	71.726000
880.000000	71.755146
881.000000	71.716967
882.000000	71.643903
883.000000	71.520569
884.000000	71.454674
885.000000	71.495465
886.000000	71.355227
887.000000	71.178186
888.000000	71.070753
889.000000	71.069449
890.000000	70.951251
891.000000	70.781921
892.000000	70.747129
893.000000	70.740620
894.000000	70.790995
895.000000	70.737556
896.000000	70.562373
897.000000	70.482480
898.000000	70.481974
899.000000	70.366202
900.000000	70.230006
901.000000	70.221902
902.000000	70.195067
903.000000	70.161798
904.000000	70.077867
905.000000	69.989982
906.000000	69.963386
907.000000	69.914814
908.000000	69.842871
909.000000	69.741474
910.000000	69.732287
911.000000	69.728560
912.000000	69.616548
913.000000	69.624536
914.000000	69.581543
915.000000	69.493529
916.000000	69.414598
917.000000	69.444536
918.000000	69.363412
919.000000	69.325500
920.000000	69.300378
921.000000	69.218457
922.000000	69.210552
923.000000	69.232835
924.000000	69.196606
925.000000	69.179568
926.000000	69.106436
927.000000	69.085286
928.000000	69.101696
929.000000	69.133544
930.000000	69.134570
931.000000	69.118741
932.000000	69.117974
933.000000	69.100871
934.000000	69.090058
935.000000	69.047869
936.000000	68.999468
937.000000	69.022244
938.000000	69.014659
939.000000	68.995035
940.000000	68.975816
941.000000	68.956202
942.000000	69.003188
943.000000	68.986641
944.000000	68.973075
945.000000	68.943797
946.000000	68.897446
947.000000	68.845049
948.000000	68.859835
949.000000	68.881276
950.000000	68.874649
951.000000	68.851811
952.000000	68.842844
953.000000	68.830701
954.000000	68.804375
955.000000	68.794455
956.000000	68.779592
957.000000	68.776700
958.000000	68.767579
959.000000	68.773320
960.000000	68.747080
961.000000	68.728725
962.000000	68.727928
963.000000	68.705255
964.000000	68.709778
965.000000	68.689026
966.000000	68.668283
967.000000	68.662120
968.000000	68.632669
969.000000	68.652358
970.000000	68.617497
971.000000	68.617344
972.000000	68.622298
973.000000	68.648007
974.000000	68.618952
975.000000	68.621156
976.000000	68.615433
977.000000	68.613699
978.000000	68.602796
979.000000	68.600878
980.000000	68.600348
981.000000	68.588226
982.000000	68.594484
983.000000	68.562910
984.000000	68.570620
985.000000	68.583259
986.000000	68.576425
987.000000	68.552477
988.000000	68.552277
989.000000	68.564418
990.000000	68.576875
991.000000	68.581723
992.000000	68.591226
993.000000	68.574114
994.000000	68.577984
995.000000	68.574904
996.000000	68.573455
997.000000	68.577606
998.000000	68.612392
999.000000	68.612285
1000.000000	68.609627
1001.000000	68.627242
1002.000000	68.645091
1003.000000	68.631202
1004.000000	68.640482
1005.000000	68.653082
1006.000000	68.667658
1007.000000	68.691742
1008.000000	68.715715
1009.000000	68.702394
1010.000000	68.692694
1011.000000	68.716254
1012.000000	68.722107
1013.000000	68.742888
1014.000000	68.751796
1015.000000	68.751889
1016.000000	68.763768
1017.000000	68.779212
1018.000000	68.781274
1019.000000	68.806234
1020.000000	68.826811
1021.000000	68.836185
1022.000000	68.858787
1023.000000	68.869356
1024.000000	68.884380
1025.000000	68.917513
1026.000000	68.921436
1027.000000	68.940693
1028.000000	68.954716
1029.000000	68.991183
1030.000000	69.028448
1031.000000	69.045625
1032.000000	69.067464
1033.000000	69.087868
1034.000000	69.107855
1035.000000	69.117749
1036.000000	69.162681
1037.000000	69.195584
1038.000000	69.205800
1039.000000	69.224316
1040.000000	69.262724
1041.000000	69.270152
1042.000000	69.287857
1043.000000	69.307426
1044.000000	69.351433
1045.000000	69.375501
1046.000000	69.381601
1047.000000	69.427622
1048.000000	69.438916
1049.000000	69.494086
1050.000000	69.493174
1051.000000	69.536364
1052.000000	69.570231
1053.000000	69.599331
1054.000000	69.650062
1055.000000	69.677249
1056.000000	69.708641
1057.000000	69.754135
1058.000000	69.788444
1059.000000	69.830506
1060.000000	69.858289
1061.000000	69.898787
1062.000000	69.937095
1063.000000	69.983035
1064.000000	70.010802
1065.000000	70.046129
1066.000000	70.072546
1067.000000	70.111418
1068.000000	70.161330
1069.000000	70.190435
1070.000000	70.232471
1071.000000	70.261448
1072.000000	70.314103
1073.000000	70.332968
1074.000000	70.360982
1075.000000	70.392437
1076.000000	70.444086
1077.000000	70.468858
1078.000000	70.502747
1079.000000	70.531651
1080.000000	70.572560
1081.000000	70.619041
1082.000000	70.639354
1083.000000	70.661146
1084.000000	70.698399
1085.000000	70.754158
1086.000000	70.768761
1087.000000	70.806605
1088.000000	70.851648
1089.000000	70.889903
1090.000000	70.928536
1091.000000	70.959328
1092.000000	70.996651
1093.000000	71.038868
1094.000000	71.076957
1095.000000	71.096841
1096.000000	71.130258
1097.000000	71.152852
1098.000000	71.186324
1099.000000	71.225067
1100.000000	71.243363
1101.000000	71.269524
1102.000000	71.316264
1103.000000	71.342562
1104.000000	71.363427
1105.000000	71.391873
1106.000000	71.409543
1107.000000	71.431928
1108.000000	71.450793
1109.000000	71.473575
1110.000000	71.502991
1111.000000	71.532249
1112.000000	71.560064
1113.000000	71.577776
1114.000000	71.600662
1115.000000	71.621925
1116.000000	71.648199
1117.000000	71.668051
1118.000000	71.672987
1119.000000	71.707722
1120.000000	71.716377
1121.000000	71.732142
1122.000000	71.767581
1123.000000	71.769504
1124.000000	71.752507
1125.000000	71.734562
1126.000000	71.727808
1127.000000	71.704178
1128.000000	71.677239
1129.000000	71.651583
1130.000000	71.617039
1131.000000	71.542512
1132.000000	71.489540
1133.000000	71.441760
1134.000000	71.438901
1135.000000	71.381512
1136.000000	71.267472
1137.000000	71.168423
1138.000000	71.066207
1139.000000	70.993733
1140.000000	70.928432
1141.000000	70.864387
1142.000000	70.801907
1143.000000	70.750187
1144.000000	70.707350
1145.000000	70.682446
1146.000000	70.653451
1147.000000	70.607702
1148.000000	70.562085
1149.000000	70.516055
1150.000000	70.471699
1151.000000	70.424227
1152.000000	70.386749
1153.000000	70.327538
1154.000000	70.263724
1155.000000	70.198397
1156.000000	70.111230
1157.000000	70.026692
1158.000000	69.939219
1159.000000	69.843966
1160.000000	69.741597
1161.000000	69.632105
1162.000000	69.531087
1163.000000	69.429533
1164.000000	69.303050
1165.000000	69.190570
1166.000000	69.089785
1167.000000	68.988494
1168.000000	68.897024
