PE UV       SUBTECH     SPECTRUM    ASCII       PEDS        4.00        
   -1
CICIMAUCR0101-3.Sample.ASC
24/04/11
14:27:02.00
24/04/11
14:27:02.00
Vinicio Soto Monge
C. resplendens
250,000000
1
Lambda 1050
1050L1511233
PerkinElmer UV WinLab 6.3.2.0749 / 2.02.05 Lambda 900 UV/VIS/NIR, Aug  7 2015 09:38:08

0
0
3350/2 860,8/2
0
0
UV/VIS
1
1
1
DoubleDePol,CommonBeamDepol,RBeamAtt,SBeamAtt,60mm sphere, WB InGaAs Detector
0
0
0
0
Program
Program
3350/2 860,8/2
3350/0,2 860,8/0,2
3350/0,2 860,8/0,2
0
15.00
 
 
 
0
 
860,8
319,2
860,8
Front
100
on
S:100 R:100
0
0
0
0
 
0
 
 
 
0
 
 
0
0
0
0
0
 
 
 
 
0
0


0
0
#HDR
-1
-1
#GR
nm
%R
1.0
0.0
2400,000000
-1,000000
2151
8
92,537900
5,932000
#DATA
250.000000	6.726823
251.000000	6.680400
252.000000	6.680024
253.000000	6.705690
254.000000	6.654740
255.000000	6.675815
256.000000	6.654409
257.000000	6.612496
258.000000	6.575610
259.000000	6.563885
260.000000	6.550854
261.000000	6.516600
262.000000	6.492819
263.000000	6.483295
264.000000	6.430265
265.000000	6.401600
266.000000	6.377527
267.000000	6.322577
268.000000	6.331029
269.000000	6.295385
270.000000	6.254686
271.000000	6.260259
272.000000	6.205111
273.000000	6.199962
274.000000	6.202281
275.000000	6.173883
276.000000	6.171538
277.000000	6.184883
278.000000	6.132431
279.000000	6.114264
280.000000	6.119179
281.000000	6.116294
282.000000	6.086900
283.000000	6.097288
284.000000	6.083082
285.000000	6.077861
286.000000	6.095787
287.000000	6.103495
288.000000	6.063989
289.000000	6.046559
290.000000	6.051002
291.000000	6.024319
292.000000	6.022778
293.000000	6.023354
294.000000	6.022272
295.000000	6.020234
296.000000	6.019651
297.000000	6.014987
298.000000	6.006879
299.000000	5.974666
300.000000	5.995442
301.000000	6.008267
302.000000	5.991098
303.000000	6.003011
304.000000	5.981889
305.000000	5.981632
306.000000	5.949389
307.000000	5.930703
308.000000	5.944556
309.000000	5.928070
310.000000	5.921118
311.000000	5.930355
312.000000	5.940955
313.000000	5.915785
314.000000	5.903124
315.000000	5.901444
316.000000	6.039627
317.000000	6.305377
318.000000	6.195121
319.000000	6.195208
320.000000	6.119694
321.000000	6.053647
322.000000	6.069549
323.000000	5.952515
324.000000	6.010452
325.000000	6.087571
326.000000	6.060687
327.000000	5.999739
328.000000	6.009995
329.000000	5.935113
330.000000	5.977655
331.000000	5.955016
332.000000	5.882837
333.000000	5.849192
334.000000	5.864588
335.000000	5.868684
336.000000	5.924351
337.000000	5.943812
338.000000	5.915076
339.000000	5.897089
340.000000	5.850532
341.000000	5.818765
342.000000	5.895889
343.000000	5.888884
344.000000	5.846772
345.000000	5.883187
346.000000	5.931093
347.000000	5.862464
348.000000	5.879706
349.000000	5.870252
350.000000	5.843413
351.000000	5.879306
352.000000	5.969130
353.000000	5.977359
354.000000	5.977420
355.000000	5.983622
356.000000	5.994322
357.000000	6.039977
358.000000	6.053734
359.000000	6.052674
360.000000	6.083612
361.000000	6.054712
362.000000	6.060589
363.000000	6.111211
364.000000	6.168765
365.000000	6.149766
366.000000	6.168339
367.000000	6.201759
368.000000	6.212888
369.000000	6.215664
370.000000	6.239362
371.000000	6.212732
372.000000	6.224554
373.000000	6.263466
374.000000	6.240749
375.000000	6.286412
376.000000	6.471448
377.000000	6.546991
378.000000	6.595675
379.000000	6.651968
380.000000	6.700012
381.000000	6.760921
382.000000	6.827771
383.000000	6.889237
384.000000	6.964058
385.000000	7.044587
386.000000	7.130221
387.000000	7.229660
388.000000	7.318380
389.000000	7.415275
390.000000	7.528560
391.000000	7.658052
392.000000	7.777975
393.000000	7.908211
394.000000	8.052255
395.000000	8.200250
396.000000	8.364284
397.000000	8.539247
398.000000	8.716311
399.000000	8.898150
400.000000	9.084379
401.000000	9.297518
402.000000	9.523224
403.000000	9.754214
404.000000	10.008880
405.000000	10.256046
406.000000	10.537816
407.000000	10.815237
408.000000	11.102832
409.000000	11.408823
410.000000	11.719073
411.000000	12.052846
412.000000	12.383790
413.000000	12.742819
414.000000	13.101122
415.000000	13.468301
416.000000	13.839608
417.000000	14.220541
418.000000	14.582916
419.000000	14.975086
420.000000	15.373384
421.000000	15.763672
422.000000	16.164730
423.000000	16.561953
424.000000	16.944555
425.000000	17.342403
426.000000	17.724069
427.000000	18.093716
428.000000	18.466147
429.000000	18.832128
430.000000	19.175095
431.000000	19.532230
432.000000	19.871365
433.000000	20.225397
434.000000	20.558275
435.000000	20.879738
436.000000	21.171562
437.000000	21.477324
438.000000	21.765609
439.000000	22.044959
440.000000	22.303644
441.000000	22.561505
442.000000	22.824090
443.000000	23.073330
444.000000	23.276791
445.000000	23.490402
446.000000	23.688169
447.000000	23.876486
448.000000	24.043702
449.000000	24.204828
450.000000	24.343601
451.000000	24.493307
452.000000	24.628659
453.000000	24.745684
454.000000	24.850349
455.000000	24.925553
456.000000	25.013872
457.000000	25.101265
458.000000	25.162062
459.000000	25.214780
460.000000	25.259999
461.000000	25.297748
462.000000	25.318872
463.000000	25.356514
464.000000	25.363370
465.000000	25.358046
466.000000	25.372144
467.000000	25.373352
468.000000	25.372325
469.000000	25.381285
470.000000	25.381606
471.000000	25.411006
472.000000	25.453365
473.000000	25.523929
474.000000	25.605657
475.000000	25.710227
476.000000	25.851442
477.000000	26.012825
478.000000	26.214635
479.000000	26.453692
480.000000	26.715963
481.000000	27.003085
482.000000	27.330119
483.000000	27.680562
484.000000	28.079383
485.000000	28.525160
486.000000	28.963632
487.000000	29.405518
488.000000	29.883725
489.000000	30.365690
490.000000	30.863843
491.000000	31.337357
492.000000	31.835165
493.000000	32.305246
494.000000	32.746073
495.000000	33.178071
496.000000	33.599971
497.000000	33.999509
498.000000	34.378936
499.000000	34.747763
500.000000	35.119235
501.000000	35.479653
502.000000	35.832472
503.000000	36.172678
504.000000	36.508609
505.000000	36.849330
506.000000	37.185658
507.000000	37.546441
508.000000	37.925858
509.000000	38.340822
510.000000	38.785838
511.000000	39.286208
512.000000	39.826609
513.000000	40.425581
514.000000	41.098859
515.000000	41.824914
516.000000	42.604548
517.000000	43.447780
518.000000	44.372528
519.000000	45.359320
520.000000	46.399974
521.000000	47.505269
522.000000	48.695070
523.000000	49.938657
524.000000	51.183770
525.000000	52.485930
526.000000	53.783894
527.000000	55.087991
528.000000	56.389033
529.000000	57.712743
530.000000	59.012770
531.000000	60.302108
532.000000	61.564973
533.000000	62.802222
534.000000	64.007214
535.000000	65.167966
536.000000	66.303589
537.000000	67.400221
538.000000	68.467484
539.000000	69.516162
540.000000	70.551789
541.000000	71.546019
542.000000	72.536249
543.000000	73.455807
544.000000	74.373542
545.000000	75.254111
546.000000	76.091705
547.000000	76.897880
548.000000	77.681186
549.000000	78.425501
550.000000	79.178439
551.000000	79.911201
552.000000	80.595897
553.000000	81.279085
554.000000	81.926869
555.000000	82.544180
556.000000	83.122688
557.000000	83.681752
558.000000	84.190097
559.000000	84.720399
560.000000	85.274679
561.000000	85.718093
562.000000	86.142602
563.000000	86.542618
564.000000	86.918871
565.000000	87.261568
566.000000	87.579426
567.000000	87.867656
568.000000	88.152218
569.000000	88.419011
570.000000	88.680121
571.000000	88.874541
572.000000	89.099362
573.000000	89.301741
574.000000	89.512810
575.000000	89.677793
576.000000	89.828408
577.000000	89.999367
578.000000	90.131587
579.000000	90.261591
580.000000	90.371176
581.000000	90.479707
582.000000	90.537470
583.000000	90.605867
584.000000	90.634627
585.000000	90.643824
586.000000	90.631288
587.000000	90.612703
588.000000	90.557263
589.000000	90.488719
590.000000	90.398661
591.000000	90.283130
592.000000	90.136861
593.000000	89.949785
594.000000	89.772017
595.000000	89.539703
596.000000	89.271227
597.000000	89.013591
598.000000	88.713640
599.000000	88.405341
600.000000	88.038920
601.000000	87.644385
602.000000	87.224684
603.000000	86.786274
604.000000	86.306763
605.000000	85.780092
606.000000	85.257944
607.000000	84.694535
608.000000	84.083719
609.000000	83.474096
610.000000	82.839866
611.000000	82.179155
612.000000	81.483304
613.000000	80.765842
614.000000	80.020450
615.000000	79.270721
616.000000	78.514559
617.000000	77.751975
618.000000	76.983829
619.000000	76.179254
620.000000	75.387552
621.000000	74.544510
622.000000	73.678384
623.000000	72.811801
624.000000	71.908822
625.000000	71.011692
626.000000	70.099436
627.000000	69.166814
628.000000	68.228443
629.000000	67.331194
630.000000	66.437866
631.000000	65.560504
632.000000	64.741917
633.000000	64.002169
634.000000	63.319480
635.000000	62.729118
636.000000	62.278649
637.000000	61.902743
638.000000	61.665107
639.000000	61.546056
640.000000	61.573682
641.000000	61.703614
642.000000	61.977982
643.000000	62.349457
644.000000	62.819828
645.000000	63.382965
646.000000	64.007242
647.000000	64.684969
648.000000	65.441324
649.000000	66.238555
650.000000	67.114180
651.000000	67.955026
652.000000	68.816975
653.000000	69.661898
654.000000	70.494128
655.000000	71.299127
656.000000	72.005620
657.000000	72.732290
658.000000	73.387182
659.000000	73.955079
660.000000	74.475058
661.000000	74.958296
662.000000	75.378312
663.000000	75.739932
664.000000	76.052449
665.000000	76.355916
666.000000	76.620409
667.000000	76.882687
668.000000	77.117780
669.000000	77.315166
670.000000	77.542433
671.000000	77.724175
672.000000	77.898032
673.000000	78.062909
674.000000	78.211216
675.000000	78.360867
676.000000	78.479176
677.000000	78.563005
678.000000	78.590983
679.000000	78.635991
680.000000	78.686767
681.000000	78.682876
682.000000	78.716766
683.000000	78.756300
684.000000	78.822664
685.000000	78.839844
686.000000	78.909428
687.000000	78.962056
688.000000	78.995075
689.000000	79.033976
690.000000	79.067125
691.000000	79.156200
692.000000	79.210065
693.000000	79.239841
694.000000	79.270764
695.000000	79.314944
696.000000	79.406353
697.000000	79.470963
698.000000	79.546610
699.000000	79.672011
700.000000	79.805131
701.000000	79.945240
702.000000	80.135223
703.000000	80.343036
704.000000	80.579295
705.000000	80.868352
706.000000	81.202601
707.000000	81.520402
708.000000	81.831140
709.000000	82.184771
710.000000	82.547705
711.000000	82.865864
712.000000	83.198561
713.000000	83.558226
714.000000	83.841029
715.000000	84.104114
716.000000	84.375344
717.000000	84.638096
718.000000	84.884664
719.000000	85.118263
720.000000	85.307124
721.000000	85.434015
722.000000	85.606088
723.000000	85.739432
724.000000	85.883548
725.000000	85.991597
726.000000	86.093269
727.000000	86.117043
728.000000	86.237301
729.000000	86.331226
730.000000	86.384420
731.000000	86.420559
732.000000	86.499056
733.000000	86.551318
734.000000	86.615941
735.000000	86.683990
736.000000	86.671047
737.000000	86.710012
738.000000	86.746255
739.000000	86.838469
740.000000	86.865666
741.000000	86.892313
742.000000	86.867531
743.000000	86.884424
744.000000	86.808399
745.000000	86.731593
746.000000	86.680160
747.000000	86.575066
748.000000	86.395929
749.000000	86.267087
750.000000	86.084976
751.000000	85.856223
752.000000	85.604178
753.000000	85.431488
754.000000	85.167605
755.000000	85.017496
756.000000	84.721693
757.000000	84.504918
758.000000	84.277491
759.000000	84.101088
760.000000	83.836807
761.000000	83.747564
762.000000	83.531903
763.000000	83.333033
764.000000	83.213237
765.000000	83.074234
766.000000	83.040544
767.000000	82.923042
768.000000	82.846808
769.000000	82.897992
770.000000	82.912200
771.000000	82.866479
772.000000	82.968206
773.000000	82.938862
774.000000	82.911654
775.000000	82.996737
776.000000	82.919085
777.000000	82.891236
778.000000	82.888361
779.000000	82.775600
780.000000	82.593115
781.000000	82.512514
782.000000	82.425896
783.000000	82.251035
784.000000	81.980913
785.000000	81.879983
786.000000	81.669580
787.000000	81.357658
788.000000	81.066510
789.000000	80.847023
790.000000	80.535371
791.000000	80.322236
792.000000	79.985470
793.000000	79.817055
794.000000	79.451980
795.000000	79.193232
796.000000	78.928210
797.000000	78.695525
798.000000	78.448330
799.000000	78.320130
800.000000	78.056204
801.000000	77.893470
802.000000	77.571387
803.000000	77.482421
804.000000	77.389707
805.000000	77.266680
806.000000	77.063667
807.000000	76.920894
808.000000	76.848479
809.000000	76.774471
810.000000	76.583544
811.000000	76.569186
812.000000	76.485165
813.000000	76.413838
814.000000	76.314111
815.000000	76.378221
816.000000	76.211613
817.000000	76.043834
818.000000	75.972509
819.000000	75.999444
820.000000	75.949418
821.000000	75.875235
822.000000	75.825041
823.000000	75.817383
824.000000	75.791815
825.000000	75.856135
826.000000	75.847399
827.000000	75.660111
828.000000	75.697045
829.000000	75.685735
830.000000	75.787892
831.000000	75.709592
832.000000	75.615282
833.000000	75.679319
834.000000	75.514634
835.000000	75.619524
836.000000	75.509976
837.000000	75.342107
838.000000	75.277550
839.000000	75.140928
840.000000	75.085343
841.000000	74.884105
842.000000	74.796534
843.000000	74.776998
844.000000	74.553503
845.000000	74.304817
846.000000	74.270792
847.000000	74.006385
848.000000	73.941043
849.000000	73.607737
850.000000	73.650867
851.000000	73.501316
852.000000	73.251894
853.000000	72.951581
854.000000	72.756255
855.000000	72.701632
856.000000	72.632409
857.000000	72.730360
858.000000	72.574933
859.000000	73.041367
860.000000	72.678500
861.000000	72.694100
862.000000	72.536700
863.000000	72.566700
864.000000	72.350633
865.000000	72.158433
866.000000	72.198833
867.000000	71.855333
868.000000	71.718300
869.000000	71.633300
870.000000	71.537033
871.000000	71.516900
872.000000	71.332033
873.000000	71.089233
874.000000	71.150767
875.000000	70.827233
876.000000	70.804633
877.000000	70.519467
878.000000	70.721100
879.000000	70.439933
880.000000	70.540100
881.000000	70.278000
882.000000	70.020933
883.000000	69.842500
884.000000	69.557133
885.000000	69.517000
886.000000	69.369333
887.000000	69.242300
888.000000	69.071033
889.000000	68.906633
890.000000	68.765367
891.000000	68.454167
892.000000	68.230467
893.000000	68.190533
894.000000	67.988800
895.000000	67.569900
896.000000	67.274900
897.000000	67.131500
898.000000	66.870833
899.000000	66.675000
900.000000	66.484700
901.000000	66.252000
902.000000	66.023200
903.000000	65.719533
904.000000	65.342533
905.000000	65.017633
906.000000	64.899467
907.000000	64.697400
908.000000	64.507500
909.000000	64.394200
910.000000	64.321100
911.000000	64.133033
912.000000	64.005167
913.000000	63.903100
914.000000	63.835367
915.000000	63.877167
916.000000	63.756300
917.000000	63.631967
918.000000	63.522533
919.000000	63.477600
920.000000	63.376100
921.000000	63.250767
922.000000	63.157733
923.000000	63.045700
924.000000	62.984467
925.000000	62.812367
926.000000	62.649000
927.000000	62.535367
928.000000	62.399900
929.000000	62.311500
930.000000	62.197033
931.000000	62.126500
932.000000	62.026700
933.000000	61.845233
934.000000	61.705667
935.000000	61.554700
936.000000	61.410067
937.000000	61.287633
938.000000	61.168200
939.000000	61.004533
940.000000	60.839633
941.000000	60.757500
942.000000	60.626633
943.000000	60.507867
944.000000	60.414433
945.000000	60.240800
946.000000	60.120700
947.000000	60.048867
948.000000	59.960667
949.000000	59.867000
950.000000	59.773567
951.000000	59.666000
952.000000	59.583167
953.000000	59.485700
954.000000	59.378667
955.000000	59.284133
956.000000	59.187533
957.000000	59.086533
958.000000	58.976333
959.000000	58.884433
960.000000	58.784867
961.000000	58.617733
962.000000	58.515667
963.000000	58.459100
964.000000	58.379633
965.000000	58.285267
966.000000	58.193200
967.000000	58.130600
968.000000	58.104500
969.000000	58.058367
970.000000	57.982200
971.000000	57.897133
972.000000	57.828933
973.000000	57.787400
974.000000	57.724467
975.000000	57.636900
976.000000	57.594000
977.000000	57.497600
978.000000	57.404700
979.000000	57.323500
980.000000	57.234000
981.000000	57.171000
982.000000	57.082600
983.000000	57.017667
984.000000	56.951433
985.000000	56.890933
986.000000	56.788867
987.000000	56.717333
988.000000	56.661467
989.000000	56.585500
990.000000	56.486433
991.000000	56.402233
992.000000	56.343567
993.000000	56.299767
994.000000	56.252267
995.000000	56.185767
996.000000	56.127300
997.000000	56.087933
998.000000	56.028600
999.000000	55.949333
1000.000000	55.910000
1001.000000	55.831567
1002.000000	55.810833
1003.000000	55.756067
1004.000000	55.708500
1005.000000	55.660467
1006.000000	55.602133
1007.000000	55.552467
1008.000000	55.503267
1009.000000	55.436100
1010.000000	55.315967
1011.000000	55.295333
1012.000000	55.263667
1013.000000	55.229267
1014.000000	55.224167
1015.000000	55.248033
1016.000000	55.256467
1017.000000	55.300733
1018.000000	55.300267
1019.000000	55.357200
1020.000000	55.401400
1021.000000	55.473233
1022.000000	55.546900
1023.000000	55.604100
1024.000000	55.680133
1025.000000	55.773900
1026.000000	55.833633
1027.000000	55.899767
1028.000000	55.979067
1029.000000	56.071400
1030.000000	56.144200
1031.000000	56.235200
1032.000000	56.294600
1033.000000	56.355067
1034.000000	56.450800
1035.000000	56.487367
1036.000000	56.570867
1037.000000	56.619733
1038.000000	56.674200
1039.000000	56.753500
1040.000000	56.808167
1041.000000	56.847333
1042.000000	56.870867
1043.000000	56.936600
1044.000000	56.990000
1045.000000	57.041433
1046.000000	57.097833
1047.000000	57.162067
1048.000000	57.201133
1049.000000	57.259600
1050.000000	57.321367
1051.000000	57.371133
1052.000000	57.447967
1053.000000	57.477600
1054.000000	57.567967
1055.000000	57.672667
1056.000000	57.746667
1057.000000	57.819600
1058.000000	57.898767
1059.000000	57.964033
1060.000000	58.034033
1061.000000	58.091767
1062.000000	58.157467
1063.000000	58.206000
1064.000000	58.260000
1065.000000	58.322867
1066.000000	58.361667
1067.000000	58.434533
1068.000000	58.473600
1069.000000	58.510333
1070.000000	58.583733
1071.000000	58.621767
1072.000000	58.665933
1073.000000	58.723933
1074.000000	58.779033
1075.000000	58.856167
1076.000000	58.902533
1077.000000	58.960767
1078.000000	59.009167
1079.000000	59.077200
1080.000000	59.106400
1081.000000	59.199033
1082.000000	59.251367
1083.000000	59.341233
1084.000000	59.405333
1085.000000	59.482600
1086.000000	59.559767
1087.000000	59.643467
1088.000000	59.720333
1089.000000	59.805733
1090.000000	59.880300
1091.000000	59.955200
1092.000000	60.015700
1093.000000	60.070300
1094.000000	60.138400
1095.000000	60.210733
1096.000000	60.263700
1097.000000	60.326067
1098.000000	60.385333
1099.000000	60.411567
1100.000000	60.479967
1101.000000	60.518167
1102.000000	60.563900
1103.000000	60.613400
1104.000000	60.630433
1105.000000	60.644967
1106.000000	60.669367
1107.000000	60.687533
1108.000000	60.710767
1109.000000	60.742700
1110.000000	60.751967
1111.000000	60.770433
1112.000000	60.782467
1113.000000	60.796400
1114.000000	60.813900
1115.000000	60.822300
1116.000000	60.841200
1117.000000	60.844733
1118.000000	60.829433
1119.000000	60.795900
1120.000000	60.742700
1121.000000	60.663500
1122.000000	60.604467
1123.000000	60.522433
1124.000000	60.381433
1125.000000	60.259233
1126.000000	60.133233
1127.000000	59.979633
1128.000000	59.768800
1129.000000	59.517467
1130.000000	59.206467
1131.000000	58.832400
1132.000000	58.402967
1133.000000	57.940133
1134.000000	57.495133
1135.000000	56.989800
1136.000000	56.377567
1137.000000	55.747333
1138.000000	55.126800
1139.000000	54.537500
1140.000000	53.978500
1141.000000	53.437000
1142.000000	52.893500
1143.000000	52.373667
1144.000000	51.886800
1145.000000	51.473567
1146.000000	51.177533
1147.000000	51.000167
1148.000000	50.962767
1149.000000	50.989733
1150.000000	51.044367
1151.000000	51.099167
1152.000000	51.124667
1153.000000	51.121167
1154.000000	51.030700
1155.000000	50.851700
1156.000000	50.587067
1157.000000	50.217233
1158.000000	49.790233
1159.000000	49.316467
1160.000000	48.805033
1161.000000	48.279733
1162.000000	47.754867
1163.000000	47.213433
1164.000000	46.660300
1165.000000	46.130900
1166.000000	45.594967
1167.000000	45.089000
