PE UV       SUBTECH     SPECTRUM    ASCII       PEDS        4.00        
   -1
CICIMAUCR0141-3.Sample.ASC
24/04/22
09:38:58.00
24/04/22
09:38:58.00
Vinicio Soto Monge
C. kalinini
250,000000
1
Lambda 1050
1050L1511233
PerkinElmer UV WinLab 6.3.2.0749 / 2.02.05 Lambda 900 UV/VIS/NIR, Aug  7 2015 09:38:08

0
0
3350/servo 860,8/2
0
0
UV/VIS
1
1
1
DoubleDePol,CommonBeamDepol,RBeamAtt,SBeamAtt,60mm sphere, WB InGaAs Detector
0
0
0
0
Program
Program
3350/servo 860,8/2
3350/0,2 860,8/0,2
3350/0,2 860,8/0,2
0
15.00
 
 
 
0
 
860,8
319,2
860,8
Front
100
on
S:100 R:100
0
0
0
0
 
0
 
 
 
0
 
 
0
0
0
0
0
 
 
 
 
0
0


0
0
#HDR
-1
-1
#GR
nm
%R
1.0
0.0
2500,000000
-1,000000
2251
8
96,279600
5,742600
#DATA
250.000000	6.390333
251.000000	6.389500
252.000000	6.380300
253.000000	6.354200
254.000000	6.367300
255.000000	6.352900
256.000000	6.322533
257.000000	6.315033
258.000000	6.277633
259.000000	6.307867
260.000000	6.271033
261.000000	6.250300
262.000000	6.245033
263.000000	6.215800
264.000000	6.168000
265.000000	6.140967
266.000000	6.127967
267.000000	6.110333
268.000000	6.118100
269.000000	6.070733
270.000000	6.057933
271.000000	6.048000
272.000000	5.998700
273.000000	5.977800
274.000000	6.004833
275.000000	6.009833
276.000000	5.989000
277.000000	5.984833
278.000000	5.991633
279.000000	5.962100
280.000000	5.969533
281.000000	5.958600
282.000000	5.959533
283.000000	5.917233
284.000000	5.952433
285.000000	5.932300
286.000000	5.944667
287.000000	5.927700
288.000000	5.910400
289.000000	5.912267
290.000000	5.897767
291.000000	5.898700
292.000000	5.924333
293.000000	5.894300
294.000000	5.893767
295.000000	5.903767
296.000000	5.891133
297.000000	5.889567
298.000000	5.886800
299.000000	5.879933
300.000000	5.858900
301.000000	5.843533
302.000000	5.873100
303.000000	5.876100
304.000000	5.828600
305.000000	5.855233
306.000000	5.889467
307.000000	5.869567
308.000000	5.864300
309.000000	5.863900
310.000000	5.849433
311.000000	5.870067
312.000000	5.822733
313.000000	5.866467
314.000000	5.809500
315.000000	5.850233
316.000000	5.889733
317.000000	6.127533
318.000000	6.049600
319.000000	6.159233
320.000000	6.102167
321.000000	6.045533
322.000000	6.156900
323.000000	6.012000
324.000000	6.089600
325.000000	6.021000
326.000000	5.917633
327.000000	5.989500
328.000000	5.951633
329.000000	5.955400
330.000000	5.994467
331.000000	6.044167
332.000000	5.960800
333.000000	5.952500
334.000000	5.995433
335.000000	5.872200
336.000000	5.959767
337.000000	5.935300
338.000000	5.935767
339.000000	5.908367
340.000000	5.920567
341.000000	5.966500
342.000000	5.965333
343.000000	5.969700
344.000000	6.001667
345.000000	5.915733
346.000000	5.997667
347.000000	5.986300
348.000000	6.012533
349.000000	5.984100
350.000000	5.997667
351.000000	5.971400
352.000000	5.994533
353.000000	6.046100
354.000000	6.063900
355.000000	6.057400
356.000000	6.056933
357.000000	6.087333
358.000000	6.137300
359.000000	6.134967
360.000000	6.170367
361.000000	6.216900
362.000000	6.205400
363.000000	6.177400
364.000000	6.230467
365.000000	6.243500
366.000000	6.233533
367.000000	6.253600
368.000000	6.290600
369.000000	6.246567
370.000000	6.226767
371.000000	6.262867
372.000000	6.303333
373.000000	6.328300
374.000000	6.299200
375.000000	6.386533
376.000000	6.532300
377.000000	6.520533
378.000000	6.543333
379.000000	6.571767
380.000000	6.598100
381.000000	6.630633
382.000000	6.667800
383.000000	6.707600
384.000000	6.753700
385.000000	6.796667
386.000000	6.841767
387.000000	6.881133
388.000000	6.931600
389.000000	6.988200
390.000000	7.046800
391.000000	7.120867
392.000000	7.184600
393.000000	7.255633
394.000000	7.337900
395.000000	7.425633
396.000000	7.529500
397.000000	7.628033
398.000000	7.732400
399.000000	7.848767
400.000000	7.981800
401.000000	8.122800
402.000000	8.284900
403.000000	8.462633
404.000000	8.645700
405.000000	8.839733
406.000000	9.051700
407.000000	9.280867
408.000000	9.528800
409.000000	9.795400
410.000000	10.078367
411.000000	10.390100
412.000000	10.723667
413.000000	11.071600
414.000000	11.437767
415.000000	11.828867
416.000000	12.238633
417.000000	12.662800
418.000000	13.108767
419.000000	13.569800
420.000000	14.047400
421.000000	14.538933
422.000000	15.048133
423.000000	15.563600
424.000000	16.088100
425.000000	16.620067
426.000000	17.150867
427.000000	17.692333
428.000000	18.222467
429.000000	18.739700
430.000000	19.261500
431.000000	19.792833
432.000000	20.322733
433.000000	20.833900
434.000000	21.330933
435.000000	21.828767
436.000000	22.304733
437.000000	22.762233
438.000000	23.208867
439.000000	23.645467
440.000000	24.063033
441.000000	24.463800
442.000000	24.870167
443.000000	25.253367
444.000000	25.610533
445.000000	25.960567
446.000000	26.297600
447.000000	26.614100
448.000000	26.905367
449.000000	27.200267
450.000000	27.486833
451.000000	27.738933
452.000000	27.995167
453.000000	28.235567
454.000000	28.462233
455.000000	28.687900
456.000000	28.890567
457.000000	29.071667
458.000000	29.238900
459.000000	29.403900
460.000000	29.555133
461.000000	29.687000
462.000000	29.780867
463.000000	29.878500
464.000000	29.966267
465.000000	30.023767
466.000000	30.072333
467.000000	30.101633
468.000000	30.100533
469.000000	30.082500
470.000000	30.042800
471.000000	29.986800
472.000000	29.906467
473.000000	29.813967
474.000000	29.698200
475.000000	29.572833
476.000000	29.417500
477.000000	29.242967
478.000000	29.070100
479.000000	28.886833
480.000000	28.704700
481.000000	28.534500
482.000000	28.357567
483.000000	28.185600
484.000000	28.011033
485.000000	27.860600
486.000000	27.742667
487.000000	27.655733
488.000000	27.605867
489.000000	27.598933
490.000000	27.646700
491.000000	27.727267
492.000000	27.870000
493.000000	28.097067
494.000000	28.371100
495.000000	28.687433
496.000000	29.054600
497.000000	29.489200
498.000000	29.962433
499.000000	30.487067
500.000000	31.052500
501.000000	31.643833
502.000000	32.266300
503.000000	32.923400
504.000000	33.581700
505.000000	34.249900
506.000000	34.922200
507.000000	35.595200
508.000000	36.268500
509.000000	36.941700
510.000000	37.596467
511.000000	38.262533
512.000000	38.914800
513.000000	39.571433
514.000000	40.216533
515.000000	40.868233
516.000000	41.520900
517.000000	42.181100
518.000000	42.827933
519.000000	43.499867
520.000000	44.185733
521.000000	44.872100
522.000000	45.587467
523.000000	46.329600
524.000000	47.094333
525.000000	47.861567
526.000000	48.664500
527.000000	49.462367
528.000000	50.291633
529.000000	51.142500
530.000000	52.019867
531.000000	52.918267
532.000000	53.839633
533.000000	54.796833
534.000000	55.744100
535.000000	56.684800
536.000000	57.646033
537.000000	58.587133
538.000000	59.511133
539.000000	60.419267
540.000000	61.339067
541.000000	62.232700
542.000000	63.094300
543.000000	63.923600
544.000000	64.739900
545.000000	65.502133
546.000000	66.238600
547.000000	66.925300
548.000000	67.590033
549.000000	68.223733
550.000000	68.839933
551.000000	69.410367
552.000000	69.965867
553.000000	70.491700
554.000000	70.994700
555.000000	71.450533
556.000000	71.914967
557.000000	72.354767
558.000000	72.774800
559.000000	73.153400
560.000000	73.516867
561.000000	73.874400
562.000000	74.196433
563.000000	74.528767
564.000000	74.847300
565.000000	75.146933
566.000000	75.398467
567.000000	75.657333
568.000000	75.891600
569.000000	76.101833
570.000000	76.289400
571.000000	76.446500
572.000000	76.594900
573.000000	76.773200
574.000000	76.905133
575.000000	77.026433
576.000000	77.151600
577.000000	77.234033
578.000000	77.304033
579.000000	77.342467
580.000000	77.367100
581.000000	77.344300
582.000000	77.306033
583.000000	77.251067
584.000000	77.197233
585.000000	77.110267
586.000000	76.965533
587.000000	76.842667
588.000000	76.628000
589.000000	76.439933
590.000000	76.185633
591.000000	75.881867
592.000000	75.574000
593.000000	75.230267
594.000000	74.848567
595.000000	74.438633
596.000000	74.064767
597.000000	73.623200
598.000000	73.198100
599.000000	72.757067
600.000000	72.278500
601.000000	71.819567
602.000000	71.266233
603.000000	70.768033
604.000000	70.219700
605.000000	69.708333
606.000000	69.159467
607.000000	68.638667
608.000000	68.079733
609.000000	67.539400
610.000000	67.035067
611.000000	66.491467
612.000000	65.982133
613.000000	65.469667
614.000000	64.946533
615.000000	64.455400
616.000000	63.985167
617.000000	63.509467
618.000000	63.080800
619.000000	62.637200
620.000000	62.267800
621.000000	61.920967
622.000000	61.599667
623.000000	61.345567
624.000000	61.105200
625.000000	60.934967
626.000000	60.763867
627.000000	60.650533
628.000000	60.573600
629.000000	60.516367
630.000000	60.435600
631.000000	60.385467
632.000000	60.374100
633.000000	60.347267
634.000000	60.322800
635.000000	60.330900
636.000000	60.329100
637.000000	60.323833
638.000000	60.336967
639.000000	60.354533
640.000000	60.385500
641.000000	60.428633
642.000000	60.505267
643.000000	60.589367
644.000000	60.667433
645.000000	60.787033
646.000000	60.883100
647.000000	61.019867
648.000000	61.145033
649.000000	61.288400
650.000000	61.436733
651.000000	61.538867
652.000000	61.651467
653.000000	61.776800
654.000000	61.845200
655.000000	61.934000
656.000000	61.997833
657.000000	62.030267
658.000000	62.101300
659.000000	62.138000
660.000000	62.180500
661.000000	62.230567
662.000000	62.339300
663.000000	62.431533
664.000000	62.534700
665.000000	62.677167
666.000000	62.847300
667.000000	63.049833
668.000000	63.261067
669.000000	63.520933
670.000000	63.799833
671.000000	64.114067
672.000000	64.419700
673.000000	64.759600
674.000000	65.045433
675.000000	65.398733
676.000000	65.748000
677.000000	66.092400
678.000000	66.450400
679.000000	66.826500
680.000000	67.226833
681.000000	67.596300
682.000000	67.986067
683.000000	68.384967
684.000000	68.783100
685.000000	69.224967
686.000000	69.651867
687.000000	70.083833
688.000000	70.490033
689.000000	70.922833
690.000000	71.358933
691.000000	71.799567
692.000000	72.211300
693.000000	72.601300
694.000000	72.964300
695.000000	73.329467
696.000000	73.706167
697.000000	74.029467
698.000000	74.320967
699.000000	74.684467
700.000000	74.980900
701.000000	75.265100
702.000000	75.544533
703.000000	75.835933
704.000000	76.128433
705.000000	76.415233
706.000000	76.713200
707.000000	77.000100
708.000000	77.339633
709.000000	77.649433
710.000000	77.953833
711.000000	78.293533
712.000000	78.659433
713.000000	79.031233
714.000000	79.410000
715.000000	79.810033
716.000000	80.224900
717.000000	80.643400
718.000000	81.109433
719.000000	81.526333
720.000000	81.951967
721.000000	82.440100
722.000000	82.910167
723.000000	83.365733
724.000000	83.880267
725.000000	84.370867
726.000000	84.861500
727.000000	85.354033
728.000000	85.854800
729.000000	86.380400
730.000000	86.876167
731.000000	87.362700
732.000000	87.884100
733.000000	88.399333
734.000000	88.892467
735.000000	89.381733
736.000000	89.869900
737.000000	90.341933
738.000000	90.733267
739.000000	91.199100
740.000000	91.648233
741.000000	91.977000
742.000000	92.357367
743.000000	92.778733
744.000000	93.119533
745.000000	93.423533
746.000000	93.758733
747.000000	94.054567
748.000000	94.352700
749.000000	94.657800
750.000000	94.889567
751.000000	95.147033
752.000000	95.421967
753.000000	95.637900
754.000000	95.845600
755.000000	96.036333
756.000000	96.212967
757.000000	96.393167
758.000000	96.561500
759.000000	96.731367
760.000000	96.857733
761.000000	96.983167
762.000000	97.121700
763.000000	97.263467
764.000000	97.363267
765.000000	97.444233
766.000000	97.468700
767.000000	97.519433
768.000000	97.566133
769.000000	97.582100
770.000000	97.617767
771.000000	97.657633
772.000000	97.643567
773.000000	97.670367
774.000000	97.626933
775.000000	97.560633
776.000000	97.578067
777.000000	97.580067
778.000000	97.549533
779.000000	97.526633
780.000000	97.475333
781.000000	97.404733
782.000000	97.374500
783.000000	97.339933
784.000000	97.242867
785.000000	97.211967
786.000000	97.106100
787.000000	97.037267
788.000000	97.023633
789.000000	96.887633
790.000000	96.785900
791.000000	96.700300
792.000000	96.585100
793.000000	96.525133
794.000000	96.506467
795.000000	96.405167
796.000000	96.293533
797.000000	96.239733
798.000000	96.194667
799.000000	96.187133
800.000000	95.979500
801.000000	95.926800
802.000000	95.890267
803.000000	95.768367
804.000000	95.625767
805.000000	95.583733
806.000000	95.440967
807.000000	95.250600
808.000000	95.241833
809.000000	95.051700
810.000000	94.921967
811.000000	94.751600
812.000000	94.637700
813.000000	94.406433
814.000000	94.264400
815.000000	94.101000
816.000000	93.864133
817.000000	93.626233
818.000000	93.317100
819.000000	93.119967
820.000000	92.932300
821.000000	92.577933
822.000000	92.311933
823.000000	91.946533
824.000000	91.717733
825.000000	91.287000
826.000000	90.977833
827.000000	90.675100
828.000000	90.266233
829.000000	89.914833
830.000000	89.432633
831.000000	89.009333
832.000000	88.619600
833.000000	88.238900
834.000000	87.777133
835.000000	87.299433
836.000000	86.793300
837.000000	86.342133
838.000000	85.941133
839.000000	85.469567
840.000000	85.131333
841.000000	84.620367
842.000000	84.096367
843.000000	83.819733
844.000000	83.243067
845.000000	82.696900
846.000000	82.213533
847.000000	81.986033
848.000000	81.431833
849.000000	80.998000
850.000000	80.434833
851.000000	80.285600
852.000000	79.644133
853.000000	79.538833
854.000000	79.085200
855.000000	78.458333
856.000000	78.113067
857.000000	77.540133
858.000000	78.037178
859.000000	77.508653
860.000000	77.348894
861.000000	77.239960
862.000000	77.137693
863.000000	76.961644
864.000000	76.809969
865.000000	76.623773
866.000000	76.465684
867.000000	76.266842
868.000000	76.106053
869.000000	75.914025
870.000000	75.750007
871.000000	75.558890
872.000000	75.398602
873.000000	75.207380
874.000000	75.018336
875.000000	74.852563
876.000000	74.694135
877.000000	74.535134
878.000000	74.381505
879.000000	74.218184
880.000000	74.062111
881.000000	73.922603
882.000000	73.773089
883.000000	73.621396
884.000000	73.499922
885.000000	73.371498
886.000000	73.217275
887.000000	73.081618
888.000000	72.934810
889.000000	72.801055
890.000000	72.668128
891.000000	72.557304
892.000000	72.427496
893.000000	72.293951
894.000000	72.176986
895.000000	72.056358
896.000000	71.920141
897.000000	71.808836
898.000000	71.692491
899.000000	71.557045
900.000000	71.440116
901.000000	71.337268
902.000000	71.220349
903.000000	71.104974
904.000000	70.942169
905.000000	70.810708
906.000000	70.692019
907.000000	70.574244
908.000000	70.454851
909.000000	70.302390
910.000000	70.155721
911.000000	70.012678
912.000000	69.914150
913.000000	69.774933
914.000000	69.617496
915.000000	69.500857
916.000000	69.375649
917.000000	69.247961
918.000000	69.136621
919.000000	69.025583
920.000000	68.895672
921.000000	68.792414
922.000000	68.640885
923.000000	68.538877
924.000000	68.413586
925.000000	68.296347
926.000000	68.174006
927.000000	68.031642
928.000000	67.918341
929.000000	67.813754
930.000000	67.690531
931.000000	67.579729
932.000000	67.466208
933.000000	67.314870
934.000000	67.203599
935.000000	67.082860
936.000000	66.961403
937.000000	66.839424
938.000000	66.724002
939.000000	66.589507
940.000000	66.478191
941.000000	66.354416
942.000000	66.221444
943.000000	66.105705
944.000000	65.988171
945.000000	65.859794
946.000000	65.737616
947.000000	65.620856
948.000000	65.472707
949.000000	65.348321
950.000000	65.228084
951.000000	65.087656
952.000000	64.974174
953.000000	64.849664
954.000000	64.739050
955.000000	64.612108
956.000000	64.481435
957.000000	64.359849
958.000000	64.252034
959.000000	64.142590
960.000000	64.020245
961.000000	63.913068
962.000000	63.790030
963.000000	63.692587
964.000000	63.570760
965.000000	63.460235
966.000000	63.370970
967.000000	63.254093
968.000000	63.153334
969.000000	63.053994
970.000000	62.962075
971.000000	62.868112
972.000000	62.773941
973.000000	62.691557
974.000000	62.607000
975.000000	62.526898
976.000000	62.441434
977.000000	62.375315
978.000000	62.298843
979.000000	62.227764
980.000000	62.146398
981.000000	62.081701
982.000000	62.008688
983.000000	61.941626
984.000000	61.874766
985.000000	61.810879
986.000000	61.746078
987.000000	61.691055
988.000000	61.634188
989.000000	61.588785
990.000000	61.528291
991.000000	61.488048
992.000000	61.446435
993.000000	61.407261
994.000000	61.362216
995.000000	61.330601
996.000000	61.293789
997.000000	61.256682
998.000000	61.228015
999.000000	61.203022
1000.000000	61.173541
1001.000000	61.149301
1002.000000	61.132475
1003.000000	61.117945
1004.000000	61.098077
1005.000000	61.082932
1006.000000	61.073631
1007.000000	61.055078
1008.000000	61.039638
1009.000000	61.038037
1010.000000	61.040744
1011.000000	61.048080
1012.000000	61.042666
1013.000000	61.042369
1014.000000	61.051583
1015.000000	61.060884
1016.000000	61.073025
1017.000000	61.096644
1018.000000	61.119063
1019.000000	61.133115
1020.000000	61.154276
1021.000000	61.188494
1022.000000	61.211979
1023.000000	61.244127
1024.000000	61.288624
1025.000000	61.316581
1026.000000	61.353262
1027.000000	61.398581
1028.000000	61.431617
1029.000000	61.472967
1030.000000	61.523443
1031.000000	61.574516
1032.000000	61.621793
1033.000000	61.676726
1034.000000	61.734407
1035.000000	61.782827
1036.000000	61.833359
1037.000000	61.892783
1038.000000	61.950235
1039.000000	62.009052
1040.000000	62.066648
1041.000000	62.123428
1042.000000	62.181039
1043.000000	62.240612
1044.000000	62.306639
1045.000000	62.368359
1046.000000	62.432246
1047.000000	62.505933
1048.000000	62.571132
1049.000000	62.635120
1050.000000	62.703686
1051.000000	62.770865
1052.000000	62.841622
1053.000000	62.919247
1054.000000	62.995927
1055.000000	63.066335
1056.000000	63.138934
1057.000000	63.213505
1058.000000	63.281960
1059.000000	63.363656
1060.000000	63.442760
1061.000000	63.520123
1062.000000	63.600956
1063.000000	63.679453
1064.000000	63.754625
1065.000000	63.822343
1066.000000	63.900230
1067.000000	63.988445
1068.000000	64.062736
1069.000000	64.134658
1070.000000	64.209019
1071.000000	64.284989
1072.000000	64.360078
1073.000000	64.430782
1074.000000	64.511829
1075.000000	64.598683
1076.000000	64.678294
1077.000000	64.752560
1078.000000	64.833586
1079.000000	64.914573
1080.000000	65.003174
1081.000000	65.084374
1082.000000	65.164640
1083.000000	65.250383
1084.000000	65.334921
1085.000000	65.421045
1086.000000	65.498474
1087.000000	65.585293
1088.000000	65.666441
1089.000000	65.746547
1090.000000	65.826956
1091.000000	65.912798
1092.000000	65.995884
1093.000000	66.081919
1094.000000	66.163396
1095.000000	66.238999
1096.000000	66.322399
1097.000000	66.398582
1098.000000	66.481086
1099.000000	66.557661
1100.000000	66.633465
1101.000000	66.703873
1102.000000	66.777106
1103.000000	66.855407
1104.000000	66.916453
1105.000000	66.986422
1106.000000	67.056819
1107.000000	67.131613
1108.000000	67.197826
1109.000000	67.265271
1110.000000	67.325633
1111.000000	67.386256
1112.000000	67.447105
1113.000000	67.502730
1114.000000	67.565664
1115.000000	67.629010
1116.000000	67.683631
1117.000000	67.741306
1118.000000	67.795096
1119.000000	67.848295
1120.000000	67.885660
1121.000000	67.928915
1122.000000	67.978167
1123.000000	68.027144
1124.000000	68.053078
1125.000000	68.052933
1126.000000	68.072041
1127.000000	68.072227
1128.000000	68.071971
1129.000000	68.073968
1130.000000	68.058936
1131.000000	68.018906
1132.000000	67.983499
1133.000000	67.947080
1134.000000	67.947301
1135.000000	67.922824
1136.000000	67.873330
1137.000000	67.807351
1138.000000	67.729153
1139.000000	67.684282
1140.000000	67.637653
1141.000000	67.611932
1142.000000	67.588739
1143.000000	67.549528
1144.000000	67.547040
1145.000000	67.549469
1146.000000	67.536623
1147.000000	67.529893
1148.000000	67.509025
1149.000000	67.497739
1150.000000	67.477141
1151.000000	67.459979
1152.000000	67.432643
1153.000000	67.410577
1154.000000	67.354365
1155.000000	67.298475
1156.000000	67.243770
1157.000000	67.167865
1158.000000	67.072784
1159.000000	66.990753
1160.000000	66.882715
1161.000000	66.787959
1162.000000	66.690936
1163.000000	66.579790
1164.000000	66.485313
1165.000000	66.362466
1166.000000	66.268563
1167.000000	66.158776
