PE UV       SUBTECH     SPECTRUM    ASCII       PEDS        4.00        
   -1
CICIMAUCR0014-5.Sample.ASC
24/04/23
11:16:56.00
24/04/23
11:16:56.00
Vinicio Soto Monge
C. cupreomarginata
250,000000
1
Lambda 1050
1050L1511233
PerkinElmer UV WinLab 6.3.2.0749 / 2.02.05 Lambda 900 UV/VIS/NIR, Aug  7 2015 09:38:08

0
0
3350/servo 860,8/2
0
0
UV/VIS
1
1
1
DoubleDePol,CommonBeamDepol,RBeamAtt,SBeamAtt,60mm sphere, WB InGaAs Detector
0
0
0
0
Program
Program
3350/servo 860,8/2
3350/0,2 860,8/0,2
3350/0,2 860,8/0,2
0
15.00
 
 
 
0
 
860,8
319,2
860,8
Front
100
on
S:100 R:100
0
0
0
0
 
0
 
 
 
0
 
 
0
0
0
0
0
 
 
 
 
0
0


0
0
#HDR
-1
-1
#GR
nm
%R
1.0
0.0
2500,000000
-1,000000
2251
8
75,082300
5,658100
#DATA
250.000000	4.938560
251.000000	4.910342
252.000000	4.914111
253.000000	4.906734
254.000000	4.886069
255.000000	4.882054
256.000000	4.872259
257.000000	4.863911
258.000000	4.837157
259.000000	4.807774
260.000000	4.789664
261.000000	4.779975
262.000000	4.767817
263.000000	4.734460
264.000000	4.717056
265.000000	4.715224
266.000000	4.677649
267.000000	4.658296
268.000000	4.650623
269.000000	4.607935
270.000000	4.608569
271.000000	4.586935
272.000000	4.606173
273.000000	4.571857
274.000000	4.575339
275.000000	4.548898
276.000000	4.543134
277.000000	4.532638
278.000000	4.514501
279.000000	4.505847
280.000000	4.508179
281.000000	4.519591
282.000000	4.500085
283.000000	4.481929
284.000000	4.491852
285.000000	4.467179
286.000000	4.471090
287.000000	4.476987
288.000000	4.472951
289.000000	4.474837
290.000000	4.446490
291.000000	4.460791
292.000000	4.453618
293.000000	4.461594
294.000000	4.452461
295.000000	4.451759
296.000000	4.438428
297.000000	4.458858
298.000000	4.444978
299.000000	4.437175
300.000000	4.415564
301.000000	4.411301
302.000000	4.419822
303.000000	4.433192
304.000000	4.408332
305.000000	4.417807
306.000000	4.401172
307.000000	4.413162
308.000000	4.415943
309.000000	4.398537
310.000000	4.422556
311.000000	4.407031
312.000000	4.404075
313.000000	4.411875
314.000000	4.393327
315.000000	4.388334
316.000000	4.404328
317.000000	4.516513
318.000000	4.496420
319.000000	4.520287
320.000000	4.455114
321.000000	4.335836
322.000000	4.401879
323.000000	4.463180
324.000000	4.451396
325.000000	4.467569
326.000000	4.472179
327.000000	4.470684
328.000000	4.427488
329.000000	4.409640
330.000000	4.412860
331.000000	4.423048
332.000000	4.445553
333.000000	4.468273
334.000000	4.424074
335.000000	4.471496
336.000000	4.426743
337.000000	4.443176
338.000000	4.483377
339.000000	4.466251
340.000000	4.475171
341.000000	4.475513
342.000000	4.513068
343.000000	4.516591
344.000000	4.502184
345.000000	4.513192
346.000000	4.493943
347.000000	4.490224
348.000000	4.518970
349.000000	4.486533
350.000000	4.525489
351.000000	4.539094
352.000000	4.533605
353.000000	4.554378
354.000000	4.554822
355.000000	4.562583
356.000000	4.570259
357.000000	4.592755
358.000000	4.592089
359.000000	4.593478
360.000000	4.619727
361.000000	4.639654
362.000000	4.634573
363.000000	4.619237
364.000000	4.645850
365.000000	4.656094
366.000000	4.681640
367.000000	4.676679
368.000000	4.701459
369.000000	4.720991
370.000000	4.724234
371.000000	4.734593
372.000000	4.752004
373.000000	4.774490
374.000000	4.781817
375.000000	4.809556
376.000000	4.868249
377.000000	4.856260
378.000000	4.880344
379.000000	4.907566
380.000000	4.940507
381.000000	4.971326
382.000000	5.008008
383.000000	5.040999
384.000000	5.080605
385.000000	5.123731
386.000000	5.167197
387.000000	5.220086
388.000000	5.265341
389.000000	5.320431
390.000000	5.376245
391.000000	5.435830
392.000000	5.500119
393.000000	5.566274
394.000000	5.639914
395.000000	5.718029
396.000000	5.798847
397.000000	5.879696
398.000000	5.962864
399.000000	6.051155
400.000000	6.153235
401.000000	6.258127
402.000000	6.363463
403.000000	6.475601
404.000000	6.590335
405.000000	6.710192
406.000000	6.835869
407.000000	6.958219
408.000000	7.093051
409.000000	7.235922
410.000000	7.379030
411.000000	7.526493
412.000000	7.676892
413.000000	7.834916
414.000000	7.992480
415.000000	8.157133
416.000000	8.324774
417.000000	8.486586
418.000000	8.655100
419.000000	8.828928
420.000000	9.009249
421.000000	9.187467
422.000000	9.365493
423.000000	9.546761
424.000000	9.727670
425.000000	9.908239
426.000000	10.093052
427.000000	10.274238
428.000000	10.456374
429.000000	10.639717
430.000000	10.820912
431.000000	11.005011
432.000000	11.188895
433.000000	11.368495
434.000000	11.551901
435.000000	11.734027
436.000000	11.910578
437.000000	12.086395
438.000000	12.263791
439.000000	12.437961
440.000000	12.604454
441.000000	12.770203
442.000000	12.938411
443.000000	13.108385
444.000000	13.266410
445.000000	13.408388
446.000000	13.540249
447.000000	13.671313
448.000000	13.801550
449.000000	13.927553
450.000000	14.055468
451.000000	14.173227
452.000000	14.279543
453.000000	14.380729
454.000000	14.474430
455.000000	14.561667
456.000000	14.645982
457.000000	14.725622
458.000000	14.795322
459.000000	14.853896
460.000000	14.921266
461.000000	14.988289
462.000000	15.041697
463.000000	15.090387
464.000000	15.135043
465.000000	15.180167
466.000000	15.226609
467.000000	15.264614
468.000000	15.305009
469.000000	15.339994
470.000000	15.378006
471.000000	15.420441
472.000000	15.455107
473.000000	15.490634
474.000000	15.532620
475.000000	15.573767
476.000000	15.613672
477.000000	15.659856
478.000000	15.712775
479.000000	15.768271
480.000000	15.846111
481.000000	15.944135
482.000000	16.063548
483.000000	16.184603
484.000000	16.304056
485.000000	16.440402
486.000000	16.587082
487.000000	16.753979
488.000000	16.944266
489.000000	17.146850
490.000000	17.379046
491.000000	17.631141
492.000000	17.895921
493.000000	18.177439
494.000000	18.484401
495.000000	18.806207
496.000000	19.129994
497.000000	19.478294
498.000000	19.836683
499.000000	20.196509
500.000000	20.564097
501.000000	20.943544
502.000000	21.333389
503.000000	21.728125
504.000000	22.127647
505.000000	22.528770
506.000000	22.927263
507.000000	23.330093
508.000000	23.725875
509.000000	24.129993
510.000000	24.539992
511.000000	24.967374
512.000000	25.388090
513.000000	25.810855
514.000000	26.220239
515.000000	26.642544
516.000000	27.062790
517.000000	27.491579
518.000000	27.924375
519.000000	28.363907
520.000000	28.814998
521.000000	29.266185
522.000000	29.728154
523.000000	30.193494
524.000000	30.671705
525.000000	31.154278
526.000000	31.637055
527.000000	32.126960
528.000000	32.635959
529.000000	33.157607
530.000000	33.688195
531.000000	34.225467
532.000000	34.766213
533.000000	35.320298
534.000000	35.888947
535.000000	36.453253
536.000000	37.025275
537.000000	37.598441
538.000000	38.158604
539.000000	38.720434
540.000000	39.276950
541.000000	39.837164
542.000000	40.380887
543.000000	40.920760
544.000000	41.443082
545.000000	41.943131
546.000000	42.435265
547.000000	42.892376
548.000000	43.330191
549.000000	43.759298
550.000000	44.133893
551.000000	44.498065
552.000000	44.850464
553.000000	45.147731
554.000000	45.430493
555.000000	45.701843
556.000000	45.933249
557.000000	46.163554
558.000000	46.360819
559.000000	46.535352
560.000000	46.555335
561.000000	46.705419
562.000000	46.859638
563.000000	47.014867
564.000000	47.126069
565.000000	47.270207
566.000000	47.357680
567.000000	47.445982
568.000000	47.515784
569.000000	47.578139
570.000000	47.620737
571.000000	47.676450
572.000000	47.700613
573.000000	47.682998
574.000000	47.679449
575.000000	47.672652
576.000000	47.649875
577.000000	47.631507
578.000000	47.598121
579.000000	47.553777
580.000000	47.503185
581.000000	47.458225
582.000000	47.407447
583.000000	47.338727
584.000000	47.290906
585.000000	47.207133
586.000000	47.137657
587.000000	47.050502
588.000000	46.973413
589.000000	46.864440
590.000000	46.753392
591.000000	46.618542
592.000000	46.498812
593.000000	46.357609
594.000000	46.223262
595.000000	46.044309
596.000000	45.887216
597.000000	45.741576
598.000000	45.542060
599.000000	45.378757
600.000000	45.208079
601.000000	45.047743
602.000000	44.860403
603.000000	44.697840
604.000000	44.507749
605.000000	44.341355
606.000000	44.164182
607.000000	43.985197
608.000000	43.790961
609.000000	43.595790
610.000000	43.384370
611.000000	43.161829
612.000000	42.940071
613.000000	42.694324
614.000000	42.451744
615.000000	42.189589
616.000000	41.916112
617.000000	41.639809
618.000000	41.359815
619.000000	41.079368
620.000000	40.757442
621.000000	40.450006
622.000000	40.153144
623.000000	39.827361
624.000000	39.496821
625.000000	39.185315
626.000000	38.876541
627.000000	38.551265
628.000000	38.234304
629.000000	37.908685
630.000000	37.600582
631.000000	37.283398
632.000000	36.962871
633.000000	36.647899
634.000000	36.315106
635.000000	36.017930
636.000000	35.690001
637.000000	35.412151
638.000000	35.125484
639.000000	34.853104
640.000000	34.608286
641.000000	34.381133
642.000000	34.138353
643.000000	33.950172
644.000000	33.792802
645.000000	33.653784
646.000000	33.546949
647.000000	33.465043
648.000000	33.411596
649.000000	33.402142
650.000000	33.417970
651.000000	33.470914
652.000000	33.542920
653.000000	33.644169
654.000000	33.754016
655.000000	33.894861
656.000000	34.037173
657.000000	34.191599
658.000000	34.347424
659.000000	34.510564
660.000000	34.695870
661.000000	34.855960
662.000000	35.021851
663.000000	35.185283
664.000000	35.342632
665.000000	35.491604
666.000000	35.640052
667.000000	35.782260
668.000000	35.949968
669.000000	36.116181
670.000000	36.274532
671.000000	36.414796
672.000000	36.564116
673.000000	36.707639
674.000000	36.860525
675.000000	37.025886
676.000000	37.164489
677.000000	37.291739
678.000000	37.426156
679.000000	37.576553
680.000000	37.694718
681.000000	37.831541
682.000000	37.971995
683.000000	38.084381
684.000000	38.173157
685.000000	38.261381
686.000000	38.358146
687.000000	38.435964
688.000000	38.489926
689.000000	38.578443
690.000000	38.657734
691.000000	38.715000
692.000000	38.776734
693.000000	38.869284
694.000000	38.948522
695.000000	39.031191
696.000000	39.119039
697.000000	39.222771
698.000000	39.330985
699.000000	39.430674
700.000000	39.533507
701.000000	39.650306
702.000000	39.779404
703.000000	39.915879
704.000000	40.036226
705.000000	40.168717
706.000000	40.325517
707.000000	40.464208
708.000000	40.592528
709.000000	40.743146
710.000000	40.882016
711.000000	41.037242
712.000000	41.192508
713.000000	41.348979
714.000000	41.510279
715.000000	41.661660
716.000000	41.803267
717.000000	41.964302
718.000000	42.125531
719.000000	42.281527
720.000000	42.450354
721.000000	42.621742
722.000000	42.796408
723.000000	42.973386
724.000000	43.164247
725.000000	43.329195
726.000000	43.508070
727.000000	43.691732
728.000000	43.871626
729.000000	44.059937
730.000000	44.220128
731.000000	44.403977
732.000000	44.590759
733.000000	44.782949
734.000000	44.969084
735.000000	45.144820
736.000000	45.310148
737.000000	45.442104
738.000000	45.602502
739.000000	45.791164
740.000000	45.932156
741.000000	46.066408
742.000000	46.221771
743.000000	46.363980
744.000000	46.508935
745.000000	46.644534
746.000000	46.775321
747.000000	46.912405
748.000000	47.047365
749.000000	47.174327
750.000000	47.321587
751.000000	47.461723
752.000000	47.604540
753.000000	47.736166
754.000000	47.848464
755.000000	47.985707
756.000000	48.112121
757.000000	48.239543
758.000000	48.363871
759.000000	48.509463
760.000000	48.637359
761.000000	48.735307
762.000000	48.847731
763.000000	48.942559
764.000000	49.060821
765.000000	49.199445
766.000000	49.311581
767.000000	49.405853
768.000000	49.506228
769.000000	49.601312
770.000000	49.670207
771.000000	49.764856
772.000000	49.861374
773.000000	49.969909
774.000000	50.046816
775.000000	50.128664
776.000000	50.248577
777.000000	50.331257
778.000000	50.429714
779.000000	50.544119
780.000000	50.636472
781.000000	50.739766
782.000000	50.839948
783.000000	50.911608
784.000000	50.998317
785.000000	51.126599
786.000000	51.232407
787.000000	51.288266
788.000000	51.377575
789.000000	51.485629
790.000000	51.566282
791.000000	51.667495
792.000000	51.754522
793.000000	51.867889
794.000000	51.967886
795.000000	52.076213
796.000000	52.135648
797.000000	52.207678
798.000000	52.292515
799.000000	52.408095
800.000000	52.530564
801.000000	52.621004
802.000000	52.672332
803.000000	52.785812
804.000000	52.893262
805.000000	52.946471
806.000000	53.054511
807.000000	53.176887
808.000000	53.330730
809.000000	53.438866
810.000000	53.558747
811.000000	53.627652
812.000000	53.700459
813.000000	53.851787
814.000000	53.964903
815.000000	54.115194
816.000000	54.204939
817.000000	54.257687
818.000000	54.332947
819.000000	54.462439
820.000000	54.616456
821.000000	54.776258
822.000000	54.901480
823.000000	54.965051
824.000000	55.069617
825.000000	55.190367
826.000000	55.298090
827.000000	55.392239
828.000000	55.499904
829.000000	55.646875
830.000000	55.805627
831.000000	55.928932
832.000000	55.940606
833.000000	56.050509
834.000000	56.213187
835.000000	56.354524
836.000000	56.420176
837.000000	56.478059
838.000000	56.535283
839.000000	56.729998
840.000000	56.741795
841.000000	56.825286
842.000000	56.928832
843.000000	56.991315
844.000000	57.016863
845.000000	57.082065
846.000000	57.182224
847.000000	57.316328
848.000000	57.427961
849.000000	57.415134
850.000000	57.408325
851.000000	57.573689
852.000000	57.654766
853.000000	57.562726
854.000000	57.805161
855.000000	57.696200
856.000000	57.910739
857.000000	57.759412
858.000000	58.092340
859.000000	57.588940
860.000000	57.705260
861.000000	57.830320
862.000000	57.988480
863.000000	58.164020
864.000000	58.317420
865.000000	58.500420
866.000000	58.661420
867.000000	58.835280
868.000000	59.008100
869.000000	59.133580
870.000000	59.281020
871.000000	59.399820
872.000000	59.529320
873.000000	59.619800
874.000000	59.746920
875.000000	59.845900
876.000000	59.991160
877.000000	60.073280
878.000000	60.150080
879.000000	60.259960
880.000000	60.338480
881.000000	60.409140
882.000000	60.457020
883.000000	60.556620
884.000000	60.623960
885.000000	60.638120
886.000000	60.667240
887.000000	60.728560
888.000000	60.763840
889.000000	60.776680
890.000000	60.796080
891.000000	60.836240
892.000000	60.832340
893.000000	60.838520
894.000000	60.834940
895.000000	60.851720
896.000000	60.849160
897.000000	60.842580
898.000000	60.835420
899.000000	60.814500
900.000000	60.812100
901.000000	60.783640
902.000000	60.777180
903.000000	60.774020
904.000000	60.757280
905.000000	60.723640
906.000000	60.710320
907.000000	60.692880
908.000000	60.675060
909.000000	60.676680
910.000000	60.673920
911.000000	60.658600
912.000000	60.660980
913.000000	60.650680
914.000000	60.650340
915.000000	60.664320
916.000000	60.675100
917.000000	60.686420
918.000000	60.673480
919.000000	60.670340
920.000000	60.657640
921.000000	60.636940
922.000000	60.627240
923.000000	60.621580
924.000000	60.612680
925.000000	60.608380
926.000000	60.576020
927.000000	60.556660
928.000000	60.553460
929.000000	60.559220
930.000000	60.539040
931.000000	60.513760
932.000000	60.502780
933.000000	60.466440
934.000000	60.423980
935.000000	60.388720
936.000000	60.347440
937.000000	60.314900
938.000000	60.255980
939.000000	60.231560
940.000000	60.220060
941.000000	60.198440
942.000000	60.154140
943.000000	60.124160
944.000000	60.098620
945.000000	60.061960
946.000000	60.018460
947.000000	59.990560
948.000000	59.928120
949.000000	59.902660
950.000000	59.864580
951.000000	59.816060
952.000000	59.767620
953.000000	59.720420
954.000000	59.667600
955.000000	59.622760
956.000000	59.580260
957.000000	59.511000
958.000000	59.458360
959.000000	59.401380
960.000000	59.352900
961.000000	59.291520
962.000000	59.219480
963.000000	59.162840
964.000000	59.119080
965.000000	59.067120
966.000000	59.003160
967.000000	58.949120
968.000000	58.893640
969.000000	58.853060
970.000000	58.804800
971.000000	58.768100
972.000000	58.706520
973.000000	58.656220
974.000000	58.613680
975.000000	58.563860
976.000000	58.512700
977.000000	58.466400
978.000000	58.429800
979.000000	58.388220
980.000000	58.340840
981.000000	58.295440
982.000000	58.247680
983.000000	58.207020
984.000000	58.167660
985.000000	58.130480
986.000000	58.095580
987.000000	58.060040
988.000000	58.007540
989.000000	57.970780
990.000000	57.930120
991.000000	57.900020
992.000000	57.871600
993.000000	57.836480
994.000000	57.788560
995.000000	57.757660
996.000000	57.743320
997.000000	57.713140
998.000000	57.677700
999.000000	57.649860
1000.000000	57.613200
1001.000000	57.584760
1002.000000	57.565660
1003.000000	57.533900
1004.000000	57.504760
1005.000000	57.472320
1006.000000	57.431840
1007.000000	57.397020
1008.000000	57.360040
1009.000000	57.327760
1010.000000	57.292420
1011.000000	57.256860
1012.000000	57.228180
1013.000000	57.208780
1014.000000	57.190660
1015.000000	57.183580
1016.000000	57.175840
1017.000000	57.166760
1018.000000	57.168540
1019.000000	57.166740
1020.000000	57.170320
1021.000000	57.181220
1022.000000	57.192380
1023.000000	57.207120
1024.000000	57.227020
1025.000000	57.244500
1026.000000	57.259060
1027.000000	57.273460
1028.000000	57.292240
1029.000000	57.310120
1030.000000	57.323520
1031.000000	57.343100
1032.000000	57.362540
1033.000000	57.376260
1034.000000	57.393380
1035.000000	57.401480
1036.000000	57.409260
1037.000000	57.428620
1038.000000	57.445140
1039.000000	57.452540
1040.000000	57.459240
1041.000000	57.473740
1042.000000	57.486140
1043.000000	57.500300
1044.000000	57.519080
1045.000000	57.536920
1046.000000	57.549780
1047.000000	57.560380
1048.000000	57.575420
1049.000000	57.600760
1050.000000	57.629040
1051.000000	57.654680
1052.000000	57.681320
1053.000000	57.715560
1054.000000	57.753060
1055.000000	57.786440
1056.000000	57.825060
1057.000000	57.865940
1058.000000	57.903980
1059.000000	57.944880
1060.000000	57.992120
1061.000000	58.037880
1062.000000	58.085380
1063.000000	58.116660
1064.000000	58.158340
1065.000000	58.202580
1066.000000	58.242700
1067.000000	58.280580
1068.000000	58.313640
1069.000000	58.356920
1070.000000	58.398640
1071.000000	58.441280
1072.000000	58.477380
1073.000000	58.518660
1074.000000	58.556420
1075.000000	58.595400
1076.000000	58.631140
1077.000000	58.665080
1078.000000	58.702760
1079.000000	58.746260
1080.000000	58.782760
1081.000000	58.822820
1082.000000	58.856200
1083.000000	58.896760
1084.000000	58.941040
1085.000000	58.972740
1086.000000	59.016360
1087.000000	59.064320
1088.000000	59.099900
1089.000000	59.133140
1090.000000	59.169100
1091.000000	59.207160
1092.000000	59.232280
1093.000000	59.258360
1094.000000	59.290620
1095.000000	59.314060
1096.000000	59.334940
1097.000000	59.363820
1098.000000	59.387600
1099.000000	59.414600
1100.000000	59.438500
1101.000000	59.451020
1102.000000	59.467000
1103.000000	59.484120
1104.000000	59.495300
1105.000000	59.504940
1106.000000	59.517180
1107.000000	59.520520
1108.000000	59.534120
1109.000000	59.548340
1110.000000	59.556860
1111.000000	59.570900
1112.000000	59.571160
1113.000000	59.588980
1114.000000	59.596220
1115.000000	59.611860
1116.000000	59.622420
1117.000000	59.618720
1118.000000	59.618200
1119.000000	59.614440
1120.000000	59.601920
1121.000000	59.575680
1122.000000	59.552740
1123.000000	59.498880
1124.000000	59.451800
1125.000000	59.392380
1126.000000	59.335340
1127.000000	59.247340
1128.000000	59.164720
1129.000000	59.041100
1130.000000	58.887460
1131.000000	58.711280
1132.000000	58.539980
1133.000000	58.354560
1134.000000	58.168420
1135.000000	57.898440
1136.000000	57.593040
1137.000000	57.314420
1138.000000	57.031760
1139.000000	56.759180
1140.000000	56.498920
1141.000000	56.251480
1142.000000	56.008860
1143.000000	55.778160
1144.000000	55.558540
1145.000000	55.370460
1146.000000	55.210100
1147.000000	55.108660
1148.000000	55.048260
1149.000000	55.032120
1150.000000	55.018880
1151.000000	55.012920
1152.000000	54.987060
1153.000000	54.955640
1154.000000	54.892000
1155.000000	54.787540
1156.000000	54.650400
1157.000000	54.448840
1158.000000	54.235460
1159.000000	53.978940
1160.000000	53.711540
1161.000000	53.456280
1162.000000	53.168040
1163.000000	52.882860
1164.000000	52.588160
1165.000000	52.298520
1166.000000	52.009220
1167.000000	51.717440
1168.000000	51.429200
