PE UV       SUBTECH     SPECTRUM    ASCII       PEDS        4.00        
   -1
CICIMAUCR0019-7.Sample.ASC
24/04/25
16:57:29.00
24/04/25
16:57:29.00
Vinicio Soto Monge
C. cupreomarginata
250,000000
1
Lambda 1050
1050L1511233
PerkinElmer UV WinLab 6.3.2.0749 / 2.02.05 Lambda 900 UV/VIS/NIR, Aug  7 2015 09:38:08

0
0
3350/servo 860,8/2
0
0
UV/VIS
1
1
1
DoubleDePol,CommonBeamDepol,RBeamAtt,SBeamAtt,60mm sphere, WB InGaAs Detector
0
0
0
0
Program
Program
3350/servo 860,8/2
3350/0,2 860,8/0,2
3350/0,2 860,8/0,2
0
15.00
 
 
 
0
 
860,8
319,2
860,8
Front
100
on
S:100 R:100
0
0
0
0
 
0
 
 
 
0
 
 
0
0
0
0
0
 
 
 
 
0
0


0
0
#HDR
-1
-1
#GR
nm
%R
1.0
0.0
2500,000000
-1,000000
2251
8
70,963300
5,343700
#DATA
250.000000	5.109535
251.000000	5.100344
252.000000	5.095404
253.000000	5.064406
254.000000	5.057418
255.000000	5.041867
256.000000	5.025258
257.000000	4.994482
258.000000	5.015209
259.000000	4.987948
260.000000	4.969503
261.000000	4.959140
262.000000	4.915899
263.000000	4.899090
264.000000	4.885632
265.000000	4.846967
266.000000	4.831857
267.000000	4.808758
268.000000	4.784187
269.000000	4.778867
270.000000	4.768149
271.000000	4.746319
272.000000	4.728677
273.000000	4.704039
274.000000	4.703206
275.000000	4.705781
276.000000	4.706244
277.000000	4.666657
278.000000	4.662873
279.000000	4.673596
280.000000	4.652325
281.000000	4.649789
282.000000	4.648528
283.000000	4.627549
284.000000	4.592694
285.000000	4.593674
286.000000	4.572877
287.000000	4.615276
288.000000	4.597856
289.000000	4.575376
290.000000	4.586536
291.000000	4.583916
292.000000	4.575556
293.000000	4.546467
294.000000	4.538214
295.000000	4.546701
296.000000	4.561392
297.000000	4.541498
298.000000	4.514757
299.000000	4.541479
300.000000	4.510147
301.000000	4.529252
302.000000	4.502097
303.000000	4.499856
304.000000	4.478224
305.000000	4.486858
306.000000	4.490713
307.000000	4.500261
308.000000	4.485363
309.000000	4.473100
310.000000	4.474547
311.000000	4.456596
312.000000	4.471017
313.000000	4.459714
314.000000	4.482684
315.000000	4.468491
316.000000	4.495587
317.000000	5.112208
318.000000	4.830181
319.000000	4.806737
320.000000	4.962492
321.000000	4.682343
322.000000	4.850161
323.000000	4.749985
324.000000	4.712166
325.000000	4.556134
326.000000	4.600595
327.000000	4.620450
328.000000	4.582685
329.000000	4.618091
330.000000	4.558548
331.000000	4.601885
332.000000	4.635135
333.000000	4.619274
334.000000	4.522001
335.000000	4.468414
336.000000	4.502274
337.000000	4.490413
338.000000	4.495349
339.000000	4.487113
340.000000	4.520115
341.000000	4.561539
342.000000	4.496922
343.000000	4.467740
344.000000	4.512727
345.000000	4.560681
346.000000	4.552540
347.000000	4.522005
348.000000	4.543498
349.000000	4.588372
350.000000	4.600009
351.000000	4.605460
352.000000	4.600516
353.000000	4.554864
354.000000	4.573946
355.000000	4.589397
356.000000	4.577141
357.000000	4.588830
358.000000	4.599832
359.000000	4.565602
360.000000	4.658573
361.000000	4.701869
362.000000	4.672188
363.000000	4.665503
364.000000	4.738925
365.000000	4.772940
366.000000	4.742751
367.000000	4.769011
368.000000	4.831991
369.000000	4.855698
370.000000	4.893000
371.000000	4.921603
372.000000	4.842146
373.000000	4.856138
374.000000	4.866000
375.000000	5.005670
376.000000	5.236003
377.000000	5.366242
378.000000	5.445690
379.000000	5.528576
380.000000	5.621320
381.000000	5.716629
382.000000	5.814864
383.000000	5.918630
384.000000	6.035665
385.000000	6.160452
386.000000	6.282555
387.000000	6.407373
388.000000	6.532759
389.000000	6.670757
390.000000	6.807142
391.000000	6.947555
392.000000	7.104562
393.000000	7.249013
394.000000	7.389372
395.000000	7.547946
396.000000	7.700884
397.000000	7.846072
398.000000	7.993355
399.000000	8.144171
400.000000	8.290493
401.000000	8.438059
402.000000	8.583340
403.000000	8.721457
404.000000	8.853907
405.000000	9.002855
406.000000	9.140938
407.000000	9.271710
408.000000	9.397037
409.000000	9.515115
410.000000	9.631601
411.000000	9.741786
412.000000	9.855232
413.000000	9.965962
414.000000	10.068530
415.000000	10.172096
416.000000	10.276002
417.000000	10.365448
418.000000	10.444330
419.000000	10.527200
420.000000	10.598026
421.000000	10.659199
422.000000	10.733482
423.000000	10.802492
424.000000	10.861781
425.000000	10.925697
426.000000	10.977526
427.000000	11.024226
428.000000	11.070129
429.000000	11.115557
430.000000	11.154801
431.000000	11.190051
432.000000	11.232928
433.000000	11.269678
434.000000	11.299892
435.000000	11.337196
436.000000	11.372101
437.000000	11.405367
438.000000	11.441728
439.000000	11.475777
440.000000	11.516896
441.000000	11.562558
442.000000	11.608706
443.000000	11.654660
444.000000	11.706933
445.000000	11.779253
446.000000	11.853176
447.000000	11.926875
448.000000	12.015353
449.000000	12.111360
450.000000	12.212630
451.000000	12.322491
452.000000	12.441726
453.000000	12.574101
454.000000	12.723721
455.000000	12.876463
456.000000	13.042403
457.000000	13.220823
458.000000	13.398143
459.000000	13.587031
460.000000	13.794779
461.000000	14.008543
462.000000	14.224166
463.000000	14.447346
464.000000	14.681821
465.000000	14.927320
466.000000	15.162605
467.000000	15.403207
468.000000	15.650689
469.000000	15.907911
470.000000	16.164983
471.000000	16.418584
472.000000	16.675699
473.000000	16.929863
474.000000	17.193778
475.000000	17.452852
476.000000	17.707454
477.000000	17.971401
478.000000	18.232022
479.000000	18.499585
480.000000	18.775225
481.000000	19.041876
482.000000	19.311433
483.000000	19.586520
484.000000	19.873094
485.000000	20.161749
486.000000	20.457257
487.000000	20.758425
488.000000	21.061751
489.000000	21.384915
490.000000	21.708999
491.000000	22.050110
492.000000	22.404445
493.000000	22.769896
494.000000	23.148194
495.000000	23.547509
496.000000	23.959274
497.000000	24.371976
498.000000	24.798356
499.000000	25.233935
500.000000	25.683109
501.000000	26.155521
502.000000	26.631366
503.000000	27.141572
504.000000	27.661048
505.000000	28.184850
506.000000	28.722796
507.000000	29.268350
508.000000	29.844865
509.000000	30.444615
510.000000	31.057771
511.000000	31.681369
512.000000	32.325095
513.000000	32.994074
514.000000	33.677504
515.000000	34.370967
516.000000	35.092632
517.000000	35.835554
518.000000	36.582562
519.000000	37.349218
520.000000	38.130378
521.000000	38.946563
522.000000	39.772397
523.000000	40.602530
524.000000	41.453480
525.000000	42.308164
526.000000	43.163658
527.000000	44.008432
528.000000	44.850031
529.000000	45.689542
530.000000	46.527380
531.000000	47.348888
532.000000	48.158147
533.000000	48.946127
534.000000	49.725493
535.000000	50.461597
536.000000	51.175087
537.000000	51.858893
538.000000	52.510529
539.000000	53.121733
540.000000	53.693261
541.000000	54.251150
542.000000	54.760809
543.000000	55.220148
544.000000	55.651876
545.000000	56.050929
546.000000	56.401857
547.000000	56.726618
548.000000	57.029542
549.000000	57.296651
550.000000	57.526577
551.000000	57.731558
552.000000	57.940117
553.000000	58.097905
554.000000	58.263433
555.000000	58.381718
556.000000	58.495447
557.000000	58.584653
558.000000	58.671122
559.000000	58.740501
560.000000	58.830744
561.000000	58.899731
562.000000	58.941058
563.000000	58.982058
564.000000	59.000352
565.000000	59.013317
566.000000	59.022762
567.000000	59.011694
568.000000	58.997719
569.000000	58.948493
570.000000	58.900514
571.000000	58.796162
572.000000	58.720047
573.000000	58.599443
574.000000	58.463843
575.000000	58.322297
576.000000	58.163752
577.000000	57.982959
578.000000	57.804497
579.000000	57.614959
580.000000	57.383988
581.000000	57.176503
582.000000	56.953884
583.000000	56.727642
584.000000	56.472679
585.000000	56.244687
586.000000	55.980602
587.000000	55.700053
588.000000	55.461877
589.000000	55.167934
590.000000	54.892399
591.000000	54.618722
592.000000	54.305199
593.000000	54.004463
594.000000	53.686520
595.000000	53.316494
596.000000	52.964767
597.000000	52.593739
598.000000	52.189524
599.000000	51.769486
600.000000	51.334564
601.000000	50.868167
602.000000	50.390939
603.000000	49.863559
604.000000	49.355041
605.000000	48.804029
606.000000	48.262558
607.000000	47.717945
608.000000	47.169633
609.000000	46.628677
610.000000	46.101330
611.000000	45.570549
612.000000	45.065550
613.000000	44.565629
614.000000	44.082368
615.000000	43.607323
616.000000	43.172148
617.000000	42.751174
618.000000	42.353558
619.000000	41.980704
620.000000	41.647508
621.000000	41.335363
622.000000	41.020539
623.000000	40.738520
624.000000	40.506932
625.000000	40.269093
626.000000	40.085110
627.000000	39.964090
628.000000	39.853310
629.000000	39.791685
630.000000	39.763327
631.000000	39.780908
632.000000	39.834657
633.000000	39.904936
634.000000	40.034861
635.000000	40.185017
636.000000	40.365819
637.000000	40.553981
638.000000	40.755530
639.000000	40.958637
640.000000	41.177510
641.000000	41.375566
642.000000	41.565510
643.000000	41.761646
644.000000	41.957276
645.000000	42.115077
646.000000	42.292076
647.000000	42.427264
648.000000	42.585800
649.000000	42.716420
650.000000	42.848252
651.000000	42.990560
652.000000	43.118393
653.000000	43.251330
654.000000	43.373586
655.000000	43.491545
656.000000	43.611888
657.000000	43.667237
658.000000	43.762028
659.000000	43.847320
660.000000	43.909368
661.000000	43.985480
662.000000	44.044697
663.000000	44.120840
664.000000	44.166352
665.000000	44.216583
666.000000	44.269788
667.000000	44.323726
668.000000	44.388531
669.000000	44.456818
670.000000	44.534094
671.000000	44.594285
672.000000	44.676574
673.000000	44.765622
674.000000	44.863869
675.000000	44.966294
676.000000	45.075617
677.000000	45.189371
678.000000	45.321333
679.000000	45.433422
680.000000	45.552997
681.000000	45.700592
682.000000	45.855325
683.000000	45.966416
684.000000	46.108536
685.000000	46.249130
686.000000	46.369428
687.000000	46.519415
688.000000	46.662927
689.000000	46.791145
690.000000	46.911198
691.000000	47.065843
692.000000	47.214571
693.000000	47.347743
694.000000	47.499290
695.000000	47.648566
696.000000	47.778057
697.000000	47.901480
698.000000	48.045698
699.000000	48.189294
700.000000	48.318964
701.000000	48.435489
702.000000	48.529003
703.000000	48.650253
704.000000	48.749999
705.000000	48.836326
706.000000	48.918431
707.000000	48.994857
708.000000	49.062275
709.000000	49.152014
710.000000	49.226802
711.000000	49.290394
712.000000	49.368796
713.000000	49.441010
714.000000	49.488144
715.000000	49.553257
716.000000	49.602305
717.000000	49.637668
718.000000	49.696592
719.000000	49.723318
720.000000	49.772340
721.000000	49.825953
722.000000	49.847759
723.000000	49.873571
724.000000	49.918496
725.000000	49.946955
726.000000	49.962709
727.000000	50.010410
728.000000	50.029311
729.000000	50.030943
730.000000	50.064549
731.000000	50.095432
732.000000	50.119494
733.000000	50.174039
734.000000	50.208340
735.000000	50.232678
736.000000	50.292656
737.000000	50.340216
738.000000	50.377702
739.000000	50.420928
740.000000	50.462637
741.000000	50.502604
742.000000	50.536288
743.000000	50.581498
744.000000	50.638631
745.000000	50.698102
746.000000	50.735508
747.000000	50.791027
748.000000	50.846159
749.000000	50.892936
750.000000	50.986649
751.000000	51.069205
752.000000	51.103346
753.000000	51.152544
754.000000	51.231021
755.000000	51.313966
756.000000	51.342835
757.000000	51.378603
758.000000	51.464528
759.000000	51.519996
760.000000	51.576427
761.000000	51.617589
762.000000	51.690632
763.000000	51.762397
764.000000	51.804149
765.000000	51.818385
766.000000	51.876248
767.000000	51.931330
768.000000	51.948211
769.000000	52.013938
770.000000	52.087235
771.000000	52.139745
772.000000	52.198643
773.000000	52.232964
774.000000	52.285416
775.000000	52.318824
776.000000	52.335029
777.000000	52.388138
778.000000	52.458339
779.000000	52.503053
780.000000	52.526266
781.000000	52.546190
782.000000	52.613987
783.000000	52.683145
784.000000	52.750920
785.000000	52.814458
786.000000	52.853795
787.000000	52.924443
788.000000	53.021526
789.000000	53.098644
790.000000	53.133749
791.000000	53.185047
792.000000	53.245723
793.000000	53.302065
794.000000	53.333540
795.000000	53.413348
796.000000	53.476222
797.000000	53.577293
798.000000	53.650264
799.000000	53.654252
800.000000	53.725808
801.000000	53.795647
802.000000	53.876145
803.000000	53.977181
804.000000	54.040163
805.000000	54.120701
806.000000	54.205866
807.000000	54.201071
808.000000	54.315769
809.000000	54.384223
810.000000	54.460570
811.000000	54.534025
812.000000	54.658709
813.000000	54.680596
814.000000	54.840766
815.000000	54.920749
816.000000	54.965126
817.000000	55.024006
818.000000	55.112507
819.000000	55.162256
820.000000	55.281800
821.000000	55.363495
822.000000	55.433717
823.000000	55.524639
824.000000	55.602179
825.000000	55.641064
826.000000	55.714193
827.000000	55.830248
828.000000	55.870007
829.000000	55.913734
830.000000	55.925664
831.000000	56.016912
832.000000	56.175445
833.000000	56.158064
834.000000	56.199430
835.000000	56.226337
836.000000	56.222788
837.000000	56.293929
838.000000	56.274943
839.000000	56.367839
840.000000	56.460285
841.000000	56.478053
842.000000	56.514118
843.000000	56.482872
844.000000	56.391153
845.000000	56.379829
846.000000	56.454689
847.000000	56.356143
848.000000	56.401206
849.000000	56.496828
850.000000	56.321387
851.000000	56.269992
852.000000	56.342671
853.000000	56.469588
854.000000	56.366701
855.000000	56.302349
856.000000	56.208418
857.000000	56.187835
858.000000	57.468700
859.000000	55.886950
860.000000	55.861175
861.000000	55.835975
862.000000	55.791000
863.000000	55.734525
864.000000	55.685575
865.000000	55.693325
866.000000	55.856400
867.000000	56.237200
868.000000	56.644800
869.000000	57.113850
870.000000	57.533850
871.000000	57.974025
872.000000	58.312525
873.000000	58.647700
874.000000	58.880600
875.000000	59.178650
876.000000	59.395275
877.000000	59.660825
878.000000	59.845850
879.000000	60.084825
880.000000	60.241875
881.000000	60.438100
882.000000	60.589025
883.000000	60.709675
884.000000	60.870925
885.000000	60.965050
886.000000	61.079600
887.000000	61.168300
888.000000	61.250150
889.000000	61.310800
890.000000	61.368250
891.000000	61.427175
892.000000	61.473175
893.000000	61.491600
894.000000	61.529000
895.000000	61.519875
896.000000	61.508100
897.000000	61.494050
898.000000	61.499075
899.000000	61.471675
900.000000	61.456075
901.000000	61.429100
902.000000	61.394200
903.000000	61.375625
904.000000	61.328400
905.000000	61.277950
906.000000	61.241425
907.000000	61.207250
908.000000	61.186700
909.000000	61.153125
910.000000	61.131175
911.000000	61.105275
912.000000	61.085225
913.000000	61.082525
914.000000	61.035725
915.000000	61.025425
916.000000	61.026525
917.000000	60.979575
918.000000	60.957350
919.000000	60.948550
920.000000	60.925175
921.000000	60.859400
922.000000	60.834950
923.000000	60.792675
924.000000	60.751900
925.000000	60.718950
926.000000	60.692800
927.000000	60.623575
928.000000	60.591375
929.000000	60.566275
930.000000	60.523525
931.000000	60.493950
932.000000	60.421475
933.000000	60.394675
934.000000	60.334325
935.000000	60.296975
936.000000	60.270175
937.000000	60.207600
938.000000	60.179025
939.000000	60.152000
940.000000	60.116725
941.000000	60.079325
942.000000	60.061675
943.000000	60.029700
944.000000	59.997400
945.000000	59.968675
946.000000	59.953800
947.000000	59.919325
948.000000	59.894125
949.000000	59.873750
950.000000	59.849525
951.000000	59.818050
952.000000	59.803800
953.000000	59.777050
954.000000	59.746350
955.000000	59.717050
956.000000	59.693475
957.000000	59.664300
958.000000	59.635300
959.000000	59.592825
960.000000	59.561475
961.000000	59.525625
962.000000	59.482425
963.000000	59.463225
964.000000	59.420225
965.000000	59.394800
966.000000	59.365600
967.000000	59.347425
968.000000	59.325225
969.000000	59.306200
970.000000	59.277700
971.000000	59.266525
972.000000	59.240350
973.000000	59.212175
974.000000	59.187750
975.000000	59.175250
976.000000	59.160075
977.000000	59.133400
978.000000	59.107800
979.000000	59.090450
980.000000	59.053925
981.000000	59.038625
982.000000	59.034550
983.000000	59.006000
984.000000	58.979000
985.000000	58.957300
986.000000	58.942725
987.000000	58.920075
988.000000	58.903950
989.000000	58.887650
990.000000	58.868525
991.000000	58.856725
992.000000	58.842700
993.000000	58.842600
994.000000	58.838450
995.000000	58.821725
996.000000	58.811200
997.000000	58.808800
998.000000	58.806300
999.000000	58.802550
1000.000000	58.797875
1001.000000	58.791425
1002.000000	58.800925
1003.000000	58.803825
1004.000000	58.798975
1005.000000	58.796175
1006.000000	58.790700
1007.000000	58.787975
1008.000000	58.787775
1009.000000	58.782625
1010.000000	58.780650
1011.000000	58.791350
1012.000000	58.808375
1013.000000	58.820375
1014.000000	58.844350
1015.000000	58.875300
1016.000000	58.911675
1017.000000	58.956475
1018.000000	59.006175
1019.000000	59.051325
1020.000000	59.102125
1021.000000	59.158725
1022.000000	59.220025
1023.000000	59.274550
1024.000000	59.331375
1025.000000	59.398150
1026.000000	59.459475
1027.000000	59.518600
1028.000000	59.583050
1029.000000	59.638825
1030.000000	59.693400
1031.000000	59.754650
1032.000000	59.820700
1033.000000	59.868950
1034.000000	59.913550
1035.000000	59.972700
1036.000000	60.023050
1037.000000	60.072000
1038.000000	60.122575
1039.000000	60.174475
1040.000000	60.217250
1041.000000	60.258875
1042.000000	60.304350
1043.000000	60.348200
1044.000000	60.391850
1045.000000	60.434925
1046.000000	60.484275
1047.000000	60.524800
1048.000000	60.575225
1049.000000	60.629800
1050.000000	60.667575
1051.000000	60.715500
1052.000000	60.775675
1053.000000	60.829100
1054.000000	60.881925
1055.000000	60.939200
1056.000000	60.999075
1057.000000	61.061100
1058.000000	61.126400
1059.000000	61.179550
1060.000000	61.229100
1061.000000	61.290300
1062.000000	61.348400
1063.000000	61.405300
1064.000000	61.458750
1065.000000	61.507550
1066.000000	61.563625
1067.000000	61.612300
1068.000000	61.666300
1069.000000	61.717175
1070.000000	61.765350
1071.000000	61.815225
1072.000000	61.864600
1073.000000	61.908500
1074.000000	61.955250
1075.000000	62.007475
1076.000000	62.055400
1077.000000	62.103750
1078.000000	62.156575
1079.000000	62.199100
1080.000000	62.238450
1081.000000	62.285250
1082.000000	62.338900
1083.000000	62.386525
1084.000000	62.434500
1085.000000	62.481600
1086.000000	62.530725
1087.000000	62.585650
1088.000000	62.628675
1089.000000	62.668000
1090.000000	62.723500
1091.000000	62.764100
1092.000000	62.800800
1093.000000	62.845025
1094.000000	62.877500
1095.000000	62.910625
1096.000000	62.953650
1097.000000	62.987625
1098.000000	63.016425
1099.000000	63.045725
1100.000000	63.068225
1101.000000	63.095625
1102.000000	63.112825
1103.000000	63.143200
1104.000000	63.164375
1105.000000	63.183225
1106.000000	63.199175
1107.000000	63.222775
1108.000000	63.238450
1109.000000	63.248850
1110.000000	63.268475
1111.000000	63.285425
1112.000000	63.296450
1113.000000	63.310750
1114.000000	63.332050
1115.000000	63.344925
1116.000000	63.355325
1117.000000	63.374850
1118.000000	63.377225
1119.000000	63.371975
1120.000000	63.356075
1121.000000	63.333175
1122.000000	63.316825
1123.000000	63.285075
1124.000000	63.233650
1125.000000	63.168600
1126.000000	63.107450
1127.000000	63.016875
1128.000000	62.926450
1129.000000	62.799775
1130.000000	62.640625
1131.000000	62.453725
1132.000000	62.243450
1133.000000	62.002650
1134.000000	61.791050
1135.000000	61.519900
1136.000000	61.189225
1137.000000	60.873825
1138.000000	60.530400
1139.000000	60.212425
1140.000000	59.913425
1141.000000	59.611475
1142.000000	59.325750
1143.000000	59.029225
1144.000000	58.766350
1145.000000	58.548250
1146.000000	58.368325
1147.000000	58.246000
1148.000000	58.177875
1149.000000	58.155075
1150.000000	58.158050
1151.000000	58.151550
1152.000000	58.138600
1153.000000	58.113675
1154.000000	58.048100
1155.000000	57.934450
1156.000000	57.761700
1157.000000	57.556650
1158.000000	57.294325
1159.000000	57.011875
1160.000000	56.704475
1161.000000	56.384150
1162.000000	56.050300
1163.000000	55.723475
1164.000000	55.359575
1165.000000	55.007000
1166.000000	54.664575
1167.000000	54.315075
