PE UV       SUBTECH     SPECTRUM    ASCII       PEDS        4.00        
   -1
CICIMAUCR0015-3.Sample.ASC
24/04/12
11:43:14.00
24/04/12
11:43:14.00
Vinicio Soto Monge
C. resplendens
250,000000
1
Lambda 1050
1050L1511233
PerkinElmer UV WinLab 6.3.2.0749 / 2.02.05 Lambda 900 UV/VIS/NIR, Aug  7 2015 09:38:08

0
0
3350/servo 860,8/2
0
0
UV/VIS
1
1
1
DoubleDePol,CommonBeamDepol,RBeamAtt,SBeamAtt,60mm sphere, WB InGaAs Detector
0
0
0
0
Program
Program
3350/servo 860,8/2
3350/0,2 860,8/0,2
3350/0,2 860,8/0,2
0
15.00
 
 
 
0
 
860,8
319,2
860,8
Front
100
on
S:100 R:100
0
0
0
0
 
0
 
 
 
0
 
 
0
0
0
0
0
 
 
 
 
0
0


0
0
#HDR
-1
-1
#GR
nm
%R
1.0
0.0
2500,000000
-1,000000
2251
8
93,394800
5,535300
#DATA
250.000000	6.108967
251.000000	6.101900
252.000000	6.079567
253.000000	6.068200
254.000000	6.084167
255.000000	6.013767
256.000000	6.021300
257.000000	6.027367
258.000000	5.991533
259.000000	6.008267
260.000000	5.972633
261.000000	5.946767
262.000000	5.923067
263.000000	5.898633
264.000000	5.899067
265.000000	5.869833
266.000000	5.848567
267.000000	5.828233
268.000000	5.800367
269.000000	5.780900
270.000000	5.792600
271.000000	5.777733
272.000000	5.733333
273.000000	5.731400
274.000000	5.731267
275.000000	5.752300
276.000000	5.743667
277.000000	5.720467
278.000000	5.696333
279.000000	5.678100
280.000000	5.707267
281.000000	5.680167
282.000000	5.708967
283.000000	5.705167
284.000000	5.687000
285.000000	5.656067
286.000000	5.658500
287.000000	5.624100
288.000000	5.639567
289.000000	5.637833
290.000000	5.578200
291.000000	5.602633
292.000000	5.609867
293.000000	5.609033
294.000000	5.591300
295.000000	5.607600
296.000000	5.580667
297.000000	5.582700
298.000000	5.518800
299.000000	5.565067
300.000000	5.568700
301.000000	5.522133
302.000000	5.524833
303.000000	5.539033
304.000000	5.512400
305.000000	5.516700
306.000000	5.480033
307.000000	5.510733
308.000000	5.514233
309.000000	5.483400
310.000000	5.472200
311.000000	5.470100
312.000000	5.473233
313.000000	5.474467
314.000000	5.473067
315.000000	5.481033
316.000000	5.506333
317.000000	5.786800
318.000000	5.792767
319.000000	5.730900
320.000000	5.733900
321.000000	5.729100
322.000000	5.593500
323.000000	5.871500
324.000000	5.800133
325.000000	5.690833
326.000000	5.645633
327.000000	5.723667
328.000000	5.717600
329.000000	5.565000
330.000000	5.661667
331.000000	5.643267
332.000000	5.678433
333.000000	5.607467
334.000000	5.591167
335.000000	5.655900
336.000000	5.650400
337.000000	5.619600
338.000000	5.651800
339.000000	5.651200
340.000000	5.615200
341.000000	5.673033
342.000000	5.796367
343.000000	5.721167
344.000000	5.706900
345.000000	5.702367
346.000000	5.711867
347.000000	5.708267
348.000000	5.749700
349.000000	5.766267
350.000000	5.787567
351.000000	5.831667
352.000000	5.823133
353.000000	5.844633
354.000000	5.959967
355.000000	6.034600
356.000000	6.119567
357.000000	6.195967
358.000000	6.234033
359.000000	6.298167
360.000000	6.380467
361.000000	6.454367
362.000000	6.560500
363.000000	6.560867
364.000000	6.617233
365.000000	6.699867
366.000000	6.795233
367.000000	6.902967
368.000000	6.973600
369.000000	7.067767
370.000000	7.142000
371.000000	7.241700
372.000000	7.343533
373.000000	7.456567
374.000000	7.545100
375.000000	7.717600
376.000000	8.071933
377.000000	8.145033
378.000000	8.328833
379.000000	8.538267
380.000000	8.753167
381.000000	8.980467
382.000000	9.216933
383.000000	9.468167
384.000000	9.728500
385.000000	10.000567
386.000000	10.287067
387.000000	10.587167
388.000000	10.891867
389.000000	11.206533
390.000000	11.541833
391.000000	11.878800
392.000000	12.235367
393.000000	12.591933
394.000000	12.957833
395.000000	13.326933
396.000000	13.696867
397.000000	14.066900
398.000000	14.435733
399.000000	14.811767
400.000000	15.191767
401.000000	15.566167
402.000000	15.933167
403.000000	16.305000
404.000000	16.665233
405.000000	17.030500
406.000000	17.373367
407.000000	17.712367
408.000000	18.045200
409.000000	18.356467
410.000000	18.677867
411.000000	18.994300
412.000000	19.291433
413.000000	19.572467
414.000000	19.843700
415.000000	20.098233
416.000000	20.343267
417.000000	20.583933
418.000000	20.810700
419.000000	21.023533
420.000000	21.214800
421.000000	21.399767
422.000000	21.580067
423.000000	21.738267
424.000000	21.882867
425.000000	22.010600
426.000000	22.128567
427.000000	22.231900
428.000000	22.312633
429.000000	22.381867
430.000000	22.433933
431.000000	22.471367
432.000000	22.497200
433.000000	22.499800
434.000000	22.488267
435.000000	22.463233
436.000000	22.428133
437.000000	22.383333
438.000000	22.321200
439.000000	22.235367
440.000000	22.139367
441.000000	22.039033
442.000000	21.928600
443.000000	21.818800
444.000000	21.694033
445.000000	21.540333
446.000000	21.396633
447.000000	21.257067
448.000000	21.136733
449.000000	21.037400
450.000000	20.940733
451.000000	20.842467
452.000000	20.779300
453.000000	20.745233
454.000000	20.743533
455.000000	20.788100
456.000000	20.857933
457.000000	20.967800
458.000000	21.117267
459.000000	21.308600
460.000000	21.554200
461.000000	21.851200
462.000000	22.181467
463.000000	22.565467
464.000000	22.987933
465.000000	23.438367
466.000000	23.918767
467.000000	24.430467
468.000000	24.958367
469.000000	25.494267
470.000000	26.045267
471.000000	26.590367
472.000000	27.124667
473.000000	27.654433
474.000000	28.161133
475.000000	28.643133
476.000000	29.087567
477.000000	29.518300
478.000000	29.909267
479.000000	30.263967
480.000000	30.601800
481.000000	30.900700
482.000000	31.162700
483.000000	31.392400
484.000000	31.581267
485.000000	31.730733
486.000000	31.838333
487.000000	31.932967
488.000000	32.019200
489.000000	32.093633
490.000000	32.164267
491.000000	32.226633
492.000000	32.295233
493.000000	32.369733
494.000000	32.464267
495.000000	32.593600
496.000000	32.751200
497.000000	32.950700
498.000000	33.198133
499.000000	33.513867
500.000000	33.907700
501.000000	34.372400
502.000000	34.923767
503.000000	35.548533
504.000000	36.260533
505.000000	37.039567
506.000000	37.885400
507.000000	38.814500
508.000000	39.802633
509.000000	40.868333
510.000000	41.997267
511.000000	43.192033
512.000000	44.421367
513.000000	45.702267
514.000000	47.029333
515.000000	48.386300
516.000000	49.754633
517.000000	51.116000
518.000000	52.480067
519.000000	53.848167
520.000000	55.207433
521.000000	56.537800
522.000000	57.846067
523.000000	59.109767
524.000000	60.339800
525.000000	61.513167
526.000000	62.638700
527.000000	63.719800
528.000000	64.759333
529.000000	65.756400
530.000000	66.722567
531.000000	67.660200
532.000000	68.560000
533.000000	69.422500
534.000000	70.265433
535.000000	71.087533
536.000000	71.853533
537.000000	72.611600
538.000000	73.332300
539.000000	74.020667
540.000000	74.721600
541.000000	75.407433
542.000000	76.065500
543.000000	76.706900
544.000000	77.314533
545.000000	77.898033
546.000000	78.467767
547.000000	79.024233
548.000000	79.556067
549.000000	80.045733
550.000000	80.532167
551.000000	80.992267
552.000000	81.435533
553.000000	81.879933
554.000000	82.268567
555.000000	82.643067
556.000000	83.020000
557.000000	83.386933
558.000000	83.716567
559.000000	84.014967
560.000000	84.247500
561.000000	84.524067
562.000000	84.803233
563.000000	85.046100
564.000000	85.271033
565.000000	85.472600
566.000000	85.651167
567.000000	85.836200
568.000000	85.976233
569.000000	86.104933
570.000000	86.210067
571.000000	86.314500
572.000000	86.417167
573.000000	86.481933
574.000000	86.571133
575.000000	86.611067
576.000000	86.654100
577.000000	86.678333
578.000000	86.700367
579.000000	86.686800
580.000000	86.643000
581.000000	86.588267
582.000000	86.550233
583.000000	86.451400
584.000000	86.348067
585.000000	86.203133
586.000000	86.049300
587.000000	85.902533
588.000000	85.731833
589.000000	85.512100
590.000000	85.254233
591.000000	85.021033
592.000000	84.720533
593.000000	84.457033
594.000000	84.163400
595.000000	83.809167
596.000000	83.479633
597.000000	83.138900
598.000000	82.747533
599.000000	82.333667
600.000000	81.910400
601.000000	81.437233
602.000000	80.949933
603.000000	80.445967
604.000000	79.860933
605.000000	79.297267
606.000000	78.686500
607.000000	78.068800
608.000000	77.373133
609.000000	76.702767
610.000000	75.993067
611.000000	75.252100
612.000000	74.520800
613.000000	73.756700
614.000000	72.965033
615.000000	72.142833
616.000000	71.339367
617.000000	70.481767
618.000000	69.633200
619.000000	68.732567
620.000000	67.798967
621.000000	66.848033
622.000000	65.876800
623.000000	64.915300
624.000000	63.922333
625.000000	62.984167
626.000000	62.023933
627.000000	61.113200
628.000000	60.224733
629.000000	59.351367
630.000000	58.560100
631.000000	57.808033
632.000000	57.137633
633.000000	56.510767
634.000000	55.969667
635.000000	55.511467
636.000000	55.113667
637.000000	54.824467
638.000000	54.621633
639.000000	54.509100
640.000000	54.451433
641.000000	54.517733
642.000000	54.658533
643.000000	54.863067
644.000000	55.175367
645.000000	55.559433
646.000000	56.038700
647.000000	56.534367
648.000000	57.091567
649.000000	57.738100
650.000000	58.435700
651.000000	59.165267
652.000000	59.940500
653.000000	60.718967
654.000000	61.507333
655.000000	62.288233
656.000000	63.045000
657.000000	63.793367
658.000000	64.497767
659.000000	65.207267
660.000000	65.868133
661.000000	66.494667
662.000000	67.060267
663.000000	67.603667
664.000000	68.135233
665.000000	68.613167
666.000000	69.066467
667.000000	69.463167
668.000000	69.853900
669.000000	70.248733
670.000000	70.600600
671.000000	70.948767
672.000000	71.254300
673.000000	71.536467
674.000000	71.807800
675.000000	72.061333
676.000000	72.262267
677.000000	72.459800
678.000000	72.630333
679.000000	72.769533
680.000000	72.869367
681.000000	72.975467
682.000000	73.102500
683.000000	73.184900
684.000000	73.251333
685.000000	73.317933
686.000000	73.337800
687.000000	73.349767
688.000000	73.347800
689.000000	73.367000
690.000000	73.354700
691.000000	73.370600
692.000000	73.402367
693.000000	73.360833
694.000000	73.306067
695.000000	73.270000
696.000000	73.217967
697.000000	73.154267
698.000000	73.066933
699.000000	73.010300
700.000000	72.922300
701.000000	72.842367
702.000000	72.789400
703.000000	72.723833
704.000000	72.661033
705.000000	72.605300
706.000000	72.549833
707.000000	72.533733
708.000000	72.543600
709.000000	72.567533
710.000000	72.633100
711.000000	72.711233
712.000000	72.796733
713.000000	72.928367
714.000000	73.119933
715.000000	73.323267
716.000000	73.558967
717.000000	73.822633
718.000000	74.083367
719.000000	74.401733
720.000000	74.803467
721.000000	75.190733
722.000000	75.569133
723.000000	75.986700
724.000000	76.468167
725.000000	76.973767
726.000000	77.478100
727.000000	77.989767
728.000000	78.510667
729.000000	79.038367
730.000000	79.571367
731.000000	80.148233
732.000000	80.690633
733.000000	81.239900
734.000000	81.769933
735.000000	82.267600
736.000000	82.766267
737.000000	83.268200
738.000000	83.765833
739.000000	84.226500
740.000000	84.680633
741.000000	85.114467
742.000000	85.558533
743.000000	85.988033
744.000000	86.375233
745.000000	86.728667
746.000000	87.040800
747.000000	87.349467
748.000000	87.621033
749.000000	87.862000
750.000000	88.071733
751.000000	88.278100
752.000000	88.419967
753.000000	88.501800
754.000000	88.640200
755.000000	88.720500
756.000000	88.751233
757.000000	88.818600
758.000000	88.876433
759.000000	88.913733
760.000000	88.916367
761.000000	88.905100
762.000000	88.895967
763.000000	88.852100
764.000000	88.799533
765.000000	88.733267
766.000000	88.643200
767.000000	88.589033
768.000000	88.581767
769.000000	88.490133
770.000000	88.392100
771.000000	88.366833
772.000000	88.304100
773.000000	88.195667
774.000000	88.164267
775.000000	88.177333
776.000000	88.168667
777.000000	88.206867
778.000000	88.250467
779.000000	88.374367
780.000000	88.455733
781.000000	88.511300
782.000000	88.594933
783.000000	88.720900
784.000000	88.837133
785.000000	88.876833
786.000000	88.977967
787.000000	89.079467
788.000000	89.150200
789.000000	89.231000
790.000000	89.306100
791.000000	89.371233
792.000000	89.394767
793.000000	89.443833
794.000000	89.508300
795.000000	89.521200
796.000000	89.432800
797.000000	89.403433
798.000000	89.426400
799.000000	89.382800
800.000000	89.260400
801.000000	89.123600
802.000000	89.043533
803.000000	88.962433
804.000000	88.694433
805.000000	88.529200
806.000000	88.404700
807.000000	88.230300
808.000000	88.047167
809.000000	87.944233
810.000000	87.739733
811.000000	87.498000
812.000000	87.347600
813.000000	87.242067
814.000000	87.126167
815.000000	87.115467
816.000000	86.955933
817.000000	86.856900
818.000000	86.864767
819.000000	86.854033
820.000000	86.789600
821.000000	86.708367
822.000000	86.605367
823.000000	86.678200
824.000000	86.601000
825.000000	86.571233
826.000000	86.537133
827.000000	86.459500
828.000000	86.354267
829.000000	86.274900
830.000000	86.130233
831.000000	85.931633
832.000000	85.775000
833.000000	85.403900
834.000000	85.247767
835.000000	84.964367
836.000000	84.605467
837.000000	84.276000
838.000000	83.946200
839.000000	83.566500
840.000000	83.061800
841.000000	82.688133
842.000000	82.261933
843.000000	81.831033
844.000000	81.246167
845.000000	80.875300
846.000000	80.383300
847.000000	79.752933
848.000000	79.405000
849.000000	78.783567
850.000000	78.316600
851.000000	77.730067
852.000000	77.095367
853.000000	76.866367
854.000000	76.418300
855.000000	75.767633
856.000000	75.260733
857.000000	75.102567
858.000000	75.376978
859.000000	74.271036
860.000000	74.376416
861.000000	74.425069
862.000000	74.509346
863.000000	74.473873
864.000000	74.487535
865.000000	74.442485
866.000000	74.445931
867.000000	74.392888
868.000000	74.348108
869.000000	74.301297
870.000000	74.249698
871.000000	74.201186
872.000000	74.136757
873.000000	74.109993
874.000000	74.030428
875.000000	73.958185
876.000000	73.906252
877.000000	73.797113
878.000000	73.649715
879.000000	73.598217
880.000000	73.474979
881.000000	73.333528
882.000000	73.222770
883.000000	73.081487
884.000000	72.921515
885.000000	72.742575
886.000000	72.561042
887.000000	72.355130
888.000000	72.204274
889.000000	72.003996
890.000000	71.783925
891.000000	71.548878
892.000000	71.329589
893.000000	71.084304
894.000000	70.844035
895.000000	70.573718
896.000000	70.333718
897.000000	70.090234
898.000000	69.807323
899.000000	69.535936
900.000000	69.293207
901.000000	69.038636
902.000000	68.771661
903.000000	68.528430
904.000000	68.255496
905.000000	68.037612
906.000000	67.829391
907.000000	67.593022
908.000000	67.394880
909.000000	67.203423
910.000000	67.033178
911.000000	66.897571
912.000000	66.727031
913.000000	66.585464
914.000000	66.440038
915.000000	66.304666
916.000000	66.200388
917.000000	66.064547
918.000000	65.954146
919.000000	65.843706
920.000000	65.745495
921.000000	65.658215
922.000000	65.526960
923.000000	65.402327
924.000000	65.298767
925.000000	65.199929
926.000000	65.114315
927.000000	65.027428
928.000000	64.901701
929.000000	64.788454
930.000000	64.710543
931.000000	64.601313
932.000000	64.493017
933.000000	64.404496
934.000000	64.270980
935.000000	64.178496
936.000000	64.061192
937.000000	63.957243
938.000000	63.876306
939.000000	63.740424
940.000000	63.650112
941.000000	63.561393
942.000000	63.463828
943.000000	63.371844
944.000000	63.290479
945.000000	63.221955
946.000000	63.121147
947.000000	63.052122
948.000000	62.976876
949.000000	62.903409
950.000000	62.850451
951.000000	62.775721
952.000000	62.712278
953.000000	62.656386
954.000000	62.602455
955.000000	62.548495
956.000000	62.503861
957.000000	62.465832
958.000000	62.408521
959.000000	62.354312
960.000000	62.307964
961.000000	62.273563
962.000000	62.250727
963.000000	62.216536
964.000000	62.178944
965.000000	62.167272
966.000000	62.149809
967.000000	62.143625
968.000000	62.142264
969.000000	62.132103
970.000000	62.128397
971.000000	62.137178
972.000000	62.137106
973.000000	62.132820
974.000000	62.127146
975.000000	62.134989
976.000000	62.140013
977.000000	62.150803
978.000000	62.153618
979.000000	62.152524
980.000000	62.157778
981.000000	62.159577
982.000000	62.158455
983.000000	62.157186
984.000000	62.165100
985.000000	62.172110
986.000000	62.166882
987.000000	62.174441
988.000000	62.184693
989.000000	62.183232
990.000000	62.188363
991.000000	62.189068
992.000000	62.187800
993.000000	62.208197
994.000000	62.225325
995.000000	62.214950
996.000000	62.222147
997.000000	62.241306
998.000000	62.254957
999.000000	62.265118
1000.000000	62.267678
1001.000000	62.265750
1002.000000	62.286211
1003.000000	62.307127
1004.000000	62.320048
1005.000000	62.328376
1006.000000	62.343953
1007.000000	62.353390
1008.000000	62.372970
1009.000000	62.388982
1010.000000	62.402044
1011.000000	62.422871
1012.000000	62.437632
1013.000000	62.468306
1014.000000	62.519663
1015.000000	62.565499
1016.000000	62.620848
1017.000000	62.686646
1018.000000	62.742597
1019.000000	62.813107
1020.000000	62.886568
1021.000000	62.961637
1022.000000	63.041099
1023.000000	63.103769
1024.000000	63.189565
1025.000000	63.274134
1026.000000	63.350562
1027.000000	63.440019
1028.000000	63.513909
1029.000000	63.587454
1030.000000	63.668837
1031.000000	63.746218
1032.000000	63.816381
1033.000000	63.898913
1034.000000	63.982732
1035.000000	64.059002
1036.000000	64.130238
1037.000000	64.206860
1038.000000	64.280072
1039.000000	64.357495
1040.000000	64.436700
1041.000000	64.504207
1042.000000	64.575629
1043.000000	64.653458
1044.000000	64.722673
1045.000000	64.798103
1046.000000	64.873476
1047.000000	64.950103
1048.000000	65.021754
1049.000000	65.101703
1050.000000	65.197423
1051.000000	65.282131
1052.000000	65.358133
1053.000000	65.441692
1054.000000	65.535104
1055.000000	65.635496
1056.000000	65.735566
1057.000000	65.821477
1058.000000	65.911255
1059.000000	66.000819
1060.000000	66.088817
1061.000000	66.171633
1062.000000	66.248241
1063.000000	66.338642
1064.000000	66.424651
1065.000000	66.493272
1066.000000	66.566621
1067.000000	66.639276
1068.000000	66.713856
1069.000000	66.784299
1070.000000	66.849914
1071.000000	66.920427
1072.000000	66.985835
1073.000000	67.055661
1074.000000	67.118248
1075.000000	67.179333
1076.000000	67.239242
1077.000000	67.303601
1078.000000	67.367257
1079.000000	67.419485
1080.000000	67.476642
1081.000000	67.535191
1082.000000	67.600279
1083.000000	67.665751
1084.000000	67.732049
1085.000000	67.787060
1086.000000	67.845938
1087.000000	67.925733
1088.000000	67.990852
1089.000000	68.060680
1090.000000	68.127320
1091.000000	68.189188
1092.000000	68.251439
1093.000000	68.312031
1094.000000	68.374635
1095.000000	68.445123
1096.000000	68.494464
1097.000000	68.552415
1098.000000	68.603462
1099.000000	68.655808
1100.000000	68.713739
1101.000000	68.771067
1102.000000	68.822988
1103.000000	68.870960
1104.000000	68.920477
1105.000000	68.975722
1106.000000	69.017178
1107.000000	69.055979
1108.000000	69.097932
1109.000000	69.135629
1110.000000	69.180977
1111.000000	69.235700
1112.000000	69.264430
1113.000000	69.302422
1114.000000	69.328689
1115.000000	69.376415
1116.000000	69.404862
1117.000000	69.446531
1118.000000	69.465778
1119.000000	69.483604
1120.000000	69.479124
1121.000000	69.470640
1122.000000	69.469483
1123.000000	69.421025
1124.000000	69.377866
1125.000000	69.319421
1126.000000	69.263129
1127.000000	69.171102
1128.000000	69.078543
1129.000000	68.957456
1130.000000	68.774855
1131.000000	68.571926
1132.000000	68.322697
1133.000000	68.072861
1134.000000	67.848980
1135.000000	67.534536
1136.000000	67.195285
1137.000000	66.818357
1138.000000	66.464263
1139.000000	66.112601
1140.000000	65.792717
1141.000000	65.476402
1142.000000	65.147261
1143.000000	64.839592
1144.000000	64.565041
1145.000000	64.338780
1146.000000	64.154751
1147.000000	64.053923
1148.000000	64.013420
1149.000000	64.038696
1150.000000	64.064561
1151.000000	64.086730
1152.000000	64.120546
1153.000000	64.093805
1154.000000	64.038716
1155.000000	63.910624
1156.000000	63.748670
1157.000000	63.502238
1158.000000	63.226381
1159.000000	62.923032
1160.000000	62.583914
1161.000000	62.251898
1162.000000	61.898081
1163.000000	61.516328
1164.000000	61.155591
1165.000000	60.778711
1166.000000	60.408892
