PE UV       SUBTECH     SPECTRUM    ASCII       PEDS        4.00        
   -1
CICIMAUCR0251-3.Sample.ASC
24/05/27
17:05:10.00
24/05/27
17:05:10.00
Vinicio Soto Monge
C. resplendens, F
250,000000
1
Lambda 1050
1050L1511233
PerkinElmer UV WinLab 6.3.2.0749 / 2.02.05 Lambda 900 UV/VIS/NIR, Aug  7 2015 09:38:08

0
0
3350/servo 860,8/2
0
0
UV/VIS
1
1
1
DoubleDePol,CommonBeamDepol,RBeamAtt,SBeamAtt,60mm sphere, WB InGaAs Detector
0
0
0
0
Program
Program
3350/servo 860,8/2
3350/0,2 860,8/0,2
3350/0,2 860,8/0,2
0
15.00
 
 
 
0
 
860,8
319,2
860,8
Front
100
on
S:100 R:100
0
0
0
0
 
0
 
 
 
0
 
 
0
0
0
0
0
 
 
 
 
0
0


0
0
#HDR
-1
-1
#GR
nm
%R
1.0
0.0
2500,000000
-1,000000
2251
8
89,601500
5,208800
#DATA
250.000000	6.669722
251.000000	6.637815
252.000000	6.610083
253.000000	6.594841
254.000000	6.595756
255.000000	6.591358
256.000000	6.554211
257.000000	6.547129
258.000000	6.511326
259.000000	6.511942
260.000000	6.498105
261.000000	6.452178
262.000000	6.425309
263.000000	6.386502
264.000000	6.379918
265.000000	6.349960
266.000000	6.304372
267.000000	6.266401
268.000000	6.262477
269.000000	6.250190
270.000000	6.227246
271.000000	6.222525
272.000000	6.204589
273.000000	6.201197
274.000000	6.198627
275.000000	6.178916
276.000000	6.163333
277.000000	6.157760
278.000000	6.163938
279.000000	6.132151
280.000000	6.137814
281.000000	6.128273
282.000000	6.115216
283.000000	6.116551
284.000000	6.104646
285.000000	6.107976
286.000000	6.104037
287.000000	6.082873
288.000000	6.069937
289.000000	6.060547
290.000000	6.050950
291.000000	6.040176
292.000000	6.029302
293.000000	6.023498
294.000000	5.992372
295.000000	5.979131
296.000000	5.974667
297.000000	5.980890
298.000000	5.968868
299.000000	5.954923
300.000000	5.950817
301.000000	5.955023
302.000000	5.933196
303.000000	5.903848
304.000000	5.906368
305.000000	5.920330
306.000000	5.906768
307.000000	5.900380
308.000000	5.886150
309.000000	5.858501
310.000000	5.856334
311.000000	5.851611
312.000000	5.817321
313.000000	5.805359
314.000000	5.841724
315.000000	5.842282
316.000000	6.122264
317.000000	6.355667
318.000000	6.189191
319.000000	6.268185
320.000000	6.386996
321.000000	6.256982
322.000000	6.095543
323.000000	6.197410
324.000000	6.146055
325.000000	5.993584
326.000000	6.037905
327.000000	5.891791
328.000000	5.804961
329.000000	6.047651
330.000000	6.067505
331.000000	5.935657
332.000000	5.903678
333.000000	5.936713
334.000000	5.968169
335.000000	5.918755
336.000000	5.904985
337.000000	5.991754
338.000000	6.008309
339.000000	5.922746
340.000000	5.923107
341.000000	5.968969
342.000000	5.944472
343.000000	5.978385
344.000000	6.028390
345.000000	5.970311
346.000000	5.954226
347.000000	5.965759
348.000000	5.898366
349.000000	5.899333
350.000000	5.902093
351.000000	5.962772
352.000000	6.042676
353.000000	6.062268
354.000000	6.054029
355.000000	6.111498
356.000000	6.179370
357.000000	6.214272
358.000000	6.248016
359.000000	6.261328
360.000000	6.310789
361.000000	6.330753
362.000000	6.368056
363.000000	6.416879
364.000000	6.475689
365.000000	6.493565
366.000000	6.497277
367.000000	6.495530
368.000000	6.559176
369.000000	6.597613
370.000000	6.593149
371.000000	6.596606
372.000000	6.641806
373.000000	6.633593
374.000000	6.704524
375.000000	6.945654
376.000000	7.040296
377.000000	7.072523
378.000000	7.143437
379.000000	7.214320
380.000000	7.296389
381.000000	7.395099
382.000000	7.486809
383.000000	7.581871
384.000000	7.695833
385.000000	7.826762
386.000000	7.963875
387.000000	8.085859
388.000000	8.226597
389.000000	8.377583
390.000000	8.543724
391.000000	8.725594
392.000000	8.916478
393.000000	9.111319
394.000000	9.344650
395.000000	9.569943
396.000000	9.795338
397.000000	10.038165
398.000000	10.310016
399.000000	10.590357
400.000000	10.889415
401.000000	11.189200
402.000000	11.503924
403.000000	11.848861
404.000000	12.204249
405.000000	12.561415
406.000000	12.938125
407.000000	13.323281
408.000000	13.733898
409.000000	14.136688
410.000000	14.576978
411.000000	14.997241
412.000000	15.437628
413.000000	15.885357
414.000000	16.338981
415.000000	16.793945
416.000000	17.236638
417.000000	17.683232
418.000000	18.139845
419.000000	18.577271
420.000000	19.009200
421.000000	19.447536
422.000000	19.853054
423.000000	20.288483
424.000000	20.704511
425.000000	21.081703
426.000000	21.441368
427.000000	21.781904
428.000000	22.136712
429.000000	22.479162
430.000000	22.780205
431.000000	23.102136
432.000000	23.390899
433.000000	23.665557
434.000000	23.918118
435.000000	24.169162
436.000000	24.416266
437.000000	24.638649
438.000000	24.812526
439.000000	25.019520
440.000000	25.188190
441.000000	25.361243
442.000000	25.474607
443.000000	25.586040
444.000000	25.711843
445.000000	25.814126
446.000000	25.832202
447.000000	25.880086
448.000000	25.918075
449.000000	25.948779
450.000000	25.943138
451.000000	25.926534
452.000000	25.874783
453.000000	25.823170
454.000000	25.765286
455.000000	25.695426
456.000000	25.591784
457.000000	25.491674
458.000000	25.376895
459.000000	25.245008
460.000000	25.136117
461.000000	24.999842
462.000000	24.874709
463.000000	24.747091
464.000000	24.631662
465.000000	24.511497
466.000000	24.405278
467.000000	24.308678
468.000000	24.238248
469.000000	24.165084
470.000000	24.155845
471.000000	24.141818
472.000000	24.172591
473.000000	24.222763
474.000000	24.303366
475.000000	24.438391
476.000000	24.604406
477.000000	24.814728
478.000000	25.062346
479.000000	25.341892
480.000000	25.665408
481.000000	26.008148
482.000000	26.385371
483.000000	26.813394
484.000000	27.230763
485.000000	27.683457
486.000000	28.145565
487.000000	28.593692
488.000000	29.046311
489.000000	29.484747
490.000000	29.928933
491.000000	30.359932
492.000000	30.767495
493.000000	31.111115
494.000000	31.470392
495.000000	31.778708
496.000000	32.064105
497.000000	32.324936
498.000000	32.517483
499.000000	32.730679
500.000000	32.906848
501.000000	33.026250
502.000000	33.185588
503.000000	33.311555
504.000000	33.452031
505.000000	33.604979
506.000000	33.768345
507.000000	33.973410
508.000000	34.171008
509.000000	34.415550
510.000000	34.732022
511.000000	35.065531
512.000000	35.449874
513.000000	35.931906
514.000000	36.462130
515.000000	37.066492
516.000000	37.771029
517.000000	38.508725
518.000000	39.386538
519.000000	40.329727
520.000000	41.357627
521.000000	42.485970
522.000000	43.706128
523.000000	44.991920
524.000000	46.388740
525.000000	47.786103
526.000000	49.273237
527.000000	50.794231
528.000000	52.346628
529.000000	53.932405
530.000000	55.544494
531.000000	57.148611
532.000000	58.754720
533.000000	60.339592
534.000000	61.907551
535.000000	63.403909
536.000000	64.856872
537.000000	66.286897
538.000000	67.612289
539.000000	68.904807
540.000000	70.161426
541.000000	71.370039
542.000000	72.545166
543.000000	73.638680
544.000000	74.706962
545.000000	75.715877
546.000000	76.632353
547.000000	77.581685
548.000000	78.430587
549.000000	79.252546
550.000000	80.040145
551.000000	80.757333
552.000000	81.442673
553.000000	82.096011
554.000000	82.701156
555.000000	83.241517
556.000000	83.749033
557.000000	84.247212
558.000000	84.701512
559.000000	85.138963
560.000000	85.566567
561.000000	85.947957
562.000000	86.290703
563.000000	86.623141
564.000000	86.929396
565.000000	87.237720
566.000000	87.498327
567.000000	87.750449
568.000000	87.974946
569.000000	88.205006
570.000000	88.424664
571.000000	88.595375
572.000000	88.783968
573.000000	88.935333
574.000000	89.078591
575.000000	89.202699
576.000000	89.331636
577.000000	89.423690
578.000000	89.505068
579.000000	89.575038
580.000000	89.631771
581.000000	89.698192
582.000000	89.713007
583.000000	89.693123
584.000000	89.696627
585.000000	89.691041
586.000000	89.668507
587.000000	89.622759
588.000000	89.555262
589.000000	89.471591
590.000000	89.380859
591.000000	89.282359
592.000000	89.171647
593.000000	89.057623
594.000000	88.885941
595.000000	88.733784
596.000000	88.567494
597.000000	88.403820
598.000000	88.182520
599.000000	87.941529
600.000000	87.725850
601.000000	87.456775
602.000000	87.144982
603.000000	86.864419
604.000000	86.560494
605.000000	86.195895
606.000000	85.794310
607.000000	85.401157
608.000000	84.975516
609.000000	84.488429
610.000000	83.997194
611.000000	83.467918
612.000000	82.946752
613.000000	82.407349
614.000000	81.811339
615.000000	81.187199
616.000000	80.573290
617.000000	79.963190
618.000000	79.340255
619.000000	78.676345
620.000000	77.975777
621.000000	77.270489
622.000000	76.479461
623.000000	75.646163
624.000000	74.797644
625.000000	73.915756
626.000000	72.996871
627.000000	72.031878
628.000000	71.034963
629.000000	70.066750
630.000000	69.082684
631.000000	68.077678
632.000000	67.105804
633.000000	66.173048
634.000000	65.268562
635.000000	64.429338
636.000000	63.606680
637.000000	62.774384
638.000000	61.957927
639.000000	61.139684
640.000000	60.269323
641.000000	59.380722
642.000000	58.459387
643.000000	57.501552
644.000000	56.540680
645.000000	55.610711
646.000000	54.756358
647.000000	53.963647
648.000000	53.238132
649.000000	52.644350
650.000000	52.161652
651.000000	51.820043
652.000000	51.666319
653.000000	51.632116
654.000000	51.744447
655.000000	52.003671
656.000000	52.388469
657.000000	52.809293
658.000000	53.305756
659.000000	53.884782
660.000000	54.467532
661.000000	55.103436
662.000000	55.802313
663.000000	56.497037
664.000000	57.181898
665.000000	57.867365
666.000000	58.588287
667.000000	59.333524
668.000000	60.113701
669.000000	60.928967
670.000000	61.751079
671.000000	62.589717
672.000000	63.422923
673.000000	64.274266
674.000000	65.105674
675.000000	65.869230
676.000000	66.597645
677.000000	67.329569
678.000000	67.973946
679.000000	68.596675
680.000000	69.151249
681.000000	69.643246
682.000000	70.086363
683.000000	70.492042
684.000000	70.879674
685.000000	71.222270
686.000000	71.511774
687.000000	71.774978
688.000000	72.013678
689.000000	72.274187
690.000000	72.554288
691.000000	72.767068
692.000000	72.932229
693.000000	73.088496
694.000000	73.258352
695.000000	73.405722
696.000000	73.454341
697.000000	73.463401
698.000000	73.480655
699.000000	73.424892
700.000000	73.303188
701.000000	73.169173
702.000000	73.081719
703.000000	72.996263
704.000000	72.861494
705.000000	72.721080
706.000000	72.614618
707.000000	72.536073
708.000000	72.488448
709.000000	72.482127
710.000000	72.499263
711.000000	72.571103
712.000000	72.660000
713.000000	72.726876
714.000000	72.830999
715.000000	72.929283
716.000000	73.096698
717.000000	73.232957
718.000000	73.384431
719.000000	73.560334
720.000000	73.675444
721.000000	73.777999
722.000000	73.913451
723.000000	74.057816
724.000000	74.213358
725.000000	74.345063
726.000000	74.556438
727.000000	74.748362
728.000000	74.965990
729.000000	75.179320
730.000000	75.417721
731.000000	75.714128
732.000000	76.027970
733.000000	76.435823
734.000000	76.779460
735.000000	77.066830
736.000000	77.426863
737.000000	77.799810
738.000000	78.176784
739.000000	78.517548
740.000000	78.910767
741.000000	79.246031
742.000000	79.629903
743.000000	79.957225
744.000000	80.320250
745.000000	80.580270
746.000000	80.884194
747.000000	81.168500
748.000000	81.305919
749.000000	81.493906
750.000000	81.661143
751.000000	81.851138
752.000000	81.968205
753.000000	82.136029
754.000000	82.211205
755.000000	82.287352
756.000000	82.385524
757.000000	82.511094
758.000000	82.442907
759.000000	82.464266
760.000000	82.436280
761.000000	82.434917
762.000000	82.399186
763.000000	82.366155
764.000000	82.347117
765.000000	82.381964
766.000000	82.375759
767.000000	82.429976
768.000000	82.460913
769.000000	82.518054
770.000000	82.667800
771.000000	82.771678
772.000000	82.854791
773.000000	83.083188
774.000000	83.140277
775.000000	83.391290
776.000000	83.499480
777.000000	83.736559
778.000000	83.858915
779.000000	84.075647
780.000000	84.188079
781.000000	84.317503
782.000000	84.382113
783.000000	84.353146
784.000000	84.434809
785.000000	84.372895
786.000000	84.345938
787.000000	84.081040
788.000000	84.015717
789.000000	83.842990
790.000000	83.659246
791.000000	83.289368
792.000000	83.207582
793.000000	82.955877
794.000000	82.758971
795.000000	82.479922
796.000000	82.193416
797.000000	82.047961
798.000000	81.790441
799.000000	81.424321
800.000000	81.283316
801.000000	81.033073
802.000000	80.787917
803.000000	80.604128
804.000000	80.414937
805.000000	80.158933
806.000000	80.203387
807.000000	79.912300
808.000000	79.894052
809.000000	80.006271
810.000000	79.884858
811.000000	79.901476
812.000000	80.017901
813.000000	79.917786
814.000000	80.157687
815.000000	80.039571
816.000000	80.208385
817.000000	80.451840
818.000000	80.273508
819.000000	80.369155
820.000000	80.422656
821.000000	80.242670
822.000000	80.238505
823.000000	80.041675
824.000000	79.880796
825.000000	79.656909
826.000000	79.391581
827.000000	79.135328
828.000000	78.845460
829.000000	78.583200
830.000000	78.182771
831.000000	77.822440
832.000000	77.512126
833.000000	77.090255
834.000000	76.699574
835.000000	76.395043
836.000000	75.910015
837.000000	75.603041
838.000000	75.465565
839.000000	75.064332
840.000000	74.803999
841.000000	74.620549
842.000000	74.323165
843.000000	74.186697
844.000000	73.602050
845.000000	73.543443
846.000000	73.421626
847.000000	73.230454
848.000000	73.021515
849.000000	72.640412
850.000000	72.586034
851.000000	72.535262
852.000000	72.100669
853.000000	72.024453
854.000000	71.536633
855.000000	71.237726
856.000000	71.695939
857.000000	71.020753
858.000000	71.225367
859.000000	71.078300
860.000000	70.933367
861.000000	70.795400
862.000000	70.679033
863.000000	70.546233
864.000000	70.425033
865.000000	70.306433
866.000000	70.198600
867.000000	70.086233
868.000000	69.987033
869.000000	69.896800
870.000000	69.850000
871.000000	69.841900
872.000000	69.855233
873.000000	69.865700
874.000000	69.867467
875.000000	69.852833
876.000000	69.832567
877.000000	69.809367
878.000000	69.787933
879.000000	69.763067
880.000000	69.735367
881.000000	69.714200
882.000000	69.692767
883.000000	69.684167
884.000000	69.671433
885.000000	69.651367
886.000000	69.632833
887.000000	69.612467
888.000000	69.588667
889.000000	69.552833
890.000000	69.523000
891.000000	69.486000
892.000000	69.440000
893.000000	69.388300
894.000000	69.328267
895.000000	69.259333
896.000000	69.196900
897.000000	69.127033
898.000000	69.055567
899.000000	68.990433
900.000000	68.914900
901.000000	68.833933
902.000000	68.768133
903.000000	68.705367
904.000000	68.640033
905.000000	68.585867
906.000000	68.541400
907.000000	68.503233
908.000000	68.464900
909.000000	68.431100
910.000000	68.399167
911.000000	68.379000
912.000000	68.375867
913.000000	68.366767
914.000000	68.347500
915.000000	68.321167
916.000000	68.307967
917.000000	68.301300
918.000000	68.301600
919.000000	68.289467
920.000000	68.266333
921.000000	68.258800
922.000000	68.246367
923.000000	68.226900
924.000000	68.218100
925.000000	68.210533
926.000000	68.197933
927.000000	68.175433
928.000000	68.161200
929.000000	68.146933
930.000000	68.119433
931.000000	68.084667
932.000000	68.041933
933.000000	68.007600
934.000000	67.956200
935.000000	67.905333
936.000000	67.852900
937.000000	67.793267
938.000000	67.750833
939.000000	67.701867
940.000000	67.636300
941.000000	67.571267
942.000000	67.517167
943.000000	67.453967
944.000000	67.377800
945.000000	67.298700
946.000000	67.229800
947.000000	67.150733
948.000000	67.077067
949.000000	66.995600
950.000000	66.884567
951.000000	66.785333
952.000000	66.698167
953.000000	66.593567
954.000000	66.487567
955.000000	66.376933
956.000000	66.256500
957.000000	66.142133
958.000000	66.038767
959.000000	65.935667
960.000000	65.816567
961.000000	65.693267
962.000000	65.579367
963.000000	65.481033
964.000000	65.389767
965.000000	65.287533
966.000000	65.173233
967.000000	65.077500
968.000000	64.992433
969.000000	64.900967
970.000000	64.805967
971.000000	64.704933
972.000000	64.602267
973.000000	64.511467
974.000000	64.407433
975.000000	64.286600
976.000000	64.177667
977.000000	64.084500
978.000000	63.976567
979.000000	63.865700
980.000000	63.747433
981.000000	63.644800
982.000000	63.533200
983.000000	63.413400
984.000000	63.297100
985.000000	63.183900
986.000000	63.070933
987.000000	62.956467
988.000000	62.843700
989.000000	62.736133
990.000000	62.621133
991.000000	62.497867
992.000000	62.383133
993.000000	62.286733
994.000000	62.173967
995.000000	62.048300
996.000000	61.930667
997.000000	61.813667
998.000000	61.702200
999.000000	61.590600
1000.000000	61.477767
1001.000000	61.369833
1002.000000	61.258400
1003.000000	61.154567
1004.000000	61.058700
1005.000000	60.956867
1006.000000	60.861167
1007.000000	60.765667
1008.000000	60.673300
1009.000000	60.582600
1010.000000	60.488800
1011.000000	60.406233
1012.000000	60.345233
1013.000000	60.296000
1014.000000	60.250300
1015.000000	60.205567
1016.000000	60.173267
1017.000000	60.142167
1018.000000	60.123333
1019.000000	60.102300
1020.000000	60.096000
1021.000000	60.088333
1022.000000	60.072333
1023.000000	60.061967
1024.000000	60.071600
1025.000000	60.070833
1026.000000	60.069733
1027.000000	60.069367
1028.000000	60.065533
1029.000000	60.058333
1030.000000	60.054067
1031.000000	60.050200
1032.000000	60.041867
1033.000000	60.027533
1034.000000	60.025333
1035.000000	60.014300
1036.000000	59.996200
1037.000000	59.983100
1038.000000	59.970567
1039.000000	59.956533
1040.000000	59.928333
1041.000000	59.910800
1042.000000	59.890467
1043.000000	59.873867
1044.000000	59.847433
1045.000000	59.829600
1046.000000	59.827167
1047.000000	59.805667
1048.000000	59.796067
1049.000000	59.796200
1050.000000	59.797167
1051.000000	59.800100
1052.000000	59.807700
1053.000000	59.814867
1054.000000	59.828667
1055.000000	59.839433
1056.000000	59.861867
1057.000000	59.875233
1058.000000	59.895433
1059.000000	59.909067
1060.000000	59.916300
1061.000000	59.927533
1062.000000	59.945267
1063.000000	59.956167
1064.000000	59.969900
1065.000000	59.984700
1066.000000	60.000567
1067.000000	60.018833
1068.000000	60.025767
1069.000000	60.050167
1070.000000	60.069400
1071.000000	60.088067
1072.000000	60.108167
1073.000000	60.126633
1074.000000	60.133967
1075.000000	60.161700
1076.000000	60.190133
1077.000000	60.210400
1078.000000	60.223967
1079.000000	60.262067
1080.000000	60.286433
1081.000000	60.302900
1082.000000	60.335833
1083.000000	60.356633
1084.000000	60.394533
1085.000000	60.425367
1086.000000	60.439133
1087.000000	60.472533
1088.000000	60.491900
1089.000000	60.521600
1090.000000	60.537367
1091.000000	60.560433
1092.000000	60.575433
1093.000000	60.594133
1094.000000	60.599867
1095.000000	60.616833
1096.000000	60.631000
1097.000000	60.629167
1098.000000	60.625233
1099.000000	60.635900
1100.000000	60.637767
1101.000000	60.632500
1102.000000	60.624767
1103.000000	60.624333
1104.000000	60.616133
1105.000000	60.613967
1106.000000	60.607533
1107.000000	60.594633
1108.000000	60.582833
1109.000000	60.578067
1110.000000	60.568233
1111.000000	60.563500
1112.000000	60.547467
1113.000000	60.539267
1114.000000	60.534000
1115.000000	60.511267
1116.000000	60.494500
1117.000000	60.462833
1118.000000	60.418367
1119.000000	60.355933
1120.000000	60.283167
1121.000000	60.194267
1122.000000	60.109867
1123.000000	59.983567
1124.000000	59.850533
1125.000000	59.709000
1126.000000	59.521533
1127.000000	59.297867
1128.000000	59.029000
1129.000000	58.712467
1130.000000	58.333100
1131.000000	57.903600
1132.000000	57.434467
1133.000000	56.975167
1134.000000	56.442333
1135.000000	55.891900
1136.000000	55.342400
1137.000000	54.809100
1138.000000	54.302500
1139.000000	53.820900
1140.000000	53.356467
1141.000000	52.896200
1142.000000	52.472200
1143.000000	52.080833
1144.000000	51.741133
1145.000000	51.469933
1146.000000	51.267933
1147.000000	51.127700
1148.000000	51.013133
1149.000000	50.925100
1150.000000	50.829533
1151.000000	50.704367
1152.000000	50.555333
1153.000000	50.362267
1154.000000	50.105467
1155.000000	49.811000
1156.000000	49.453467
1157.000000	49.084800
1158.000000	48.682800
1159.000000	48.257533
1160.000000	47.825833
1161.000000	47.403233
1162.000000	46.960700
1163.000000	46.535567
1164.000000	46.097733
1165.000000	45.682700
1166.000000	45.280733
