PE UV       SUBTECH     SPECTRUM    ASCII       PEDS        4.00        
   -1
CICIMAUCR0205-3.Sample.ASC
24/05/31
16:47:51.00
24/05/31
16:47:51.00
Vinicio Soto Monge
C. cupreomarginata. Sex F. Dorsal
250,000000
1
Lambda 1050
1050L1511233
PerkinElmer UV WinLab 6.3.2.0749 / 2.02.05 Lambda 900 UV/VIS/NIR, Aug  7 2015 09:38:08

0
0
3350/servo 860,8/2
0
0
UV/VIS
1
1
1
DoubleDePol,CommonBeamDepol,RBeamAtt,SBeamAtt,60mm sphere, WB InGaAs Detector
0
0
0
0
Program
Program
3350/servo 860,8/2
3350/0,2 860,8/0,2
3350/0,2 860,8/0,2
0
15.00
 
 
 
0
 
860,8
319,2
860,8
Front
100
on
S:100 R:100
0
0
0
0
 
0
 
 
 
0
 
 
0
0
0
0
0
 
 
 
 
0
0


0
0
#HDR
-1
-1
#GR
nm
%R
1.0
0.0
2500,000000
-1,000000
2251
8
69,495500
5,503700
#DATA
250.000000	6.073526
251.000000	6.059212
252.000000	6.036197
253.000000	6.016481
254.000000	5.998956
255.000000	5.982722
256.000000	5.989381
257.000000	5.983744
258.000000	5.967515
259.000000	5.936731
260.000000	5.922704
261.000000	5.883975
262.000000	5.863897
263.000000	5.835671
264.000000	5.827116
265.000000	5.809710
266.000000	5.787455
267.000000	5.765072
268.000000	5.746803
269.000000	5.716391
270.000000	5.702924
271.000000	5.695522
272.000000	5.678175
273.000000	5.664952
274.000000	5.665944
275.000000	5.642331
276.000000	5.622989
277.000000	5.619515
278.000000	5.604557
279.000000	5.617501
280.000000	5.606368
281.000000	5.576301
282.000000	5.562056
283.000000	5.576730
284.000000	5.577161
285.000000	5.550697
286.000000	5.524626
287.000000	5.534072
288.000000	5.545548
289.000000	5.518564
290.000000	5.530900
291.000000	5.520169
292.000000	5.514164
293.000000	5.519036
294.000000	5.491748
295.000000	5.469040
296.000000	5.466945
297.000000	5.484463
298.000000	5.465404
299.000000	5.445676
300.000000	5.470686
301.000000	5.466500
302.000000	5.461012
303.000000	5.442604
304.000000	5.425989
305.000000	5.430004
306.000000	5.439453
307.000000	5.450071
308.000000	5.440676
309.000000	5.414869
310.000000	5.395209
311.000000	5.398519
312.000000	5.393436
313.000000	5.407726
314.000000	5.408525
315.000000	5.387973
316.000000	5.571399
317.000000	5.945278
318.000000	6.135533
319.000000	6.116367
320.000000	5.954611
321.000000	5.895216
322.000000	5.824572
323.000000	5.637046
324.000000	5.726027
325.000000	5.842044
326.000000	5.774471
327.000000	5.573388
328.000000	5.492766
329.000000	5.552614
330.000000	5.561997
331.000000	5.545097
332.000000	5.484243
333.000000	5.568571
334.000000	5.580337
335.000000	5.469806
336.000000	5.527366
337.000000	5.589824
338.000000	5.546520
339.000000	5.466332
340.000000	5.427280
341.000000	5.445706
342.000000	5.515896
343.000000	5.517779
344.000000	5.479319
345.000000	5.519060
346.000000	5.470565
347.000000	5.426560
348.000000	5.489232
349.000000	5.503756
350.000000	5.503637
351.000000	5.634355
352.000000	5.612159
353.000000	5.525856
354.000000	5.508565
355.000000	5.491012
356.000000	5.488327
357.000000	5.472695
358.000000	5.479524
359.000000	5.564807
360.000000	5.600248
361.000000	5.638892
362.000000	5.651147
363.000000	5.677520
364.000000	5.681481
365.000000	5.681317
366.000000	5.711462
367.000000	5.685355
368.000000	5.693666
369.000000	5.739223
370.000000	5.684810
371.000000	5.622835
372.000000	5.707249
373.000000	5.752979
374.000000	5.772134
375.000000	5.930677
376.000000	6.020079
377.000000	6.066697
378.000000	6.120112
379.000000	6.168934
380.000000	6.242623
381.000000	6.309142
382.000000	6.396411
383.000000	6.494309
384.000000	6.597044
385.000000	6.692987
386.000000	6.800105
387.000000	6.910783
388.000000	7.040099
389.000000	7.182118
390.000000	7.331642
391.000000	7.491052
392.000000	7.659328
393.000000	7.838214
394.000000	8.018917
395.000000	8.223290
396.000000	8.418192
397.000000	8.629784
398.000000	8.841435
399.000000	9.073801
400.000000	9.300288
401.000000	9.531154
402.000000	9.776147
403.000000	10.016254
404.000000	10.273936
405.000000	10.515342
406.000000	10.753400
407.000000	10.994032
408.000000	11.238916
409.000000	11.477894
410.000000	11.723467
411.000000	11.965488
412.000000	12.208428
413.000000	12.447000
414.000000	12.669193
415.000000	12.919943
416.000000	13.126581
417.000000	13.332403
418.000000	13.551122
419.000000	13.745960
420.000000	13.968394
421.000000	14.159620
422.000000	14.349225
423.000000	14.544663
424.000000	14.740838
425.000000	14.917288
426.000000	15.100720
427.000000	15.279632
428.000000	15.438770
429.000000	15.615601
430.000000	15.767827
431.000000	15.948847
432.000000	16.112897
433.000000	16.239478
434.000000	16.394059
435.000000	16.527448
436.000000	16.665584
437.000000	16.789045
438.000000	16.908692
439.000000	17.042269
440.000000	17.150844
441.000000	17.250789
442.000000	17.348360
443.000000	17.406975
444.000000	17.472742
445.000000	17.532648
446.000000	17.595985
447.000000	17.638437
448.000000	17.669319
449.000000	17.695561
450.000000	17.738826
451.000000	17.765875
452.000000	17.815572
453.000000	17.838080
454.000000	17.863577
455.000000	17.914383
456.000000	17.969640
457.000000	18.025980
458.000000	18.097243
459.000000	18.187429
460.000000	18.319009
461.000000	18.432167
462.000000	18.576913
463.000000	18.756503
464.000000	18.931384
465.000000	19.133194
466.000000	19.362877
467.000000	19.612944
468.000000	19.870658
469.000000	20.140694
470.000000	20.440131
471.000000	20.747887
472.000000	21.066904
473.000000	21.386380
474.000000	21.716355
475.000000	22.038296
476.000000	22.376109
477.000000	22.690900
478.000000	22.991049
479.000000	23.307808
480.000000	23.622555
481.000000	23.907764
482.000000	24.204563
483.000000	24.497029
484.000000	24.776347
485.000000	25.039000
486.000000	25.292862
487.000000	25.549841
488.000000	25.826258
489.000000	26.080498
490.000000	26.358937
491.000000	26.622963
492.000000	26.871040
493.000000	27.149984
494.000000	27.423961
495.000000	27.723556
496.000000	28.028487
497.000000	28.321151
498.000000	28.623379
499.000000	28.904081
500.000000	29.205419
501.000000	29.560923
502.000000	29.886829
503.000000	30.274343
504.000000	30.623864
505.000000	30.972840
506.000000	31.338507
507.000000	31.715081
508.000000	32.084743
509.000000	32.448046
510.000000	32.851692
511.000000	33.270020
512.000000	33.659484
513.000000	34.058156
514.000000	34.464027
515.000000	34.848950
516.000000	35.249392
517.000000	35.641910
518.000000	36.046485
519.000000	36.447203
520.000000	36.857148
521.000000	37.286636
522.000000	37.688486
523.000000	38.117990
524.000000	38.526830
525.000000	38.987719
526.000000	39.424359
527.000000	39.893923
528.000000	40.383232
529.000000	40.877658
530.000000	41.385230
531.000000	41.946438
532.000000	42.512382
533.000000	43.087350
534.000000	43.692892
535.000000	44.318846
536.000000	44.940022
537.000000	45.591174
538.000000	46.240340
539.000000	46.948051
540.000000	47.641572
541.000000	48.372767
542.000000	49.103195
543.000000	49.836404
544.000000	50.570429
545.000000	51.291521
546.000000	51.992754
547.000000	52.676971
548.000000	53.376859
549.000000	54.051530
550.000000	54.727957
551.000000	55.391221
552.000000	56.065796
553.000000	56.708670
554.000000	57.318480
555.000000	57.946155
556.000000	58.536817
557.000000	59.084364
558.000000	59.613454
559.000000	60.139344
560.000000	60.689228
561.000000	61.132262
562.000000	61.553795
563.000000	61.948550
564.000000	62.290365
565.000000	62.634489
566.000000	62.928540
567.000000	63.213572
568.000000	63.476681
569.000000	63.705617
570.000000	63.910551
571.000000	64.089871
572.000000	64.228609
573.000000	64.387089
574.000000	64.497914
575.000000	64.601155
576.000000	64.667653
577.000000	64.741549
578.000000	64.817553
579.000000	64.876163
580.000000	64.917805
581.000000	64.938863
582.000000	64.962897
583.000000	64.986435
584.000000	65.018993
585.000000	65.002077
586.000000	65.009988
587.000000	64.966292
588.000000	64.941414
589.000000	64.885944
590.000000	64.803781
591.000000	64.728067
592.000000	64.623501
593.000000	64.532850
594.000000	64.424249
595.000000	64.327038
596.000000	64.220495
597.000000	64.119432
598.000000	64.025298
599.000000	63.973295
600.000000	63.943144
601.000000	63.877316
602.000000	63.831503
603.000000	63.797074
604.000000	63.735772
605.000000	63.629125
606.000000	63.523387
607.000000	63.411742
608.000000	63.270188
609.000000	63.077258
610.000000	62.888019
611.000000	62.695674
612.000000	62.456644
613.000000	62.229893
614.000000	61.995192
615.000000	61.725017
616.000000	61.477460
617.000000	61.245906
618.000000	60.989848
619.000000	60.750936
620.000000	60.488246
621.000000	60.241543
622.000000	60.006627
623.000000	59.763011
624.000000	59.498083
625.000000	59.231036
626.000000	58.938956
627.000000	58.596421
628.000000	58.250999
629.000000	57.871637
630.000000	57.443248
631.000000	56.980987
632.000000	56.510611
633.000000	56.020837
634.000000	55.541615
635.000000	55.086965
636.000000	54.602258
637.000000	54.147076
638.000000	53.726196
639.000000	53.326039
640.000000	52.947989
641.000000	52.597253
642.000000	52.268288
643.000000	51.953399
644.000000	51.666621
645.000000	51.401357
646.000000	51.139613
647.000000	50.915745
648.000000	50.706235
649.000000	50.482547
650.000000	50.283795
651.000000	50.112971
652.000000	49.968434
653.000000	49.854447
654.000000	49.748069
655.000000	49.683926
656.000000	49.679835
657.000000	49.692626
658.000000	49.752748
659.000000	49.872495
660.000000	50.036377
661.000000	50.252677
662.000000	50.499562
663.000000	50.758222
664.000000	51.055642
665.000000	51.330465
666.000000	51.584692
667.000000	51.854562
668.000000	52.115054
669.000000	52.354868
670.000000	52.562408
671.000000	52.748058
672.000000	52.915986
673.000000	53.039933
674.000000	53.173172
675.000000	53.270283
676.000000	53.350854
677.000000	53.428872
678.000000	53.501899
679.000000	53.565990
680.000000	53.644484
681.000000	53.707262
682.000000	53.762404
683.000000	53.819986
684.000000	53.863986
685.000000	53.902795
686.000000	53.942090
687.000000	53.962347
688.000000	53.935163
689.000000	53.916847
690.000000	53.899951
691.000000	53.836356
692.000000	53.809316
693.000000	53.754709
694.000000	53.682940
695.000000	53.622827
696.000000	53.557370
697.000000	53.490622
698.000000	53.439379
699.000000	53.395851
700.000000	53.376147
701.000000	53.348487
702.000000	53.339885
703.000000	53.343619
704.000000	53.341104
705.000000	53.396906
706.000000	53.468325
707.000000	53.503922
708.000000	53.568139
709.000000	53.673462
710.000000	53.746271
711.000000	53.790295
712.000000	53.860345
713.000000	53.980018
714.000000	54.087053
715.000000	54.152967
716.000000	54.287770
717.000000	54.368389
718.000000	54.505039
719.000000	54.616702
720.000000	54.730369
721.000000	54.857091
722.000000	54.952708
723.000000	55.098491
724.000000	55.223989
725.000000	55.380935
726.000000	55.501230
727.000000	55.642659
728.000000	55.762587
729.000000	55.893368
730.000000	56.040967
731.000000	56.183064
732.000000	56.292964
733.000000	56.398453
734.000000	56.499301
735.000000	56.648255
736.000000	56.751766
737.000000	56.828054
738.000000	56.966893
739.000000	57.096997
740.000000	57.181719
741.000000	57.317642
742.000000	57.415316
743.000000	57.600613
744.000000	57.715934
745.000000	57.872504
746.000000	58.044931
747.000000	58.144003
748.000000	58.347054
749.000000	58.489693
750.000000	58.590648
751.000000	58.721787
752.000000	58.857443
753.000000	59.011235
754.000000	59.079678
755.000000	59.245414
756.000000	59.381319
757.000000	59.439032
758.000000	59.483727
759.000000	59.665162
760.000000	59.817249
761.000000	59.996135
762.000000	60.083676
763.000000	60.153705
764.000000	60.290983
765.000000	60.453299
766.000000	60.657255
767.000000	60.856653
768.000000	60.893093
769.000000	61.040444
770.000000	61.124555
771.000000	61.282916
772.000000	61.416062
773.000000	61.465187
774.000000	61.619758
775.000000	61.627451
776.000000	61.787098
777.000000	61.877398
778.000000	61.962417
779.000000	62.060537
780.000000	62.247895
781.000000	62.260312
782.000000	62.299263
783.000000	62.478795
784.000000	62.623505
785.000000	62.650411
786.000000	62.833277
787.000000	62.931953
788.000000	62.968642
789.000000	63.039991
790.000000	63.215184
791.000000	63.240910
792.000000	63.394874
793.000000	63.509137
794.000000	63.434230
795.000000	63.629325
796.000000	63.718583
797.000000	63.799458
798.000000	63.934764
799.000000	64.006466
800.000000	64.069728
801.000000	64.339729
802.000000	64.321081
803.000000	64.371653
804.000000	64.451333
805.000000	64.609934
806.000000	64.545632
807.000000	64.804123
808.000000	64.833357
809.000000	64.992300
810.000000	64.821946
811.000000	64.998189
812.000000	65.025364
813.000000	65.079601
814.000000	65.217967
815.000000	65.246505
816.000000	65.273439
817.000000	65.239824
818.000000	65.193230
819.000000	65.326076
820.000000	65.265049
821.000000	65.312321
822.000000	65.335568
823.000000	65.322048
824.000000	65.303699
825.000000	65.293391
826.000000	65.371847
827.000000	65.382982
828.000000	65.167215
829.000000	65.386167
830.000000	65.332987
831.000000	65.170111
832.000000	65.034880
833.000000	65.112668
834.000000	65.177467
835.000000	65.011941
836.000000	64.889370
837.000000	65.043746
838.000000	64.917337
839.000000	64.759525
840.000000	64.834043
841.000000	64.624395
842.000000	64.639671
843.000000	64.566401
844.000000	64.478743
845.000000	64.552084
846.000000	64.333222
847.000000	64.316821
848.000000	64.219527
849.000000	64.087490
850.000000	64.189492
851.000000	64.108581
852.000000	63.974225
853.000000	63.631208
854.000000	63.655948
855.000000	63.696964
856.000000	63.777004
857.000000	63.424147
858.000000	63.596833
859.000000	63.468600
860.000000	63.351767
861.000000	63.221600
862.000000	63.091967
863.000000	62.968133
864.000000	62.839633
865.000000	62.697767
866.000000	62.562400
867.000000	62.423833
868.000000	62.284133
869.000000	62.147233
870.000000	62.041233
871.000000	61.983967
872.000000	61.997600
873.000000	62.045900
874.000000	62.069467
875.000000	62.067567
876.000000	62.071267
877.000000	62.057833
878.000000	62.013500
879.000000	61.938900
880.000000	61.879233
881.000000	61.805100
882.000000	61.726867
883.000000	61.653767
884.000000	61.580167
885.000000	61.506567
886.000000	61.431100
887.000000	61.360533
888.000000	61.286667
889.000000	61.208300
890.000000	61.150000
891.000000	61.086367
892.000000	61.019067
893.000000	60.954000
894.000000	60.890967
895.000000	60.825833
896.000000	60.769300
897.000000	60.706667
898.000000	60.637167
899.000000	60.577533
900.000000	60.515900
901.000000	60.454567
902.000000	60.394333
903.000000	60.335867
904.000000	60.273233
905.000000	60.220233
906.000000	60.176933
907.000000	60.135067
908.000000	60.088133
909.000000	60.047933
910.000000	60.013267
911.000000	59.985267
912.000000	59.956567
913.000000	59.922500
914.000000	59.898700
915.000000	59.872067
916.000000	59.841933
917.000000	59.807033
918.000000	59.765333
919.000000	59.720567
920.000000	59.684733
921.000000	59.640833
922.000000	59.594100
923.000000	59.544833
924.000000	59.496533
925.000000	59.456633
926.000000	59.415600
927.000000	59.385200
928.000000	59.356567
929.000000	59.326600
930.000000	59.300400
931.000000	59.273300
932.000000	59.246033
933.000000	59.223167
934.000000	59.207533
935.000000	59.202233
936.000000	59.180733
937.000000	59.162433
938.000000	59.153933
939.000000	59.154733
940.000000	59.151467
941.000000	59.144300
942.000000	59.141967
943.000000	59.147567
944.000000	59.148767
945.000000	59.133167
946.000000	59.123900
947.000000	59.121400
948.000000	59.118433
949.000000	59.110433
950.000000	59.096600
951.000000	59.084533
952.000000	59.069000
953.000000	59.050233
954.000000	59.033633
955.000000	59.005167
956.000000	58.979533
957.000000	58.942633
958.000000	58.908800
959.000000	58.876567
960.000000	58.830733
961.000000	58.793967
962.000000	58.749333
963.000000	58.701133
964.000000	58.662900
965.000000	58.620800
966.000000	58.592133
967.000000	58.550900
968.000000	58.513300
969.000000	58.481000
970.000000	58.441700
971.000000	58.402000
972.000000	58.363933
973.000000	58.340167
974.000000	58.317267
975.000000	58.287300
976.000000	58.245767
977.000000	58.209133
978.000000	58.188633
979.000000	58.168133
980.000000	58.132367
981.000000	58.100833
982.000000	58.082700
983.000000	58.068933
984.000000	58.041900
985.000000	58.020167
986.000000	58.016033
987.000000	58.010367
988.000000	58.000433
989.000000	57.994500
990.000000	57.999067
991.000000	58.008767
992.000000	58.014167
993.000000	58.020300
994.000000	58.033567
995.000000	58.046067
996.000000	58.068167
997.000000	58.072567
998.000000	58.096967
999.000000	58.119300
1000.000000	58.150800
1001.000000	58.172400
1002.000000	58.182867
1003.000000	58.203833
1004.000000	58.229833
1005.000000	58.260100
1006.000000	58.285400
1007.000000	58.296333
1008.000000	58.325800
1009.000000	58.351767
1010.000000	58.385233
1011.000000	58.428100
1012.000000	58.457633
1013.000000	58.502500
1014.000000	58.549067
1015.000000	58.606600
1016.000000	58.669733
1017.000000	58.736833
1018.000000	58.803667
1019.000000	58.877167
1020.000000	58.934167
1021.000000	59.013633
1022.000000	59.080100
1023.000000	59.142867
1024.000000	59.223000
1025.000000	59.292967
1026.000000	59.355900
1027.000000	59.424400
1028.000000	59.489600
1029.000000	59.540700
1030.000000	59.602500
1031.000000	59.664267
1032.000000	59.714700
1033.000000	59.761100
1034.000000	59.826133
1035.000000	59.878700
1036.000000	59.914333
1037.000000	59.956567
1038.000000	60.006467
1039.000000	60.044733
1040.000000	60.083433
1041.000000	60.109100
1042.000000	60.148033
1043.000000	60.186733
1044.000000	60.227133
1045.000000	60.253200
1046.000000	60.294533
1047.000000	60.337000
1048.000000	60.389700
1049.000000	60.404967
1050.000000	60.454933
1051.000000	60.498067
1052.000000	60.533067
1053.000000	60.586700
1054.000000	60.633667
1055.000000	60.675200
1056.000000	60.732133
1057.000000	60.774500
1058.000000	60.827367
1059.000000	60.875000
1060.000000	60.904400
1061.000000	60.951467
1062.000000	61.003800
1063.000000	61.044767
1064.000000	61.092033
1065.000000	61.125167
1066.000000	61.165967
1067.000000	61.204300
1068.000000	61.244733
1069.000000	61.281600
1070.000000	61.321833
1071.000000	61.360133
1072.000000	61.402433
1073.000000	61.440967
1074.000000	61.476933
1075.000000	61.516633
1076.000000	61.560133
1077.000000	61.595933
1078.000000	61.637867
1079.000000	61.662667
1080.000000	61.724533
1081.000000	61.756733
1082.000000	61.806700
1083.000000	61.835300
1084.000000	61.891700
1085.000000	61.922200
1086.000000	61.960967
1087.000000	62.001600
1088.000000	62.039000
1089.000000	62.078900
1090.000000	62.111033
1091.000000	62.149133
1092.000000	62.177567
1093.000000	62.203267
1094.000000	62.232367
1095.000000	62.256833
1096.000000	62.287800
1097.000000	62.305567
1098.000000	62.316100
1099.000000	62.329967
1100.000000	62.353400
1101.000000	62.365200
1102.000000	62.360600
1103.000000	62.379433
1104.000000	62.389967
1105.000000	62.395533
1106.000000	62.397267
1107.000000	62.407467
1108.000000	62.397967
1109.000000	62.414333
1110.000000	62.419100
1111.000000	62.418267
1112.000000	62.413200
1113.000000	62.413867
1114.000000	62.424267
1115.000000	62.409900
1116.000000	62.399333
1117.000000	62.389300
1118.000000	62.364367
1119.000000	62.320867
1120.000000	62.287800
1121.000000	62.228167
1122.000000	62.148100
1123.000000	62.081300
1124.000000	61.975000
1125.000000	61.870300
1126.000000	61.731033
1127.000000	61.588433
1128.000000	61.396033
1129.000000	61.164633
1130.000000	60.901000
1131.000000	60.585867
1132.000000	60.273967
1133.000000	59.940433
1134.000000	59.575967
1135.000000	59.177867
1136.000000	58.763733
1137.000000	58.375633
1138.000000	57.995067
1139.000000	57.643233
1140.000000	57.297933
1141.000000	56.953633
1142.000000	56.634600
1143.000000	56.342567
1144.000000	56.072800
1145.000000	55.873967
1146.000000	55.710433
1147.000000	55.589600
1148.000000	55.500733
1149.000000	55.421633
1150.000000	55.346100
1151.000000	55.257733
1152.000000	55.152633
1153.000000	55.015467
1154.000000	54.831367
1155.000000	54.613167
1156.000000	54.359500
1157.000000	54.076300
1158.000000	53.778433
1159.000000	53.460167
1160.000000	53.136667
1161.000000	52.813100
1162.000000	52.481267
1163.000000	52.154233
1164.000000	51.819567
1165.000000	51.496333
1166.000000	51.200167
