PE UV       SUBTECH     SPECTRUM    ASCII       PEDS        4.00        
   -1
CICIMAUCR0002-3.Sample.ASC
24/05/03
15:09:39.00
24/05/03
15:09:39.00
Vinicio Soto Monge
C. kalinini
250,000000
1
Lambda 1050
1050L1511233
PerkinElmer UV WinLab 6.3.2.0749 / 2.02.05 Lambda 900 UV/VIS/NIR, Aug  7 2015 09:38:08

0
0
3350/servo 860,8/2
0
0
UV/VIS
1
1
1
DoubleDePol,CommonBeamDepol,RBeamAtt,SBeamAtt,60mm sphere, WB InGaAs Detector
0
0
0
0
Program
Program
3350/servo 860,8/2
3350/0,2 860,8/0,2
3350/0,2 860,8/0,2
0
15.00
 
 
 
0
 
860,8
319,2
860,8
Front
100
on
S:100 R:100
0
0
0
0
 
0
 
 
 
0
 
 
0
0
0
0
0
 
 
 
 
0
0


0
0
#HDR
-1
-1
#GR
nm
%R
1.0
0.0
2500,000000
-1,000000
2251
8
99,074100
5,519500
#DATA
250.000000	6.106045
251.000000	6.085150
252.000000	6.048346
253.000000	6.026198
254.000000	6.063595
255.000000	6.050179
256.000000	6.036895
257.000000	5.990771
258.000000	6.005170
259.000000	5.989388
260.000000	5.970745
261.000000	5.950924
262.000000	5.922562
263.000000	5.900505
264.000000	5.869664
265.000000	5.837324
266.000000	5.849782
267.000000	5.778372
268.000000	5.750379
269.000000	5.761368
270.000000	5.766754
271.000000	5.706559
272.000000	5.726119
273.000000	5.687023
274.000000	5.676891
275.000000	5.662289
276.000000	5.659282
277.000000	5.658050
278.000000	5.644128
279.000000	5.633088
280.000000	5.617947
281.000000	5.631699
282.000000	5.620576
283.000000	5.612474
284.000000	5.606788
285.000000	5.606486
286.000000	5.588511
287.000000	5.573558
288.000000	5.603105
289.000000	5.589599
290.000000	5.559516
291.000000	5.567772
292.000000	5.554300
293.000000	5.570043
294.000000	5.577382
295.000000	5.556446
296.000000	5.561003
297.000000	5.553112
298.000000	5.531787
299.000000	5.535913
300.000000	5.533517
301.000000	5.491536
302.000000	5.537159
303.000000	5.552678
304.000000	5.544902
305.000000	5.525236
306.000000	5.538050
307.000000	5.543025
308.000000	5.511490
309.000000	5.521651
310.000000	5.557930
311.000000	5.515261
312.000000	5.522337
313.000000	5.512435
314.000000	5.531146
315.000000	5.498289
316.000000	5.522869
317.000000	5.743999
318.000000	5.713467
319.000000	5.939971
320.000000	5.722603
321.000000	5.668332
322.000000	5.802480
323.000000	5.730340
324.000000	5.531083
325.000000	5.449724
326.000000	5.643435
327.000000	5.641946
328.000000	5.596797
329.000000	5.586075
330.000000	5.478409
331.000000	5.550382
332.000000	5.680883
333.000000	5.738321
334.000000	5.664550
335.000000	5.677367
336.000000	5.743573
337.000000	5.693344
338.000000	5.618067
339.000000	5.688769
340.000000	5.561869
341.000000	5.668582
342.000000	5.752988
343.000000	5.598712
344.000000	5.644247
345.000000	5.673214
346.000000	5.683980
347.000000	5.719634
348.000000	5.745418
349.000000	5.758651
350.000000	5.816306
351.000000	5.850567
352.000000	5.827745
353.000000	5.828910
354.000000	5.840948
355.000000	5.887773
356.000000	5.844786
357.000000	5.871052
358.000000	5.874790
359.000000	5.883424
360.000000	5.988065
361.000000	5.934881
362.000000	5.921265
363.000000	5.934456
364.000000	5.943594
365.000000	5.970376
366.000000	6.091313
367.000000	6.060036
368.000000	5.998137
369.000000	6.081132
370.000000	6.071516
371.000000	6.097588
372.000000	6.100993
373.000000	5.981297
374.000000	6.077080
375.000000	6.206386
376.000000	6.293277
377.000000	6.304168
378.000000	6.335891
379.000000	6.366825
380.000000	6.410742
381.000000	6.453065
382.000000	6.490535
383.000000	6.531025
384.000000	6.581105
385.000000	6.635375
386.000000	6.692369
387.000000	6.748571
388.000000	6.816540
389.000000	6.891497
390.000000	6.967604
391.000000	7.051178
392.000000	7.156018
393.000000	7.256669
394.000000	7.354799
395.000000	7.455043
396.000000	7.575536
397.000000	7.705566
398.000000	7.845192
399.000000	7.988373
400.000000	8.157043
401.000000	8.321399
402.000000	8.518499
403.000000	8.716936
404.000000	8.913515
405.000000	9.145054
406.000000	9.375783
407.000000	9.622645
408.000000	9.890203
409.000000	10.167791
410.000000	10.470800
411.000000	10.786039
412.000000	11.105543
413.000000	11.449591
414.000000	11.812450
415.000000	12.184145
416.000000	12.561180
417.000000	12.953658
418.000000	13.361933
419.000000	13.777204
420.000000	14.207322
421.000000	14.649613
422.000000	15.090543
423.000000	15.537537
424.000000	15.989343
425.000000	16.445036
426.000000	16.903874
427.000000	17.351250
428.000000	17.807544
429.000000	18.263888
430.000000	18.711815
431.000000	19.161915
432.000000	19.607127
433.000000	20.029247
434.000000	20.449934
435.000000	20.868353
436.000000	21.268382
437.000000	21.662133
438.000000	22.050703
439.000000	22.427916
440.000000	22.794727
441.000000	23.149624
442.000000	23.499978
443.000000	23.855870
444.000000	24.175829
445.000000	24.481590
446.000000	24.789812
447.000000	25.076181
448.000000	25.353240
449.000000	25.626778
450.000000	25.871508
451.000000	26.113601
452.000000	26.359723
453.000000	26.577351
454.000000	26.793055
455.000000	26.988210
456.000000	27.168310
457.000000	27.321496
458.000000	27.484305
459.000000	27.638941
460.000000	27.756681
461.000000	27.883994
462.000000	27.979711
463.000000	28.080379
464.000000	28.160244
465.000000	28.219531
466.000000	28.279950
467.000000	28.319569
468.000000	28.350562
469.000000	28.370070
470.000000	28.379895
471.000000	28.376122
472.000000	28.360499
473.000000	28.342778
474.000000	28.313911
475.000000	28.272063
476.000000	28.237410
477.000000	28.192412
478.000000	28.131498
479.000000	28.094222
480.000000	28.052777
481.000000	28.008814
482.000000	27.957152
483.000000	27.920762
484.000000	27.881838
485.000000	27.860109
486.000000	27.851460
487.000000	27.864267
488.000000	27.912499
489.000000	27.993046
490.000000	28.107780
491.000000	28.269397
492.000000	28.500622
493.000000	28.777875
494.000000	29.119992
495.000000	29.525333
496.000000	29.968359
497.000000	30.458118
498.000000	31.004198
499.000000	31.602579
500.000000	32.274858
501.000000	32.997633
502.000000	33.765814
503.000000	34.533584
504.000000	35.358620
505.000000	36.170637
506.000000	36.986618
507.000000	37.827819
508.000000	38.665501
509.000000	39.512206
510.000000	40.335484
511.000000	41.144105
512.000000	41.934731
513.000000	42.719472
514.000000	43.480996
515.000000	44.262210
516.000000	45.017751
517.000000	45.775558
518.000000	46.534182
519.000000	47.264077
520.000000	47.995682
521.000000	48.721798
522.000000	49.436630
523.000000	50.136397
524.000000	50.847847
525.000000	51.533200
526.000000	52.191173
527.000000	52.841261
528.000000	53.463892
529.000000	54.092121
530.000000	54.703769
531.000000	55.339329
532.000000	55.951440
533.000000	56.574410
534.000000	57.206421
535.000000	57.833881
536.000000	58.472081
537.000000	59.099101
538.000000	59.690045
539.000000	60.313065
540.000000	60.911529
541.000000	61.500654
542.000000	62.081640
543.000000	62.665168
544.000000	63.206673
545.000000	63.725692
546.000000	64.210553
547.000000	64.684565
548.000000	65.149801
549.000000	65.548992
550.000000	65.966037
551.000000	66.353765
552.000000	66.727565
553.000000	67.075817
554.000000	67.393133
555.000000	67.689361
556.000000	67.983697
557.000000	68.242382
558.000000	68.520466
559.000000	68.763411
560.000000	68.999260
561.000000	69.222718
562.000000	69.420771
563.000000	69.582963
564.000000	69.737165
565.000000	69.876842
566.000000	69.998509
567.000000	70.127336
568.000000	70.232126
569.000000	70.298741
570.000000	70.349722
571.000000	70.395365
572.000000	70.427905
573.000000	70.374490
574.000000	70.363704
575.000000	70.315658
576.000000	70.278692
577.000000	70.203628
578.000000	70.127415
579.000000	70.041879
580.000000	69.961092
581.000000	69.857680
582.000000	69.714700
583.000000	69.592105
584.000000	69.395709
585.000000	69.240361
586.000000	69.072345
587.000000	68.841358
588.000000	68.662532
589.000000	68.435180
590.000000	68.183103
591.000000	67.910871
592.000000	67.644294
593.000000	67.344879
594.000000	66.998753
595.000000	66.628009
596.000000	66.243710
597.000000	65.825056
598.000000	65.401683
599.000000	64.939410
600.000000	64.531122
601.000000	64.084920
602.000000	63.667999
603.000000	63.236022
604.000000	62.783176
605.000000	62.391235
606.000000	61.986849
607.000000	61.647855
608.000000	61.289446
609.000000	60.964918
610.000000	60.718524
611.000000	60.468179
612.000000	60.304078
613.000000	60.114669
614.000000	60.004182
615.000000	59.935959
616.000000	59.896261
617.000000	59.867791
618.000000	59.858539
619.000000	59.850258
620.000000	59.855489
621.000000	59.857989
622.000000	59.914304
623.000000	59.909094
624.000000	59.951677
625.000000	59.975973
626.000000	60.044800
627.000000	60.062917
628.000000	60.115125
629.000000	60.175963
630.000000	60.256127
631.000000	60.299913
632.000000	60.400130
633.000000	60.465753
634.000000	60.560252
635.000000	60.649819
636.000000	60.721543
637.000000	60.828794
638.000000	60.906881
639.000000	60.979440
640.000000	61.042970
641.000000	61.093465
642.000000	61.127678
643.000000	61.170638
644.000000	61.171562
645.000000	61.191317
646.000000	61.250045
647.000000	61.292142
648.000000	61.333623
649.000000	61.434527
650.000000	61.547379
651.000000	61.724273
652.000000	61.966876
653.000000	62.282260
654.000000	62.602687
655.000000	63.001659
656.000000	63.466908
657.000000	63.922775
658.000000	64.414656
659.000000	64.981728
660.000000	65.536250
661.000000	66.126291
662.000000	66.702203
663.000000	67.291669
664.000000	67.863499
665.000000	68.428092
666.000000	68.935422
667.000000	69.403652
668.000000	69.874936
669.000000	70.316037
670.000000	70.763752
671.000000	71.172099
672.000000	71.550016
673.000000	71.980254
674.000000	72.325578
675.000000	72.697706
676.000000	73.087894
677.000000	73.528254
678.000000	73.953014
679.000000	74.396701
680.000000	74.834961
681.000000	75.335837
682.000000	75.840483
683.000000	76.402412
684.000000	76.916688
685.000000	77.437738
686.000000	77.972165
687.000000	78.496570
688.000000	78.967225
689.000000	79.491344
690.000000	79.993144
691.000000	80.456872
692.000000	80.945935
693.000000	81.423764
694.000000	81.864304
695.000000	82.305624
696.000000	82.763983
697.000000	83.209730
698.000000	83.688743
699.000000	84.085718
700.000000	84.534352
701.000000	85.002796
702.000000	85.485611
703.000000	85.984437
704.000000	86.502145
705.000000	86.985096
706.000000	87.478088
707.000000	87.922226
708.000000	88.366600
709.000000	88.821000
710.000000	89.224152
711.000000	89.622886
712.000000	90.012137
713.000000	90.378179
714.000000	90.681179
715.000000	90.999970
716.000000	91.310065
717.000000	91.609190
718.000000	91.830242
719.000000	92.022795
720.000000	92.319945
721.000000	92.597546
722.000000	92.809254
723.000000	93.039373
724.000000	93.266220
725.000000	93.451958
726.000000	93.646539
727.000000	93.853187
728.000000	94.069377
729.000000	94.242672
730.000000	94.408969
731.000000	94.604650
732.000000	94.835086
733.000000	95.059696
734.000000	95.201952
735.000000	95.379108
736.000000	95.589671
737.000000	95.757727
738.000000	95.899686
739.000000	96.036801
740.000000	96.180529
741.000000	96.261968
742.000000	96.344252
743.000000	96.459058
744.000000	96.530913
745.000000	96.573268
746.000000	96.573710
747.000000	96.655817
748.000000	96.713638
749.000000	96.736856
750.000000	96.813851
751.000000	96.864220
752.000000	96.925480
753.000000	96.987119
754.000000	97.005871
755.000000	97.001611
756.000000	97.077346
757.000000	97.136677
758.000000	97.157820
759.000000	97.154962
760.000000	97.090385
761.000000	97.074465
762.000000	97.050617
763.000000	96.932126
764.000000	96.888181
765.000000	96.819182
766.000000	96.705328
767.000000	96.612231
768.000000	96.496722
769.000000	96.365602
770.000000	96.247691
771.000000	96.066178
772.000000	95.868151
773.000000	95.642412
774.000000	95.484141
775.000000	95.319839
776.000000	95.166433
777.000000	94.989523
778.000000	94.743612
779.000000	94.549121
780.000000	94.410913
781.000000	94.152030
782.000000	93.951015
783.000000	93.777308
784.000000	93.484492
785.000000	93.229061
786.000000	92.984349
787.000000	92.718266
788.000000	92.419641
789.000000	92.105839
790.000000	91.806682
791.000000	91.477485
792.000000	91.121960
793.000000	90.718274
794.000000	90.413677
795.000000	90.043203
796.000000	89.746731
797.000000	89.437703
798.000000	89.067095
799.000000	88.666877
800.000000	88.353979
801.000000	87.936604
802.000000	87.576067
803.000000	87.174020
804.000000	86.742920
805.000000	86.426742
806.000000	86.047203
807.000000	85.738676
808.000000	85.286744
809.000000	84.926490
810.000000	84.622126
811.000000	84.279893
812.000000	83.841313
813.000000	83.487067
814.000000	83.136838
815.000000	82.733095
816.000000	82.341830
817.000000	81.977086
818.000000	81.650660
819.000000	81.416674
820.000000	81.014515
821.000000	80.590516
822.000000	80.265725
823.000000	79.948054
824.000000	79.691584
825.000000	79.348765
826.000000	79.055817
827.000000	78.679371
828.000000	78.458691
829.000000	78.203192
830.000000	77.866845
831.000000	77.536119
832.000000	77.390711
833.000000	77.167316
834.000000	76.859780
835.000000	76.776568
836.000000	76.502448
837.000000	76.330675
838.000000	75.897732
839.000000	75.913946
840.000000	75.563433
841.000000	75.350941
842.000000	75.291261
843.000000	75.019434
844.000000	74.938440
845.000000	74.723211
846.000000	74.679833
847.000000	74.689546
848.000000	74.557840
849.000000	74.314750
850.000000	74.133155
851.000000	74.039455
852.000000	74.023733
853.000000	74.066891
854.000000	73.471751
855.000000	73.401629
856.000000	73.146484
857.000000	73.292773
858.000000	73.648400
859.000000	73.287767
860.000000	73.175900
861.000000	73.067200
862.000000	72.939633
863.000000	72.837233
864.000000	72.735933
865.000000	72.628800
866.000000	72.522367
867.000000	72.424900
868.000000	72.330433
869.000000	72.212567
870.000000	72.102867
871.000000	71.993600
872.000000	71.956067
873.000000	72.057167
874.000000	72.231433
875.000000	72.402733
876.000000	72.582200
877.000000	72.699667
878.000000	72.746433
879.000000	72.804967
880.000000	72.846400
881.000000	72.878867
882.000000	72.871600
883.000000	72.874600
884.000000	72.869200
885.000000	72.862567
886.000000	72.852067
887.000000	72.831033
888.000000	72.799300
889.000000	72.778600
890.000000	72.752933
891.000000	72.714267
892.000000	72.672133
893.000000	72.649667
894.000000	72.585500
895.000000	72.543967
896.000000	72.495867
897.000000	72.428300
898.000000	72.380300
899.000000	72.313333
900.000000	72.230333
901.000000	72.163433
902.000000	72.091333
903.000000	72.027633
904.000000	71.961967
905.000000	71.914800
906.000000	71.859133
907.000000	71.804333
908.000000	71.763267
909.000000	71.736600
910.000000	71.703167
911.000000	71.678500
912.000000	71.657700
913.000000	71.652467
914.000000	71.630833
915.000000	71.628000
916.000000	71.608367
917.000000	71.600567
918.000000	71.593433
919.000000	71.578533
920.000000	71.551133
921.000000	71.528200
922.000000	71.507233
923.000000	71.464367
924.000000	71.427233
925.000000	71.390167
926.000000	71.354200
927.000000	71.329833
928.000000	71.304433
929.000000	71.245633
930.000000	71.215200
931.000000	71.187500
932.000000	71.163133
933.000000	71.102233
934.000000	71.064100
935.000000	71.017533
936.000000	70.969767
937.000000	70.932667
938.000000	70.875800
939.000000	70.829133
940.000000	70.779833
941.000000	70.745767
942.000000	70.687167
943.000000	70.632300
944.000000	70.602967
945.000000	70.563133
946.000000	70.499067
947.000000	70.452400
948.000000	70.400667
949.000000	70.358800
950.000000	70.303100
951.000000	70.247300
952.000000	70.194333
953.000000	70.132433
954.000000	70.073567
955.000000	70.015667
956.000000	69.931300
957.000000	69.852800
958.000000	69.776267
959.000000	69.679900
960.000000	69.596300
961.000000	69.520933
962.000000	69.409933
963.000000	69.311900
964.000000	69.225067
965.000000	69.141233
966.000000	69.046300
967.000000	68.955733
968.000000	68.868900
969.000000	68.769067
970.000000	68.676567
971.000000	68.579467
972.000000	68.492400
973.000000	68.385500
974.000000	68.290167
975.000000	68.179433
976.000000	68.078433
977.000000	67.978167
978.000000	67.866300
979.000000	67.752700
980.000000	67.636133
981.000000	67.526600
982.000000	67.413967
983.000000	67.302633
984.000000	67.184800
985.000000	67.059167
986.000000	66.935267
987.000000	66.814967
988.000000	66.696633
989.000000	66.567700
990.000000	66.446033
991.000000	66.325900
992.000000	66.204433
993.000000	66.078167
994.000000	65.948667
995.000000	65.832433
996.000000	65.713300
997.000000	65.593300
998.000000	65.479933
999.000000	65.358567
1000.000000	65.243333
1001.000000	65.123733
1002.000000	65.003133
1003.000000	64.887400
1004.000000	64.764500
1005.000000	64.645233
1006.000000	64.530100
1007.000000	64.405900
1008.000000	64.279767
1009.000000	64.164733
1010.000000	64.052667
1011.000000	63.939333
1012.000000	63.829233
1013.000000	63.723867
1014.000000	63.639767
1015.000000	63.562033
1016.000000	63.487533
1017.000000	63.420300
1018.000000	63.361467
1019.000000	63.318733
1020.000000	63.270367
1021.000000	63.233367
1022.000000	63.196000
1023.000000	63.167400
1024.000000	63.150033
1025.000000	63.119200
1026.000000	63.096567
1027.000000	63.076033
1028.000000	63.052100
1029.000000	63.032800
1030.000000	63.010733
1031.000000	62.977967
1032.000000	62.948533
1033.000000	62.931133
1034.000000	62.908333
1035.000000	62.878067
1036.000000	62.849467
1037.000000	62.820100
1038.000000	62.787200
1039.000000	62.753233
1040.000000	62.729267
1041.000000	62.694667
1042.000000	62.654300
1043.000000	62.616033
1044.000000	62.586433
1045.000000	62.563333
1046.000000	62.537367
1047.000000	62.512067
1048.000000	62.492800
1049.000000	62.483900
1050.000000	62.468200
1051.000000	62.449967
1052.000000	62.445567
1053.000000	62.446033
1054.000000	62.449300
1055.000000	62.449400
1056.000000	62.458400
1057.000000	62.476033
1058.000000	62.496167
1059.000000	62.503367
1060.000000	62.520367
1061.000000	62.538233
1062.000000	62.548467
1063.000000	62.553867
1064.000000	62.559767
1065.000000	62.570833
1066.000000	62.592900
1067.000000	62.615067
1068.000000	62.630033
1069.000000	62.646333
1070.000000	62.661200
1071.000000	62.680767
1072.000000	62.694767
1073.000000	62.718900
1074.000000	62.742133
1075.000000	62.758600
1076.000000	62.775500
1077.000000	62.798700
1078.000000	62.822033
1079.000000	62.841700
1080.000000	62.879700
1081.000000	62.903767
1082.000000	62.942533
1083.000000	62.976100
1084.000000	63.006433
1085.000000	63.045367
1086.000000	63.079000
1087.000000	63.125533
1088.000000	63.161567
1089.000000	63.199567
1090.000000	63.231233
1091.000000	63.271933
1092.000000	63.313400
1093.000000	63.347067
1094.000000	63.385367
1095.000000	63.416300
1096.000000	63.437667
1097.000000	63.467000
1098.000000	63.492167
1099.000000	63.515600
1100.000000	63.539533
1101.000000	63.554167
1102.000000	63.574200
1103.000000	63.598533
1104.000000	63.618300
1105.000000	63.627633
1106.000000	63.637467
1107.000000	63.642633
1108.000000	63.652633
1109.000000	63.659500
1110.000000	63.669133
1111.000000	63.670833
1112.000000	63.669133
1113.000000	63.668100
1114.000000	63.679033
1115.000000	63.681333
1116.000000	63.688633
1117.000000	63.681633
1118.000000	63.672067
1119.000000	63.656100
1120.000000	63.617733
1121.000000	63.568733
1122.000000	63.511400
1123.000000	63.437400
1124.000000	63.352400
1125.000000	63.249367
1126.000000	63.145433
1127.000000	63.003600
1128.000000	62.859733
1129.000000	62.665833
1130.000000	62.431267
1131.000000	62.155300
1132.000000	61.830467
1133.000000	61.485467
1134.000000	61.117033
1135.000000	60.721567
1136.000000	60.267500
1137.000000	59.785833
1138.000000	59.307933
1139.000000	58.840100
1140.000000	58.373467
1141.000000	57.927167
1142.000000	57.508700
1143.000000	57.095733
1144.000000	56.710433
1145.000000	56.371400
1146.000000	56.100767
1147.000000	55.913900
1148.000000	55.831800
1149.000000	55.810333
1150.000000	55.824067
1151.000000	55.854733
1152.000000	55.866600
1153.000000	55.860633
1154.000000	55.804267
1155.000000	55.694400
1156.000000	55.494733
1157.000000	55.230967
1158.000000	54.904933
1159.000000	54.537867
1160.000000	54.134267
1161.000000	53.708233
1162.000000	53.285167
1163.000000	52.842567
1164.000000	52.385833
1165.000000	51.937800
1166.000000	51.472667
1167.000000	51.047233
