PE UV       SUBTECH     SPECTRUM    ASCII       PEDS        4.00        
   -1
CICIMAUCR0201-3.Sample.ASC
24/05/31
16:20:21.00
24/05/31
16:20:21.00
Vinicio Soto Monge
C. cupreomarginata. Sex F. Dorsal
250,000000
1
Lambda 1050
1050L1511233
PerkinElmer UV WinLab 6.3.2.0749 / 2.02.05 Lambda 900 UV/VIS/NIR, Aug  7 2015 09:38:08

0
0
3350/servo 860,8/2
0
0
UV/VIS
1
1
1
DoubleDePol,CommonBeamDepol,RBeamAtt,SBeamAtt,60mm sphere, WB InGaAs Detector
0
0
0
0
Program
Program
3350/servo 860,8/2
3350/0,2 860,8/0,2
3350/0,2 860,8/0,2
0
15.00
 
 
 
0
 
860,8
319,2
860,8
Front
100
on
S:100 R:100
0
0
0
0
 
0
 
 
 
0
 
 
0
0
0
0
0
 
 
 
 
0
0


0
0
#HDR
-1
-1
#GR
nm
%R
1.0
0.0
2500,000000
-1,000000
2251
8
69,649100
5,880400
#DATA
250.000000	6.405572
251.000000	6.383373
252.000000	6.392509
253.000000	6.367547
254.000000	6.333173
255.000000	6.328999
256.000000	6.292509
257.000000	6.309548
258.000000	6.306570
259.000000	6.252511
260.000000	6.242537
261.000000	6.185721
262.000000	6.173082
263.000000	6.158874
264.000000	6.102778
265.000000	6.091457
266.000000	6.048422
267.000000	6.040104
268.000000	6.009397
269.000000	5.955770
270.000000	5.937697
271.000000	5.936280
272.000000	5.919641
273.000000	5.899430
274.000000	5.873351
275.000000	5.878618
276.000000	5.871064
277.000000	5.873070
278.000000	5.850324
279.000000	5.824400
280.000000	5.792032
281.000000	5.791875
282.000000	5.796414
283.000000	5.799178
284.000000	5.801802
285.000000	5.790650
286.000000	5.786207
287.000000	5.807145
288.000000	5.783058
289.000000	5.777851
290.000000	5.747334
291.000000	5.758607
292.000000	5.756919
293.000000	5.761771
294.000000	5.752704
295.000000	5.742794
296.000000	5.735601
297.000000	5.739391
298.000000	5.720469
299.000000	5.710775
300.000000	5.719004
301.000000	5.701548
302.000000	5.704406
303.000000	5.709752
304.000000	5.704186
305.000000	5.718899
306.000000	5.714947
307.000000	5.704922
308.000000	5.702887
309.000000	5.684039
310.000000	5.669676
311.000000	5.671563
312.000000	5.686270
313.000000	5.687741
314.000000	5.681629
315.000000	5.670597
316.000000	6.103614
317.000000	6.820373
318.000000	6.781222
319.000000	6.399687
320.000000	6.337152
321.000000	6.525245
322.000000	6.606760
323.000000	6.404696
324.000000	6.204444
325.000000	6.012345
326.000000	6.153637
327.000000	6.262298
328.000000	6.076212
329.000000	5.991639
330.000000	5.939233
331.000000	5.963568
332.000000	6.075537
333.000000	5.912088
334.000000	5.758972
335.000000	5.844166
336.000000	5.958539
337.000000	5.953771
338.000000	5.824236
339.000000	5.796054
340.000000	5.759951
341.000000	5.737242
342.000000	5.809923
343.000000	5.957759
344.000000	5.983172
345.000000	5.878513
346.000000	5.888472
347.000000	5.834999
348.000000	5.790150
349.000000	5.894494
350.000000	5.820534
351.000000	5.823718
352.000000	5.776939
353.000000	5.673807
354.000000	5.761705
355.000000	5.785160
356.000000	5.865734
357.000000	5.923632
358.000000	5.859486
359.000000	5.806459
360.000000	5.730884
361.000000	5.738179
362.000000	5.754915
363.000000	5.830152
364.000000	5.794016
365.000000	5.760000
366.000000	5.820540
367.000000	5.818312
368.000000	5.769162
369.000000	5.691036
370.000000	5.719422
371.000000	5.681609
372.000000	5.596511
373.000000	5.565089
374.000000	5.512816
375.000000	5.667306
376.000000	5.880246
377.000000	5.962710
378.000000	5.993383
379.000000	6.003434
380.000000	6.008318
381.000000	6.024205
382.000000	6.042495
383.000000	6.058311
384.000000	6.077897
385.000000	6.117144
386.000000	6.147051
387.000000	6.173942
388.000000	6.196322
389.000000	6.233990
390.000000	6.267786
391.000000	6.315774
392.000000	6.350868
393.000000	6.388640
394.000000	6.440392
395.000000	6.490258
396.000000	6.556672
397.000000	6.611820
398.000000	6.689120
399.000000	6.763913
400.000000	6.836829
401.000000	6.925614
402.000000	7.015471
403.000000	7.116207
404.000000	7.218542
405.000000	7.324059
406.000000	7.457690
407.000000	7.578087
408.000000	7.710051
409.000000	7.852514
410.000000	7.997234
411.000000	8.151793
412.000000	8.313703
413.000000	8.482605
414.000000	8.658222
415.000000	8.832897
416.000000	9.033777
417.000000	9.238948
418.000000	9.437384
419.000000	9.660343
420.000000	9.885033
421.000000	10.104125
422.000000	10.339925
423.000000	10.596295
424.000000	10.845995
425.000000	11.098465
426.000000	11.357339
427.000000	11.622506
428.000000	11.890963
429.000000	12.163026
430.000000	12.436106
431.000000	12.724817
432.000000	13.011154
433.000000	13.287383
434.000000	13.572734
435.000000	13.863827
436.000000	14.140940
437.000000	14.436710
438.000000	14.711040
439.000000	15.007993
440.000000	15.297516
441.000000	15.572295
442.000000	15.850530
443.000000	16.128163
444.000000	16.386077
445.000000	16.648413
446.000000	16.892866
447.000000	17.124129
448.000000	17.344599
449.000000	17.560982
450.000000	17.768472
451.000000	17.976246
452.000000	18.189240
453.000000	18.384440
454.000000	18.566898
455.000000	18.727475
456.000000	18.907208
457.000000	19.065467
458.000000	19.210808
459.000000	19.355312
460.000000	19.486187
461.000000	19.601075
462.000000	19.743654
463.000000	19.845013
464.000000	19.956006
465.000000	20.047282
466.000000	20.139602
467.000000	20.206685
468.000000	20.268257
469.000000	20.339437
470.000000	20.395511
471.000000	20.452813
472.000000	20.506211
473.000000	20.560131
474.000000	20.593468
475.000000	20.635421
476.000000	20.677240
477.000000	20.733557
478.000000	20.791119
479.000000	20.848583
480.000000	20.919136
481.000000	20.994898
482.000000	21.066414
483.000000	21.155134
484.000000	21.234008
485.000000	21.318544
486.000000	21.394440
487.000000	21.486582
488.000000	21.599945
489.000000	21.700411
490.000000	21.833000
491.000000	21.980705
492.000000	22.141242
493.000000	22.312429
494.000000	22.523754
495.000000	22.735245
496.000000	23.005267
497.000000	23.293197
498.000000	23.628505
499.000000	24.009882
500.000000	24.407000
501.000000	24.880930
502.000000	25.395936
503.000000	25.969507
504.000000	26.561468
505.000000	27.194013
506.000000	27.871319
507.000000	28.581841
508.000000	29.334016
509.000000	30.085046
510.000000	30.898156
511.000000	31.677395
512.000000	32.484854
513.000000	33.271099
514.000000	34.045850
515.000000	34.826502
516.000000	35.616033
517.000000	36.351079
518.000000	37.079851
519.000000	37.788566
520.000000	38.496233
521.000000	39.197004
522.000000	39.879999
523.000000	40.559973
524.000000	41.238296
525.000000	41.921141
526.000000	42.604477
527.000000	43.279935
528.000000	43.939661
529.000000	44.614113
530.000000	45.272534
531.000000	45.949635
532.000000	46.656521
533.000000	47.368339
534.000000	48.095028
535.000000	48.812299
536.000000	49.512234
537.000000	50.236151
538.000000	50.967174
539.000000	51.697586
540.000000	52.415377
541.000000	53.145131
542.000000	53.868415
543.000000	54.600228
544.000000	55.319353
545.000000	56.020279
546.000000	56.692658
547.000000	57.360585
548.000000	57.985981
549.000000	58.589030
550.000000	59.199773
551.000000	59.785162
552.000000	60.340547
553.000000	60.866949
554.000000	61.367262
555.000000	61.826331
556.000000	62.237126
557.000000	62.602625
558.000000	62.898581
559.000000	63.194604
560.000000	63.477301
561.000000	63.693975
562.000000	63.887481
563.000000	64.045771
564.000000	64.196330
565.000000	64.304696
566.000000	64.388533
567.000000	64.453703
568.000000	64.506929
569.000000	64.541301
570.000000	64.553101
571.000000	64.530735
572.000000	64.484265
573.000000	64.402144
574.000000	64.309271
575.000000	64.196394
576.000000	64.054531
577.000000	63.895792
578.000000	63.720064
579.000000	63.523331
580.000000	63.324967
581.000000	63.117101
582.000000	62.918385
583.000000	62.704774
584.000000	62.507845
585.000000	62.296340
586.000000	62.119372
587.000000	61.948040
588.000000	61.769266
589.000000	61.615048
590.000000	61.449999
591.000000	61.270592
592.000000	61.079209
593.000000	60.933112
594.000000	60.756758
595.000000	60.566906
596.000000	60.363703
597.000000	60.124477
598.000000	59.898629
599.000000	59.651955
600.000000	59.372681
601.000000	59.058263
602.000000	58.739552
603.000000	58.374974
604.000000	58.001364
605.000000	57.613232
606.000000	57.192556
607.000000	56.760907
608.000000	56.344958
609.000000	55.930865
610.000000	55.528878
611.000000	55.108654
612.000000	54.702966
613.000000	54.311841
614.000000	53.952509
615.000000	53.588371
616.000000	53.259590
617.000000	52.954339
618.000000	52.679020
619.000000	52.429056
620.000000	52.187543
621.000000	51.969029
622.000000	51.747884
623.000000	51.523866
624.000000	51.284419
625.000000	51.025695
626.000000	50.778602
627.000000	50.513597
628.000000	50.214703
629.000000	49.897211
630.000000	49.547787
631.000000	49.203398
632.000000	48.849166
633.000000	48.474026
634.000000	48.117705
635.000000	47.795898
636.000000	47.488604
637.000000	47.231983
638.000000	47.015027
639.000000	46.823018
640.000000	46.706595
641.000000	46.643420
642.000000	46.630376
643.000000	46.683547
644.000000	46.790790
645.000000	46.962538
646.000000	47.186722
647.000000	47.425294
648.000000	47.671828
649.000000	47.968164
650.000000	48.280526
651.000000	48.600332
652.000000	48.893391
653.000000	49.154893
654.000000	49.428101
655.000000	49.687794
656.000000	49.930101
657.000000	50.132829
658.000000	50.319367
659.000000	50.500405
660.000000	50.701492
661.000000	50.853975
662.000000	51.005782
663.000000	51.178602
664.000000	51.328504
665.000000	51.502710
666.000000	51.683808
667.000000	51.839296
668.000000	51.999394
669.000000	52.166850
670.000000	52.338039
671.000000	52.515056
672.000000	52.680481
673.000000	52.840628
674.000000	53.002971
675.000000	53.186110
676.000000	53.340115
677.000000	53.425906
678.000000	53.536136
679.000000	53.663197
680.000000	53.771065
681.000000	53.887996
682.000000	53.963944
683.000000	54.000201
684.000000	54.080259
685.000000	54.157511
686.000000	54.197779
687.000000	54.237742
688.000000	54.267490
689.000000	54.312749
690.000000	54.400124
691.000000	54.445111
692.000000	54.511429
693.000000	54.591616
694.000000	54.647452
695.000000	54.699630
696.000000	54.797206
697.000000	54.886718
698.000000	54.968655
699.000000	55.080009
700.000000	55.146361
701.000000	55.243332
702.000000	55.348814
703.000000	55.474668
704.000000	55.576872
705.000000	55.670268
706.000000	55.789803
707.000000	55.902816
708.000000	55.979961
709.000000	56.043218
710.000000	56.109920
711.000000	56.228324
712.000000	56.361832
713.000000	56.420809
714.000000	56.500903
715.000000	56.602648
716.000000	56.696630
717.000000	56.793731
718.000000	56.911421
719.000000	57.003310
720.000000	57.070837
721.000000	57.224264
722.000000	57.300851
723.000000	57.401172
724.000000	57.523058
725.000000	57.618545
726.000000	57.699443
727.000000	57.810967
728.000000	57.935410
729.000000	57.978252
730.000000	58.146071
731.000000	58.308110
732.000000	58.390883
733.000000	58.461932
734.000000	58.605779
735.000000	58.654897
736.000000	58.765847
737.000000	58.842281
738.000000	58.967124
739.000000	59.055034
740.000000	59.111637
741.000000	59.136946
742.000000	59.264059
743.000000	59.343657
744.000000	59.465168
745.000000	59.549359
746.000000	59.677182
747.000000	59.770200
748.000000	59.901272
749.000000	60.036953
750.000000	60.121501
751.000000	60.185140
752.000000	60.350839
753.000000	60.410305
754.000000	60.488889
755.000000	60.540288
756.000000	60.650191
757.000000	60.716911
758.000000	60.809528
759.000000	60.856874
760.000000	60.906620
761.000000	61.013158
762.000000	61.133368
763.000000	61.104468
764.000000	61.263161
765.000000	61.326240
766.000000	61.412718
767.000000	61.538207
768.000000	61.688945
769.000000	61.788942
770.000000	61.872919
771.000000	61.997032
772.000000	62.058993
773.000000	62.105421
774.000000	62.201231
775.000000	62.265410
776.000000	62.347556
777.000000	62.371713
778.000000	62.520226
779.000000	62.537609
780.000000	62.616610
781.000000	62.732395
782.000000	62.892552
783.000000	62.844909
784.000000	62.962055
785.000000	63.096954
786.000000	63.118154
787.000000	63.355719
788.000000	63.428089
789.000000	63.461414
790.000000	63.545436
791.000000	63.678937
792.000000	63.652706
793.000000	63.877385
794.000000	63.805391
795.000000	63.916869
796.000000	64.021725
797.000000	64.005892
798.000000	64.028332
799.000000	64.110859
800.000000	64.291710
801.000000	64.243798
802.000000	64.360636
803.000000	64.492471
804.000000	64.623252
805.000000	64.658372
806.000000	64.745015
807.000000	64.868506
808.000000	64.941553
809.000000	64.896552
810.000000	64.827148
811.000000	64.904773
812.000000	65.014594
813.000000	65.072055
814.000000	65.041987
815.000000	65.037378
816.000000	65.005242
817.000000	65.045730
818.000000	65.045524
819.000000	65.039688
820.000000	65.083664
821.000000	65.123801
822.000000	65.223422
823.000000	65.236198
824.000000	65.206664
825.000000	65.212214
826.000000	65.226761
827.000000	65.182161
828.000000	65.249547
829.000000	65.128718
830.000000	65.148633
831.000000	64.923366
832.000000	64.933595
833.000000	65.006882
834.000000	64.841919
835.000000	64.885868
836.000000	64.941741
837.000000	64.797212
838.000000	64.783173
839.000000	64.887765
840.000000	64.826555
841.000000	64.682005
842.000000	64.641453
843.000000	64.812927
844.000000	64.733879
845.000000	64.574877
846.000000	64.421865
847.000000	64.417264
848.000000	64.499789
849.000000	64.439614
850.000000	64.161026
851.000000	63.989120
852.000000	64.051576
853.000000	63.875948
854.000000	63.999442
855.000000	63.701803
856.000000	63.901962
857.000000	63.161080
858.000000	63.237533
859.000000	63.182367
860.000000	63.128500
861.000000	63.075600
862.000000	63.007833
863.000000	62.947500
864.000000	62.874600
865.000000	62.827067
866.000000	62.766567
867.000000	62.702467
868.000000	62.635200
869.000000	62.560133
870.000000	62.487567
871.000000	62.469567
872.000000	62.546600
873.000000	62.722200
874.000000	62.896200
875.000000	63.032600
876.000000	63.125433
877.000000	63.242467
878.000000	63.336233
879.000000	63.402100
880.000000	63.442600
881.000000	63.487800
882.000000	63.511833
883.000000	63.544633
884.000000	63.558200
885.000000	63.581900
886.000000	63.596400
887.000000	63.612567
888.000000	63.598800
889.000000	63.585567
890.000000	63.577500
891.000000	63.565667
892.000000	63.560067
893.000000	63.549033
894.000000	63.538300
895.000000	63.515067
896.000000	63.488567
897.000000	63.465367
898.000000	63.438133
899.000000	63.413500
900.000000	63.389533
901.000000	63.363367
902.000000	63.342667
903.000000	63.317833
904.000000	63.303700
905.000000	63.283233
906.000000	63.262467
907.000000	63.248067
908.000000	63.237267
909.000000	63.232100
910.000000	63.235867
911.000000	63.246100
912.000000	63.246800
913.000000	63.242467
914.000000	63.251467
915.000000	63.256667
916.000000	63.254267
917.000000	63.260767
918.000000	63.272367
919.000000	63.271267
920.000000	63.267067
921.000000	63.269033
922.000000	63.262700
923.000000	63.261167
924.000000	63.255133
925.000000	63.233967
926.000000	63.234800
927.000000	63.224667
928.000000	63.219733
929.000000	63.209033
930.000000	63.201767
931.000000	63.202900
932.000000	63.189667
933.000000	63.174200
934.000000	63.158967
935.000000	63.152933
936.000000	63.145133
937.000000	63.136767
938.000000	63.135467
939.000000	63.132133
940.000000	63.129467
941.000000	63.128033
942.000000	63.120267
943.000000	63.116067
944.000000	63.117267
945.000000	63.095600
946.000000	63.073333
947.000000	63.058967
948.000000	63.040633
949.000000	63.024900
950.000000	63.007200
951.000000	62.996033
952.000000	62.974333
953.000000	62.948233
954.000000	62.933467
955.000000	62.902833
956.000000	62.879900
957.000000	62.861867
958.000000	62.824600
959.000000	62.800633
960.000000	62.765500
961.000000	62.736400
962.000000	62.712767
963.000000	62.680333
964.000000	62.652333
965.000000	62.625300
966.000000	62.600867
967.000000	62.574433
968.000000	62.544600
969.000000	62.527867
970.000000	62.496367
971.000000	62.470367
972.000000	62.456467
973.000000	62.435500
974.000000	62.402833
975.000000	62.378800
976.000000	62.366500
977.000000	62.361167
978.000000	62.341200
979.000000	62.318300
980.000000	62.311300
981.000000	62.296700
982.000000	62.278267
983.000000	62.264967
984.000000	62.270900
985.000000	62.260900
986.000000	62.251900
987.000000	62.247667
988.000000	62.242033
989.000000	62.238000
990.000000	62.244733
991.000000	62.257100
992.000000	62.256667
993.000000	62.264667
994.000000	62.276567
995.000000	62.283567
996.000000	62.295933
997.000000	62.302033
998.000000	62.323300
999.000000	62.344133
1000.000000	62.364933
1001.000000	62.374000
1002.000000	62.387667
1003.000000	62.404433
1004.000000	62.431267
1005.000000	62.460900
1006.000000	62.469700
1007.000000	62.482867
1008.000000	62.507100
1009.000000	62.530867
1010.000000	62.554367
1011.000000	62.576033
1012.000000	62.609300
1013.000000	62.641233
1014.000000	62.689433
1015.000000	62.730633
1016.000000	62.774167
1017.000000	62.822867
1018.000000	62.882800
1019.000000	62.931867
1020.000000	62.991400
1021.000000	63.063367
1022.000000	63.110567
1023.000000	63.173333
1024.000000	63.238567
1025.000000	63.287267
1026.000000	63.344867
1027.000000	63.410500
1028.000000	63.463133
1029.000000	63.506867
1030.000000	63.568100
1031.000000	63.614100
1032.000000	63.653800
1033.000000	63.706767
1034.000000	63.752200
1035.000000	63.791200
1036.000000	63.825767
1037.000000	63.870533
1038.000000	63.906467
1039.000000	63.938833
1040.000000	63.975800
1041.000000	63.999633
1042.000000	64.043967
1043.000000	64.074300
1044.000000	64.115600
1045.000000	64.146067
1046.000000	64.175500
1047.000000	64.221800
1048.000000	64.251333
1049.000000	64.286467
1050.000000	64.327333
1051.000000	64.376367
1052.000000	64.417733
1053.000000	64.472067
1054.000000	64.511567
1055.000000	64.554800
1056.000000	64.609400
1057.000000	64.664633
1058.000000	64.703233
1059.000000	64.757233
1060.000000	64.801233
1061.000000	64.859700
1062.000000	64.898100
1063.000000	64.940267
1064.000000	64.994433
1065.000000	65.039067
1066.000000	65.072367
1067.000000	65.120567
1068.000000	65.167200
1069.000000	65.214600
1070.000000	65.259400
1071.000000	65.299500
1072.000000	65.332800
1073.000000	65.369233
1074.000000	65.417233
1075.000000	65.449200
1076.000000	65.497900
1077.000000	65.522567
1078.000000	65.573833
1079.000000	65.624867
1080.000000	65.656033
1081.000000	65.691500
1082.000000	65.727667
1083.000000	65.776467
1084.000000	65.815700
1085.000000	65.847633
1086.000000	65.873967
1087.000000	65.914233
1088.000000	65.953533
1089.000000	65.979333
1090.000000	66.005467
1091.000000	66.025667
1092.000000	66.059500
1093.000000	66.069000
1094.000000	66.093033
1095.000000	66.109567
1096.000000	66.129433
1097.000000	66.148167
1098.000000	66.154867
1099.000000	66.163567
1100.000000	66.169467
1101.000000	66.172200
1102.000000	66.170967
1103.000000	66.177067
1104.000000	66.172033
1105.000000	66.170133
1106.000000	66.160133
1107.000000	66.164967
1108.000000	66.159533
1109.000000	66.158267
1110.000000	66.155867
1111.000000	66.146900
1112.000000	66.143133
1113.000000	66.119800
1114.000000	66.121233
1115.000000	66.116233
1116.000000	66.107433
1117.000000	66.083333
1118.000000	66.051933
1119.000000	66.022967
1120.000000	65.977100
1121.000000	65.929033
1122.000000	65.873433
1123.000000	65.797367
1124.000000	65.699367
1125.000000	65.602733
1126.000000	65.489100
1127.000000	65.349333
1128.000000	65.194233
1129.000000	64.989800
1130.000000	64.757833
1131.000000	64.486700
1132.000000	64.216600
1133.000000	63.943833
1134.000000	63.631800
1135.000000	63.268033
1136.000000	62.916400
1137.000000	62.571500
1138.000000	62.245733
1139.000000	61.935100
1140.000000	61.638300
1141.000000	61.343567
1142.000000	61.065500
1143.000000	60.808967
1144.000000	60.588533
1145.000000	60.397333
1146.000000	60.259367
1147.000000	60.138800
1148.000000	60.061033
1149.000000	59.996200
1150.000000	59.925700
1151.000000	59.849867
1152.000000	59.745333
1153.000000	59.618533
1154.000000	59.470567
1155.000000	59.265100
1156.000000	59.047533
1157.000000	58.803333
1158.000000	58.539667
1159.000000	58.254233
1160.000000	57.973533
1161.000000	57.675367
1162.000000	57.386867
1163.000000	57.084200
1164.000000	56.792000
1165.000000	56.501733
1166.000000	56.215233
1167.000000	55.942300
