PE UV       SUBTECH     SPECTRUM    ASCII       PEDS        4.00        
   -1
CICIMAUCR0204-3.Sample.ASC
24/05/31
16:34:21.00
24/05/31
16:34:21.00
Vinicio Soto Monge
C. cupreomarginata. Sex M. Dorsal
250,000000
1
Lambda 1050
1050L1511233
PerkinElmer UV WinLab 6.3.2.0749 / 2.02.05 Lambda 900 UV/VIS/NIR, Aug  7 2015 09:38:08

0
0
3350/servo 860,8/2
0
0
UV/VIS
1
1
1
DoubleDePol,CommonBeamDepol,RBeamAtt,SBeamAtt,60mm sphere, WB InGaAs Detector
0
0
0
0
Program
Program
3350/servo 860,8/2
3350/0,2 860,8/0,2
3350/0,2 860,8/0,2
0
15.00
 
 
 
0
 
860,8
319,2
860,8
Front
100
on
S:100 R:100
0
0
0
0
 
0
 
 
 
0
 
 
0
0
0
0
0
 
 
 
 
0
0


0
0
#HDR
-1
-1
#GR
nm
%R
1.0
0.0
2500,000000
-1,000000
2251
8
68,833200
5,187100
#DATA
250.000000	5.615540
251.000000	5.619395
252.000000	5.621649
253.000000	5.597773
254.000000	5.590117
255.000000	5.591717
256.000000	5.598056
257.000000	5.582838
258.000000	5.560213
259.000000	5.565283
260.000000	5.577363
261.000000	5.548473
262.000000	5.535000
263.000000	5.495213
264.000000	5.473463
265.000000	5.465171
266.000000	5.454725
267.000000	5.438468
268.000000	5.410171
269.000000	5.384961
270.000000	5.369796
271.000000	5.360811
272.000000	5.357672
273.000000	5.327455
274.000000	5.327801
275.000000	5.316028
276.000000	5.321369
277.000000	5.314559
278.000000	5.291881
279.000000	5.282849
280.000000	5.278283
281.000000	5.259118
282.000000	5.255961
283.000000	5.244502
284.000000	5.251422
285.000000	5.238957
286.000000	5.237565
287.000000	5.227470
288.000000	5.212981
289.000000	5.212732
290.000000	5.218856
291.000000	5.211629
292.000000	5.195731
293.000000	5.190531
294.000000	5.191650
295.000000	5.190048
296.000000	5.185818
297.000000	5.170199
298.000000	5.156416
299.000000	5.145308
300.000000	5.161310
301.000000	5.160412
302.000000	5.149785
303.000000	5.127357
304.000000	5.129696
305.000000	5.143940
306.000000	5.145122
307.000000	5.146229
308.000000	5.150092
309.000000	5.143988
310.000000	5.134638
311.000000	5.124605
312.000000	5.118317
313.000000	5.127263
314.000000	5.145460
315.000000	5.135707
316.000000	5.288600
317.000000	5.555802
318.000000	5.670881
319.000000	5.490815
320.000000	5.276927
321.000000	5.439503
322.000000	5.477349
323.000000	5.397073
324.000000	5.423725
325.000000	5.310292
326.000000	5.224705
327.000000	5.379996
328.000000	5.386290
329.000000	5.353156
330.000000	5.402286
331.000000	5.270671
332.000000	5.223458
333.000000	5.276695
334.000000	5.334026
335.000000	5.315766
336.000000	5.291209
337.000000	5.373245
338.000000	5.392360
339.000000	5.349357
340.000000	5.307957
341.000000	5.287759
342.000000	5.286943
343.000000	5.301552
344.000000	5.297578
345.000000	5.288311
346.000000	5.272593
347.000000	5.254547
348.000000	5.324851
349.000000	5.316329
350.000000	5.327066
351.000000	5.318930
352.000000	5.274051
353.000000	5.272354
354.000000	5.303104
355.000000	5.319331
356.000000	5.354300
357.000000	5.333607
358.000000	5.268874
359.000000	5.330418
360.000000	5.314124
361.000000	5.316080
362.000000	5.391829
363.000000	5.416805
364.000000	5.424591
365.000000	5.433174
366.000000	5.418009
367.000000	5.410241
368.000000	5.371858
369.000000	5.412624
370.000000	5.447475
371.000000	5.429392
372.000000	5.406607
373.000000	5.394423
374.000000	5.382739
375.000000	5.371104
376.000000	5.467761
377.000000	5.542464
378.000000	5.545515
379.000000	5.558359
380.000000	5.584566
381.000000	5.618762
382.000000	5.645600
383.000000	5.657508
384.000000	5.677502
385.000000	5.719355
386.000000	5.756210
387.000000	5.778823
388.000000	5.810763
389.000000	5.847457
390.000000	5.885280
391.000000	5.931748
392.000000	5.984428
393.000000	6.026733
394.000000	6.078108
395.000000	6.141504
396.000000	6.210923
397.000000	6.272292
398.000000	6.338944
399.000000	6.408529
400.000000	6.493353
401.000000	6.587685
402.000000	6.676856
403.000000	6.763667
404.000000	6.869500
405.000000	6.988412
406.000000	7.103532
407.000000	7.224424
408.000000	7.366693
409.000000	7.510052
410.000000	7.668647
411.000000	7.836780
412.000000	8.007007
413.000000	8.192036
414.000000	8.385723
415.000000	8.587543
416.000000	8.798864
417.000000	9.013355
418.000000	9.244427
419.000000	9.469334
420.000000	9.705995
421.000000	9.959956
422.000000	10.225907
423.000000	10.490597
424.000000	10.759421
425.000000	11.038658
426.000000	11.295135
427.000000	11.583871
428.000000	11.853212
429.000000	12.130869
430.000000	12.410109
431.000000	12.693357
432.000000	12.979702
433.000000	13.246888
434.000000	13.519751
435.000000	13.791308
436.000000	14.061288
437.000000	14.316991
438.000000	14.583820
439.000000	14.836983
440.000000	15.097039
441.000000	15.348685
442.000000	15.587491
443.000000	15.828584
444.000000	16.062791
445.000000	16.294374
446.000000	16.503869
447.000000	16.712213
448.000000	16.918542
449.000000	17.105693
450.000000	17.301962
451.000000	17.497400
452.000000	17.657689
453.000000	17.834533
454.000000	18.004147
455.000000	18.164714
456.000000	18.305379
457.000000	18.458600
458.000000	18.620064
459.000000	18.768947
460.000000	18.923150
461.000000	19.058730
462.000000	19.205716
463.000000	19.333647
464.000000	19.489516
465.000000	19.628631
466.000000	19.778894
467.000000	19.901553
468.000000	20.039784
469.000000	20.164450
470.000000	20.299431
471.000000	20.443814
472.000000	20.585212
473.000000	20.718427
474.000000	20.838756
475.000000	20.982683
476.000000	21.127675
477.000000	21.272346
478.000000	21.419129
479.000000	21.583886
480.000000	21.728138
481.000000	21.895570
482.000000	22.083737
483.000000	22.274028
484.000000	22.474401
485.000000	22.683661
486.000000	22.930506
487.000000	23.183456
488.000000	23.436040
489.000000	23.751692
490.000000	24.084237
491.000000	24.411135
492.000000	24.792264
493.000000	25.189926
494.000000	25.621847
495.000000	26.061874
496.000000	26.516775
497.000000	26.970159
498.000000	27.463751
499.000000	27.949759
500.000000	28.460255
501.000000	28.942197
502.000000	29.476101
503.000000	29.962876
504.000000	30.468220
505.000000	30.947235
506.000000	31.422910
507.000000	31.908998
508.000000	32.391625
509.000000	32.870201
510.000000	33.354545
511.000000	33.819298
512.000000	34.319175
513.000000	34.825697
514.000000	35.319553
515.000000	35.858013
516.000000	36.403276
517.000000	36.963601
518.000000	37.552418
519.000000	38.158838
520.000000	38.786136
521.000000	39.454946
522.000000	40.175062
523.000000	40.903749
524.000000	41.675118
525.000000	42.474421
526.000000	43.304483
527.000000	44.134473
528.000000	44.988692
529.000000	45.885348
530.000000	46.777748
531.000000	47.682374
532.000000	48.607940
533.000000	49.513784
534.000000	50.402318
535.000000	51.309018
536.000000	52.163745
537.000000	52.999179
538.000000	53.798700
539.000000	54.564305
540.000000	55.281400
541.000000	55.998718
542.000000	56.635165
543.000000	57.221683
544.000000	57.791468
545.000000	58.301439
546.000000	58.764320
547.000000	59.197477
548.000000	59.624486
549.000000	59.999401
550.000000	60.350744
551.000000	60.645313
552.000000	60.933098
553.000000	61.160407
554.000000	61.352466
555.000000	61.511809
556.000000	61.627013
557.000000	61.686211
558.000000	61.732971
559.000000	61.744575
560.000000	61.740997
561.000000	61.744244
562.000000	61.716596
563.000000	61.717667
564.000000	61.708896
565.000000	61.702889
566.000000	61.715861
567.000000	61.722318
568.000000	61.717158
569.000000	61.714836
570.000000	61.714404
571.000000	61.685025
572.000000	61.620704
573.000000	61.546140
574.000000	61.448201
575.000000	61.291699
576.000000	61.137396
577.000000	60.969644
578.000000	60.764965
579.000000	60.575509
580.000000	60.363159
581.000000	60.144715
582.000000	59.939554
583.000000	59.737152
584.000000	59.557975
585.000000	59.406200
586.000000	59.252106
587.000000	59.097484
588.000000	58.944836
589.000000	58.816982
590.000000	58.675557
591.000000	58.508278
592.000000	58.365466
593.000000	58.217406
594.000000	58.067196
595.000000	57.870316
596.000000	57.680951
597.000000	57.494779
598.000000	57.281905
599.000000	57.025243
600.000000	56.766567
601.000000	56.489693
602.000000	56.202124
603.000000	55.884111
604.000000	55.547519
605.000000	55.184600
606.000000	54.799209
607.000000	54.385800
608.000000	53.952759
609.000000	53.493326
610.000000	52.994429
611.000000	52.450285
612.000000	51.889719
613.000000	51.326718
614.000000	50.743462
615.000000	50.160164
616.000000	49.595665
617.000000	49.025103
618.000000	48.456231
619.000000	47.873264
620.000000	47.303605
621.000000	46.745097
622.000000	46.203683
623.000000	45.698616
624.000000	45.192167
625.000000	44.729485
626.000000	44.312215
627.000000	43.919301
628.000000	43.589623
629.000000	43.309050
630.000000	43.069195
631.000000	42.892483
632.000000	42.764490
633.000000	42.680887
634.000000	42.646209
635.000000	42.682307
636.000000	42.758818
637.000000	42.858639
638.000000	43.003583
639.000000	43.208801
640.000000	43.458252
641.000000	43.699891
642.000000	43.959177
643.000000	44.217678
644.000000	44.507459
645.000000	44.795369
646.000000	45.035773
647.000000	45.279488
648.000000	45.514285
649.000000	45.699933
650.000000	45.856674
651.000000	45.991641
652.000000	46.090115
653.000000	46.163927
654.000000	46.231706
655.000000	46.276050
656.000000	46.274783
657.000000	46.273831
658.000000	46.275967
659.000000	46.259044
660.000000	46.242948
661.000000	46.230499
662.000000	46.225498
663.000000	46.217277
664.000000	46.209119
665.000000	46.221879
666.000000	46.245413
667.000000	46.250242
668.000000	46.237333
669.000000	46.248634
670.000000	46.264293
671.000000	46.284611
672.000000	46.274122
673.000000	46.252396
674.000000	46.257467
675.000000	46.267318
676.000000	46.297969
677.000000	46.352858
678.000000	46.393104
679.000000	46.454708
680.000000	46.544876
681.000000	46.645012
682.000000	46.767066
683.000000	46.894917
684.000000	47.031282
685.000000	47.180443
686.000000	47.358843
687.000000	47.526204
688.000000	47.692844
689.000000	47.892327
690.000000	48.053171
691.000000	48.241212
692.000000	48.406267
693.000000	48.577572
694.000000	48.754232
695.000000	48.942995
696.000000	49.139738
697.000000	49.327252
698.000000	49.498232
699.000000	49.693435
700.000000	49.918183
701.000000	50.117980
702.000000	50.294511
703.000000	50.489692
704.000000	50.680119
705.000000	50.875015
706.000000	51.050775
707.000000	51.236979
708.000000	51.453074
709.000000	51.618852
710.000000	51.788884
711.000000	51.982653
712.000000	52.136506
713.000000	52.270614
714.000000	52.457540
715.000000	52.610284
716.000000	52.770337
717.000000	52.931558
718.000000	53.052098
719.000000	53.160152
720.000000	53.252772
721.000000	53.389902
722.000000	53.517462
723.000000	53.627064
724.000000	53.766696
725.000000	53.923538
726.000000	54.002941
727.000000	54.133959
728.000000	54.313108
729.000000	54.362833
730.000000	54.462808
731.000000	54.599150
732.000000	54.716778
733.000000	54.785296
734.000000	54.884355
735.000000	54.943406
736.000000	55.096831
737.000000	55.159334
738.000000	55.275089
739.000000	55.328328
740.000000	55.389918
741.000000	55.451493
742.000000	55.478315
743.000000	55.599952
744.000000	55.713108
745.000000	55.782357
746.000000	55.884999
747.000000	55.944420
748.000000	56.028099
749.000000	56.131377
750.000000	56.252283
751.000000	56.364276
752.000000	56.494934
753.000000	56.541745
754.000000	56.677997
755.000000	56.757826
756.000000	56.928310
757.000000	57.042009
758.000000	57.200149
759.000000	57.276527
760.000000	57.348903
761.000000	57.521062
762.000000	57.677723
763.000000	57.789599
764.000000	57.997101
765.000000	58.077484
766.000000	58.191079
767.000000	58.326404
768.000000	58.475292
769.000000	58.545639
770.000000	58.755360
771.000000	58.857284
772.000000	58.938108
773.000000	59.072249
774.000000	59.222777
775.000000	59.288663
776.000000	59.360609
777.000000	59.512686
778.000000	59.633034
779.000000	59.793515
780.000000	59.818886
781.000000	60.008425
782.000000	60.071812
783.000000	60.281178
784.000000	60.326036
785.000000	60.419395
786.000000	60.535345
787.000000	60.644774
788.000000	60.750277
789.000000	60.755156
790.000000	60.994225
791.000000	61.082278
792.000000	61.071376
793.000000	61.136720
794.000000	61.284381
795.000000	61.430758
796.000000	61.490046
797.000000	61.505197
798.000000	61.767685
799.000000	61.755610
800.000000	61.792604
801.000000	61.961504
802.000000	62.015262
803.000000	62.267554
804.000000	62.336774
805.000000	62.377240
806.000000	62.447934
807.000000	62.489441
808.000000	62.714127
809.000000	62.676407
810.000000	62.689652
811.000000	62.911711
812.000000	62.983682
813.000000	63.031270
814.000000	63.118308
815.000000	63.214162
816.000000	63.302763
817.000000	63.410605
818.000000	63.528863
819.000000	63.588065
820.000000	63.714541
821.000000	63.736700
822.000000	63.906856
823.000000	63.985069
824.000000	63.946825
825.000000	64.146536
826.000000	64.255411
827.000000	64.362574
828.000000	64.438505
829.000000	64.489564
830.000000	64.682572
831.000000	64.666911
832.000000	64.663669
833.000000	64.772243
834.000000	64.875784
835.000000	65.113755
836.000000	65.102479
837.000000	65.209164
838.000000	65.198742
839.000000	65.320332
840.000000	65.390016
841.000000	65.614908
842.000000	65.621589
843.000000	65.562225
844.000000	65.814076
845.000000	65.955118
846.000000	65.923486
847.000000	66.042554
848.000000	66.168159
849.000000	65.937713
850.000000	66.262458
851.000000	66.107989
852.000000	66.289646
853.000000	66.262450
854.000000	66.200689
855.000000	66.431923
856.000000	66.585081
857.000000	65.790647
858.000000	65.801333
859.000000	65.789800
860.000000	65.787367
861.000000	65.775467
862.000000	65.762233
863.000000	65.768400
864.000000	65.754133
865.000000	65.743733
866.000000	65.722700
867.000000	65.723767
868.000000	65.713133
869.000000	65.682600
870.000000	65.665367
871.000000	65.683500
872.000000	65.805833
873.000000	66.020867
874.000000	66.226933
875.000000	66.403500
876.000000	66.583033
877.000000	66.739467
878.000000	66.865900
879.000000	66.958467
880.000000	67.030967
881.000000	67.107800
882.000000	67.185333
883.000000	67.254333
884.000000	67.309100
885.000000	67.371367
886.000000	67.427267
887.000000	67.472833
888.000000	67.515933
889.000000	67.563000
890.000000	67.588367
891.000000	67.611433
892.000000	67.637367
893.000000	67.643633
894.000000	67.648900
895.000000	67.657367
896.000000	67.665167
897.000000	67.666033
898.000000	67.654167
899.000000	67.644700
900.000000	67.628433
901.000000	67.623400
902.000000	67.620433
903.000000	67.603767
904.000000	67.592967
905.000000	67.585067
906.000000	67.570667
907.000000	67.557500
908.000000	67.544300
909.000000	67.541233
910.000000	67.532067
911.000000	67.523267
912.000000	67.514967
913.000000	67.505333
914.000000	67.488433
915.000000	67.477333
916.000000	67.459667
917.000000	67.451133
918.000000	67.429500
919.000000	67.411767
920.000000	67.390333
921.000000	67.363833
922.000000	67.333633
923.000000	67.300700
924.000000	67.259300
925.000000	67.220033
926.000000	67.191633
927.000000	67.167933
928.000000	67.126167
929.000000	67.089233
930.000000	67.059367
931.000000	67.020367
932.000000	66.966200
933.000000	66.912300
934.000000	66.867233
935.000000	66.816133
936.000000	66.761567
937.000000	66.713867
938.000000	66.660367
939.000000	66.614633
940.000000	66.563333
941.000000	66.504933
942.000000	66.457100
943.000000	66.398367
944.000000	66.329033
945.000000	66.261200
946.000000	66.199133
947.000000	66.143467
948.000000	66.076967
949.000000	66.001833
950.000000	65.923667
951.000000	65.842733
952.000000	65.764100
953.000000	65.690100
954.000000	65.608867
955.000000	65.525000
956.000000	65.430500
957.000000	65.335567
958.000000	65.248500
959.000000	65.155100
960.000000	65.055333
961.000000	64.952900
962.000000	64.856033
963.000000	64.755733
964.000000	64.656800
965.000000	64.570967
966.000000	64.485467
967.000000	64.388500
968.000000	64.285700
969.000000	64.193633
970.000000	64.109967
971.000000	64.027667
972.000000	63.937000
973.000000	63.841667
974.000000	63.753200
975.000000	63.666300
976.000000	63.586400
977.000000	63.494200
978.000000	63.398600
979.000000	63.319533
980.000000	63.231000
981.000000	63.149533
982.000000	63.060300
983.000000	62.972300
984.000000	62.891467
985.000000	62.812833
986.000000	62.732467
987.000000	62.656300
988.000000	62.577533
989.000000	62.505933
990.000000	62.436567
991.000000	62.375167
992.000000	62.308333
993.000000	62.243500
994.000000	62.182067
995.000000	62.123467
996.000000	62.069067
997.000000	62.005533
998.000000	61.948500
999.000000	61.899033
1000.000000	61.851033
1001.000000	61.803867
1002.000000	61.751467
1003.000000	61.699233
1004.000000	61.653800
1005.000000	61.604867
1006.000000	61.550667
1007.000000	61.507900
1008.000000	61.462700
1009.000000	61.422900
1010.000000	61.379400
1011.000000	61.351567
1012.000000	61.320733
1013.000000	61.284133
1014.000000	61.260467
1015.000000	61.245900
1016.000000	61.235633
1017.000000	61.221533
1018.000000	61.208767
1019.000000	61.202367
1020.000000	61.201300
1021.000000	61.199800
1022.000000	61.201867
1023.000000	61.198467
1024.000000	61.194767
1025.000000	61.196933
1026.000000	61.203300
1027.000000	61.205333
1028.000000	61.212967
1029.000000	61.207433
1030.000000	61.208867
1031.000000	61.215467
1032.000000	61.205467
1033.000000	61.203767
1034.000000	61.209667
1035.000000	61.201867
1036.000000	61.197133
1037.000000	61.184933
1038.000000	61.188867
1039.000000	61.176767
1040.000000	61.167400
1041.000000	61.150233
1042.000000	61.155667
1043.000000	61.148633
1044.000000	61.150567
1045.000000	61.139967
1046.000000	61.142633
1047.000000	61.137667
1048.000000	61.125533
1049.000000	61.137567
1050.000000	61.141867
1051.000000	61.144067
1052.000000	61.167300
1053.000000	61.168000
1054.000000	61.177967
1055.000000	61.189100
1056.000000	61.206400
1057.000000	61.214233
1058.000000	61.237333
1059.000000	61.252633
1060.000000	61.273900
1061.000000	61.291733
1062.000000	61.306633
1063.000000	61.329700
1064.000000	61.352167
1065.000000	61.367333
1066.000000	61.383533
1067.000000	61.416100
1068.000000	61.437633
1069.000000	61.471467
1070.000000	61.472500
1071.000000	61.502967
1072.000000	61.531800
1073.000000	61.553633
1074.000000	61.575333
1075.000000	61.612000
1076.000000	61.638200
1077.000000	61.659233
1078.000000	61.692833
1079.000000	61.716733
1080.000000	61.738967
1081.000000	61.769633
1082.000000	61.812367
1083.000000	61.836767
1084.000000	61.874133
1085.000000	61.912033
1086.000000	61.930067
1087.000000	61.973667
1088.000000	61.993600
1089.000000	62.034067
1090.000000	62.047467
1091.000000	62.068367
1092.000000	62.099400
1093.000000	62.109433
1094.000000	62.139200
1095.000000	62.158967
1096.000000	62.184200
1097.000000	62.179100
1098.000000	62.203033
1099.000000	62.210867
1100.000000	62.214467
1101.000000	62.227833
1102.000000	62.222933
1103.000000	62.235933
1104.000000	62.247733
1105.000000	62.257767
1106.000000	62.245867
1107.000000	62.244333
1108.000000	62.240567
1109.000000	62.242167
1110.000000	62.241633
1111.000000	62.240267
1112.000000	62.238300
1113.000000	62.226633
1114.000000	62.223867
1115.000000	62.225500
1116.000000	62.211267
1117.000000	62.201133
1118.000000	62.173433
1119.000000	62.134300
1120.000000	62.102500
1121.000000	62.062467
1122.000000	62.005900
1123.000000	61.934400
1124.000000	61.861900
1125.000000	61.757600
1126.000000	61.657667
1127.000000	61.532267
1128.000000	61.382767
1129.000000	61.199333
1130.000000	60.993367
1131.000000	60.762200
1132.000000	60.499967
1133.000000	60.252567
1134.000000	59.958700
1135.000000	59.629533
1136.000000	59.300667
1137.000000	58.987133
1138.000000	58.688133
1139.000000	58.404400
1140.000000	58.128400
1141.000000	57.853000
1142.000000	57.602367
1143.000000	57.358900
1144.000000	57.153933
1145.000000	56.976033
1146.000000	56.844800
1147.000000	56.739233
1148.000000	56.663200
1149.000000	56.584900
1150.000000	56.533233
1151.000000	56.463800
1152.000000	56.372233
1153.000000	56.251933
1154.000000	56.107400
1155.000000	55.932567
1156.000000	55.726233
1157.000000	55.501833
1158.000000	55.266833
1159.000000	55.012700
1160.000000	54.748100
1161.000000	54.487433
1162.000000	54.227667
1163.000000	53.959733
1164.000000	53.690867
1165.000000	53.428400
1166.000000	53.177800
1167.000000	52.939367
