PE UV       SUBTECH     SPECTRUM    ASCII       PEDS        4.00        
   -1
CICIMAUCR0004-3.Sample.ASC
24/05/03
16:17:29.00
24/05/03
16:17:29.00
Vinicio Soto Monge
C. kalinini
250,000000
1
Lambda 1050
1050L1511233
PerkinElmer UV WinLab 6.3.2.0749 / 2.02.05 Lambda 900 UV/VIS/NIR, Aug  7 2015 09:38:08

0
0
3350/servo 860,8/2
0
0
UV/VIS
1
1
1
DoubleDePol,CommonBeamDepol,RBeamAtt,SBeamAtt,60mm sphere, WB InGaAs Detector
0
0
0
0
Program
Program
3350/servo 860,8/2
3350/0,2 860,8/0,2
3350/0,2 860,8/0,2
0
15.00
 
 
 
0
 
860,8
319,2
860,8
Front
100
on
S:100 R:100
0
0
0
0
 
0
 
 
 
0
 
 
0
0
0
0
0
 
 
 
 
0
0


0
0
#HDR
-1
-1
#GR
nm
%R
1.0
0.0
2500,000000
-1,000000
2251
8
98,738200
4,896700
#DATA
250.000000	5.606198
251.000000	5.609721
252.000000	5.591249
253.000000	5.600998
254.000000	5.572344
255.000000	5.565670
256.000000	5.573832
257.000000	5.548958
258.000000	5.529052
259.000000	5.504425
260.000000	5.507023
261.000000	5.488452
262.000000	5.484786
263.000000	5.454645
264.000000	5.415897
265.000000	5.390802
266.000000	5.341824
267.000000	5.362424
268.000000	5.340180
269.000000	5.310415
270.000000	5.309323
271.000000	5.281131
272.000000	5.248597
273.000000	5.256041
274.000000	5.267782
275.000000	5.243123
276.000000	5.224633
277.000000	5.245075
278.000000	5.219686
279.000000	5.183568
280.000000	5.211185
281.000000	5.187340
282.000000	5.188325
283.000000	5.199621
284.000000	5.155091
285.000000	5.184892
286.000000	5.129151
287.000000	5.154249
288.000000	5.143706
289.000000	5.100258
290.000000	5.127449
291.000000	5.114664
292.000000	5.111624
293.000000	5.115023
294.000000	5.083611
295.000000	5.115370
296.000000	5.094943
297.000000	5.076454
298.000000	5.066553
299.000000	5.080982
300.000000	5.097032
301.000000	5.078341
302.000000	5.084076
303.000000	5.090132
304.000000	5.063043
305.000000	5.053526
306.000000	5.057704
307.000000	5.067425
308.000000	5.027299
309.000000	5.061282
310.000000	5.012531
311.000000	5.043906
312.000000	5.049313
313.000000	5.042188
314.000000	5.055266
315.000000	5.018395
316.000000	5.088579
317.000000	5.561819
318.000000	5.441531
319.000000	5.085855
320.000000	5.397610
321.000000	5.346132
322.000000	5.207922
323.000000	5.202228
324.000000	5.218738
325.000000	5.082697
326.000000	5.202764
327.000000	5.179696
328.000000	5.118873
329.000000	5.225132
330.000000	5.113318
331.000000	5.138183
332.000000	5.106682
333.000000	5.037544
334.000000	5.225054
335.000000	5.289715
336.000000	5.248595
337.000000	5.149400
338.000000	5.096081
339.000000	5.101209
340.000000	5.256786
341.000000	5.173694
342.000000	5.237435
343.000000	5.019859
344.000000	5.112305
345.000000	5.163462
346.000000	5.080322
347.000000	5.191752
348.000000	5.262671
349.000000	5.383522
350.000000	5.308631
351.000000	5.170058
352.000000	5.252803
353.000000	5.292675
354.000000	5.317268
355.000000	5.328843
356.000000	5.332964
357.000000	5.515387
358.000000	5.419508
359.000000	5.489661
360.000000	5.492749
361.000000	5.563529
362.000000	5.585627
363.000000	5.506896
364.000000	5.610878
365.000000	5.685579
366.000000	5.699196
367.000000	5.716545
368.000000	5.686831
369.000000	5.740161
370.000000	5.798283
371.000000	5.817868
372.000000	5.783685
373.000000	5.877383
374.000000	5.927223
375.000000	6.096453
376.000000	6.370437
377.000000	6.483856
378.000000	6.584069
379.000000	6.699390
380.000000	6.812024
381.000000	6.953006
382.000000	7.091079
383.000000	7.248106
384.000000	7.407295
385.000000	7.579766
386.000000	7.757504
387.000000	7.934923
388.000000	8.119352
389.000000	8.332844
390.000000	8.555810
391.000000	8.782141
392.000000	9.022798
393.000000	9.276929
394.000000	9.532989
395.000000	9.793905
396.000000	10.065961
397.000000	10.342835
398.000000	10.623851
399.000000	10.914014
400.000000	11.221352
401.000000	11.533537
402.000000	11.847675
403.000000	12.168099
404.000000	12.483966
405.000000	12.802773
406.000000	13.121209
407.000000	13.445425
408.000000	13.784199
409.000000	14.117554
410.000000	14.451195
411.000000	14.797677
412.000000	15.129463
413.000000	15.466331
414.000000	15.810950
415.000000	16.143499
416.000000	16.460387
417.000000	16.784883
418.000000	17.106662
419.000000	17.423099
420.000000	17.729771
421.000000	18.049261
422.000000	18.368150
423.000000	18.659703
424.000000	18.945574
425.000000	19.227126
426.000000	19.486067
427.000000	19.750744
428.000000	19.997369
429.000000	20.223274
430.000000	20.463750
431.000000	20.693683
432.000000	20.901761
433.000000	21.098301
434.000000	21.286658
435.000000	21.460140
436.000000	21.637726
437.000000	21.800320
438.000000	21.936609
439.000000	22.053078
440.000000	22.175426
441.000000	22.301674
442.000000	22.394489
443.000000	22.488769
444.000000	22.574719
445.000000	22.648373
446.000000	22.704179
447.000000	22.743484
448.000000	22.791110
449.000000	22.849239
450.000000	22.906258
451.000000	22.953920
452.000000	23.009068
453.000000	23.054195
454.000000	23.105565
455.000000	23.164943
456.000000	23.233960
457.000000	23.303727
458.000000	23.382264
459.000000	23.470258
460.000000	23.564961
461.000000	23.680482
462.000000	23.808294
463.000000	23.934144
464.000000	24.062578
465.000000	24.192957
466.000000	24.321591
467.000000	24.469687
468.000000	24.623542
469.000000	24.779631
470.000000	24.945164
471.000000	25.112277
472.000000	25.272999
473.000000	25.441139
474.000000	25.623525
475.000000	25.803891
476.000000	25.985355
477.000000	26.171200
478.000000	26.359373
479.000000	26.558145
480.000000	26.751253
481.000000	26.957735
482.000000	27.166164
483.000000	27.379275
484.000000	27.601151
485.000000	27.817184
486.000000	28.041670
487.000000	28.277417
488.000000	28.505840
489.000000	28.740190
490.000000	28.998286
491.000000	29.265598
492.000000	29.534801
493.000000	29.811426
494.000000	30.105339
495.000000	30.395142
496.000000	30.704220
497.000000	31.017231
498.000000	31.346997
499.000000	31.704709
500.000000	32.072830
501.000000	32.441946
502.000000	32.817571
503.000000	33.222496
504.000000	33.640681
505.000000	34.088490
506.000000	34.545616
507.000000	35.026565
508.000000	35.523804
509.000000	36.026162
510.000000	36.554474
511.000000	37.126548
512.000000	37.703074
513.000000	38.311592
514.000000	38.948979
515.000000	39.608461
516.000000	40.275598
517.000000	40.953604
518.000000	41.638682
519.000000	42.351302
520.000000	43.088891
521.000000	43.849653
522.000000	44.617538
523.000000	45.375550
524.000000	46.160953
525.000000	46.923051
526.000000	47.698554
527.000000	48.489171
528.000000	49.253145
529.000000	50.033364
530.000000	50.817182
531.000000	51.593237
532.000000	52.372526
533.000000	53.124265
534.000000	53.902203
535.000000	54.668430
536.000000	55.403180
537.000000	56.115108
538.000000	56.812782
539.000000	57.529061
540.000000	58.206323
541.000000	58.867403
542.000000	59.538514
543.000000	60.177289
544.000000	60.783735
545.000000	61.388710
546.000000	61.978008
547.000000	62.545120
548.000000	63.072088
549.000000	63.606066
550.000000	64.116026
551.000000	64.626195
552.000000	65.116376
553.000000	65.598147
554.000000	66.056039
555.000000	66.485174
556.000000	66.883877
557.000000	67.264257
558.000000	67.642020
559.000000	68.007541
560.000000	68.418373
561.000000	68.734604
562.000000	69.023150
563.000000	69.331120
564.000000	69.589802
565.000000	69.815352
566.000000	70.054829
567.000000	70.269793
568.000000	70.469836
569.000000	70.656057
570.000000	70.856635
571.000000	70.997554
572.000000	71.154794
573.000000	71.278426
574.000000	71.382346
575.000000	71.480257
576.000000	71.566443
577.000000	71.627796
578.000000	71.743173
579.000000	71.760457
580.000000	71.782885
581.000000	71.782055
582.000000	71.789073
583.000000	71.753816
584.000000	71.715572
585.000000	71.664907
586.000000	71.527838
587.000000	71.458699
588.000000	71.326299
589.000000	71.136890
590.000000	71.008267
591.000000	70.814299
592.000000	70.546754
593.000000	70.316532
594.000000	70.024354
595.000000	69.714328
596.000000	69.378808
597.000000	69.083894
598.000000	68.723871
599.000000	68.358454
600.000000	67.971916
601.000000	67.605464
602.000000	67.173101
603.000000	66.767392
604.000000	66.292035
605.000000	65.821626
606.000000	65.402702
607.000000	64.929767
608.000000	64.433306
609.000000	63.968991
610.000000	63.472383
611.000000	63.005969
612.000000	62.478589
613.000000	62.010784
614.000000	61.523599
615.000000	61.036140
616.000000	60.604702
617.000000	60.177481
618.000000	59.747669
619.000000	59.395924
620.000000	59.032029
621.000000	58.687153
622.000000	58.426730
623.000000	58.138638
624.000000	57.911667
625.000000	57.732981
626.000000	57.589889
627.000000	57.444786
628.000000	57.351815
629.000000	57.298639
630.000000	57.238367
631.000000	57.239955
632.000000	57.267560
633.000000	57.274763
634.000000	57.368061
635.000000	57.441165
636.000000	57.508918
637.000000	57.652882
638.000000	57.799195
639.000000	57.933212
640.000000	58.104711
641.000000	58.269255
642.000000	58.466607
643.000000	58.642729
644.000000	58.840064
645.000000	59.010682
646.000000	59.220196
647.000000	59.383623
648.000000	59.585657
649.000000	59.743104
650.000000	59.913839
651.000000	60.069066
652.000000	60.214271
653.000000	60.368084
654.000000	60.517864
655.000000	60.655324
656.000000	60.817948
657.000000	60.975685
658.000000	61.113549
659.000000	61.276902
660.000000	61.429851
661.000000	61.593375
662.000000	61.759696
663.000000	61.935949
664.000000	62.079652
665.000000	62.248552
666.000000	62.457914
667.000000	62.638856
668.000000	62.855322
669.000000	63.019739
670.000000	63.230565
671.000000	63.459190
672.000000	63.673188
673.000000	63.887751
674.000000	64.127355
675.000000	64.382829
676.000000	64.638196
677.000000	64.891093
678.000000	65.138224
679.000000	65.393525
680.000000	65.664830
681.000000	65.923875
682.000000	66.198181
683.000000	66.487595
684.000000	66.747554
685.000000	67.021136
686.000000	67.267435
687.000000	67.538558
688.000000	67.819029
689.000000	68.081123
690.000000	68.321748
691.000000	68.563682
692.000000	68.831797
693.000000	69.099470
694.000000	69.365861
695.000000	69.604819
696.000000	69.823162
697.000000	70.052039
698.000000	70.275404
699.000000	70.521251
700.000000	70.782212
701.000000	71.052851
702.000000	71.294619
703.000000	71.548746
704.000000	71.806493
705.000000	72.100487
706.000000	72.398836
707.000000	72.690785
708.000000	73.016453
709.000000	73.326226
710.000000	73.649722
711.000000	73.988603
712.000000	74.338130
713.000000	74.707959
714.000000	75.082406
715.000000	75.474322
716.000000	75.868355
717.000000	76.275961
718.000000	76.698405
719.000000	77.134512
720.000000	77.532444
721.000000	77.983091
722.000000	78.397955
723.000000	78.783127
724.000000	79.218366
725.000000	79.684971
726.000000	80.078226
727.000000	80.489671
728.000000	80.859603
729.000000	81.190460
730.000000	81.584934
731.000000	81.947763
732.000000	82.278807
733.000000	82.584364
734.000000	82.876457
735.000000	83.164004
736.000000	83.434553
737.000000	83.690405
738.000000	83.952457
739.000000	84.151154
740.000000	84.376577
741.000000	84.602053
742.000000	84.756347
743.000000	84.964131
744.000000	85.162812
745.000000	85.335666
746.000000	85.514959
747.000000	85.685675
748.000000	85.853300
749.000000	85.965429
750.000000	86.099213
751.000000	86.197034
752.000000	86.284196
753.000000	86.334832
754.000000	86.396485
755.000000	86.566502
756.000000	86.649488
757.000000	86.731497
758.000000	86.825090
759.000000	86.883187
760.000000	86.978675
761.000000	87.024612
762.000000	87.053752
763.000000	87.121181
764.000000	87.176772
765.000000	87.187431
766.000000	87.237713
767.000000	87.345851
768.000000	87.362724
769.000000	87.314112
770.000000	87.377809
771.000000	87.418688
772.000000	87.440255
773.000000	87.418019
774.000000	87.406668
775.000000	87.464258
776.000000	87.468820
777.000000	87.386146
778.000000	87.414597
779.000000	87.418671
780.000000	87.422842
781.000000	87.411471
782.000000	87.339535
783.000000	87.303224
784.000000	87.342925
785.000000	87.338938
786.000000	87.242622
787.000000	87.172644
788.000000	87.088292
789.000000	87.069524
790.000000	86.944913
791.000000	86.910374
792.000000	86.796528
793.000000	86.685865
794.000000	86.556628
795.000000	86.473907
796.000000	86.327912
797.000000	86.207819
798.000000	86.062248
799.000000	85.833881
800.000000	85.610108
801.000000	85.439433
802.000000	85.219806
803.000000	85.028214
804.000000	84.830939
805.000000	84.530947
806.000000	84.266012
807.000000	84.039306
808.000000	83.733258
809.000000	83.438059
810.000000	83.135293
811.000000	82.860613
812.000000	82.550920
813.000000	82.241139
814.000000	81.955955
815.000000	81.497561
816.000000	81.197134
817.000000	80.826925
818.000000	80.419514
819.000000	79.971332
820.000000	79.745151
821.000000	79.371596
822.000000	78.964301
823.000000	78.641849
824.000000	78.142618
825.000000	77.839999
826.000000	77.419625
827.000000	77.033490
828.000000	76.618610
829.000000	76.100499
830.000000	75.869429
831.000000	75.467823
832.000000	75.118482
833.000000	74.744584
834.000000	74.395806
835.000000	74.095406
836.000000	73.832338
837.000000	73.378998
838.000000	73.232510
839.000000	72.758817
840.000000	72.278356
841.000000	72.014691
842.000000	71.619249
843.000000	71.317260
844.000000	71.172876
845.000000	70.912635
846.000000	70.474422
847.000000	70.170326
848.000000	69.884550
849.000000	69.375642
850.000000	69.183560
851.000000	68.918503
852.000000	68.925407
853.000000	68.537260
854.000000	68.141341
855.000000	67.813061
856.000000	67.429552
857.000000	67.642447
858.000000	68.828833
859.000000	67.552800
860.000000	67.276867
861.000000	67.015867
862.000000	66.772200
863.000000	66.515500
864.000000	66.278200
865.000000	66.028433
866.000000	65.789733
867.000000	65.557833
868.000000	65.316333
869.000000	65.084900
870.000000	64.842833
871.000000	64.633100
872.000000	64.470400
873.000000	64.526000
874.000000	64.709233
875.000000	64.921700
876.000000	65.042100
877.000000	65.177700
878.000000	65.313500
879.000000	65.377200
880.000000	65.421467
881.000000	65.461367
882.000000	65.471867
883.000000	65.499133
884.000000	65.489100
885.000000	65.490467
886.000000	65.476833
887.000000	65.475867
888.000000	65.466700
889.000000	65.419933
890.000000	65.402900
891.000000	65.375867
892.000000	65.315833
893.000000	65.262400
894.000000	65.249400
895.000000	65.182600
896.000000	65.117900
897.000000	65.023033
898.000000	65.022900
899.000000	64.966400
900.000000	64.875067
901.000000	64.785533
902.000000	64.701033
903.000000	64.628300
904.000000	64.537533
905.000000	64.473867
906.000000	64.398833
907.000000	64.361400
908.000000	64.282133
909.000000	64.218300
910.000000	64.160567
911.000000	64.099633
912.000000	64.036200
913.000000	63.981400
914.000000	63.926400
915.000000	63.892900
916.000000	63.822067
917.000000	63.771933
918.000000	63.728267
919.000000	63.672233
920.000000	63.567233
921.000000	63.480200
922.000000	63.409067
923.000000	63.346467
924.000000	63.272700
925.000000	63.197500
926.000000	63.142767
927.000000	63.084533
928.000000	62.954700
929.000000	62.887233
930.000000	62.817933
931.000000	62.712433
932.000000	62.615733
933.000000	62.533433
934.000000	62.450867
935.000000	62.375533
936.000000	62.241300
937.000000	62.173567
938.000000	62.085633
939.000000	62.015333
940.000000	61.938300
941.000000	61.833533
942.000000	61.765433
943.000000	61.698933
944.000000	61.634533
945.000000	61.539000
946.000000	61.482067
947.000000	61.422767
948.000000	61.332733
949.000000	61.281600
950.000000	61.222733
951.000000	61.168733
952.000000	61.123433
953.000000	61.067500
954.000000	60.984533
955.000000	60.930100
956.000000	60.869367
957.000000	60.821633
958.000000	60.766300
959.000000	60.691200
960.000000	60.619600
961.000000	60.567067
962.000000	60.504467
963.000000	60.440533
964.000000	60.398767
965.000000	60.343367
966.000000	60.295133
967.000000	60.256400
968.000000	60.216100
969.000000	60.175100
970.000000	60.142600
971.000000	60.115333
972.000000	60.087300
973.000000	60.050167
974.000000	60.015567
975.000000	59.981567
976.000000	59.960233
977.000000	59.926533
978.000000	59.893533
979.000000	59.852533
980.000000	59.838600
981.000000	59.802233
982.000000	59.766867
983.000000	59.745767
984.000000	59.711067
985.000000	59.670867
986.000000	59.638367
987.000000	59.614867
988.000000	59.594633
989.000000	59.566667
990.000000	59.548400
991.000000	59.525600
992.000000	59.516067
993.000000	59.497833
994.000000	59.491000
995.000000	59.476333
996.000000	59.469700
997.000000	59.477133
998.000000	59.476367
999.000000	59.482133
1000.000000	59.480400
1001.000000	59.475333
1002.000000	59.495433
1003.000000	59.512733
1004.000000	59.518467
1005.000000	59.524733
1006.000000	59.529400
1007.000000	59.542133
1008.000000	59.559433
1009.000000	59.570767
1010.000000	59.591100
1011.000000	59.618500
1012.000000	59.639667
1013.000000	59.670133
1014.000000	59.710633
1015.000000	59.759467
1016.000000	59.820600
1017.000000	59.878300
1018.000000	59.932700
1019.000000	60.007267
1020.000000	60.094133
1021.000000	60.174567
1022.000000	60.251500
1023.000000	60.333800
1024.000000	60.422100
1025.000000	60.506567
1026.000000	60.595367
1027.000000	60.689533
1028.000000	60.780700
1029.000000	60.852200
1030.000000	60.934467
1031.000000	61.028167
1032.000000	61.099133
1033.000000	61.183167
1034.000000	61.270933
1035.000000	61.340100
1036.000000	61.416967
1037.000000	61.493333
1038.000000	61.565533
1039.000000	61.637400
1040.000000	61.699133
1041.000000	61.758300
1042.000000	61.825767
1043.000000	61.903767
1044.000000	61.964600
1045.000000	62.029700
1046.000000	62.108567
1047.000000	62.177667
1048.000000	62.241533
1049.000000	62.310900
1050.000000	62.388600
1051.000000	62.465100
1052.000000	62.538033
1053.000000	62.625333
1054.000000	62.715633
1055.000000	62.791867
1056.000000	62.879600
1057.000000	62.977267
1058.000000	63.061767
1059.000000	63.145833
1060.000000	63.236400
1061.000000	63.320833
1062.000000	63.411267
1063.000000	63.496500
1064.000000	63.578533
1065.000000	63.668667
1066.000000	63.753467
1067.000000	63.835000
1068.000000	63.923567
1069.000000	64.012800
1070.000000	64.094733
1071.000000	64.183233
1072.000000	64.262667
1073.000000	64.353767
1074.000000	64.448233
1075.000000	64.534600
1076.000000	64.622500
1077.000000	64.704867
1078.000000	64.793633
1079.000000	64.885633
1080.000000	64.976567
1081.000000	65.066400
1082.000000	65.148567
1083.000000	65.245233
1084.000000	65.341200
1085.000000	65.440967
1086.000000	65.524867
1087.000000	65.626600
1088.000000	65.723033
1089.000000	65.810633
1090.000000	65.897333
1091.000000	65.981433
1092.000000	66.072200
1093.000000	66.159000
1094.000000	66.241400
1095.000000	66.313933
1096.000000	66.392867
1097.000000	66.471567
1098.000000	66.536233
1099.000000	66.603300
1100.000000	66.661200
1101.000000	66.731300
1102.000000	66.796533
1103.000000	66.849733
1104.000000	66.899367
1105.000000	66.938533
1106.000000	66.990000
1107.000000	67.049533
1108.000000	67.088533
1109.000000	67.133700
1110.000000	67.180533
1111.000000	67.217267
1112.000000	67.253000
1113.000000	67.293233
1114.000000	67.335967
1115.000000	67.367867
1116.000000	67.406400
1117.000000	67.445067
1118.000000	67.469133
1119.000000	67.473667
1120.000000	67.479833
1121.000000	67.471633
1122.000000	67.461100
1123.000000	67.428000
1124.000000	67.381900
1125.000000	67.324467
1126.000000	67.265200
1127.000000	67.183267
1128.000000	67.094967
1129.000000	66.956133
1130.000000	66.792300
1131.000000	66.570800
1132.000000	66.319067
1133.000000	66.064233
1134.000000	65.815400
1135.000000	65.483133
1136.000000	65.118733
1137.000000	64.733233
1138.000000	64.355367
1139.000000	63.991600
1140.000000	63.635000
1141.000000	63.288100
1142.000000	62.946833
1143.000000	62.647900
1144.000000	62.338233
1145.000000	62.072700
1146.000000	61.888367
1147.000000	61.770067
1148.000000	61.723400
1149.000000	61.737167
1150.000000	61.777067
1151.000000	61.816067
1152.000000	61.861400
1153.000000	61.866533
1154.000000	61.822900
1155.000000	61.746300
1156.000000	61.591300
1157.000000	61.373133
1158.000000	61.109833
1159.000000	60.798833
1160.000000	60.466333
1161.000000	60.106867
1162.000000	59.751033
1163.000000	59.376700
1164.000000	59.008567
1165.000000	58.616333
1166.000000	58.233733
1167.000000	57.855433
