PE UV       SUBTECH     SPECTRUM    ASCII       PEDS        4.00        
   -1
CICIMAUCR0003-3.Sample.ASC
24/05/03
16:05:21.00
24/05/03
16:05:21.00
Vinicio Soto Monge
C. kalinini
250,000000
1
Lambda 1050
1050L1511233
PerkinElmer UV WinLab 6.3.2.0749 / 2.02.05 Lambda 900 UV/VIS/NIR, Aug  7 2015 09:38:08

0
0
3350/servo 860,8/2
0
0
UV/VIS
1
1
1
DoubleDePol,CommonBeamDepol,RBeamAtt,SBeamAtt,60mm sphere, WB InGaAs Detector
0
0
0
0
Program
Program
3350/servo 860,8/2
3350/0,2 860,8/0,2
3350/0,2 860,8/0,2
0
15.00
 
 
 
0
 
860,8
319,2
860,8
Front
100
on
S:100 R:100
0
0
0
0
 
0
 
 
 
0
 
 
0
0
0
0
0
 
 
 
 
0
0


0
0
#HDR
-1
-1
#GR
nm
%R
1.0
0.0
2500,000000
-1,000000
2251
8
101,669700
5,424300
#DATA
250.000000	5.649998
251.000000	5.654006
252.000000	5.633875
253.000000	5.607307
254.000000	5.590232
255.000000	5.573793
256.000000	5.566616
257.000000	5.591754
258.000000	5.558979
259.000000	5.557019
260.000000	5.529040
261.000000	5.507980
262.000000	5.476528
263.000000	5.458038
264.000000	5.425416
265.000000	5.389091
266.000000	5.391357
267.000000	5.349370
268.000000	5.366138
269.000000	5.338129
270.000000	5.319897
271.000000	5.283585
272.000000	5.308162
273.000000	5.279795
274.000000	5.252867
275.000000	5.236922
276.000000	5.272068
277.000000	5.257686
278.000000	5.227792
279.000000	5.224951
280.000000	5.213595
281.000000	5.197797
282.000000	5.194260
283.000000	5.181930
284.000000	5.173150
285.000000	5.156718
286.000000	5.154752
287.000000	5.129115
288.000000	5.125153
289.000000	5.130950
290.000000	5.142887
291.000000	5.136917
292.000000	5.128237
293.000000	5.114336
294.000000	5.106298
295.000000	5.062801
296.000000	5.049400
297.000000	5.064622
298.000000	5.099813
299.000000	5.077609
300.000000	5.074759
301.000000	5.053199
302.000000	5.031841
303.000000	5.047329
304.000000	5.054614
305.000000	5.021926
306.000000	5.045251
307.000000	5.043078
308.000000	5.013840
309.000000	5.022145
310.000000	5.015432
311.000000	5.022252
312.000000	4.997140
313.000000	5.005376
314.000000	4.998324
315.000000	5.006902
316.000000	5.037550
317.000000	5.336530
318.000000	5.456087
319.000000	5.359586
320.000000	5.328744
321.000000	5.296815
322.000000	5.275854
323.000000	5.005871
324.000000	5.198428
325.000000	5.220092
326.000000	5.137685
327.000000	5.134976
328.000000	5.131888
329.000000	5.037983
330.000000	5.162507
331.000000	5.010853
332.000000	5.211350
333.000000	5.103790
334.000000	5.171460
335.000000	5.088855
336.000000	5.066456
337.000000	5.135540
338.000000	5.009623
339.000000	5.152311
340.000000	5.090091
341.000000	5.063090
342.000000	5.173781
343.000000	5.054155
344.000000	5.091206
345.000000	5.192262
346.000000	5.178132
347.000000	5.117654
348.000000	5.075261
349.000000	5.168010
350.000000	5.236971
351.000000	5.220713
352.000000	5.227363
353.000000	5.136522
354.000000	5.235544
355.000000	5.235752
356.000000	5.259115
357.000000	5.291529
358.000000	5.309994
359.000000	5.341265
360.000000	5.351589
361.000000	5.348746
362.000000	5.399671
363.000000	5.425095
364.000000	5.437978
365.000000	5.567979
366.000000	5.585436
367.000000	5.577078
368.000000	5.643686
369.000000	5.662154
370.000000	5.723388
371.000000	5.782993
372.000000	5.765967
373.000000	5.825420
374.000000	5.856550
375.000000	5.981101
376.000000	6.184400
377.000000	6.373795
378.000000	6.486900
379.000000	6.603631
380.000000	6.728425
381.000000	6.881457
382.000000	7.049720
383.000000	7.232507
384.000000	7.408060
385.000000	7.607250
386.000000	7.801094
387.000000	8.010189
388.000000	8.255084
389.000000	8.503652
390.000000	8.756724
391.000000	9.025506
392.000000	9.304854
393.000000	9.597891
394.000000	9.890721
395.000000	10.193826
396.000000	10.513809
397.000000	10.831431
398.000000	11.156212
399.000000	11.494775
400.000000	11.836258
401.000000	12.167536
402.000000	12.528142
403.000000	12.882478
404.000000	13.235861
405.000000	13.584236
406.000000	13.937547
407.000000	14.303747
408.000000	14.654861
409.000000	14.989868
410.000000	15.341280
411.000000	15.679679
412.000000	16.022321
413.000000	16.366777
414.000000	16.693590
415.000000	17.020286
416.000000	17.332530
417.000000	17.614169
418.000000	17.922774
419.000000	18.212886
420.000000	18.481266
421.000000	18.763224
422.000000	19.020251
423.000000	19.268810
424.000000	19.520301
425.000000	19.764510
426.000000	19.997343
427.000000	20.196449
428.000000	20.390878
429.000000	20.578774
430.000000	20.751535
431.000000	20.917455
432.000000	21.071193
433.000000	21.223359
434.000000	21.367123
435.000000	21.492090
436.000000	21.599394
437.000000	21.696308
438.000000	21.794824
439.000000	21.870765
440.000000	21.928329
441.000000	22.002937
442.000000	22.064934
443.000000	22.113127
444.000000	22.135474
445.000000	22.140109
446.000000	22.155720
447.000000	22.167545
448.000000	22.185854
449.000000	22.202481
450.000000	22.197250
451.000000	22.204744
452.000000	22.228564
453.000000	22.247583
454.000000	22.278077
455.000000	22.330816
456.000000	22.387787
457.000000	22.464878
458.000000	22.553066
459.000000	22.662781
460.000000	22.796939
461.000000	22.943553
462.000000	23.110105
463.000000	23.294509
464.000000	23.497463
465.000000	23.719099
466.000000	23.959784
467.000000	24.224142
468.000000	24.498185
469.000000	24.784064
470.000000	25.081534
471.000000	25.393052
472.000000	25.717343
473.000000	26.034525
474.000000	26.363410
475.000000	26.706740
476.000000	27.054075
477.000000	27.404066
478.000000	27.754958
479.000000	28.106104
480.000000	28.460259
481.000000	28.806965
482.000000	29.139913
483.000000	29.481021
484.000000	29.823816
485.000000	30.156119
486.000000	30.478358
487.000000	30.799314
488.000000	31.110812
489.000000	31.422001
490.000000	31.743627
491.000000	32.048582
492.000000	32.364147
493.000000	32.682511
494.000000	32.996946
495.000000	33.328180
496.000000	33.672930
497.000000	34.002065
498.000000	34.372420
499.000000	34.746162
500.000000	35.111227
501.000000	35.512668
502.000000	35.935306
503.000000	36.368422
504.000000	36.809012
505.000000	37.276024
506.000000	37.777467
507.000000	38.276902
508.000000	38.788548
509.000000	39.326343
510.000000	39.883159
511.000000	40.475960
512.000000	41.065922
513.000000	41.673367
514.000000	42.319384
515.000000	42.973514
516.000000	43.628590
517.000000	44.281628
518.000000	44.978466
519.000000	45.671648
520.000000	46.387567
521.000000	47.104529
522.000000	47.846726
523.000000	48.597708
524.000000	49.347298
525.000000	50.101921
526.000000	50.853411
527.000000	51.608376
528.000000	52.378075
529.000000	53.130199
530.000000	53.884926
531.000000	54.655621
532.000000	55.420067
533.000000	56.189031
534.000000	56.929549
535.000000	57.679031
536.000000	58.393314
537.000000	59.126557
538.000000	59.830662
539.000000	60.517278
540.000000	61.203724
541.000000	61.871070
542.000000	62.528644
543.000000	63.183585
544.000000	63.795792
545.000000	64.393053
546.000000	64.966905
547.000000	65.540586
548.000000	66.054206
549.000000	66.579554
550.000000	67.079821
551.000000	67.530797
552.000000	67.961149
553.000000	68.405196
554.000000	68.805408
555.000000	69.187089
556.000000	69.513364
557.000000	69.842693
558.000000	70.134996
559.000000	70.438951
560.000000	70.738383
561.000000	70.994867
562.000000	71.204378
563.000000	71.446588
564.000000	71.652718
565.000000	71.857689
566.000000	72.031969
567.000000	72.170075
568.000000	72.325761
569.000000	72.451970
570.000000	72.561971
571.000000	72.669926
572.000000	72.767549
573.000000	72.851798
574.000000	72.891708
575.000000	72.931433
576.000000	72.936703
577.000000	72.932925
578.000000	72.921056
579.000000	72.856914
580.000000	72.817225
581.000000	72.747893
582.000000	72.632990
583.000000	72.517069
584.000000	72.405105
585.000000	72.267934
586.000000	72.102063
587.000000	71.938201
588.000000	71.777186
589.000000	71.570088
590.000000	71.372585
591.000000	71.152886
592.000000	70.931819
593.000000	70.694846
594.000000	70.422994
595.000000	70.171839
596.000000	69.858238
597.000000	69.540051
598.000000	69.213830
599.000000	68.839395
600.000000	68.456637
601.000000	68.027036
602.000000	67.571620
603.000000	67.125220
604.000000	66.642510
605.000000	66.134128
606.000000	65.673219
607.000000	65.163397
608.000000	64.618194
609.000000	64.115395
610.000000	63.623073
611.000000	63.062441
612.000000	62.555086
613.000000	62.050963
614.000000	61.517132
615.000000	60.991786
616.000000	60.467098
617.000000	59.966374
618.000000	59.482220
619.000000	59.018356
620.000000	58.514968
621.000000	58.076914
622.000000	57.641209
623.000000	57.238700
624.000000	56.864359
625.000000	56.537569
626.000000	56.256344
627.000000	56.010758
628.000000	55.826264
629.000000	55.670661
630.000000	55.521055
631.000000	55.493065
632.000000	55.442582
633.000000	55.458339
634.000000	55.498210
635.000000	55.592559
636.000000	55.672004
637.000000	55.801340
638.000000	55.956995
639.000000	56.125718
640.000000	56.289884
641.000000	56.491738
642.000000	56.725457
643.000000	56.914070
644.000000	57.126248
645.000000	57.379638
646.000000	57.598186
647.000000	57.869657
648.000000	58.152020
649.000000	58.394746
650.000000	58.676581
651.000000	58.939852
652.000000	59.188819
653.000000	59.447496
654.000000	59.697366
655.000000	59.932827
656.000000	60.193007
657.000000	60.420499
658.000000	60.650354
659.000000	60.866182
660.000000	61.070677
661.000000	61.303592
662.000000	61.537565
663.000000	61.741386
664.000000	61.975382
665.000000	62.184146
666.000000	62.412062
667.000000	62.651480
668.000000	62.936087
669.000000	63.192972
670.000000	63.451253
671.000000	63.732700
672.000000	64.013759
673.000000	64.311596
674.000000	64.590975
675.000000	64.908323
676.000000	65.241607
677.000000	65.589707
678.000000	65.912072
679.000000	66.231733
680.000000	66.526949
681.000000	66.853426
682.000000	67.217212
683.000000	67.593682
684.000000	67.936883
685.000000	68.250941
686.000000	68.608444
687.000000	68.936643
688.000000	69.251857
689.000000	69.597796
690.000000	69.919865
691.000000	70.248781
692.000000	70.589973
693.000000	70.945351
694.000000	71.278618
695.000000	71.627623
696.000000	71.948249
697.000000	72.279662
698.000000	72.628364
699.000000	72.939564
700.000000	73.232848
701.000000	73.530237
702.000000	73.874875
703.000000	74.178764
704.000000	74.538427
705.000000	74.911229
706.000000	75.185997
707.000000	75.482687
708.000000	75.786080
709.000000	76.148053
710.000000	76.548332
711.000000	76.899054
712.000000	77.240216
713.000000	77.570803
714.000000	77.891784
715.000000	78.258840
716.000000	78.607169
717.000000	78.956372
718.000000	79.344519
719.000000	79.678090
720.000000	80.000143
721.000000	80.340959
722.000000	80.650550
723.000000	80.979100
724.000000	81.322902
725.000000	81.678051
726.000000	81.988726
727.000000	82.245849
728.000000	82.531797
729.000000	82.877960
730.000000	83.197084
731.000000	83.428774
732.000000	83.683696
733.000000	83.981861
734.000000	84.228314
735.000000	84.455583
736.000000	84.656776
737.000000	84.885752
738.000000	85.164356
739.000000	85.375766
740.000000	85.541653
741.000000	85.759155
742.000000	85.949129
743.000000	86.152106
744.000000	86.357103
745.000000	86.522032
746.000000	86.695063
747.000000	86.872095
748.000000	86.982077
749.000000	87.114272
750.000000	87.282588
751.000000	87.440123
752.000000	87.582848
753.000000	87.652887
754.000000	87.714685
755.000000	87.807086
756.000000	87.907759
757.000000	88.073721
758.000000	88.155736
759.000000	88.211113
760.000000	88.368322
761.000000	88.437634
762.000000	88.524716
763.000000	88.607348
764.000000	88.633308
765.000000	88.714662
766.000000	88.789426
767.000000	88.834633
768.000000	88.882181
769.000000	88.949697
770.000000	88.988207
771.000000	89.051246
772.000000	89.051688
773.000000	89.080284
774.000000	89.168697
775.000000	89.188520
776.000000	89.126180
777.000000	89.180765
778.000000	89.221917
779.000000	89.261344
780.000000	89.254857
781.000000	89.202522
782.000000	89.148939
783.000000	89.139690
784.000000	89.130791
785.000000	89.056284
786.000000	88.939329
787.000000	88.888988
788.000000	88.830076
789.000000	88.805129
790.000000	88.779910
791.000000	88.557297
792.000000	88.465066
793.000000	88.352111
794.000000	88.193181
795.000000	88.052534
796.000000	87.870377
797.000000	87.714588
798.000000	87.562614
799.000000	87.344526
800.000000	87.191187
801.000000	86.980590
802.000000	86.745734
803.000000	86.646689
804.000000	86.376002
805.000000	86.111882
806.000000	85.721664
807.000000	85.494955
808.000000	85.290638
809.000000	84.970291
810.000000	84.747070
811.000000	84.507870
812.000000	84.193641
813.000000	83.885397
814.000000	83.655564
815.000000	83.414045
816.000000	83.190454
817.000000	82.784268
818.000000	82.416271
819.000000	82.193411
820.000000	81.885375
821.000000	81.472531
822.000000	81.265603
823.000000	80.860328
824.000000	80.582378
825.000000	80.063289
826.000000	79.864012
827.000000	79.460515
828.000000	79.128783
829.000000	78.868174
830.000000	78.647474
831.000000	78.230913
832.000000	77.945114
833.000000	77.519910
834.000000	77.118356
835.000000	76.803086
836.000000	76.523913
837.000000	76.332280
838.000000	75.920127
839.000000	75.675167
840.000000	75.249235
841.000000	74.849115
842.000000	74.669846
843.000000	74.235716
844.000000	73.824637
845.000000	73.585462
846.000000	73.590229
847.000000	73.172142
848.000000	72.801730
849.000000	72.511387
850.000000	72.374177
851.000000	72.075530
852.000000	71.906950
853.000000	71.673947
854.000000	71.522386
855.000000	71.257212
856.000000	71.141777
857.000000	70.683273
858.000000	71.890200
859.000000	70.553267
860.000000	70.324300
861.000000	70.109367
862.000000	69.868867
863.000000	69.657833
864.000000	69.437967
865.000000	69.224467
866.000000	69.013867
867.000000	68.809600
868.000000	68.590800
869.000000	68.378067
870.000000	68.160667
871.000000	67.963933
872.000000	67.834067
873.000000	67.934600
874.000000	68.202467
875.000000	68.478900
876.000000	68.659367
877.000000	68.853600
878.000000	69.076467
879.000000	69.221833
880.000000	69.318267
881.000000	69.398700
882.000000	69.473533
883.000000	69.553933
884.000000	69.622733
885.000000	69.674767
886.000000	69.713233
887.000000	69.759433
888.000000	69.782333
889.000000	69.740967
890.000000	69.684367
891.000000	69.723067
892.000000	69.691500
893.000000	69.655200
894.000000	69.633700
895.000000	69.573000
896.000000	69.479167
897.000000	69.380833
898.000000	69.324400
899.000000	69.271333
900.000000	69.173400
901.000000	69.081167
902.000000	68.988667
903.000000	68.875433
904.000000	68.767767
905.000000	68.666500
906.000000	68.616333
907.000000	68.528567
908.000000	68.432767
909.000000	68.287533
910.000000	68.200833
911.000000	68.131967
912.000000	68.047633
913.000000	67.970367
914.000000	67.893067
915.000000	67.778433
916.000000	67.682200
917.000000	67.628033
918.000000	67.548467
919.000000	67.469500
920.000000	67.348700
921.000000	67.256700
922.000000	67.168133
923.000000	67.053300
924.000000	66.966067
925.000000	66.878200
926.000000	66.775733
927.000000	66.671100
928.000000	66.568100
929.000000	66.453333
930.000000	66.359500
931.000000	66.251333
932.000000	66.130167
933.000000	66.020767
934.000000	65.903867
935.000000	65.813267
936.000000	65.688900
937.000000	65.561800
938.000000	65.442767
939.000000	65.344067
940.000000	65.268533
941.000000	65.145633
942.000000	65.043767
943.000000	64.953033
944.000000	64.851233
945.000000	64.746933
946.000000	64.639567
947.000000	64.564733
948.000000	64.487867
949.000000	64.381967
950.000000	64.311033
951.000000	64.223933
952.000000	64.124500
953.000000	64.050167
954.000000	63.971567
955.000000	63.876967
956.000000	63.781200
957.000000	63.691700
958.000000	63.592700
959.000000	63.494167
960.000000	63.399833
961.000000	63.300567
962.000000	63.206133
963.000000	63.103533
964.000000	63.015833
965.000000	62.937467
966.000000	62.853767
967.000000	62.771567
968.000000	62.678967
969.000000	62.602167
970.000000	62.538367
971.000000	62.449933
972.000000	62.373467
973.000000	62.291433
974.000000	62.221733
975.000000	62.138400
976.000000	62.058467
977.000000	61.975100
978.000000	61.897200
979.000000	61.824367
980.000000	61.733400
981.000000	61.657400
982.000000	61.589167
983.000000	61.506700
984.000000	61.442100
985.000000	61.381733
986.000000	61.306533
987.000000	61.228433
988.000000	61.170900
989.000000	61.117333
990.000000	61.053300
991.000000	60.991267
992.000000	60.937133
993.000000	60.882800
994.000000	60.845133
995.000000	60.803367
996.000000	60.745567
997.000000	60.700800
998.000000	60.649233
999.000000	60.619333
1000.000000	60.598067
1001.000000	60.558733
1002.000000	60.529733
1003.000000	60.503433
1004.000000	60.465900
1005.000000	60.440867
1006.000000	60.417233
1007.000000	60.393067
1008.000000	60.368300
1009.000000	60.345633
1010.000000	60.325733
1011.000000	60.310433
1012.000000	60.300767
1013.000000	60.293133
1014.000000	60.305600
1015.000000	60.323667
1016.000000	60.347667
1017.000000	60.370567
1018.000000	60.405867
1019.000000	60.452067
1020.000000	60.496433
1021.000000	60.546733
1022.000000	60.593767
1023.000000	60.646867
1024.000000	60.704667
1025.000000	60.760933
1026.000000	60.819733
1027.000000	60.885100
1028.000000	60.944900
1029.000000	60.998833
1030.000000	61.060933
1031.000000	61.125600
1032.000000	61.181733
1033.000000	61.236400
1034.000000	61.300300
1035.000000	61.358500
1036.000000	61.407300
1037.000000	61.466933
1038.000000	61.519500
1039.000000	61.568167
1040.000000	61.617467
1041.000000	61.668033
1042.000000	61.729133
1043.000000	61.779900
1044.000000	61.834467
1045.000000	61.894933
1046.000000	61.953733
1047.000000	62.015633
1048.000000	62.070300
1049.000000	62.131967
1050.000000	62.200033
1051.000000	62.267233
1052.000000	62.340233
1053.000000	62.416000
1054.000000	62.495000
1055.000000	62.566567
1056.000000	62.649700
1057.000000	62.740333
1058.000000	62.818367
1059.000000	62.896600
1060.000000	62.983500
1061.000000	63.066667
1062.000000	63.149000
1063.000000	63.231833
1064.000000	63.311467
1065.000000	63.385233
1066.000000	63.462967
1067.000000	63.545700
1068.000000	63.633033
1069.000000	63.706433
1070.000000	63.773333
1071.000000	63.845567
1072.000000	63.919667
1073.000000	64.009167
1074.000000	64.087833
1075.000000	64.159267
1076.000000	64.227733
1077.000000	64.306167
1078.000000	64.381467
1079.000000	64.462767
1080.000000	64.534333
1081.000000	64.602533
1082.000000	64.685500
1083.000000	64.768033
1084.000000	64.851967
1085.000000	64.928733
1086.000000	65.015000
1087.000000	65.097700
1088.000000	65.179900
1089.000000	65.263400
1090.000000	65.349933
1091.000000	65.416100
1092.000000	65.503933
1093.000000	65.582633
1094.000000	65.654033
1095.000000	65.712933
1096.000000	65.781900
1097.000000	65.859700
1098.000000	65.917067
1099.000000	65.972767
1100.000000	66.038300
1101.000000	66.094033
1102.000000	66.152267
1103.000000	66.196200
1104.000000	66.244433
1105.000000	66.291333
1106.000000	66.348267
1107.000000	66.383000
1108.000000	66.422933
1109.000000	66.466233
1110.000000	66.501833
1111.000000	66.540133
1112.000000	66.575367
1113.000000	66.606467
1114.000000	66.636367
1115.000000	66.673267
1116.000000	66.715500
1117.000000	66.741133
1118.000000	66.758733
1119.000000	66.767500
1120.000000	66.761233
1121.000000	66.746567
1122.000000	66.735233
1123.000000	66.689933
1124.000000	66.643333
1125.000000	66.577000
1126.000000	66.515333
1127.000000	66.424133
1128.000000	66.313433
1129.000000	66.174033
1130.000000	65.995233
1131.000000	65.773567
1132.000000	65.504533
1133.000000	65.219367
1134.000000	64.953600
1135.000000	64.631633
1136.000000	64.244233
1137.000000	63.845333
1138.000000	63.458867
1139.000000	63.092433
1140.000000	62.719900
1141.000000	62.371833
1142.000000	62.034267
1143.000000	61.704467
1144.000000	61.396967
1145.000000	61.132600
1146.000000	60.933000
1147.000000	60.787700
1148.000000	60.730767
1149.000000	60.735467
1150.000000	60.768133
1151.000000	60.799000
1152.000000	60.835733
1153.000000	60.818400
1154.000000	60.761833
1155.000000	60.674933
1156.000000	60.511367
1157.000000	60.288200
1158.000000	60.014233
1159.000000	59.688133
1160.000000	59.346833
1161.000000	58.990400
1162.000000	58.631967
1163.000000	58.239833
1164.000000	57.846367
1165.000000	57.474833
1166.000000	57.063833
