PE UV       SUBTECH     SPECTRUM    ASCII       PEDS        4.00        
   -1
CICIMAUCR0250-3.Sample.ASC
24/05/27
16:50:50.00
24/05/27
16:50:50.00
Vinicio Soto Monge
C. resplendens, M
250,000000
1
Lambda 1050
1050L1511233
PerkinElmer UV WinLab 6.3.2.0749 / 2.02.05 Lambda 900 UV/VIS/NIR, Aug  7 2015 09:38:08

0
0
3350/servo 860,8/2
0
0
UV/VIS
1
1
1
DoubleDePol,CommonBeamDepol,RBeamAtt,SBeamAtt,60mm sphere, WB InGaAs Detector
0
0
0
0
Program
Program
3350/servo 860,8/2
3350/0,2 860,8/0,2
3350/0,2 860,8/0,2
0
15.00
 
 
 
0
 
860,8
319,2
860,8
Front
100
on
S:100 R:100
0
0
0
0
 
0
 
 
 
0
 
 
0
0
0
0
0
 
 
 
 
0
0


0
0
#HDR
-1
-1
#GR
nm
%R
1.0
0.0
2500,000000
-1,000000
2251
8
89,705100
5,547200
#DATA
250.000000	6.119145
251.000000	6.088903
252.000000	6.061375
253.000000	6.074531
254.000000	6.061486
255.000000	6.043790
256.000000	6.029283
257.000000	6.005233
258.000000	5.985305
259.000000	5.984871
260.000000	5.965419
261.000000	5.945135
262.000000	5.917324
263.000000	5.904697
264.000000	5.897107
265.000000	5.853842
266.000000	5.824872
267.000000	5.817596
268.000000	5.789985
269.000000	5.765568
270.000000	5.773981
271.000000	5.764697
272.000000	5.740712
273.000000	5.735132
274.000000	5.719806
275.000000	5.726130
276.000000	5.717922
277.000000	5.693515
278.000000	5.694469
279.000000	5.686582
280.000000	5.689785
281.000000	5.674492
282.000000	5.669143
283.000000	5.656780
284.000000	5.634225
285.000000	5.633167
286.000000	5.629482
287.000000	5.598206
288.000000	5.610492
289.000000	5.606509
290.000000	5.584003
291.000000	5.594693
292.000000	5.582247
293.000000	5.562841
294.000000	5.556891
295.000000	5.556967
296.000000	5.547732
297.000000	5.536398
298.000000	5.532565
299.000000	5.504628
300.000000	5.509352
301.000000	5.525907
302.000000	5.508124
303.000000	5.498291
304.000000	5.482295
305.000000	5.466683
306.000000	5.473689
307.000000	5.479132
308.000000	5.469421
309.000000	5.457489
310.000000	5.463088
311.000000	5.481745
312.000000	5.464570
313.000000	5.437304
314.000000	5.447946
315.000000	5.462999
316.000000	5.548886
317.000000	5.659415
318.000000	5.664268
319.000000	5.694718
320.000000	5.728464
321.000000	5.645488
322.000000	5.620974
323.000000	5.676760
324.000000	5.649352
325.000000	5.632075
326.000000	5.573166
327.000000	5.524553
328.000000	5.541717
329.000000	5.624694
330.000000	5.661825
331.000000	5.584182
332.000000	5.592165
333.000000	5.579870
334.000000	5.536533
335.000000	5.552281
336.000000	5.550025
337.000000	5.613116
338.000000	5.634610
339.000000	5.607935
340.000000	5.650273
341.000000	5.631727
342.000000	5.652837
343.000000	5.673516
344.000000	5.602084
345.000000	5.567388
346.000000	5.591693
347.000000	5.669557
348.000000	5.724637
349.000000	5.702718
350.000000	5.699813
351.000000	5.654093
352.000000	5.684279
353.000000	5.723074
354.000000	5.747050
355.000000	5.822814
356.000000	5.835531
357.000000	5.841968
358.000000	5.871127
359.000000	5.939044
360.000000	5.963765
361.000000	5.978325
362.000000	6.014181
363.000000	6.033024
364.000000	6.064031
365.000000	6.090260
366.000000	6.160880
367.000000	6.217415
368.000000	6.181268
369.000000	6.198417
370.000000	6.272989
371.000000	6.285939
372.000000	6.255786
373.000000	6.249578
374.000000	6.335060
375.000000	6.417902
376.000000	6.458946
377.000000	6.499497
378.000000	6.539387
379.000000	6.582949
380.000000	6.639777
381.000000	6.695771
382.000000	6.754811
383.000000	6.816378
384.000000	6.886277
385.000000	6.964598
386.000000	7.032285
387.000000	7.099987
388.000000	7.181167
389.000000	7.273157
390.000000	7.365291
391.000000	7.470964
392.000000	7.581484
393.000000	7.693382
394.000000	7.810555
395.000000	7.934067
396.000000	8.077752
397.000000	8.218463
398.000000	8.381341
399.000000	8.550112
400.000000	8.747322
401.000000	8.939754
402.000000	9.147156
403.000000	9.389400
404.000000	9.621940
405.000000	9.887322
406.000000	10.148053
407.000000	10.415155
408.000000	10.721666
409.000000	11.031460
410.000000	11.351877
411.000000	11.698397
412.000000	12.052322
413.000000	12.413722
414.000000	12.787595
415.000000	13.178723
416.000000	13.579642
417.000000	13.989876
418.000000	14.391582
419.000000	14.798380
420.000000	15.224108
421.000000	15.636502
422.000000	16.067222
423.000000	16.478133
424.000000	16.916059
425.000000	17.337079
426.000000	17.777893
427.000000	18.186266
428.000000	18.579722
429.000000	18.989743
430.000000	19.404598
431.000000	19.774213
432.000000	20.169349
433.000000	20.567799
434.000000	20.928650
435.000000	21.309867
436.000000	21.641674
437.000000	21.978705
438.000000	22.330963
439.000000	22.649601
440.000000	22.959398
441.000000	23.266514
442.000000	23.548764
443.000000	23.860098
444.000000	24.104422
445.000000	24.351263
446.000000	24.574408
447.000000	24.828862
448.000000	25.035771
449.000000	25.233741
450.000000	25.434676
451.000000	25.606425
452.000000	25.778327
453.000000	25.925418
454.000000	26.050893
455.000000	26.173552
456.000000	26.285088
457.000000	26.374623
458.000000	26.482961
459.000000	26.548049
460.000000	26.595798
461.000000	26.663431
462.000000	26.691143
463.000000	26.698391
464.000000	26.736290
465.000000	26.746789
466.000000	26.732997
467.000000	26.727622
468.000000	26.704687
469.000000	26.698261
470.000000	26.653946
471.000000	26.621183
472.000000	26.596796
473.000000	26.567249
474.000000	26.546063
475.000000	26.517681
476.000000	26.503194
477.000000	26.502194
478.000000	26.512946
479.000000	26.536274
480.000000	26.558169
481.000000	26.620318
482.000000	26.692448
483.000000	26.793076
484.000000	26.898965
485.000000	27.050177
486.000000	27.215731
487.000000	27.392454
488.000000	27.583186
489.000000	27.813934
490.000000	28.089932
491.000000	28.376198
492.000000	28.668083
493.000000	29.020927
494.000000	29.343626
495.000000	29.719807
496.000000	30.124136
497.000000	30.525899
498.000000	30.952228
499.000000	31.418999
500.000000	31.879035
501.000000	32.354774
502.000000	32.860888
503.000000	33.366644
504.000000	33.851990
505.000000	34.388059
506.000000	34.927100
507.000000	35.481158
508.000000	36.053585
509.000000	36.663530
510.000000	37.305135
511.000000	37.981434
512.000000	38.703708
513.000000	39.457126
514.000000	40.255937
515.000000	41.071119
516.000000	41.916357
517.000000	42.828014
518.000000	43.768925
519.000000	44.742663
520.000000	45.772845
521.000000	46.820486
522.000000	47.924588
523.000000	49.046731
524.000000	50.205056
525.000000	51.382740
526.000000	52.560927
527.000000	53.760853
528.000000	54.954347
529.000000	56.160543
530.000000	57.383215
531.000000	58.594003
532.000000	59.789825
533.000000	60.978728
534.000000	62.143172
535.000000	63.277255
536.000000	64.379348
537.000000	65.428700
538.000000	66.444740
539.000000	67.412776
540.000000	68.371014
541.000000	69.274848
542.000000	70.166045
543.000000	71.008217
544.000000	71.811578
545.000000	72.587637
546.000000	73.301176
547.000000	74.005907
548.000000	74.654825
549.000000	75.283681
550.000000	75.924115
551.000000	76.501449
552.000000	77.047912
553.000000	77.584487
554.000000	78.128570
555.000000	78.618378
556.000000	79.061280
557.000000	79.512253
558.000000	79.927583
559.000000	80.322968
560.000000	80.717659
561.000000	81.077373
562.000000	81.418954
563.000000	81.765163
564.000000	82.084004
565.000000	82.412378
566.000000	82.689718
567.000000	82.988530
568.000000	83.264762
569.000000	83.517454
570.000000	83.767699
571.000000	84.028082
572.000000	84.254314
573.000000	84.493922
574.000000	84.703982
575.000000	84.898633
576.000000	85.058650
577.000000	85.240793
578.000000	85.394907
579.000000	85.524567
580.000000	85.654284
581.000000	85.730383
582.000000	85.842351
583.000000	85.882014
584.000000	85.907143
585.000000	85.935377
586.000000	85.964536
587.000000	85.949476
588.000000	85.900868
589.000000	85.885693
590.000000	85.831527
591.000000	85.742787
592.000000	85.652546
593.000000	85.544963
594.000000	85.423691
595.000000	85.280057
596.000000	85.108480
597.000000	84.943911
598.000000	84.732852
599.000000	84.524231
600.000000	84.312077
601.000000	84.058298
602.000000	83.807897
603.000000	83.526852
604.000000	83.222235
605.000000	82.899102
606.000000	82.551087
607.000000	82.191239
608.000000	81.761724
609.000000	81.318385
610.000000	80.863567
611.000000	80.344868
612.000000	79.769696
613.000000	79.159028
614.000000	78.527528
615.000000	77.851999
616.000000	77.144659
617.000000	76.418105
618.000000	75.622238
619.000000	74.811014
620.000000	73.996454
621.000000	73.132358
622.000000	72.231067
623.000000	71.294784
624.000000	70.336707
625.000000	69.335701
626.000000	68.319081
627.000000	67.288759
628.000000	66.210798
629.000000	65.104811
630.000000	63.984704
631.000000	62.850991
632.000000	61.739967
633.000000	60.619258
634.000000	59.539068
635.000000	58.513657
636.000000	57.531372
637.000000	56.625929
638.000000	55.796267
639.000000	55.039362
640.000000	54.396413
641.000000	53.865620
642.000000	53.445249
643.000000	53.154744
644.000000	52.982368
645.000000	52.920654
646.000000	52.971411
647.000000	53.149161
648.000000	53.447868
649.000000	53.824304
650.000000	54.318380
651.000000	54.907728
652.000000	55.590909
653.000000	56.363916
654.000000	57.160684
655.000000	57.967273
656.000000	58.794327
657.000000	59.677849
658.000000	60.550371
659.000000	61.393864
660.000000	62.260412
661.000000	63.148163
662.000000	64.013915
663.000000	64.840005
664.000000	65.630917
665.000000	66.410040
666.000000	67.156478
667.000000	67.906682
668.000000	68.608964
669.000000	69.258999
670.000000	69.889252
671.000000	70.519725
672.000000	71.130227
673.000000	71.711669
674.000000	72.263839
675.000000	72.774487
676.000000	73.243276
677.000000	73.693460
678.000000	74.123153
679.000000	74.528030
680.000000	74.876034
681.000000	75.202196
682.000000	75.486337
683.000000	75.764448
684.000000	76.029710
685.000000	76.250831
686.000000	76.401631
687.000000	76.596029
688.000000	76.732390
689.000000	76.839820
690.000000	76.956508
691.000000	77.073349
692.000000	77.140688
693.000000	77.186472
694.000000	77.237716
695.000000	77.269165
696.000000	77.320911
697.000000	77.398264
698.000000	77.477872
699.000000	77.532496
700.000000	77.583030
701.000000	77.668237
702.000000	77.777396
703.000000	77.927455
704.000000	78.072276
705.000000	78.270877
706.000000	78.437282
707.000000	78.647105
708.000000	78.912902
709.000000	79.155889
710.000000	79.440870
711.000000	79.756535
712.000000	80.060613
713.000000	80.430356
714.000000	80.761822
715.000000	81.111700
716.000000	81.557332
717.000000	81.877178
718.000000	82.248096
719.000000	82.640363
720.000000	83.022123
721.000000	83.401248
722.000000	83.785921
723.000000	84.162460
724.000000	84.538764
725.000000	84.908519
726.000000	85.205658
727.000000	85.579216
728.000000	85.931212
729.000000	86.193001
730.000000	86.466116
731.000000	86.759437
732.000000	87.050858
733.000000	87.280616
734.000000	87.536462
735.000000	87.733459
736.000000	87.958656
737.000000	88.091650
738.000000	88.313918
739.000000	88.512637
740.000000	88.651811
741.000000	88.808874
742.000000	88.953156
743.000000	89.027471
744.000000	89.064221
745.000000	89.240509
746.000000	89.282638
747.000000	89.398599
748.000000	89.455738
749.000000	89.522839
750.000000	89.567462
751.000000	89.652297
752.000000	89.719829
753.000000	89.702798
754.000000	89.801344
755.000000	89.910856
756.000000	89.878871
757.000000	89.863363
758.000000	89.827647
759.000000	89.829173
760.000000	89.884590
761.000000	89.896533
762.000000	89.887917
763.000000	89.940044
764.000000	89.832370
765.000000	89.682914
766.000000	89.646078
767.000000	89.569293
768.000000	89.437788
769.000000	89.404173
770.000000	89.322574
771.000000	89.128536
772.000000	89.024131
773.000000	88.888432
774.000000	88.765177
775.000000	88.685758
776.000000	88.508672
777.000000	88.286338
778.000000	88.161598
779.000000	88.176873
780.000000	87.981137
781.000000	87.816863
782.000000	87.699065
783.000000	87.623487
784.000000	87.414082
785.000000	87.344118
786.000000	87.222627
787.000000	87.215721
788.000000	87.119614
789.000000	87.081434
790.000000	86.830639
791.000000	86.838635
792.000000	86.566439
793.000000	86.401369
794.000000	86.309891
795.000000	86.256631
796.000000	86.055471
797.000000	85.858758
798.000000	85.701042
799.000000	85.383202
800.000000	85.129483
801.000000	84.703247
802.000000	84.490684
803.000000	84.243363
804.000000	83.941274
805.000000	83.479575
806.000000	83.159445
807.000000	82.861076
808.000000	82.413694
809.000000	82.044432
810.000000	81.552538
811.000000	81.184252
812.000000	80.790000
813.000000	80.284317
814.000000	79.950142
815.000000	79.535638
816.000000	79.164988
817.000000	78.736715
818.000000	78.327605
819.000000	78.030972
820.000000	77.519722
821.000000	77.114880
822.000000	76.777491
823.000000	76.478231
824.000000	76.066499
825.000000	75.781511
826.000000	75.590487
827.000000	75.359682
828.000000	74.998866
829.000000	74.925952
830.000000	74.552090
831.000000	74.312888
832.000000	74.044539
833.000000	74.078473
834.000000	73.802956
835.000000	73.761148
836.000000	73.605549
837.000000	73.530582
838.000000	73.313703
839.000000	73.246333
840.000000	73.308554
841.000000	73.160490
842.000000	72.974957
843.000000	72.993334
844.000000	72.748815
845.000000	72.615795
846.000000	72.869364
847.000000	72.804795
848.000000	72.600548
849.000000	72.341265
850.000000	72.388969
851.000000	72.424660
852.000000	72.220624
853.000000	72.232398
854.000000	72.125834
855.000000	71.800241
856.000000	71.593693
857.000000	71.441480
858.000000	71.625667
859.000000	71.492333
860.000000	71.363133
861.000000	71.239133
862.000000	71.103567
863.000000	70.963800
864.000000	70.840300
865.000000	70.709233
866.000000	70.582533
867.000000	70.436433
868.000000	70.334267
869.000000	70.230033
870.000000	70.176100
871.000000	70.170367
872.000000	70.205767
873.000000	70.260400
874.000000	70.336300
875.000000	70.373067
876.000000	70.376200
877.000000	70.363633
878.000000	70.339900
879.000000	70.313000
880.000000	70.271300
881.000000	70.236800
882.000000	70.182267
883.000000	70.147033
884.000000	70.091100
885.000000	70.040767
886.000000	69.991300
887.000000	69.930533
888.000000	69.869133
889.000000	69.807800
890.000000	69.754400
891.000000	69.690333
892.000000	69.612700
893.000000	69.537467
894.000000	69.439300
895.000000	69.353533
896.000000	69.254667
897.000000	69.146300
898.000000	69.027833
899.000000	68.907467
900.000000	68.785400
901.000000	68.654867
902.000000	68.523267
903.000000	68.391333
904.000000	68.261133
905.000000	68.129033
906.000000	68.008533
907.000000	67.879233
908.000000	67.748233
909.000000	67.622067
910.000000	67.505300
911.000000	67.386433
912.000000	67.277367
913.000000	67.154567
914.000000	67.023333
915.000000	66.905033
916.000000	66.794233
917.000000	66.674700
918.000000	66.562467
919.000000	66.444400
920.000000	66.324367
921.000000	66.203600
922.000000	66.081933
923.000000	65.951633
924.000000	65.818633
925.000000	65.691900
926.000000	65.565700
927.000000	65.446400
928.000000	65.324533
929.000000	65.179467
930.000000	65.050200
931.000000	64.920367
932.000000	64.783800
933.000000	64.647967
934.000000	64.505400
935.000000	64.368233
936.000000	64.234067
937.000000	64.087500
938.000000	63.951033
939.000000	63.817800
940.000000	63.683833
941.000000	63.543633
942.000000	63.401900
943.000000	63.266533
944.000000	63.123333
945.000000	62.972433
946.000000	62.822200
947.000000	62.670300
948.000000	62.519800
949.000000	62.369500
950.000000	62.216400
951.000000	62.059267
952.000000	61.901700
953.000000	61.747300
954.000000	61.600200
955.000000	61.454200
956.000000	61.311667
957.000000	61.164433
958.000000	61.014433
959.000000	60.873000
960.000000	60.736500
961.000000	60.597633
962.000000	60.460333
963.000000	60.330367
964.000000	60.202133
965.000000	60.084400
966.000000	59.965767
967.000000	59.841533
968.000000	59.731700
969.000000	59.621333
970.000000	59.513300
971.000000	59.405233
972.000000	59.287033
973.000000	59.187500
974.000000	59.085267
975.000000	58.983700
976.000000	58.877333
977.000000	58.770333
978.000000	58.679133
979.000000	58.585133
980.000000	58.486833
981.000000	58.396033
982.000000	58.312000
983.000000	58.223967
984.000000	58.136433
985.000000	58.057967
986.000000	57.974367
987.000000	57.898733
988.000000	57.823100
989.000000	57.752533
990.000000	57.686767
991.000000	57.628633
992.000000	57.565267
993.000000	57.510067
994.000000	57.461133
995.000000	57.409533
996.000000	57.363567
997.000000	57.325933
998.000000	57.277267
999.000000	57.245633
1000.000000	57.216767
1001.000000	57.188333
1002.000000	57.162600
1003.000000	57.129567
1004.000000	57.098900
1005.000000	57.080700
1006.000000	57.043933
1007.000000	57.020567
1008.000000	57.005700
1009.000000	56.999033
1010.000000	56.974133
1011.000000	56.972167
1012.000000	56.970900
1013.000000	56.984367
1014.000000	56.986833
1015.000000	57.015667
1016.000000	57.036633
1017.000000	57.057767
1018.000000	57.088000
1019.000000	57.124000
1020.000000	57.163133
1021.000000	57.202233
1022.000000	57.241700
1023.000000	57.289967
1024.000000	57.337100
1025.000000	57.378633
1026.000000	57.424533
1027.000000	57.475133
1028.000000	57.519533
1029.000000	57.564200
1030.000000	57.595300
1031.000000	57.643300
1032.000000	57.675867
1033.000000	57.719233
1034.000000	57.758400
1035.000000	57.806900
1036.000000	57.834800
1037.000000	57.879500
1038.000000	57.917333
1039.000000	57.950667
1040.000000	57.989333
1041.000000	58.029067
1042.000000	58.059000
1043.000000	58.102967
1044.000000	58.141233
1045.000000	58.184167
1046.000000	58.223600
1047.000000	58.266033
1048.000000	58.310033
1049.000000	58.353933
1050.000000	58.398033
1051.000000	58.451167
1052.000000	58.510167
1053.000000	58.559533
1054.000000	58.616667
1055.000000	58.672333
1056.000000	58.728800
1057.000000	58.787033
1058.000000	58.851067
1059.000000	58.900433
1060.000000	58.951833
1061.000000	59.013933
1062.000000	59.064500
1063.000000	59.108400
1064.000000	59.164200
1065.000000	59.210900
1066.000000	59.260867
1067.000000	59.301933
1068.000000	59.354100
1069.000000	59.403967
1070.000000	59.448500
1071.000000	59.499400
1072.000000	59.540900
1073.000000	59.580833
1074.000000	59.630300
1075.000000	59.680133
1076.000000	59.726600
1077.000000	59.760000
1078.000000	59.814867
1079.000000	59.859333
1080.000000	59.900433
1081.000000	59.952800
1082.000000	59.984333
1083.000000	60.039100
1084.000000	60.078633
1085.000000	60.122067
1086.000000	60.159100
1087.000000	60.211133
1088.000000	60.254000
1089.000000	60.287400
1090.000000	60.328733
1091.000000	60.360700
1092.000000	60.390867
1093.000000	60.436600
1094.000000	60.458000
1095.000000	60.497267
1096.000000	60.509033
1097.000000	60.536200
1098.000000	60.559467
1099.000000	60.579267
1100.000000	60.590033
1101.000000	60.602933
1102.000000	60.641833
1103.000000	60.636667
1104.000000	60.647500
1105.000000	60.654333
1106.000000	60.662867
1107.000000	60.675900
1108.000000	60.685700
1109.000000	60.698467
1110.000000	60.706867
1111.000000	60.711667
1112.000000	60.713900
1113.000000	60.719900
1114.000000	60.722367
1115.000000	60.721000
1116.000000	60.727767
1117.000000	60.715767
1118.000000	60.688967
1119.000000	60.664000
1120.000000	60.610400
1121.000000	60.566833
1122.000000	60.506300
1123.000000	60.416700
1124.000000	60.329967
1125.000000	60.226000
1126.000000	60.097667
1127.000000	59.942267
1128.000000	59.760567
1129.000000	59.521833
1130.000000	59.254000
1131.000000	58.961667
1132.000000	58.629933
1133.000000	58.311833
1134.000000	57.936200
1135.000000	57.529300
1136.000000	57.133200
1137.000000	56.753500
1138.000000	56.381833
1139.000000	56.036833
1140.000000	55.702067
1141.000000	55.370167
1142.000000	55.054767
1143.000000	54.773333
1144.000000	54.544433
1145.000000	54.345333
1146.000000	54.200500
1147.000000	54.107300
1148.000000	54.040467
1149.000000	53.992600
1150.000000	53.931500
1151.000000	53.861267
1152.000000	53.767233
1153.000000	53.641867
1154.000000	53.454700
1155.000000	53.236533
1156.000000	52.978600
1157.000000	52.699833
1158.000000	52.390300
1159.000000	52.073200
1160.000000	51.742167
1161.000000	51.421467
1162.000000	51.068400
1163.000000	50.731100
1164.000000	50.399767
1165.000000	50.073767
1166.000000	49.753267
1167.000000	49.428967
