PE UV       SUBTECH     SPECTRUM    ASCII       PEDS        4.00        
   -1
CICIMAUCR0008-3.Sample.ASC
24/04/17
09:22:08.00
24/04/17
09:22:08.00
Vinicio Soto Monge
C. kalinini
250,000000
1
Lambda 1050
1050L1511233
PerkinElmer UV WinLab 6.3.2.0749 / 2.02.05 Lambda 900 UV/VIS/NIR, Aug  7 2015 09:38:08

0
0
3350/servo 860,8/2
0
0
UV/VIS
1
1
1
DoubleDePol,CommonBeamDepol,RBeamAtt,SBeamAtt,60mm sphere, WB InGaAs Detector
0
0
0
0
Program
Program
3350/servo 860,8/2
3350/0,2 860,8/0,2
3350/0,2 860,8/0,2
0
15.00
 
 
 
0
 
860,8
319,2
860,8
Front
100
on
S:100 R:100
0
0
0
0
 
0
 
 
 
0
 
 
0
0
0
0
0
 
 
 
 
0
0


0
0
#HDR
-1
-1
#GR
nm
%R
1.0
0.0
2500,000000
-1,000000
2251
8
72,513700
4,506200
#DATA
2482.000000	15.189284
2481.000000	15.186066
2480.000000	15.209130
2479.000000	15.247965
2478.000000	15.259444
2477.000000	15.347733
2476.000000	15.327672
2475.000000	15.389356
2474.000000	15.467132
2473.000000	15.481293
2472.000000	15.554992
2471.000000	15.562073
2470.000000	15.624615
2469.000000	15.702606
2468.000000	15.729103
2467.000000	15.787784
2466.000000	15.851078
2465.000000	15.936685
2464.000000	16.015534
2463.000000	16.086122
2462.000000	16.119807
2461.000000	16.210135
2460.000000	16.277398
2459.000000	16.339833
2458.000000	16.458267
2457.000000	16.573483
2456.000000	16.655657
2455.000000	16.745878
2454.000000	16.842534
2453.000000	16.939084
2452.000000	17.054193
2451.000000	17.166297
2450.000000	17.274969
2449.000000	17.400269
2448.000000	17.509906
2447.000000	17.636494
2446.000000	17.736798
2445.000000	17.857378
2444.000000	17.978172
2443.000000	18.077725
2442.000000	18.207638
2441.000000	18.313092
2440.000000	18.426269
2439.000000	18.551784
2438.000000	18.672363
2437.000000	18.776315
2436.000000	18.883807
2435.000000	18.986471
2434.000000	19.097610
2433.000000	19.215401
2432.000000	19.309161
2431.000000	19.407427
2430.000000	19.512344
2429.000000	19.603959
2428.000000	19.706945
2427.000000	19.808001
2426.000000	19.889102
2425.000000	19.978464
2424.000000	20.058171
2423.000000	20.123610
2422.000000	20.185188
2421.000000	20.215440
2420.000000	20.281523
2419.000000	20.335161
2418.000000	20.384831
2417.000000	20.459710
2416.000000	20.514851
2415.000000	20.554007
2414.000000	20.604427
2413.000000	20.659246
2412.000000	20.704517
2411.000000	20.751826
2410.000000	20.794415
2409.000000	20.812223
2408.000000	20.834966
2407.000000	20.867149
2406.000000	20.902551
2405.000000	20.932910
2404.000000	20.955117
2403.000000	20.976143
2402.000000	20.995989
2401.000000	21.020127
2400.000000	21.045122
2399.000000	21.052846
2398.000000	21.082562
2397.000000	21.098332
2396.000000	21.093075
2395.000000	21.111205
2394.000000	21.128906
2393.000000	21.128369
2392.000000	21.135986
2391.000000	21.140599
2390.000000	21.147465
2389.000000	21.146177
2388.000000	21.150898
2387.000000	21.157334
2386.000000	21.150790
2385.000000	21.146177
2384.000000	21.141243
2383.000000	21.114853
2382.000000	21.103803
2381.000000	21.098761
2380.000000	21.071834
2379.000000	21.059176
2378.000000	21.054026
2377.000000	21.033965
2376.000000	21.011974
2375.000000	20.994273
2374.000000	20.979254
2373.000000	20.972603
2372.000000	20.951791
2371.000000	20.928619
2370.000000	20.911240
2369.000000	20.907700
2368.000000	20.904911
2367.000000	20.896865
2366.000000	20.896651
2365.000000	20.886352
2364.000000	20.874337
2363.000000	20.873264
2362.000000	20.869617
2361.000000	20.856207
2360.000000	20.840330
2359.000000	20.836146
2358.000000	20.825204
2357.000000	20.814691
2356.000000	20.801925
2355.000000	20.789373
2354.000000	20.777787
2353.000000	20.752684
2352.000000	20.742600
2351.000000	20.743673
2350.000000	20.724041
2349.000000	20.712885
2348.000000	20.701835
2347.000000	20.684778
2346.000000	20.688211
2345.000000	20.683383
2344.000000	20.672656
2343.000000	20.667399
2342.000000	20.666755
2341.000000	20.660962
2340.000000	20.640258
2339.000000	20.637683
2338.000000	20.649805
2337.000000	20.641116
2336.000000	20.643905
2335.000000	20.655491
2334.000000	20.663752
2333.000000	20.696793
2332.000000	20.715459
2331.000000	20.715459
2330.000000	20.729942
2329.000000	20.764378
2328.000000	20.791090
2327.000000	20.799779
2326.000000	20.836790
2325.000000	20.865540
2324.000000	20.874981
2323.000000	20.898367
2322.000000	20.908236
2321.000000	20.923148
2320.000000	20.926259
2319.000000	20.917570
2318.000000	20.903838
2317.000000	20.877770
2316.000000	20.863287
2315.000000	20.826062
2314.000000	20.826062
2313.000000	20.794952
2312.000000	20.751826
2311.000000	20.716425
2310.000000	20.687245
2309.000000	20.659890
2308.000000	20.634465
2307.000000	20.596167
2306.000000	20.584259
2305.000000	20.599063
2304.000000	20.571171
2303.000000	20.550681
2302.000000	20.542957
2301.000000	20.536950
2300.000000	20.557654
2299.000000	20.565593
2298.000000	20.576642
2297.000000	20.589087
2296.000000	20.610220
2295.000000	20.631676
2294.000000	20.675230
2293.000000	20.693038
2292.000000	20.714494
2291.000000	20.749466
2290.000000	20.780469
2289.000000	20.809434
2288.000000	20.850950
2287.000000	20.883026
2286.000000	20.931730
2285.000000	20.966059
2284.000000	21.000924
2283.000000	21.060356
2282.000000	21.065934
2281.000000	21.133304
2280.000000	21.144139
2279.000000	21.179755
2278.000000	21.229210
2277.000000	21.230497
2276.000000	21.247984
2275.000000	21.296366
2274.000000	21.344104
2273.000000	21.345284
2272.000000	21.363307
2271.000000	21.389268
2270.000000	21.457711
2269.000000	21.489358
2268.000000	21.539885
2267.000000	21.606719
2266.000000	21.700157
2265.000000	21.784048
2264.000000	21.872445
2263.000000	21.994312
2262.000000	22.120577
2261.000000	22.244268
2260.000000	22.391667
2259.000000	22.532093
2258.000000	22.692901
2257.000000	22.888683
2256.000000	23.047346
2255.000000	23.233901
2254.000000	23.419705
2253.000000	23.573112
2252.000000	23.793245
2251.000000	23.956306
2250.000000	24.105743
2249.000000	24.256361
2248.000000	24.397430
2247.000000	24.581089
2246.000000	24.718189
2245.000000	24.833298
2244.000000	24.940146
2243.000000	25.053216
2242.000000	25.157919
2241.000000	25.232799
2240.000000	25.283970
2239.000000	25.369363
2238.000000	25.396075
2237.000000	25.442097
2236.000000	25.482326
2235.000000	25.517405
2234.000000	25.527275
2233.000000	25.516654
2232.000000	25.525880
2231.000000	25.513329
2230.000000	25.492624
2229.000000	25.461299
2228.000000	25.377194
2227.000000	25.345011
2226.000000	25.296736
2225.000000	25.237948
2224.000000	25.179589
2223.000000	25.105782
2222.000000	25.046029
2221.000000	24.954950
2220.000000	24.870738
2219.000000	24.787276
2218.000000	24.707998
2217.000000	24.600721
2216.000000	24.552231
2215.000000	24.455575
2214.000000	24.381875
2213.000000	24.312681
2212.000000	24.248637
2211.000000	24.176654
2210.000000	24.127092
2209.000000	24.060687
2208.000000	24.025607
2207.000000	23.998681
2206.000000	23.933241
2205.000000	23.881427
2204.000000	23.859649
2203.000000	23.815129
2202.000000	23.770287
2201.000000	23.737246
2200.000000	23.701415
2199.000000	23.706350
2198.000000	23.640267
2197.000000	23.607762
2196.000000	23.581479
2195.000000	23.549940
2194.000000	23.549725
2193.000000	23.520868
2192.000000	23.518293
2191.000000	23.491044
2190.000000	23.452103
2189.000000	23.440517
2188.000000	23.441375
2187.000000	23.430862
2186.000000	23.408977
2185.000000	23.403399
2184.000000	23.363814
2183.000000	23.351906
2182.000000	23.335385
2181.000000	23.301700
2180.000000	23.291080
2179.000000	23.294727
2178.000000	23.277670
2177.000000	23.283785
2176.000000	23.267479
2175.000000	23.261900
2174.000000	23.244414
2173.000000	23.268444
2172.000000	23.284214
2171.000000	23.285930
2170.000000	23.300735
2169.000000	23.328841
2168.000000	23.353837
2167.000000	23.391491
2166.000000	23.420885
2165.000000	23.475060
2164.000000	23.520009
2163.000000	23.545541
2162.000000	23.610659
2161.000000	23.672021
2160.000000	23.740035
2159.000000	23.806440
2158.000000	23.897196
2157.000000	23.980551
2156.000000	24.067553
2155.000000	24.159060
2154.000000	24.269449
2153.000000	24.378764
2152.000000	24.504922
2151.000000	24.614667
2150.000000	24.711431
2149.000000	24.808946
2148.000000	24.920407
2147.000000	25.034550
2146.000000	25.158670
2145.000000	25.273242
2144.000000	25.369899
2143.000000	25.468272
2142.000000	25.584024
2141.000000	25.697738
2140.000000	25.819391
2139.000000	25.939756
2138.000000	26.029118
2137.000000	26.131782
2136.000000	26.235198
2135.000000	26.342260
2134.000000	26.435270
2133.000000	26.514762
2132.000000	26.621503
2131.000000	26.701746
2130.000000	26.784350
2129.000000	26.861482
2128.000000	26.917267
2127.000000	26.984529
2126.000000	27.053831
2125.000000	27.136220
2124.000000	27.186640
2123.000000	27.243390
2122.000000	27.294990
2121.000000	27.326315
2120.000000	27.393256
2119.000000	27.457193
2118.000000	27.485514
2117.000000	27.505790
2116.000000	27.527567
2115.000000	27.566723
2114.000000	27.607703
2113.000000	27.634630
2112.000000	27.660591
2111.000000	27.652223
2110.000000	27.668851
2109.000000	27.689019
2108.000000	27.710582
2107.000000	27.725172
2106.000000	27.712299
2105.000000	27.736543
2104.000000	27.769370
2103.000000	27.777952
2102.000000	27.797369
2101.000000	27.806703
2100.000000	27.812388
2099.000000	27.828909
2098.000000	27.833629
2097.000000	27.845430
2096.000000	27.883191
2095.000000	27.901107
2094.000000	27.925137
2093.000000	27.961611
2092.000000	27.974270
2091.000000	27.980706
2090.000000	28.012675
2089.000000	28.045502
2088.000000	28.044107
2087.000000	28.051938
2086.000000	28.055157
2085.000000	28.055479
2084.000000	28.061593
2083.000000	28.062452
2082.000000	28.051188
2081.000000	28.019219
2080.000000	27.975879
2079.000000	27.918486
2078.000000	27.880509
2077.000000	27.817967
2076.000000	27.751133
2075.000000	27.675288
2074.000000	27.581420
2073.000000	27.483798
2072.000000	27.420719
2071.000000	27.333610
2070.000000	27.232233
2069.000000	27.129783
2068.000000	27.011349
2067.000000	26.879505
2066.000000	26.766757
2065.000000	26.652828
2064.000000	26.534287
2063.000000	26.441921
2062.000000	26.359210
2061.000000	26.261588
2060.000000	26.185206
2059.000000	26.104427
2058.000000	26.036949
2057.000000	25.983632
2056.000000	25.949733
2055.000000	25.952522
2054.000000	25.963464
2053.000000	26.000046
2052.000000	26.046282
2051.000000	26.127277
2050.000000	26.221788
2049.000000	26.329494
2048.000000	26.465522
2047.000000	26.603266
2046.000000	26.752489
2045.000000	26.932929
2044.000000	27.087087
2043.000000	27.272354
2042.000000	27.437240
2041.000000	27.604699
2040.000000	27.759930
2039.000000	27.952278
2038.000000	28.087662
2037.000000	28.239459
2036.000000	28.408957
2035.000000	28.529859
2034.000000	28.671787
2033.000000	28.785930
2032.000000	28.902111
2031.000000	29.043824
2030.000000	29.164940
2029.000000	29.251620
2028.000000	29.331649
2027.000000	29.427233
2026.000000	29.521852
2025.000000	29.630953
2024.000000	29.687917
2023.000000	29.742414
2022.000000	29.813861
2021.000000	29.904617
2020.000000	29.963298
2019.000000	30.015649
2018.000000	30.055664
2017.000000	30.096965
2016.000000	30.128934
2015.000000	30.162405
2014.000000	30.178067
2013.000000	30.205315
2012.000000	30.221943
2011.000000	30.236104
2010.000000	30.240395
2009.000000	30.223553
2008.000000	30.196519
2007.000000	30.180320
2006.000000	30.167661
2005.000000	30.135371
2004.000000	30.101042
2003.000000	30.048047
2002.000000	30.011465
2001.000000	29.966731
2000.000000	29.915023
1999.000000	29.843684
1998.000000	29.768911
1997.000000	29.703150
1996.000000	29.636424
1995.000000	29.565299
1994.000000	29.481837
1993.000000	29.375204
1992.000000	29.303006
1991.000000	29.200878
1990.000000	29.112482
1989.000000	29.026553
1988.000000	28.896533
1987.000000	28.800090
1986.000000	28.703219
1985.000000	28.621152
1984.000000	28.518702
1983.000000	28.393831
1982.000000	28.285159
1981.000000	28.193008
1980.000000	28.126603
1979.000000	27.977810
1978.000000	27.900248
1977.000000	27.770765
1976.000000	27.681403
1975.000000	27.568011
1974.000000	27.489698
1973.000000	27.419217
1972.000000	27.313334
1971.000000	27.191360
1970.000000	27.097063
1969.000000	26.991395
1968.000000	26.925205
1967.000000	26.802051
1966.000000	26.719984
1965.000000	26.610775
1964.000000	26.536861
1963.000000	26.427331
1962.000000	26.333249
1961.000000	26.230156
1960.000000	26.116012
1959.000000	25.995862
1958.000000	25.903389
1957.000000	25.797184
1956.000000	25.706535
1955.000000	25.597220
1954.000000	25.514616
1953.000000	25.414097
1952.000000	25.312613
1951.000000	25.195681
1950.000000	25.077783
1949.000000	24.977371
1948.000000	24.905925
1947.000000	24.832547
1946.000000	24.742327
1945.000000	24.688903
1944.000000	24.624000
1943.000000	24.545473
1942.000000	24.445491
1941.000000	24.404296
1940.000000	24.346259
1939.000000	24.324160
1938.000000	24.316114
1937.000000	24.315900
1936.000000	24.311179
1935.000000	24.319225
1934.000000	24.297662
1933.000000	24.321263
1932.000000	24.314827
1931.000000	24.376940
1930.000000	24.418778
1929.000000	24.518975
1928.000000	24.615740
1927.000000	24.744258
1926.000000	24.885006
1925.000000	25.001616
1924.000000	25.078534
1923.000000	25.181949
1922.000000	25.375477
1921.000000	25.678107
1920.000000	25.989211
1919.000000	26.187996
1918.000000	26.424649
1917.000000	26.620967
1916.000000	26.779952
1915.000000	27.007809
1914.000000	27.409347
1913.000000	27.858625
1912.000000	28.270784
1911.000000	28.628554
1910.000000	28.967228
1909.000000	29.175775
1908.000000	29.489991
1907.000000	29.925429
1906.000000	30.477049
1905.000000	31.149248
1904.000000	31.704623
1903.000000	32.185332
1902.000000	32.648985
1901.000000	33.145035
1900.000000	33.842767
1899.000000	34.615270
1898.000000	35.244023
1897.000000	35.896912
1896.000000	36.360243
1895.000000	36.782057
1894.000000	37.325738
1893.000000	37.913296
1892.000000	38.605235
1891.000000	39.317663
1890.000000	39.956285
1889.000000	40.480978
1888.000000	41.038069
1887.000000	41.514916
1886.000000	41.982538
1885.000000	42.537376
1884.000000	43.101440
1883.000000	43.539561
1882.000000	43.952042
1881.000000	44.354010
1880.000000	44.614372
1879.000000	44.899515
1878.000000	45.196244
1877.000000	45.438905
1876.000000	45.676632
1875.000000	45.933990
1874.000000	46.194996
1873.000000	46.488721
1872.000000	46.786522
1871.000000	47.115864
1870.000000	47.435550
1869.000000	47.732386
1868.000000	47.993928
1867.000000	48.138431
1866.000000	48.157204
1865.000000	48.232406
1864.000000	48.259547
1863.000000	48.238521
1862.000000	48.286366
1861.000000	48.379805
1860.000000	48.523985
1859.000000	48.640381
1858.000000	48.756455
1857.000000	48.825327
1856.000000	48.793359
1855.000000	48.838844
1854.000000	48.952666
1853.000000	48.994289
1852.000000	49.009630
1851.000000	48.956957
1850.000000	48.837235
1849.000000	48.823718
1848.000000	49.030227
1847.000000	49.277501
1846.000000	49.297455
1845.000000	49.126455
1844.000000	48.880361
1843.000000	48.779198
1842.000000	48.877571
1841.000000	49.015959
1840.000000	49.019392
1839.000000	48.917157
1838.000000	48.851932
1837.000000	48.912437
1836.000000	49.002549
1835.000000	49.027223
1834.000000	48.918444
1833.000000	48.759888
1832.000000	48.660871
1831.000000	48.662266
1830.000000	48.725345
1829.000000	48.716977
1828.000000	48.636841
1827.000000	48.634374
1826.000000	48.682649
1825.000000	48.655507
1824.000000	48.577839
1823.000000	48.462516
1822.000000	48.474423
1821.000000	48.620750
1820.000000	48.726203
1819.000000	48.694878
1818.000000	48.606267
1817.000000	48.559065
1816.000000	48.610773
1815.000000	48.643063
1814.000000	48.608413
1813.000000	48.578697
1812.000000	48.567862
1811.000000	48.579877
1810.000000	48.531066
1809.000000	48.458010
1808.000000	48.429689
1807.000000	48.444171
1806.000000	48.433443
1805.000000	48.418317
1804.000000	48.387636
1803.000000	48.343223
1802.000000	48.334319
1801.000000	48.351376
1800.000000	48.338396
1799.000000	48.305676
1798.000000	48.265340
1797.000000	48.248497
1796.000000	48.247425
1795.000000	48.251179
1794.000000	48.223502
1793.000000	48.205908
1792.000000	48.177480
1791.000000	48.154737
1790.000000	48.144438
1789.000000	48.137787
1788.000000	48.147871
1787.000000	48.152377
1786.000000	48.150231
1785.000000	48.168898
1784.000000	48.175978
1783.000000	48.140255
1782.000000	48.134354
1781.000000	48.115903
1780.000000	48.099704
1779.000000	48.082325
1778.000000	48.033943
1777.000000	48.000794
1776.000000	47.944366
1775.000000	47.905103
1774.000000	47.866376
1773.000000	47.833227
1772.000000	47.793213
1771.000000	47.752233
1770.000000	47.718440
1769.000000	47.676388
1768.000000	47.621462
1767.000000	47.581233
1766.000000	47.548835
1765.000000	47.505924
1764.000000	47.508713
1763.000000	47.456898
1762.000000	47.461940
1761.000000	47.464944
1760.000000	47.469128
1759.000000	47.454645
1758.000000	47.418278
1757.000000	47.407658
1756.000000	47.439627
1755.000000	47.433405
1754.000000	47.416347
1753.000000	47.406478
1752.000000	47.385237
1751.000000	47.374938
1750.000000	47.347368
1749.000000	47.332457
1748.000000	47.279783
1747.000000	47.235478
1746.000000	47.168644
1745.000000	47.132921
1744.000000	47.059972
1743.000000	47.000863
1742.000000	46.927699
1741.000000	46.852820
1740.000000	46.786308
1739.000000	46.732562
1738.000000	46.658326
1737.000000	46.583661
1736.000000	46.525302
1735.000000	46.512107
1734.000000	46.458361
1733.000000	46.413948
1732.000000	46.375114
1731.000000	46.355804
1730.000000	46.334349
1729.000000	46.301951
1728.000000	46.260113
1727.000000	46.229432
1726.000000	46.196068
1725.000000	46.186950
1724.000000	46.204758
1723.000000	46.264511
1722.000000	46.315039
1721.000000	46.444415
1720.000000	46.596749
1719.000000	46.800361
1718.000000	46.995713
1717.000000	47.210697
1716.000000	47.408623
1715.000000	47.631009
1714.000000	47.835265
1713.000000	47.996718
1712.000000	48.149695
1711.000000	48.265554
1710.000000	48.391283
1709.000000	48.511756
1708.000000	48.610344
1707.000000	48.693376
1706.000000	48.778662
1705.000000	48.804945
1704.000000	48.851825
1703.000000	48.890874
1702.000000	48.902352
1701.000000	48.920053
1700.000000	48.938505
1699.000000	48.920804
1698.000000	48.921877
1697.000000	48.885617
1696.000000	48.886797
1695.000000	48.852790
1694.000000	48.813312
1693.000000	48.741115
1692.000000	48.661622
1691.000000	48.615493
1690.000000	48.585563
1689.000000	48.579448
1688.000000	48.631477
1687.000000	48.692411
1686.000000	48.820714
1685.000000	49.017568
1684.000000	49.206698
1683.000000	49.433697
1682.000000	49.651041
1681.000000	49.883618
1680.000000	50.121452
1679.000000	50.328068
1678.000000	50.535327
1677.000000	50.741514
1676.000000	50.935901
1675.000000	51.160754
1674.000000	51.305793
1673.000000	51.490095
1672.000000	51.691991
1671.000000	51.860524
1670.000000	52.065316
1669.000000	52.289204
1668.000000	52.455484
1667.000000	52.641932
1666.000000	52.781392
1665.000000	52.941879
1664.000000	53.088634
1663.000000	53.248477
1662.000000	53.346743
1661.000000	53.501223
1660.000000	53.611504
1659.000000	53.719746
1658.000000	53.800634
1657.000000	53.877659
1656.000000	53.936339
1655.000000	53.981825
1654.000000	54.041686
1653.000000	54.068290
1652.000000	54.092535
1651.000000	54.117209
1650.000000	54.101010
1649.000000	54.113669
1648.000000	54.102297
1647.000000	54.142204
1646.000000	54.136841
1645.000000	54.128902
1644.000000	54.122251
1643.000000	54.141561
1642.000000	54.126864
1641.000000	54.097577
1640.000000	54.112274
1639.000000	54.080413
1638.000000	54.068827
1637.000000	54.056490
1636.000000	54.043509
1635.000000	54.028383
1634.000000	54.026023
1633.000000	54.007786
1632.000000	53.971204
1631.000000	53.957580
1630.000000	53.938270
1629.000000	53.882164
1628.000000	53.829706
1627.000000	53.772527
1626.000000	53.745922
1625.000000	53.696145
1624.000000	53.679947
1623.000000	53.656882
1622.000000	53.624484
1621.000000	53.600025
1620.000000	53.569022
1619.000000	53.556685
1618.000000	53.537804
1617.000000	53.490495
1616.000000	53.464105
1615.000000	53.427845
1614.000000	53.389011
1613.000000	53.339448
1612.000000	53.293534
1611.000000	53.267358
1610.000000	53.247083
1609.000000	53.190548
1608.000000	53.115883
1607.000000	53.048727
1606.000000	52.980820
