PE UV       SUBTECH     SPECTRUM    ASCII       PEDS        4.00        
   -1
CICIMAUCR0254-1.ASC
24/06/26
12:06:38.00
24/06/26
12:06:38.00
Vinicio Soto Monge
C. resplendens. Sex F. Dorsal.
250,000000
1
Lambda 1050
1050L1511233
PerkinElmer UV WinLab 6.3.2.0749 / 2.02.05 Lambda 900 UV/VIS/NIR, Aug  7 2015 09:38:08

0
0
3350/servo 860,8/2
0
0
UV/VIS
1
1
1
DoubleDePol,CommonBeamDepol,RBeamAtt,SBeamAtt,60mm sphere, WB InGaAs Detector
0
0
0
0
Program
Program
3350/servo 860,8/2
3350/0,2 860,8/0,2
3350/0,2 860,8/0,2
0
15.00
 
 
 
0
 
860,8
319,2
860,8
Front
100
on
S:100 R:100
0
0
0
0
 
0
 
 
 
0
 
 
0
0
0
0
0
 
 
 
 
0
0


0
0
#HDR
-1
-1
#GR
nm
%R
1.0
0.0
2500,000000
-1,000000
2251
8
90,882800
5,814900
#DATA
2482.000000	8.386440
2481.000000	8.414968
2480.000000	8.416101
2479.000000	8.434742
2478.000000	8.414556
2477.000000	8.398387
2476.000000	8.394577
2475.000000	8.466772
2474.000000	8.428872
2473.000000	8.485207
2472.000000	8.488091
2471.000000	8.472334
2470.000000	8.536084
2469.000000	8.554004
2468.000000	8.534230
2467.000000	8.576765
2466.000000	8.563891
2465.000000	8.629599
2464.000000	8.659775
2463.000000	8.648034
2462.000000	8.691392
2461.000000	8.748140
2460.000000	8.777080
2459.000000	8.819408
2458.000000	8.875538
2457.000000	8.917764
2456.000000	8.936920
2455.000000	8.990371
2454.000000	9.051753
2453.000000	9.099952
2452.000000	9.166277
2451.000000	9.226011
2450.000000	9.279875
2449.000000	9.345273
2448.000000	9.409024
2447.000000	9.474628
2446.000000	9.557329
2445.000000	9.600069
2444.000000	9.687405
2443.000000	9.739517
2442.000000	9.792248
2441.000000	9.848377
2440.000000	9.929636
2439.000000	9.991121
2438.000000	10.057137
2437.000000	10.128612
2436.000000	10.207399
2435.000000	10.272694
2434.000000	10.321408
2433.000000	10.384438
2432.000000	10.456943
2431.000000	10.514102
2430.000000	10.574248
2429.000000	10.631819
2428.000000	10.691553
2427.000000	10.745725
2426.000000	10.800104
2425.000000	10.856542
2424.000000	10.914113
2423.000000	10.949748
2422.000000	10.995990
2421.000000	11.060770
2420.000000	11.123079
2419.000000	11.170351
2418.000000	11.193112
2417.000000	11.241208
2416.000000	11.280447
2415.000000	11.333487
2414.000000	11.379832
2413.000000	11.416393
2412.000000	11.446569
2411.000000	11.479938
2410.000000	11.515984
2409.000000	11.551619
2408.000000	11.591064
2407.000000	11.620107
2406.000000	11.633701
2405.000000	11.662332
2404.000000	11.699512
2403.000000	11.731747
2402.000000	11.760996
2401.000000	11.789525
2400.000000	11.823511
2399.000000	11.862750
2398.000000	11.887880
2397.000000	11.893441
2396.000000	11.919291
2395.000000	11.944833
2394.000000	11.946996
2393.000000	11.975421
2392.000000	12.000756
2391.000000	12.015484
2390.000000	12.055547
2389.000000	12.075630
2388.000000	12.076659
2387.000000	12.097257
2386.000000	12.125065
2385.000000	12.126712
2384.000000	12.132686
2383.000000	12.144942
2382.000000	12.165951
2381.000000	12.162862
2380.000000	12.152151
2379.000000	12.167290
2378.000000	12.171513
2377.000000	12.165951
2376.000000	12.165128
2375.000000	12.148443
2374.000000	12.134334
2373.000000	12.132892
2372.000000	12.124756
2371.000000	12.129287
2370.000000	12.128154
2369.000000	12.121460
2368.000000	12.113530
2367.000000	12.096227
2366.000000	12.080161
2365.000000	12.060181
2364.000000	12.052663
2363.000000	12.033095
2362.000000	11.999932
2361.000000	11.981600
2360.000000	11.954411
2359.000000	11.936285
2358.000000	11.902092
2357.000000	11.868518
2356.000000	11.845139
2355.000000	11.815272
2354.000000	11.800235
2353.000000	11.788907
2352.000000	11.755744
2351.000000	11.738957
2350.000000	11.734013
2349.000000	11.729276
2348.000000	11.737721
2347.000000	11.745651
2346.000000	11.762438
2345.000000	11.787568
2344.000000	11.809608
2343.000000	11.831956
2342.000000	11.853687
2341.000000	11.859866
2340.000000	11.886335
2339.000000	11.926810
2338.000000	11.946378
2337.000000	11.975627
2336.000000	11.994989
2335.000000	11.995298
2334.000000	11.991899
2333.000000	12.008377
2332.000000	12.017955
2331.000000	12.015587
2330.000000	12.007039
2329.000000	11.988912
2328.000000	11.981703
2327.000000	11.967079
2326.000000	11.934122
2325.000000	11.901680
2324.000000	11.866561
2323.000000	11.832986
2322.000000	11.790143
2321.000000	11.739266
2320.000000	11.682930
2319.000000	11.611250
2318.000000	11.529373
2317.000000	11.461297
2316.000000	11.406300
2315.000000	11.323497
2314.000000	11.237706
2313.000000	11.155521
2312.000000	11.077455
2311.000000	11.018442
2310.000000	10.955618
2309.000000	10.878685
2308.000000	10.815140
2307.000000	10.784964
2306.000000	10.758908
2305.000000	10.748609
2304.000000	10.719463
2303.000000	10.717712
2302.000000	10.738413
2301.000000	10.771885
2300.000000	10.796499
2299.000000	10.833781
2298.000000	10.895266
2297.000000	10.967565
2296.000000	11.020810
2295.000000	11.086518
2294.000000	11.156551
2293.000000	11.234308
2292.000000	11.279314
2291.000000	11.329470
2290.000000	11.377360
2289.000000	11.421440
2288.000000	11.471493
2287.000000	11.495489
2286.000000	11.534625
2285.000000	11.540702
2284.000000	11.547499
2283.000000	11.552031
2282.000000	11.550383
2281.000000	11.558828
2280.000000	11.544718
2279.000000	11.539054
2278.000000	11.512174
2277.000000	11.476951
2276.000000	11.461915
2275.000000	11.427722
2274.000000	11.411862
2273.000000	11.401151
2272.000000	11.377051
2271.000000	11.380141
2270.000000	11.400842
2269.000000	11.405682
2268.000000	11.437403
2267.000000	11.503111
2266.000000	11.548632
2265.000000	11.608469
2264.000000	11.697143
2263.000000	11.795498
2262.000000	11.935461
2261.000000	12.085929
2260.000000	12.214151
2259.000000	12.349067
2258.000000	12.563800
2257.000000	12.742075
2256.000000	12.897898
2255.000000	13.107791
2254.000000	13.281534
2253.000000	13.482467
2252.000000	13.651164
2251.000000	13.852200
2250.000000	14.028724
2249.000000	14.205351
2248.000000	14.368589
2247.000000	14.517924
2246.000000	14.668804
2245.000000	14.815976
2244.000000	14.932045
2243.000000	15.052852
2242.000000	15.154297
2241.000000	15.266555
2240.000000	15.349874
2239.000000	15.443079
2238.000000	15.517026
2237.000000	15.582424
2236.000000	15.642776
2235.000000	15.700759
2234.000000	15.757816
2233.000000	15.780370
2232.000000	15.829496
2231.000000	15.839280
2230.000000	15.852566
2229.000000	15.886038
2228.000000	15.896234
2227.000000	15.892114
2226.000000	15.904473
2225.000000	15.879549
2224.000000	15.881094
2223.000000	15.884596
2222.000000	15.846902
2221.000000	15.818785
2220.000000	15.793965
2219.000000	15.768629
2218.000000	15.721151
2217.000000	15.674394
2216.000000	15.654002
2215.000000	15.601683
2214.000000	15.564813
2213.000000	15.532062
2212.000000	15.499724
2211.000000	15.482421
2210.000000	15.452760
2209.000000	15.400751
2208.000000	15.395395
2207.000000	15.357289
2206.000000	15.317844
2205.000000	15.308678
2204.000000	15.306103
2203.000000	15.273250
2202.000000	15.242765
2201.000000	15.231333
2200.000000	15.208675
2199.000000	15.200539
2198.000000	15.172011
2197.000000	15.156459
2196.000000	15.136994
2195.000000	15.121443
2194.000000	15.103420
2193.000000	15.079114
2192.000000	15.057692
2191.000000	15.044510
2190.000000	15.035241
2189.000000	15.023294
2188.000000	15.013304
2187.000000	15.001048
2186.000000	14.965620
2185.000000	14.957484
2184.000000	14.948318
2183.000000	14.914640
2182.000000	14.890128
2181.000000	14.874062
2180.000000	14.857790
2179.000000	14.841929
2178.000000	14.832660
2177.000000	14.826893
2176.000000	14.816388
2175.000000	14.806604
2174.000000	14.808767
2173.000000	14.814225
2172.000000	14.819478
2171.000000	14.805574
2170.000000	14.819478
2169.000000	14.827511
2168.000000	14.832454
2167.000000	14.836986
2166.000000	14.830394
2165.000000	14.857275
2164.000000	14.901148
2163.000000	14.915670
2162.000000	14.938122
2161.000000	14.970872
2160.000000	14.980038
2159.000000	15.036374
2158.000000	15.072111
2157.000000	15.105377
2156.000000	15.156665
2155.000000	15.191785
2154.000000	15.244001
2153.000000	15.297555
2152.000000	15.338339
2151.000000	15.387156
2150.000000	15.431133
2149.000000	15.477993
2148.000000	15.519292
2147.000000	15.562238
2146.000000	15.625989
2145.000000	15.652045
2144.000000	15.706424
2143.000000	15.751945
2142.000000	15.773264
2141.000000	15.824862
2140.000000	15.865646
2139.000000	15.914154
2138.000000	15.950097
2137.000000	15.979964
2136.000000	16.004682
2135.000000	16.034137
2134.000000	16.071213
2133.000000	16.101492
2132.000000	16.114983
2131.000000	16.143614
2130.000000	16.167096
2129.000000	16.187385
2128.000000	16.199332
2127.000000	16.214883
2126.000000	16.202318
2125.000000	16.208292
2124.000000	16.205099
2123.000000	16.214059
2122.000000	16.220033
2121.000000	16.214265
2120.000000	16.212926
2119.000000	16.196963
2118.000000	16.185325
2117.000000	16.176880
2116.000000	16.173069
2115.000000	16.152884
2114.000000	16.120854
2113.000000	16.103860
2112.000000	16.091193
2111.000000	16.072243
2110.000000	16.044230
2109.000000	16.020954
2108.000000	16.000871
2107.000000	15.981715
2106.000000	15.966781
2105.000000	15.928675
2104.000000	15.895513
2103.000000	15.877489
2102.000000	15.860187
2101.000000	15.826304
2100.000000	15.802719
2099.000000	15.791802
2098.000000	15.769762
2097.000000	15.749473
2096.000000	15.729905
2095.000000	15.702098
2094.000000	15.697361
2093.000000	15.680779
2092.000000	15.659563
2091.000000	15.635464
2090.000000	15.614763
2089.000000	15.612497
2088.000000	15.604361
2087.000000	15.584484
2086.000000	15.560179
2085.000000	15.540096
2084.000000	15.526089
2083.000000	15.501680
2082.000000	15.467797
2081.000000	15.427631
2080.000000	15.399412
2079.000000	15.375415
2078.000000	15.331954
2077.000000	15.282416
2076.000000	15.239572
2075.000000	15.196934
2074.000000	15.141629
2073.000000	15.093636
2072.000000	15.042656
2071.000000	14.977670
2070.000000	14.906195
2069.000000	14.841105
2068.000000	14.788890
2067.000000	14.722255
2066.000000	14.655930
2065.000000	14.591150
2064.000000	14.512878
2063.000000	14.439961
2062.000000	14.368383
2061.000000	14.304015
2060.000000	14.241088
2059.000000	14.173630
2058.000000	14.112145
2057.000000	14.056016
2056.000000	14.011730
2055.000000	13.977847
2054.000000	13.947259
2053.000000	13.918216
2052.000000	13.898648
2051.000000	13.911522
2050.000000	13.923056
2049.000000	13.931502
2048.000000	13.969608
2047.000000	14.011215
2046.000000	14.060753
2045.000000	14.121105
2044.000000	14.173527
2043.000000	14.227803
2042.000000	14.298968
2041.000000	14.370443
2040.000000	14.462310
2039.000000	14.521529
2038.000000	14.579924
2037.000000	14.650884
2036.000000	14.704232
2035.000000	14.736571
2034.000000	14.790126
2033.000000	14.855215
2032.000000	14.905474
2031.000000	14.938019
2030.000000	14.956454
2029.000000	14.985806
2028.000000	15.019380
2027.000000	15.046673
2026.000000	15.066035
2025.000000	15.085294
2024.000000	15.088383
2023.000000	15.095799
2022.000000	15.104450
2021.000000	15.113925
2020.000000	15.095490
2019.000000	15.085603
2018.000000	15.082513
2017.000000	15.097961
2016.000000	15.081792
2015.000000	15.057486
2014.000000	15.046982
2013.000000	15.018247
2012.000000	14.978288
2011.000000	14.968092
2010.000000	14.940284
2009.000000	14.921437
2008.000000	14.879521
2007.000000	14.849654
2006.000000	14.825451
2005.000000	14.796717
2004.000000	14.753358
2003.000000	14.698362
2002.000000	14.661801
2001.000000	14.620502
2000.000000	14.576010
1999.000000	14.509273
1998.000000	14.454895
1997.000000	14.405048
1996.000000	14.345108
1995.000000	14.277238
1994.000000	14.226361
1993.000000	14.141497
1992.000000	14.055707
1991.000000	13.983305
1990.000000	13.933046
1989.000000	13.872489
1988.000000	13.769808
1987.000000	13.714297
1986.000000	13.638393
1985.000000	13.558473
1984.000000	13.460118
1983.000000	13.418717
1982.000000	13.334265
1981.000000	13.239515
1980.000000	13.164332
1979.000000	13.069582
1978.000000	13.004801
1977.000000	12.914995
1976.000000	12.837340
1975.000000	12.746092
1974.000000	12.670394
1973.000000	12.597581
1972.000000	12.514674
1971.000000	12.451439
1970.000000	12.374093
1969.000000	12.296851
1968.000000	12.246489
1967.000000	12.155446
1966.000000	12.083560
1965.000000	12.007450
1964.000000	11.945245
1963.000000	11.880670
1962.000000	11.799927
1961.000000	11.730100
1960.000000	11.681592
1959.000000	11.598273
1958.000000	11.546160
1957.000000	11.463975
1956.000000	11.426589
1955.000000	11.367679
1954.000000	11.298573
1953.000000	11.231321
1952.000000	11.189919
1951.000000	11.154182
1950.000000	11.081471
1949.000000	11.029771
1948.000000	10.980748
1947.000000	10.931210
1946.000000	10.906801
1945.000000	10.857984
1944.000000	10.820496
1943.000000	10.783419
1942.000000	10.762616
1941.000000	10.739031
1940.000000	10.737177
1939.000000	10.732131
1938.000000	10.684035
1937.000000	10.696702
1936.000000	10.688360
1935.000000	10.715961
1934.000000	10.718639
1933.000000	10.739031
1932.000000	10.736456
1931.000000	10.770031
1930.000000	10.809270
1929.000000	10.843050
1928.000000	10.899695
1927.000000	10.952940
1926.000000	11.038422
1925.000000	11.116591
1924.000000	11.178076
1923.000000	11.240590
1922.000000	11.322982
1921.000000	11.421131
1920.000000	11.548735
1919.000000	11.676339
1918.000000	11.798073
1917.000000	11.921042
1916.000000	12.048852
1915.000000	12.167084
1914.000000	12.301795
1913.000000	12.475950
1912.000000	12.704175
1911.000000	12.906652
1910.000000	13.071642
1909.000000	13.237661
1908.000000	13.403474
1907.000000	13.604407
1906.000000	13.834485
1905.000000	14.100404
1904.000000	14.385892
1903.000000	14.650266
1902.000000	14.934517
1901.000000	15.204144
1900.000000	15.521248
1899.000000	15.915287
1898.000000	16.283474
1897.000000	16.651456
1896.000000	16.999046
1895.000000	17.325523
1894.000000	17.637375
1893.000000	18.010815
1892.000000	18.426378
1891.000000	18.920625
1890.000000	19.446284
1889.000000	19.920036
1888.000000	20.374014
1887.000000	20.866613
1886.000000	21.326770
1885.000000	21.829977
1884.000000	22.338231
1883.000000	22.895713
1882.000000	23.392844
1881.000000	23.888224
1880.000000	24.377115
1879.000000	24.805552
1878.000000	25.229663
1877.000000	25.697853
1876.000000	26.131852
1875.000000	26.513222
1874.000000	26.922502
1873.000000	27.323853
1872.000000	27.722319
1871.000000	28.085152
1870.000000	28.434698
1869.000000	28.754172
1868.000000	29.080649
1867.000000	29.338020
1866.000000	29.557284
1865.000000	29.735971
1864.000000	29.929798
1863.000000	30.109823
1862.000000	30.250610
1861.000000	30.421882
1860.000000	30.591609
1859.000000	30.748359
1858.000000	30.876581
1857.000000	31.006863
1856.000000	31.111603
1855.000000	31.186991
1854.000000	31.275562
1853.000000	31.357130
1852.000000	31.404608
1851.000000	31.464651
1850.000000	31.510379
1849.000000	31.551471
1848.000000	31.596478
1847.000000	31.627787
1846.000000	31.648076
1845.000000	31.613265
1844.000000	31.611411
1843.000000	31.618415
1842.000000	31.658787
1841.000000	31.691846
1840.000000	31.687521
1839.000000	31.676398
1838.000000	31.642823
1837.000000	31.633966
1836.000000	31.612544
1835.000000	31.591740
1834.000000	31.554664
1833.000000	31.520575
1832.000000	31.492046
1831.000000	31.463209
1830.000000	31.447967
1829.000000	31.418100
1828.000000	31.380921
1827.000000	31.326748
1826.000000	31.280094
1825.000000	31.247034
1824.000000	31.203367
1823.000000	31.182769
1822.000000	31.181430
1821.000000	31.201410
1820.000000	31.180194
1819.000000	31.135291
1818.000000	31.092756
1817.000000	31.065670
1816.000000	31.051251
1815.000000	31.051457
1814.000000	31.040746
1813.000000	31.019736
1812.000000	31.004185
1811.000000	30.971331
1810.000000	30.930341
1809.000000	30.902431
1808.000000	30.879053
1807.000000	30.852275
1806.000000	30.829412
1805.000000	30.792953
1804.000000	30.748153
1803.000000	30.703043
1802.000000	30.670293
1801.000000	30.649386
1800.000000	30.605924
1799.000000	30.548044
1798.000000	30.492533
1797.000000	30.457825
1796.000000	30.435785
1795.000000	30.404374
1794.000000	30.367709
1793.000000	30.322188
1792.000000	30.284082
1791.000000	30.256893
1790.000000	30.223627
1789.000000	30.185727
1788.000000	30.151843
1787.000000	30.128156
1786.000000	30.099525
1785.000000	30.069761
1784.000000	30.025681
1783.000000	29.977070
1782.000000	29.934020
1781.000000	29.883143
1780.000000	29.836695
1779.000000	29.796014
1778.000000	29.747506
1777.000000	29.677164
1776.000000	29.625876
1775.000000	29.573351
1774.000000	29.503730
1773.000000	29.441215
1772.000000	29.368814
1771.000000	29.297854
1770.000000	29.215462
1769.000000	29.128951
1768.000000	29.033994
1767.000000	28.948513
1766.000000	28.875597
1765.000000	28.802783
1764.000000	28.754687
1763.000000	28.739547
1762.000000	28.739444
1761.000000	28.741504
1760.000000	28.758600
1759.000000	28.785481
1758.000000	28.835740
1757.000000	28.888264
1756.000000	28.942437
1755.000000	29.001656
1754.000000	29.056446
1753.000000	29.111134
1752.000000	29.154389
1751.000000	29.188788
1750.000000	29.225452
1749.000000	29.231837
1748.000000	29.217419
1747.000000	29.206502
1746.000000	29.198160
1745.000000	29.159333
1744.000000	29.097539
1743.000000	29.038629
1742.000000	28.950058
1741.000000	28.845936
1740.000000	28.719155
1739.000000	28.582179
1738.000000	28.437170
1737.000000	28.298031
1736.000000	28.150241
1735.000000	28.023770
1734.000000	27.918823
1733.000000	27.803063
1732.000000	27.715625
1731.000000	27.685037
1730.000000	27.681124
1729.000000	27.694615
1728.000000	27.731588
1727.000000	27.797502
1726.000000	27.861767
1725.000000	27.927681
1724.000000	27.981956
1723.000000	28.041690
1722.000000	28.099776
1721.000000	28.191952
1720.000000	28.274343
1719.000000	28.365283
1718.000000	28.472392
1717.000000	28.590109
1716.000000	28.695159
1715.000000	28.815348
1714.000000	28.934095
1713.000000	29.049649
1712.000000	29.177871
1711.000000	29.250582
1710.000000	29.362840
1709.000000	29.438949
1708.000000	29.496418
1707.000000	29.543587
1706.000000	29.568510
1705.000000	29.609088
1704.000000	29.636792
1703.000000	29.632570
1702.000000	29.624640
1701.000000	29.609088
1700.000000	29.582929
1699.000000	29.509703
1698.000000	29.464903
1697.000000	29.399298
1696.000000	29.382614
1695.000000	29.340388
1694.000000	29.321953
1693.000000	29.318761
1692.000000	29.360574
1691.000000	29.414850
1690.000000	29.472936
1689.000000	29.544926
1688.000000	29.609088
1687.000000	29.704354
1686.000000	29.768619
1685.000000	29.853997
1684.000000	29.949572
1683.000000	30.055857
1682.000000	30.193451
1681.000000	30.369460
1680.000000	30.598406
1679.000000	30.852687
1678.000000	31.149812
1677.000000	31.429944
1676.000000	31.750653
1675.000000	32.000918
1674.000000	32.240575
1673.000000	32.454793
1672.000000	32.664068
1671.000000	32.855319
1670.000000	33.025046
1669.000000	33.163876
1668.000000	33.288390
1667.000000	33.392719
1666.000000	33.492928
1665.000000	33.588193
1664.000000	33.659462
1663.000000	33.716518
1662.000000	33.799116
1661.000000	33.849581
1660.000000	33.895823
1659.000000	33.952364
1658.000000	34.012819
1657.000000	34.021573
1656.000000	34.058443
1655.000000	34.078526
1654.000000	34.076364
1653.000000	34.069257
1652.000000	34.056796
1651.000000	34.072862
1650.000000	34.062460
1649.000000	34.044025
1648.000000	34.029812
1647.000000	33.986866
1646.000000	33.964208
1645.000000	33.924248
1644.000000	33.896647
1643.000000	33.860806
1642.000000	33.799837
1641.000000	33.760392
1640.000000	33.715694
1639.000000	33.689535
1638.000000	33.632994
1637.000000	33.596638
1636.000000	33.554001
1635.000000	33.496532
1634.000000	33.446685
1633.000000	33.394779
1632.000000	33.321347
1631.000000	33.276238
1630.000000	33.200952
1629.000000	33.145544
1628.000000	33.085810
1627.000000	33.005478
1626.000000	32.942140
1625.000000	32.866545
1624.000000	32.805781
1623.000000	32.722257
1622.000000	32.656858
1621.000000	32.600626
1620.000000	32.543055
1619.000000	32.488368
1618.000000	32.405358
1617.000000	32.331205
1616.000000	32.277960
1615.000000	32.208648
1614.000000	32.155711
1613.000000	32.088150
1612.000000	32.031403
1611.000000	31.973832
1610.000000	31.905756
1609.000000	31.829646
1608.000000	31.757554
1607.000000	31.689580
1606.000000	31.627993
1605.000000	31.559505
