PE UV       SUBTECH     SPECTRUM    ASCII       PEDS        4.00        
   -1
CICIMAUCR0213-3.Sample.ASC
24/06/13
14:28:28.00
24/06/13
14:28:28.00
Vinicio Soto Monge
C. resplendens. Sex M. Ventral 
250,000000
1
Lambda 1050
1050L1511233
PerkinElmer UV WinLab 6.3.2.0749 / 2.02.05 Lambda 900 UV/VIS/NIR, Aug  7 2015 09:38:08

0
0
3350/servo 860,8/2
0
0
UV/VIS
1
1
1
DoubleDePol,CommonBeamDepol,RBeamAtt,SBeamAtt,60mm sphere, WB InGaAs Detector
0
0
0
0
Program
Program
3350/servo 860,8/2
3350/0,2 860,8/0,2
3350/0,2 860,8/0,2
0
15.00
 
 
 
0
 
860,8
319,2
860,8
Front
100
on
S:100 R:100
0
0
0
0
 
0
 
 
 
0
 
 
0
0
0
0
0
 
 
 
 
0
0


0
0
#HDR
-1
-1
#GR
nm
%R
1.0
0.0
2500,000000
-1,000000
2251
8
59,020700
4,209200
#DATA
2482.000000	5.135088
2481.000000	5.221646
2480.000000	5.174423
2479.000000	5.159522
2478.000000	5.149989
2477.000000	5.137608
2476.000000	5.175957
2475.000000	5.105943
2474.000000	5.148017
2473.000000	5.155029
2472.000000	5.115037
2471.000000	5.087207
2470.000000	5.106162
2469.000000	5.115147
2468.000000	5.104190
2467.000000	5.138375
2466.000000	5.093562
2465.000000	5.111750
2464.000000	5.073950
2463.000000	5.116790
2462.000000	5.114380
2461.000000	5.105834
2460.000000	5.163137
2459.000000	5.135417
2458.000000	5.132897
2457.000000	5.177929
2456.000000	5.157330
2455.000000	5.184832
2454.000000	5.190858
2453.000000	5.191734
2452.000000	5.203020
2451.000000	5.200609
2450.000000	5.224824
2449.000000	5.255174
2448.000000	5.270732
2447.000000	5.292646
2446.000000	5.294728
2445.000000	5.303603
2444.000000	5.317627
2443.000000	5.321024
2442.000000	5.349511
2441.000000	5.383148
2440.000000	5.361345
2439.000000	5.402432
2438.000000	5.424784
2437.000000	5.427304
2436.000000	5.450094
2435.000000	5.442972
2434.000000	5.488662
2433.000000	5.486032
2432.000000	5.517149
2431.000000	5.528215
2430.000000	5.541035
2429.000000	5.552539
2428.000000	5.570618
2427.000000	5.588697
2426.000000	5.585190
2425.000000	5.607652
2424.000000	5.611158
2423.000000	5.607761
2422.000000	5.623758
2421.000000	5.624087
2420.000000	5.645672
2419.000000	5.674269
2418.000000	5.669229
2417.000000	5.673392
2416.000000	5.689827
2415.000000	5.714151
2414.000000	5.715466
2413.000000	5.698593
2412.000000	5.716781
2411.000000	5.730257
2410.000000	5.740666
2409.000000	5.767839
2408.000000	5.774851
2407.000000	5.771455
2406.000000	5.770907
2405.000000	5.768058
2404.000000	5.798627
2403.000000	5.812433
2402.000000	5.795998
2401.000000	5.812433
2400.000000	5.825143
2399.000000	5.830183
2398.000000	5.844317
2397.000000	5.846070
2396.000000	5.834018
2395.000000	5.849686
2394.000000	5.847714
2393.000000	5.840811
2392.000000	5.857136
2391.000000	5.857246
2390.000000	5.874558
2389.000000	5.880365
2388.000000	5.874119
2387.000000	5.891321
2386.000000	5.889897
2385.000000	5.889240
2384.000000	5.897238
2383.000000	5.888473
2382.000000	5.894061
2381.000000	5.902826
2380.000000	5.897348
2379.000000	5.893622
2378.000000	5.882775
2377.000000	5.881789
2376.000000	5.898662
2375.000000	5.907976
2374.000000	5.906442
2373.000000	5.894718
2372.000000	5.881351
2371.000000	5.893951
2370.000000	5.881679
2369.000000	5.855164
2368.000000	5.842235
2367.000000	5.842673
2366.000000	5.843002
2365.000000	5.833251
2364.000000	5.821089
2363.000000	5.808488
2362.000000	5.811228
2361.000000	5.789972
2360.000000	5.768496
2359.000000	5.762032
2358.000000	5.749870
2357.000000	5.744173
2356.000000	5.734311
2355.000000	5.720725
2354.000000	5.706043
2353.000000	5.697059
2352.000000	5.709659
2351.000000	5.711741
2350.000000	5.709988
2349.000000	5.712508
2348.000000	5.721821
2347.000000	5.728724
2346.000000	5.729381
2345.000000	5.729929
2344.000000	5.740228
2343.000000	5.766743
2342.000000	5.772550
2341.000000	5.763456
2340.000000	5.782192
2339.000000	5.785699
2338.000000	5.790410
2337.000000	5.802353
2336.000000	5.794683
2335.000000	5.794683
2334.000000	5.796436
2333.000000	5.800928
2332.000000	5.805859
2331.000000	5.779344
2330.000000	5.764771
2329.000000	5.752828
2328.000000	5.758855
2327.000000	5.755677
2326.000000	5.737160
2325.000000	5.726313
2324.000000	5.714589
2323.000000	5.705605
2322.000000	5.677775
2321.000000	5.650493
2320.000000	5.644028
2319.000000	5.633181
2318.000000	5.604036
2317.000000	5.586067
2316.000000	5.571385
2315.000000	5.529311
2314.000000	5.516820
2313.000000	5.505097
2312.000000	5.490415
2311.000000	5.458092
2310.000000	5.428290
2309.000000	5.412512
2308.000000	5.402104
2307.000000	5.397721
2306.000000	5.402980
2305.000000	5.385011
2304.000000	5.375260
2303.000000	5.394543
2302.000000	5.398597
2301.000000	5.421935
2300.000000	5.430591
2299.000000	5.442534
2298.000000	5.460393
2297.000000	5.468173
2296.000000	5.489648
2295.000000	5.504878
2294.000000	5.520984
2293.000000	5.541035
2292.000000	5.556922
2291.000000	5.570508
2290.000000	5.564482
2289.000000	5.584971
2288.000000	5.587491
2287.000000	5.588258
2286.000000	5.580479
2285.000000	5.579383
2284.000000	5.594394
2283.000000	5.585738
2282.000000	5.592422
2281.000000	5.587382
2280.000000	5.550348
2279.000000	5.549910
2278.000000	5.522518
2277.000000	5.535228
2276.000000	5.526682
2275.000000	5.512876
2274.000000	5.509370
2273.000000	5.517040
2272.000000	5.508384
2271.000000	5.482745
2270.000000	5.483183
2269.000000	5.485156
2268.000000	5.488771
2267.000000	5.510356
2266.000000	5.534570
2265.000000	5.531612
2264.000000	5.581027
2263.000000	5.610939
2262.000000	5.604584
2261.000000	5.678870
2260.000000	5.723903
2259.000000	5.781206
2258.000000	5.843112
2257.000000	5.894937
2256.000000	5.958924
2255.000000	6.042962
2254.000000	6.101800
2253.000000	6.172252
2252.000000	6.253770
2251.000000	6.310416
2250.000000	6.353366
2249.000000	6.429735
2248.000000	6.508295
2247.000000	6.547958
2246.000000	6.617862
2245.000000	6.662565
2244.000000	6.720965
2243.000000	6.781446
2242.000000	6.826916
2241.000000	6.877536
2240.000000	6.917857
2239.000000	6.963985
2238.000000	7.006606
2237.000000	7.040024
2236.000000	7.053063
2235.000000	7.085166
2234.000000	7.093931
2233.000000	7.123295
2232.000000	7.140169
2231.000000	7.145318
2230.000000	7.185530
2229.000000	7.203389
2228.000000	7.209415
2227.000000	7.201307
2226.000000	7.222783
2225.000000	7.213141
2224.000000	7.191337
2223.000000	7.207334
2222.000000	7.210292
2221.000000	7.191994
2220.000000	7.189912
2219.000000	7.194843
2218.000000	7.174025
2217.000000	7.176216
2216.000000	7.172929
2215.000000	7.147291
2214.000000	7.163397
2213.000000	7.146743
2212.000000	7.125049
2211.000000	7.098314
2210.000000	7.097766
2209.000000	7.112558
2208.000000	7.101272
2207.000000	7.106641
2206.000000	7.083303
2205.000000	7.075853
2204.000000	7.059637
2203.000000	7.059746
2202.000000	7.054706
2201.000000	7.045612
2200.000000	7.042325
2199.000000	7.038710
2198.000000	7.034984
2197.000000	7.058651
2196.000000	7.035203
2195.000000	7.018001
2194.000000	7.020850
2193.000000	7.013619
2192.000000	7.021727
2191.000000	7.015591
2190.000000	7.012742
2189.000000	6.993568
2188.000000	6.992472
2187.000000	7.001566
2186.000000	7.001457
2185.000000	6.996307
2184.000000	6.980529
2183.000000	6.959602
2182.000000	6.966505
2181.000000	6.956315
2180.000000	6.958287
2179.000000	6.959383
2178.000000	6.951494
2177.000000	6.977352
2176.000000	6.951165
2175.000000	6.929033
2174.000000	6.944153
2173.000000	6.937360
2172.000000	6.931115
2171.000000	6.917309
2170.000000	6.920486
2169.000000	6.944372
2168.000000	6.939770
2167.000000	6.949412
2166.000000	6.957739
2165.000000	6.945577
2164.000000	6.976037
2163.000000	6.990719
2162.000000	7.005730
2161.000000	6.994883
2160.000000	7.008469
2159.000000	7.030492
2158.000000	7.041339
2157.000000	7.051310
2156.000000	7.065663
2155.000000	7.071799
2154.000000	7.104779
2153.000000	7.118694
2152.000000	7.131513
2151.000000	7.145647
2150.000000	7.154084
2149.000000	7.172053
2148.000000	7.179832
2147.000000	7.200979
2146.000000	7.205361
2145.000000	7.246778
2144.000000	7.235164
2143.000000	7.262227
2142.000000	7.274827
2141.000000	7.295864
2140.000000	7.316682
2139.000000	7.328077
2138.000000	7.336075
2137.000000	7.340019
2136.000000	7.334870
2135.000000	7.339033
2134.000000	7.355688
2133.000000	7.355249
2132.000000	7.366973
2131.000000	7.377491
2130.000000	7.366425
2129.000000	7.370150
2128.000000	7.366425
2127.000000	7.388229
2126.000000	7.391407
2125.000000	7.377491
2124.000000	7.380669
2123.000000	7.360947
2122.000000	7.359303
2121.000000	7.365987
2120.000000	7.352948
2119.000000	7.339800
2118.000000	7.333007
2117.000000	7.331583
2116.000000	7.318763
2115.000000	7.301671
2114.000000	7.300466
2113.000000	7.295206
2112.000000	7.283045
2111.000000	7.270883
2110.000000	7.248202
2109.000000	7.234835
2108.000000	7.222783
2107.000000	7.206895
2106.000000	7.193309
2105.000000	7.183448
2104.000000	7.165479
2103.000000	7.170190
2102.000000	7.162411
2101.000000	7.145318
2100.000000	7.125377
2099.000000	7.112887
2098.000000	7.116502
2097.000000	7.099739
2096.000000	7.079907
2095.000000	7.081769
2094.000000	7.066649
2093.000000	7.059856
2092.000000	7.063253
2091.000000	7.042435
2090.000000	7.016358
2089.000000	7.002662
2088.000000	6.999375
2087.000000	6.996636
2086.000000	6.992691
2085.000000	6.980639
2084.000000	6.963766
2083.000000	6.957739
2082.000000	6.956753
2081.000000	6.936812
2080.000000	6.922130
2079.000000	6.909092
2078.000000	6.886411
2077.000000	6.867018
2076.000000	6.856937
2075.000000	6.852445
2074.000000	6.833600
2073.000000	6.808180
2072.000000	6.779583
2071.000000	6.772571
2070.000000	6.758327
2069.000000	6.737509
2068.000000	6.716472
2067.000000	6.712090
2066.000000	6.695545
2065.000000	6.663442
2064.000000	6.642186
2063.000000	6.624107
2062.000000	6.600769
2061.000000	6.594305
2060.000000	6.591018
2059.000000	6.579842
2058.000000	6.563845
2057.000000	6.553108
2056.000000	6.549163
2055.000000	6.541165
2054.000000	6.559024
2053.000000	6.578527
2052.000000	6.578965
2051.000000	6.573049
2050.000000	6.580280
2049.000000	6.600769
2048.000000	6.619834
2047.000000	6.635173
2046.000000	6.651170
2045.000000	6.683273
2044.000000	6.703982
2043.000000	6.726881
2042.000000	6.755478
2041.000000	6.774652
2040.000000	6.796785
2039.000000	6.811358
2038.000000	6.834695
2037.000000	6.851021
2036.000000	6.868990
2035.000000	6.902956
2034.000000	6.913365
2033.000000	6.926622
2032.000000	6.932320
2031.000000	6.963437
2030.000000	6.981625
2029.000000	6.986008
2028.000000	6.998718
2027.000000	7.001566
2026.000000	7.016358
2025.000000	7.015591
2024.000000	7.021946
2023.000000	7.022822
2022.000000	7.034327
2021.000000	7.035532
2020.000000	7.030382
2019.000000	7.034765
2018.000000	7.033341
2017.000000	7.038929
2016.000000	7.034546
2015.000000	7.034217
2014.000000	7.022494
2013.000000	7.009784
2012.000000	6.997293
2011.000000	6.989404
2010.000000	6.997293
2009.000000	6.979105
2008.000000	6.986994
2007.000000	6.960479
2006.000000	6.942838
2005.000000	6.927937
2004.000000	6.914899
2003.000000	6.906900
2002.000000	6.875235
2001.000000	6.857704
2000.000000	6.831408
1999.000000	6.814316
1998.000000	6.792731
1997.000000	6.770818
1996.000000	6.738714
1995.000000	6.717568
1994.000000	6.717787
1993.000000	6.681082
1992.000000	6.645582
1991.000000	6.627723
1990.000000	6.614356
1989.000000	6.597044
1988.000000	6.556833
1987.000000	6.542479
1986.000000	6.509609
1985.000000	6.504460
1984.000000	6.467207
1983.000000	6.421956
1982.000000	6.389414
1981.000000	6.378019
1980.000000	6.348436
1979.000000	6.309320
1978.000000	6.307129
1977.000000	6.285983
1976.000000	6.236458
1975.000000	6.217393
1974.000000	6.199424
1973.000000	6.178059
1972.000000	6.164144
1971.000000	6.122946
1970.000000	6.101143
1969.000000	6.069916
1968.000000	6.054577
1967.000000	6.027294
1966.000000	6.030143
1965.000000	5.982153
1964.000000	5.993328
1963.000000	5.972730
1962.000000	5.941284
1961.000000	5.922548
1960.000000	5.915426
1959.000000	5.864916
1958.000000	5.847385
1957.000000	5.832703
1956.000000	5.846399
1955.000000	5.803996
1954.000000	5.811666
1953.000000	5.777481
1952.000000	5.782850
1951.000000	5.756882
1950.000000	5.736722
1949.000000	5.719629
1948.000000	5.699360
1947.000000	5.705276
1946.000000	5.695963
1945.000000	5.688622
1944.000000	5.676241
1943.000000	5.673830
1942.000000	5.646439
1941.000000	5.640631
1940.000000	5.646000
1939.000000	5.630770
1938.000000	5.639317
1937.000000	5.632633
1936.000000	5.632852
1935.000000	5.642385
1934.000000	5.648082
1933.000000	5.657724
1932.000000	5.655861
1931.000000	5.672187
1930.000000	5.676789
1929.000000	5.694429
1928.000000	5.719849
1927.000000	5.726751
1926.000000	5.747131
1925.000000	5.765100
1924.000000	5.781097
1923.000000	5.795998
1922.000000	5.821308
1921.000000	5.858889
1920.000000	5.900196
1919.000000	5.913344
1918.000000	5.939093
1917.000000	5.989494
1916.000000	6.038580
1915.000000	6.077805
1914.000000	6.106840
1913.000000	6.173019
1912.000000	6.211148
1911.000000	6.284339
1910.000000	6.333206
1909.000000	6.386894
1908.000000	6.433022
1907.000000	6.495913
1906.000000	6.560120
1905.000000	6.644158
1904.000000	6.732798
1903.000000	6.808509
1902.000000	6.903175
1901.000000	7.002662
1900.000000	7.082865
1899.000000	7.209087
1898.000000	7.316243
1897.000000	7.453641
1896.000000	7.585669
1895.000000	7.690306
1894.000000	7.785301
1893.000000	7.942092
1892.000000	8.093623
1891.000000	8.292926
1890.000000	8.468453
1889.000000	8.673562
1888.000000	8.859169
1887.000000	9.065046
1886.000000	9.293165
1885.000000	9.574315
1884.000000	9.825443
1883.000000	10.160609
1882.000000	10.485695
1881.000000	10.823381
1880.000000	11.170381
1879.000000	11.507738
1878.000000	11.842028
1877.000000	12.199656
1876.000000	12.545669
1875.000000	12.894641
1874.000000	13.261581
1873.000000	13.612635
1872.000000	13.943747
1871.000000	14.262588
1870.000000	14.603013
1869.000000	14.913308
1868.000000	15.223931
1867.000000	15.484920
1866.000000	15.694303
1865.000000	15.899084
1864.000000	16.101893
1863.000000	16.262300
1862.000000	16.433115
1861.000000	16.594288
1860.000000	16.752942
1859.000000	16.869960
1858.000000	17.011411
1857.000000	17.119115
1856.000000	17.238434
1855.000000	17.301764
1854.000000	17.361916
1853.000000	17.423932
1852.000000	17.461075
1851.000000	17.503039
1850.000000	17.538320
1849.000000	17.536567
1848.000000	17.540292
1847.000000	17.544236
1846.000000	17.555084
1845.000000	17.545661
1844.000000	17.528349
1843.000000	17.520460
1842.000000	17.507970
1841.000000	17.517831
1840.000000	17.524514
1839.000000	17.504573
1838.000000	17.481564
1837.000000	17.463376
1836.000000	17.429300
1835.000000	17.398074
1834.000000	17.374626
1833.000000	17.342633
1832.000000	17.285986
1831.000000	17.240297
1830.000000	17.203373
1829.000000	17.156040
1828.000000	17.095778
1827.000000	17.027408
1826.000000	16.973829
1825.000000	16.937672
1824.000000	16.888586
1823.000000	16.856373
1822.000000	16.810245
1821.000000	16.776170
1820.000000	16.765761
1819.000000	16.744067
1818.000000	16.707252
1817.000000	16.677012
1816.000000	16.662330
1815.000000	16.656523
1814.000000	16.652688
1813.000000	16.649401
1812.000000	16.625953
1811.000000	16.594727
1810.000000	16.579716
1809.000000	16.538519
1808.000000	16.496007
1807.000000	16.465437
1806.000000	16.438155
1805.000000	16.398382
1804.000000	16.355980
1803.000000	16.318179
1802.000000	16.268216
1801.000000	16.226909
1800.000000	16.177933
1799.000000	16.119862
1798.000000	16.060477
1797.000000	16.020923
1796.000000	15.984766
1795.000000	15.944993
1794.000000	15.908178
1793.000000	15.854271
1792.000000	15.805185
1791.000000	15.756428
1790.000000	15.704931
1789.000000	15.660447
1788.000000	15.606540
1787.000000	15.569835
1786.000000	15.521187
1785.000000	15.467061
1784.000000	15.406689
1783.000000	15.335470
1782.000000	15.284083
1781.000000	15.231162
1780.000000	15.159177
1779.000000	15.106584
1778.000000	15.057498
1777.000000	14.976857
1776.000000	14.907829
1775.000000	14.841322
1774.000000	14.769665
1773.000000	14.698556
1772.000000	14.613422
1771.000000	14.529822
1770.000000	14.448085
1769.000000	14.360103
1768.000000	14.279680
1767.000000	14.194437
1766.000000	14.136257
1765.000000	14.080925
1764.000000	14.034907
1763.000000	14.001708
1762.000000	13.977822
1761.000000	13.993929
1760.000000	14.017048
1759.000000	14.027895
1758.000000	14.088705
1757.000000	14.141297
1756.000000	14.211091
1755.000000	14.280776
1754.000000	14.331725
1753.000000	14.363718
1752.000000	14.387385
1751.000000	14.412585
1750.000000	14.416091
1749.000000	14.405573
1748.000000	14.394726
1747.000000	14.361856
1746.000000	14.308935
1745.000000	14.246481
1744.000000	14.186000
1743.000000	14.076543
1742.000000	13.980562
1741.000000	13.874720
1740.000000	13.731515
1739.000000	13.588201
1738.000000	13.413661
1737.000000	13.253912
1736.000000	13.134483
1735.000000	13.036969
1734.000000	12.941426
1733.000000	12.877877
1732.000000	12.873385
1731.000000	12.908117
1730.000000	12.935838
1729.000000	12.995333
1728.000000	13.056800
1727.000000	13.118267
1726.000000	13.200224
1725.000000	13.296862
1724.000000	13.367423
1723.000000	13.421988
1722.000000	13.450804
1721.000000	13.485099
1720.000000	13.519174
1719.000000	13.551058
1718.000000	13.587982
1717.000000	13.626988
1716.000000	13.695906
1715.000000	13.738637
1714.000000	13.800104
1713.000000	13.844041
1712.000000	13.910767
1711.000000	13.974426
1710.000000	14.022964
1709.000000	14.044878
1708.000000	14.047069
1707.000000	14.030743
1706.000000	14.006858
1705.000000	13.969605
1704.000000	13.949664
1703.000000	13.885238
1702.000000	13.842288
1701.000000	13.751237
1700.000000	13.652189
1699.000000	13.536376
1698.000000	13.440614
1697.000000	13.313735
1696.000000	13.238134
1695.000000	13.164395
1694.000000	13.123088
1693.000000	13.156287
1692.000000	13.211947
1691.000000	13.278564
1690.000000	13.376517
1689.000000	13.483455
1688.000000	13.604527
1687.000000	13.674540
1686.000000	13.728667
1685.000000	13.787066
1684.000000	13.836809
1683.000000	13.912411
1682.000000	14.051890
1681.000000	14.247248
1680.000000	14.538588
1679.000000	14.884601
1678.000000	15.290438
1677.000000	15.695727
1676.000000	16.127532
1675.000000	16.505539
1674.000000	16.836213
1673.000000	17.162833
1672.000000	17.443215
1671.000000	17.702561
1670.000000	17.874691
1669.000000	18.073227
1668.000000	18.246234
1667.000000	18.384069
1666.000000	18.509962
1665.000000	18.619091
1664.000000	18.701705
1663.000000	18.770842
1662.000000	18.852250
1661.000000	18.918648
1660.000000	18.956010
1659.000000	19.029092
1658.000000	19.037309
1657.000000	19.059880
1656.000000	19.084642
1655.000000	19.102940
1654.000000	19.080917
1653.000000	19.088258
1652.000000	19.088148
1651.000000	19.053854
1650.000000	19.043226
1649.000000	19.013314
1648.000000	18.977924
1647.000000	18.940561
1646.000000	18.878765
1645.000000	18.846881
1644.000000	18.805027
1643.000000	18.728330
1642.000000	18.681216
1641.000000	18.641443
1640.000000	18.583920
1639.000000	18.506127
1638.000000	18.464711
1637.000000	18.402148
1636.000000	18.330381
1635.000000	18.284144
1634.000000	18.190464
1633.000000	18.127244
1632.000000	18.064023
1631.000000	18.013403
1630.000000	17.919942
1629.000000	17.835137
1628.000000	17.778382
1627.000000	17.704643
1626.000000	17.638245
1625.000000	17.546428
1624.000000	17.457459
1623.000000	17.394020
1622.000000	17.339893
1621.000000	17.226163
1620.000000	17.187705
1619.000000	17.113418
1618.000000	17.053266
1617.000000	16.973391
1616.000000	16.899762
1615.000000	16.827228
1614.000000	16.768829
1613.000000	16.717332
1612.000000	16.642388
1611.000000	16.582674
1610.000000	16.512442
1609.000000	16.455248
1608.000000	16.394219
1607.000000	16.330670
1606.000000	16.253753
1605.000000	16.180015
1604.000000	16.131476
1603.000000	16.084582
1602.000000	15.997476
1601.000000	15.946965
1600.000000	15.879581
1599.000000	15.810554
1598.000000	15.745361
1597.000000	15.675567
1596.000000	15.627357
1595.000000	15.571369
1594.000000	15.517242
1593.000000	15.454679
1592.000000	15.388501
1591.000000	15.337662
1590.000000	15.284850
1589.000000	15.242667
1588.000000	15.195991
1587.000000	15.137592
1586.000000	15.091245
1585.000000	15.043035
1584.000000	15.005015
1583.000000	14.949355
1582.000000	14.912212
1581.000000	14.893586
1580.000000	14.843185
