PE UV       SUBTECH     SPECTRUM    ASCII       PEDS        4.00        
   -1
2-STRIGIDIA BELTI INBIO0004211063.ASC
23/11/17
10:41:59.00
23/11/17
10:41:59.00
Vinicio Soto Monge

250,000000
1
Lambda 1050
1050L1511233
PerkinElmer UV WinLab 6.3.2.0749 / 2.02.05 Lambda 900 UV/VIS/NIR, Aug  7 2015 09:38:08

0
0
3350/servo 860,8/2
0
0
UV/VIS
1
1
1
DoubleDePol,CommonBeamDepol,RBeamAtt,SBeamAtt,60mm sphere, WB InGaAs Detector
0
0
0
0
Program
Program
3350/servo 860,8/2
3350/0,4 860,8/0,4
3350/0,4 860,8/0,4
0
20.00
 
 
 
0
 
860,8
319,2
860,8
Front
100
on
S:100 R:100
0
0
0
0
 
0
 
 
 
0
 
 
0
0
0
0
0
 
 
 
 
0
0


0
0
#HDR
-1
-1
#GR
nm
%R
1.0
0.0
2200,000000
-1,000000
1951
8
108,797053
5,244670
#DATA
250.000000	2.143933
251.000000	2.140313
252.000000	2.104339
253.000000	2.092190
254.000000	2.092524
255.000000	2.061711
256.000000	2.071496
257.000000	2.041101
258.000000	2.048415
259.000000	2.045597
260.000000	2.042749
261.000000	2.023981
262.000000	2.005286
263.000000	2.026945
264.000000	1.996547
265.000000	1.997157
266.000000	2.011499
267.000000	1.975348
268.000000	1.988027
269.000000	1.970656
270.000000	1.971255
271.000000	1.972610
272.000000	1.982892
273.000000	1.978218
274.000000	1.927853
275.000000	1.942362
276.000000	1.936299
277.000000	1.956038
278.000000	1.945314
279.000000	1.952294
280.000000	1.952712
281.000000	1.942110
282.000000	1.945667
283.000000	1.927463
284.000000	1.923238
285.000000	1.924248
286.000000	1.920355
287.000000	1.934051
288.000000	1.908471
289.000000	1.926132
290.000000	1.905618
291.000000	1.921188
292.000000	1.920433
293.000000	1.904615
294.000000	1.901377
295.000000	1.898770
296.000000	1.883977
297.000000	1.894402
298.000000	1.900716
299.000000	1.900019
300.000000	1.921886
301.000000	1.906714
302.000000	1.892484
303.000000	1.891815
304.000000	1.901175
305.000000	1.918382
306.000000	1.883202
307.000000	1.868182
308.000000	1.891139
309.000000	1.897053
310.000000	1.854178
311.000000	1.856197
312.000000	1.843789
313.000000	1.858637
314.000000	1.852663
315.000000	1.828880
316.000000	1.853022
317.000000	1.942911
318.000000	1.971004
319.000000	1.930754
320.000000	1.939308
321.000000	1.890905
322.000000	1.974871
323.000000	1.861398
324.000000	1.934620
325.000000	1.944172
326.000000	1.965870
327.000000	1.907123
328.000000	1.874406
329.000000	1.857481
330.000000	1.898580
331.000000	1.870807
332.000000	1.877862
333.000000	1.849167
334.000000	1.880834
335.000000	1.874437
336.000000	1.887399
337.000000	1.912017
338.000000	1.905668
339.000000	1.874804
340.000000	1.889515
341.000000	1.895764
342.000000	1.881515
343.000000	1.875890
344.000000	1.888268
345.000000	1.882105
346.000000	1.883581
347.000000	1.879143
348.000000	1.886143
349.000000	1.873452
350.000000	1.865387
350.166136	22.863499
350.166136	17.035372
350.601937	22.903479
350.601937	17.232373
351.000000	1.894158
351.037728	22.937985
351.037728	17.294407
351.473509	22.914854
351.473509	17.407747
351.909281	17.394130
351.909281	22.937192
352.000000	1.895032
352.345042	22.965980
352.345042	17.386502
352.780794	17.345494
352.780794	22.971757
353.000000	1.866052
353.216536	17.371619
353.216536	22.980117
353.652267	22.990133
353.652267	17.407174
354.000000	1.870483
354.087989	22.985382
354.087989	17.319401
354.523701	23.008947
354.523701	17.257086
354.959403	22.966383
354.959403	17.267093
355.000000	1.898431
355.395095	17.339102
355.395095	22.995634
355.830777	17.281050
355.830777	23.002061
356.000000	1.879693
356.266449	17.219462
356.266449	23.016265
356.702110	23.029289
356.702110	17.104254
357.000000	1.882061
357.137762	23.087917
357.137762	17.025266
357.573404	17.046976
357.573404	23.063186
358.000000	1.892336
358.009035	22.996305
358.009035	16.997340
358.444656	22.992061
358.444656	17.092583
358.880268	17.145013
358.880268	23.001661
359.000000	1.882512
359.315869	17.153320
359.315869	23.025864
359.751459	23.017594
359.751459	17.103736
360.000000	1.866188
360.187040	17.153610
360.187040	23.037958
360.622610	23.060830
360.622610	17.211045
361.000000	1.872051
361.058170	23.072366
361.058170	17.257821
361.493720	23.073251
361.493720	17.201173
361.929260	17.202584
361.929260	23.083782
362.000000	1.861686
362.364789	17.135494
362.364789	23.149896
362.800308	17.050423
362.800308	23.119012
363.000000	1.876440
363.235816	23.127034
363.235816	16.977114
363.671314	23.147676
363.671314	17.042524
364.000000	1.877473
364.106802	23.169631
364.106802	17.052300
364.542279	23.187261
364.542279	17.091681
364.977746	23.229963
364.977746	17.056012
365.000000	1.861410
365.413203	17.158513
365.413203	23.240998
365.848649	17.082933
365.848649	23.227064
366.000000	1.864203
366.284084	23.189068
366.284084	17.070391
366.719509	23.186257
366.719509	17.013786
367.000000	1.884102
367.154924	23.186091
367.154924	17.120692
367.590328	17.600635
368.000000	1.857893
368.025721	23.176063
368.025721	17.139968
368.461104	23.218415
368.461104	17.143790
368.896477	17.197357
368.896477	23.198502
369.000000	1.861508
369.331838	23.122362
369.331838	17.210235
369.767189	23.151279
369.767189	17.171895
370.000000	1.874376
370.202530	17.274189
370.202530	23.125046
370.637859	23.104414
370.637859	17.273707
371.000000	1.862573
371.073178	23.134482
371.073178	17.264891
371.508486	23.152996
371.508486	17.274715
371.943784	17.200487
371.943784	23.133390
372.000000	1.863611
372.379071	17.202033
372.379071	23.088265
372.814347	17.242439
372.814347	23.070181
373.000000	1.856689
373.249612	17.244253
373.249612	23.124774
373.684866	23.126088
373.684866	17.112588
374.000000	1.860037
374.120110	23.146565
374.120110	17.182288
374.555343	17.178857
374.555343	23.172210
374.990565	17.211657
374.990565	23.182595
375.000000	1.855645
375.425776	17.219309
375.425776	23.187068
375.860976	17.254111
375.860976	23.174038
376.000000	1.815608
376.296165	17.255083
376.296165	23.185217
376.731343	23.199242
376.731343	17.268970
377.000000	1.769227
377.166511	17.271638
377.166511	23.161016
377.601667	17.200621
377.601667	23.169314
378.000000	1.767352
378.036812	23.164342
378.036812	17.211023
378.471946	23.148764
378.471946	17.293743
378.907070	17.202443
378.907070	23.141187
379.000000	1.769018
379.342182	17.189469
379.342182	23.114576
379.777283	17.611320
380.000000	1.766803
380.212373	23.160399
380.212373	17.154801
380.647452	17.076436
380.647452	23.142305
381.000000	1.761513
381.082520	16.946051
381.082520	23.164534
381.517576	23.109053
381.517576	17.015136
381.952622	16.981826
381.952622	23.090007
382.000000	1.759798
382.387656	23.088911
382.387656	16.964289
382.822679	23.130765
382.822679	17.033739
383.000000	1.756855
383.257691	23.090693
383.257691	17.064824
383.692692	17.022391
383.692692	23.105038
384.000000	1.757505
384.127681	23.107535
384.127681	17.092181
384.562659	23.090169
384.562659	16.999738
384.997626	16.977498
384.997626	23.058872
385.000000	1.755320
385.432581	23.053972
385.432581	16.960254
385.867525	23.096289
385.867525	17.025410
386.000000	1.751650
386.302458	23.099006
386.302458	16.961484
386.737379	23.093196
386.737379	17.009398
387.000000	1.751642
387.172289	23.074209
387.172289	17.018035
387.607188	16.918029
387.607188	23.031413
388.000000	1.754564
388.042075	23.006246
388.042075	16.874024
388.476951	16.807991
388.476951	23.031604
388.911815	16.821017
388.911815	22.984318
389.000000	1.756519
389.346668	16.737123
389.346668	22.953494
389.781509	16.747714
389.781509	22.977561
390.000000	1.755261
390.216338	22.962733
390.216338	16.792459
390.651157	16.825641
390.651157	22.946635
391.000000	1.754616
391.085963	22.927682
391.085963	16.888791
391.520758	16.834713
391.520758	22.946973
391.955541	22.928288
391.955541	16.789378
392.000000	1.756303
392.390313	16.741942
392.390313	22.890400
392.825073	22.876643
392.825073	16.772018
393.000000	1.754805
393.259821	22.860622
393.259821	16.844967
393.694558	22.842334
393.694558	16.886312
394.000000	1.750583
394.129283	22.822828
394.129283	16.850734
394.563996	22.797300
394.563996	17.024375
394.998698	17.011560
394.998698	22.834657
395.000000	1.751968
395.433388	16.989717
395.433388	22.828975
395.868066	16.921839
395.868066	22.797929
396.000000	1.755767
396.302732	16.846731
396.302732	22.782027
396.737386	22.737949
396.737386	16.832248
397.000000	1.754272
397.172029	16.836819
397.172029	22.669084
397.606659	22.570162
397.606659	16.765612
398.000000	1.750265
398.041278	22.429266
398.041278	16.739130
398.475885	22.361346
398.475885	16.690743
398.910480	22.227927
398.910480	16.624450
399.000000	1.748318
399.345063	22.016590
399.345063	16.412150
399.779634	21.809338
399.779634	16.268669
400.000000	1.748557
400.214194	16.014479
400.214194	21.457386
400.648741	15.807078
400.648741	21.097187
401.000000	1.750438
401.083276	15.505243
401.083276	20.709484
401.517799	15.582370
401.952310	19.660323
401.952310	14.794085
402.000000	1.749636
402.386809	19.063693
402.386809	14.402460
402.821296	18.422263
402.821296	13.956726
403.000000	1.751550
403.255771	13.497156
403.255771	17.738386
403.690234	12.929017
403.690234	17.026192
404.000000	1.754375
404.124684	16.289620
404.124684	12.321808
404.559123	11.653311
404.559123	15.515777
404.993549	11.086349
404.993549	14.739844
405.000000	1.750295
405.427963	10.463949
405.427963	13.967406
405.862365	9.861677
405.862365	13.261823
406.000000	1.748223
406.296754	12.575901
406.296754	9.325368
406.731131	11.905804
406.731131	8.834955
407.000000	1.754811
407.165496	11.291752
407.165496	8.366926
407.599849	10.715361
407.599849	7.968957
408.000000	1.755602
408.034190	7.621060
408.034190	10.164261
408.468518	7.313327
408.468518	9.654599
408.902833	9.180259
408.902833	7.011395
409.000000	1.756154
409.337137	6.759741
409.337137	8.740583
409.771428	6.564551
409.771428	8.319944
410.000000	1.755292
410.205706	7.929344
410.205706	6.354590
410.639973	6.196612
410.639973	7.583563
411.000000	1.752176
411.074226	7.276079
411.074226	6.076729
411.508467	7.000187
411.508467	5.985094
411.942696	6.747341
411.942696	5.907169
412.000000	1.754744
412.376912	6.527089
412.376912	5.839614
412.811116	6.333304
412.811116	5.804644
413.000000	1.755973
413.245307	6.154025
413.245307	5.784615
413.679486	5.842100
414.000000	1.758726
414.113652	5.850414
414.113652	5.756628
414.547805	5.711923
414.547805	5.754119
414.981946	5.591559
414.981946	5.747083
415.000000	1.757903
415.416074	5.484214
415.416074	5.762304
415.850190	5.784491
415.850190	5.391591
416.000000	1.755910
416.284293	5.814670
416.284293	5.302443
416.718383	5.850350
416.718383	5.226739
417.000000	1.755339
417.152460	5.158766
417.152460	5.878255
417.586525	5.104205
417.586525	5.922518
418.000000	1.755566
418.020577	5.056596
418.020577	5.978599
418.454616	5.010181
418.454616	6.026130
418.888643	6.081539
418.888643	4.973037
419.000000	1.752971
419.322656	4.937793
419.322656	6.141007
419.756657	6.227274
420.000000	1.756031
420.190645	6.258592
420.190645	4.872578
420.624620	6.321811
420.624620	4.842499
421.000000	1.759835
421.058582	4.815859
421.058582	6.378719
421.492531	4.793127
421.492531	6.444525
421.926468	6.505006
421.926468	4.774978
422.000000	1.758003
422.360391	4.763493
422.360391	6.572351
422.794301	4.760001
422.794301	6.637595
423.000000	1.759480
423.228199	6.708761
423.228199	4.763090
423.662083	4.771754
423.662083	6.781281
424.000000	1.760022
424.095955	6.857904
424.095955	4.785629
424.529813	4.798330
424.529813	6.934847
424.963658	4.814811
424.963658	7.005863
425.000000	1.760740
425.397491	7.078830
425.397491	4.827524
425.831310	7.150132
425.831310	4.838563
426.000000	1.763786
426.265116	7.217704
426.265116	4.848391
426.698909	7.284734
426.698909	4.858437
427.000000	1.766153
427.132689	7.353940
427.132689	4.871339
427.566455	4.888284
427.566455	7.425251
428.000000	1.763572
428.000209	7.502195
428.000209	4.909891
428.433949	7.581387
428.433949	4.931609
428.867676	7.656985
428.867676	4.956048
429.000000	1.765420
429.301389	4.979301
429.301389	7.734787
429.735090	7.808496
429.735090	5.003690
430.000000	1.769158
430.168777	7.877996
430.168777	5.023521
430.602451	7.945700
430.602451	5.040268
431.000000	1.769647
431.036111	5.050065
431.036111	8.010958
431.469759	8.070709
431.469759	5.062067
431.903392	5.072952
431.903392	8.129912
432.000000	1.768932
432.337013	8.189374
432.337013	5.083043
432.770620	8.248571
432.770620	5.094082
433.000000	1.768973
433.204213	5.109826
433.204213	8.309948
433.637794	8.373164
433.637794	5.131380
434.000000	1.768261
434.071360	5.155294
434.071360	8.435974
434.504914	8.505912
434.504914	5.182586
434.938453	5.213743
434.938453	8.572681
435.000000	1.769955
435.371979	5.245275
435.371979	8.646195
435.805492	5.278146
435.805492	8.716865
436.000000	1.770559
436.238991	5.308091
436.238991	8.787135
436.672477	8.849816
436.672477	5.336849
437.000000	1.764828
437.105949	8.910872
437.105949	5.364273
437.539407	5.385045
437.539407	8.966419
437.972852	9.015667
437.972852	5.404080
438.000000	1.765929
438.406283	5.422860
438.406283	9.070765
438.839700	5.443139
438.839700	9.121419
439.000000	1.768738
439.273104	5.466033
439.273104	9.175635
439.706494	5.490064
439.706494	9.229834
440.000000	1.768023
440.139871	9.287313
440.139871	5.517435
440.573233	5.543969
440.573233	9.343169
441.000000	1.769592
441.006582	9.399279
441.006582	5.569562
441.439917	9.447159
441.439917	5.592147
441.873238	5.610901
441.873238	9.491370
442.000000	1.769812
442.306546	9.531296
442.306546	5.626317
442.739839	5.638289
442.739839	9.562427
443.000000	1.771917
443.173119	9.591114
443.173119	5.646379
443.606385	9.619348
443.606385	5.655361
444.000000	1.778921
444.039636	5.664178
444.039636	9.647614
444.472874	5.676679
444.472874	9.676667
444.906099	9.707789
444.906099	5.690003
445.000000	1.779630
445.339309	9.743329
445.339309	5.707865
445.772505	9.781939
445.772505	5.728248
446.000000	1.777473
446.205687	9.825334
446.205687	5.752061
446.638855	5.775427
446.638855	9.870066
447.000000	1.783110
447.072009	5.798990
447.072009	9.914492
447.505149	5.824216
447.505149	9.960035
447.938275	5.848701
447.938275	10.004426
448.000000	1.782788
448.371387	5.871312
448.371387	10.046358
448.804485	10.081161
448.804485	5.890354
449.000000	1.780476
449.237569	10.111532
449.237569	5.905398
449.670638	5.918886
449.670638	10.137972
450.000000	1.779850
450.103694	10.159180
450.103694	5.927837
450.536735	10.180224
450.536735	5.934801
450.969762	10.198644
450.969762	5.943272
451.000000	1.782872
451.402774	5.953062
451.402774	10.219465
451.835773	10.239754
451.835773	5.963370
452.000000	1.786318
452.268757	5.977102
452.268757	10.266955
452.701727	5.990843
452.701727	10.293433
453.000000	1.784715
453.134683	10.323176
453.134683	6.006341
453.567624	6.020137
453.567624	10.349078
454.000000	1.782970
454.000551	6.033617
454.000551	10.373637
454.433464	10.390150
454.866362	6.052660
454.866362	10.411896
455.000000	1.782292
455.299246	6.060880
455.299246	10.426368
455.732116	10.437124
455.732116	6.066548
456.000000	1.781860
456.164971	10.445976
456.164971	6.072077
456.597811	6.078204
456.597811	10.454989
457.000000	1.785144
457.030638	10.463721
457.030638	6.084203
457.463449	6.091554
457.463449	10.473131
457.896246	6.098381
457.896246	10.478958
458.000000	1.786432
458.329029	6.105302
458.329029	10.486333
458.761797	6.112446
458.761797	10.494048
459.000000	1.786997
459.194551	10.502037
459.194551	6.119553
459.627290	10.507856
459.627290	6.125944
460.000000	1.788433
460.060014	10.514453
460.060014	6.133429
460.492724	10.522186
460.492724	6.141873
460.925419	10.527665
460.925419	6.149794
461.000000	1.786459
461.358099	6.158896
461.358099	10.533209
461.790765	10.534450
461.790765	6.165694
462.000000	1.787593
462.223416	10.532005
462.223416	6.171719
462.656052	6.176722
462.656052	10.526980
463.000000	1.791881
463.088674	10.518285
463.088674	6.180838
463.521281	10.509237
463.521281	6.185288
463.953873	10.498958
463.953873	6.190207
464.000000	1.793135
464.386450	10.484399
464.386450	6.194265
464.819012	6.200400
464.819012	10.472726
465.000000	1.794606
465.251560	6.207593
465.251560	10.462378
465.684093	10.452539
465.684093	6.215224
466.000000	1.799359
466.116611	10.445790
466.116611	6.225279
466.549114	10.441932
466.549114	6.236771
466.981602	10.440226
466.981602	6.249052
467.000000	1.798748
467.414075	6.260826
467.414075	10.437422
467.846533	6.272744
467.846533	10.433886
468.000000	1.800016
468.278977	10.430291
468.278977	6.284588
468.711405	10.425129
468.711405	6.295382
469.000000	1.802374
469.143818	6.306727
469.143818	10.420709
469.576216	6.316465
469.576216	10.414399
470.000000	1.800262
470.008600	10.404205
470.008600	6.324961
470.440968	10.391017
470.440968	6.331464
470.873321	10.376725
470.873321	6.337167
471.000000	1.801845
471.305659	10.361055
471.305659	6.341710
471.737982	10.346567
471.737982	6.347331
472.000000	1.806527
472.170289	6.351683
472.170289	10.329197
472.602582	10.314359
473.000000	1.808070
473.034859	6.360784
473.034859	10.295123
473.467122	10.281139
473.467122	6.367432
473.899369	10.271719
473.899369	6.374989
474.000000	1.812133
474.331600	6.384450
474.331600	10.268549
474.763817	10.270267
474.763817	6.395648
475.000000	1.815005
475.196018	6.410555
475.196018	10.280498
475.628204	6.429214
475.628204	10.298995
476.000000	1.819535
476.060375	10.325126
476.060375	6.450200
476.492530	6.472437
476.492530	10.354814
476.924670	10.393088
477.000000	1.825428
477.356795	10.418003
477.356795	6.516142
477.788904	10.449237
477.788904	6.537349
478.000000	1.832319
478.220998	10.474835
478.220998	6.555868
478.653076	6.573135
478.653076	10.496918
479.000000	1.838312
479.085139	10.523753
479.517186	6.605467
479.517186	10.538599
479.949219	10.560233
479.949219	6.621462
480.000000	1.843352
480.381235	6.640471
480.381235	10.590234
480.813236	6.662223
480.813236	10.630327
481.000000	1.851116
481.245221	6.688447
481.245221	10.679555
481.677191	6.717806
481.677191	10.737671
482.000000	1.862225
482.109146	10.801361
482.109146	6.747826
482.541084	6.778803
482.541084	10.867691
482.973008	10.934096
482.973008	6.809759
483.000000	1.874778
483.404915	6.840470
483.404915	10.998968
483.836807	11.058316
483.836807	6.869359
484.000000	1.888985
484.268683	6.896903
484.268683	11.109571
484.700544	11.153377
484.700544	6.922125
485.000000	1.903181
485.132388	6.944744
485.132388	11.188204
485.564217	6.965246
485.564217	11.216684
485.996031	11.238966
485.996031	6.985019
486.000000	1.917804
486.427828	7.003201
486.427828	11.254353
486.859610	11.266333
486.859610	7.020209
487.000000	1.933168
487.291376	11.274905
487.291376	7.036997
487.723126	7.055288
487.723126	11.284416
488.000000	1.951759
488.154860	7.074226
488.154860	11.296680
488.586579	11.313855
488.586579	7.095550
489.000000	1.977535
489.018281	7.119802
489.018281	11.340786
489.449968	11.378638
489.449968	7.148397
489.881639	11.431246
489.881639	7.182519
490.000000	2.000033
490.313293	7.221093
490.313293	11.496584
490.744932	7.263889
490.744932	11.574266
491.000000	2.023516
491.176555	7.308570
491.176555	11.657048
491.608162	11.742684
491.608162	7.354720
492.000000	2.052347
492.039753	11.824266
492.039753	7.400074
492.471328	11.893548
492.471328	7.441836
492.902886	7.479185
492.902886	11.948781
493.000000	2.085562
493.334429	11.988306
493.334429	7.512843
493.765956	12.011638
493.765956	7.541282
494.000000	2.117630
494.197466	7.568422
494.197466	12.025786
494.628960	7.593641
494.628960	12.034643
495.000000	2.155259
495.060439	12.047309
495.060439	7.620588
495.491901	12.068558
495.491901	7.651117
495.923347	12.104943
495.923347	7.686408
496.000000	2.193682
496.354776	7.726498
496.354776	12.155931
496.786190	12.224329
496.786190	7.772871
497.000000	2.235785
497.217587	12.306203
497.217587	7.824189
497.648968	12.397780
497.648968	7.878337
498.000000	2.281592
498.080332	7.935612
498.080332	12.495016
498.511681	12.591934
498.511681	7.992547
498.943013	12.683671
498.943013	8.049741
499.000000	2.332669
499.374328	8.104879
499.374328	12.766819
499.805628	12.838558
499.805628	8.157803
500.000000	2.385238
500.236911	12.896017
500.236911	8.207892
500.668177	8.254420
500.668177	12.940557
501.000000	2.442240
501.099427	8.296822
501.099427	12.970945
501.530661	8.336959
501.530661	12.989643
501.961878	8.373909
501.961878	12.996443
