PE UV       SUBTECH     SPECTRUM    ASCII       PEDS        4.00        
   -1
CICIMAUCR0158-3.Sample.ASC
24/04/11
14:00:06.00
24/04/11
14:00:06.00
Vinicio Soto Monge
C.cupreomarginata
250,000000
1
Lambda 1050
1050L1511233
PerkinElmer UV WinLab 6.3.2.0749 / 2.02.05 Lambda 900 UV/VIS/NIR, Aug  7 2015 09:38:08

0
0
3350/2 860,8/2
0
0
UV/VIS
1
1
1
DoubleDePol,CommonBeamDepol,RBeamAtt,SBeamAtt,60mm sphere, WB InGaAs Detector
0
0
0
0
Program
Program
3350/2 860,8/2
3350/0,2 860,8/0,2
3350/0,2 860,8/0,2
0
15.00
 
 
 
0
 
860,8
319,2
860,8
Front
100
on
S:100 R:100
0
0
0
0
 
0
 
 
 
0
 
 
0
0
0
0
0
 
 
 
 
0
0


0
0
#HDR
-1
-1
#GR
nm
%R
1.0
0.0
2400,000000
-1,000000
2151
8
47,716700
2,683800
#DATA
2382.000000	17.765091
2381.000000	18.103761
2380.000000	18.436123
2379.000000	18.940474
2378.000000	17.982729
2377.000000	18.396981
2376.000000	18.043495
2375.000000	18.019969
2374.000000	18.130290
2373.000000	17.481281
2372.000000	17.146716
2371.000000	18.276049
2370.000000	17.569978
2369.000000	17.958402
2368.000000	17.955098
2367.000000	17.167739
2366.000000	17.567375
2365.000000	17.508611
2364.000000	17.969714
2363.000000	17.432828
2362.000000	16.679906
2361.000000	17.549055
2360.000000	18.253424
2359.000000	17.879516
2358.000000	17.214390
2357.000000	17.638553
2356.000000	18.481072
2355.000000	17.732555
2354.000000	17.790319
2353.000000	17.583493
2352.000000	16.988643
2351.000000	17.488789
2350.000000	17.734257
2349.000000	17.269050
2348.000000	16.792930
2347.000000	17.478678
2346.000000	17.331418
2345.000000	16.773409
2344.000000	17.121889
2343.000000	16.982036
2342.000000	17.333720
2341.000000	17.217794
2340.000000	17.219696
2339.000000	16.786723
2338.000000	16.421324
2337.000000	17.094960
2336.000000	17.382373
2335.000000	16.983938
2334.000000	16.576594
2333.000000	16.993148
2332.000000	17.521125
2331.000000	17.628542
2330.000000	17.242521
2329.000000	17.116483
2328.000000	17.521425
2327.000000	16.936286
2326.000000	16.877722
2325.000000	17.107573
2324.000000	16.884129
2323.000000	17.017475
2322.000000	17.106272
2321.000000	17.496898
2320.000000	16.962715
2319.000000	17.513817
2318.000000	17.514918
2317.000000	16.933283
2316.000000	16.822762
2315.000000	17.532437
2314.000000	17.448545
2313.000000	17.199574
2312.000000	17.141610
2311.000000	17.065127
2310.000000	17.163935
2309.000000	17.475475
2308.000000	17.717039
2307.000000	17.084648
2306.000000	16.962615
2305.000000	17.432128
2304.000000	17.510313
2303.000000	17.322007
2302.000000	17.144714
2301.000000	17.139008
2300.000000	17.495296
2299.000000	17.603314
2298.000000	17.385477
2297.000000	17.130899
2296.000000	17.324911
2295.000000	17.938981
2294.000000	17.776303
2293.000000	17.670588
2292.000000	17.539445
2291.000000	17.436632
2290.000000	17.436632
2289.000000	17.726849
2288.000000	17.723746
2287.000000	17.585395
2286.000000	17.360049
2285.000000	17.360149
2284.000000	17.301185
2283.000000	17.139608
2282.000000	17.134202
2281.000000	17.341328
2280.000000	17.541247
2279.000000	17.182255
2278.000000	16.894341
2277.000000	16.939089
2276.000000	17.275757
2275.000000	17.500903
2274.000000	17.413507
2273.000000	17.387779
2272.000000	17.267348
2271.000000	17.194468
2270.000000	17.394987
2269.000000	17.344932
2268.000000	17.222699
2267.000000	17.401494
2266.000000	17.564872
2265.000000	17.673691
2264.000000	17.495296
2263.000000	17.501103
2262.000000	17.801130
2261.000000	17.835868
2260.000000	17.822854
2259.000000	18.271143
2258.000000	18.370552
2257.000000	18.026576
2256.000000	18.408693
2255.000000	18.897927
2254.000000	19.020361
2253.000000	19.120470
2252.000000	18.651659
2251.000000	18.917849
2250.000000	19.460842
2249.000000	19.407584
2248.000000	19.562253
2247.000000	19.575267
2246.000000	19.533521
2245.000000	19.769579
2244.000000	20.189738
2243.000000	19.897118
2242.000000	19.924748
2241.000000	20.217067
2240.000000	20.359623
2239.000000	20.022355
2238.000000	20.067104
2237.000000	20.465338
2236.000000	20.558640
2235.000000	20.458431
2234.000000	20.438309
2233.000000	20.555437
2232.000000	20.386552
2231.000000	20.386052
2230.000000	20.491467
2229.000000	20.464037
2228.000000	20.425695
2227.000000	20.476150
2226.000000	20.590275
2225.000000	20.315375
2224.000000	20.213764
2223.000000	20.348911
2222.000000	20.340102
2221.000000	20.283640
2220.000000	20.413782
2219.000000	20.043378
2218.000000	20.281137
2217.000000	20.572155
2216.000000	20.184332
2215.000000	19.847864
2214.000000	20.024157
2213.000000	20.309568
2212.000000	20.184632
2211.000000	19.786998
2210.000000	19.732138
2209.000000	19.658358
2208.000000	19.674876
2207.000000	19.775786
2206.000000	19.780891
2205.000000	19.669069
2204.000000	19.676177
2203.000000	19.555846
2202.000000	19.620216
2201.000000	19.476559
2200.000000	19.569360
2199.000000	19.540729
2198.000000	19.481164
2197.000000	19.480163
2196.000000	19.351122
2195.000000	19.282948
2194.000000	19.106856
2193.000000	19.212971
2192.000000	19.244005
2191.000000	19.276341
2190.000000	19.428407
2189.000000	19.336606
2188.000000	19.228088
2187.000000	19.481865
2186.000000	19.426304
2185.000000	19.009249
2184.000000	19.057101
2183.000000	18.880508
2182.000000	18.762279
2181.000000	18.604007
2180.000000	18.963899
2179.000000	19.130181
2178.000000	18.882911
2177.000000	18.753169
2176.000000	18.811433
2175.000000	18.948983
2174.000000	18.965902
2173.000000	19.075421
2172.000000	18.808230
2171.000000	18.922654
2170.000000	18.806227
2169.000000	18.725239
2168.000000	19.020862
2167.000000	18.582183
2166.000000	18.720734
2165.000000	18.555454
2164.000000	19.361333
2163.000000	19.211270
2162.000000	18.903534
2161.000000	19.013854
2160.000000	19.206264
2159.000000	18.970707
2158.000000	19.087234
2157.000000	19.003343
2156.000000	19.089537
2155.000000	19.069214
2154.000000	18.825949
2153.000000	19.093241
2152.000000	19.069214
2151.000000	18.674283
2150.000000	19.203761
2149.000000	19.350021
2148.000000	18.921353
2147.000000	19.084831
2146.000000	19.300767
2145.000000	18.940274
2144.000000	19.377851
2143.000000	19.300267
2142.000000	19.586779
2141.000000	19.710314
2140.000000	19.167121
2139.000000	19.391967
2138.000000	19.176732
2137.000000	19.604198
2136.000000	19.672873
2135.000000	19.897819
2134.000000	19.697600
2133.000000	19.245407
2132.000000	19.710414
2131.000000	19.951878
2130.000000	19.404480
2129.000000	19.540429
2128.000000	20.036370
2127.000000	19.569260
2126.000000	19.541330
2125.000000	19.137289
2124.000000	19.499284
2123.000000	19.716621
2122.000000	19.703807
2121.000000	19.579071
2120.000000	19.258621
2119.000000	19.703507
2118.000000	19.575867
2117.000000	19.383057
2116.000000	19.243304
2115.000000	19.242604
2114.000000	19.682984
2113.000000	19.288954
2112.000000	19.339009
2111.000000	19.215374
2110.000000	19.555645
2109.000000	19.493578
2108.000000	19.419196
2107.000000	19.351422
2106.000000	19.304171
2105.000000	19.190747
2104.000000	19.380955
2103.000000	19.262425
2102.000000	19.490674
2101.000000	19.170225
2100.000000	19.402879
2099.000000	19.131082
2098.000000	19.195753
2097.000000	19.248510
2096.000000	19.048992
2095.000000	19.295461
2094.000000	19.411788
2093.000000	19.141093
2092.000000	19.223082
2091.000000	18.996635
2090.000000	19.184140
2089.000000	19.341111
2088.000000	19.472855
2087.000000	19.256419
2086.000000	19.555545
2085.000000	19.070115
2084.000000	19.350722
2083.000000	19.351823
2082.000000	19.280445
2081.000000	19.388062
2080.000000	19.253916
2079.000000	19.340210
2078.000000	19.171927
2077.000000	19.256118
2076.000000	19.171626
2075.000000	19.064509
2074.000000	19.419397
2073.000000	19.445826
2072.000000	19.226987
2071.000000	19.196654
2070.000000	18.924757
2069.000000	18.939973
2068.000000	19.056501
2067.000000	18.860587
2066.000000	18.906036
2065.000000	19.036178
2064.000000	18.977514
2063.000000	18.823847
2062.000000	18.896526
2061.000000	18.989628
2060.000000	18.955891
2059.000000	18.927059
2058.000000	18.748564
2057.000000	18.769888
2056.000000	18.908239
2055.000000	18.840765
2054.000000	18.953989
2053.000000	18.956592
2052.000000	18.924857
2051.000000	18.943677
2050.000000	19.105354
2049.000000	19.275039
2048.000000	19.256919
2047.000000	19.299866
2046.000000	19.497081
2045.000000	19.569761
2044.000000	19.659359
2043.000000	19.770079
2042.000000	19.887107
2041.000000	19.903425
2040.000000	20.028461
2039.000000	20.163108
2038.000000	20.230282
2037.000000	20.213363
2036.000000	20.253007
2035.000000	20.528607
2034.000000	20.707002
2033.000000	20.717714
2032.000000	20.788591
2031.000000	20.825732
2030.000000	20.834341
2029.000000	20.944561
2028.000000	20.961680
2027.000000	20.980701
2026.000000	21.195035
2025.000000	21.200541
2024.000000	21.228672
2023.000000	21.279927
2022.000000	21.321873
2021.000000	21.343797
2020.000000	21.236280
2019.000000	21.291340
2018.000000	21.431393
2017.000000	21.505374
2016.000000	21.527297
2015.000000	21.436198
2014.000000	21.400059
2013.000000	21.339092
2012.000000	21.368524
2011.000000	21.439101
2010.000000	21.330383
2009.000000	21.270517
2008.000000	21.329682
2007.000000	21.315967
2006.000000	21.217359
2005.000000	21.293542
2004.000000	21.306156
2003.000000	21.167605
2002.000000	21.101533
2001.000000	21.081611
2000.000000	20.992314
1999.000000	20.907421
1998.000000	20.877588
1997.000000	20.804509
1996.000000	20.775076
1995.000000	20.703999
1994.000000	20.601988
1993.000000	20.524903
1992.000000	20.434204
1991.000000	20.345808
1990.000000	20.233585
1989.000000	20.172018
1988.000000	20.145990
1987.000000	20.035069
1986.000000	20.002233
1985.000000	19.957384
1984.000000	19.815329
1983.000000	19.727633
1982.000000	19.568159
1981.000000	19.422500
1980.000000	19.421399
1979.000000	19.351823
1978.000000	19.209568
1977.000000	19.161816
1976.000000	19.099548
1975.000000	19.066211
1974.000000	18.961797
1973.000000	18.813035
1972.000000	18.798519
1971.000000	18.743259
1970.000000	18.641748
1969.000000	18.499493
1968.000000	18.384767
1967.000000	18.321899
1966.000000	18.266538
1965.000000	18.159722
1964.000000	18.115273
1963.000000	18.107765
1962.000000	18.011560
1961.000000	17.836769
1960.000000	17.786715
1959.000000	17.730954
1958.000000	17.650766
1957.000000	17.584494
1956.000000	17.534139
1955.000000	17.392084
1954.000000	17.321507
1953.000000	17.261942
1952.000000	17.120287
1951.000000	16.999655
1950.000000	16.974428
1949.000000	16.937888
1948.000000	16.815354
1947.000000	16.794732
1946.000000	16.747881
1945.000000	16.663489
1944.000000	16.603523
1943.000000	16.539653
1942.000000	16.486996
1941.000000	16.525538
1940.000000	16.522234
1939.000000	16.481890
1938.000000	16.382382
1937.000000	16.345842
1936.000000	16.250638
1935.000000	16.258046
1934.000000	16.265354
1933.000000	16.278568
1932.000000	16.324218
1931.000000	16.368767
1930.000000	16.364362
1929.000000	16.495005
1928.000000	16.541155
1927.000000	16.461668
1926.000000	16.426129
1925.000000	16.601120
1924.000000	16.829069
1923.000000	16.718048
1922.000000	16.894741
1921.000000	17.283565
1920.000000	17.379971
1919.000000	17.107473
1918.000000	17.291674
1917.000000	17.477777
1916.000000	17.722144
1915.000000	17.811341
1914.000000	18.063717
1913.000000	18.220388
1912.000000	18.474966
1911.000000	18.586488
1910.000000	18.794515
1909.000000	19.066712
1908.000000	19.378552
1907.000000	19.817731
1906.000000	20.098638
1905.000000	20.402670
1904.000000	20.536116
1903.000000	21.063391
1902.000000	21.325477
1901.000000	21.774567
1900.000000	22.340685
1899.000000	22.608878
1898.000000	22.921619
1897.000000	23.305939
1896.000000	23.721392
1895.000000	24.194208
1894.000000	24.736300
1893.000000	25.139440
1892.000000	25.605749
1891.000000	26.111301
1890.000000	26.479303
1889.000000	26.907470
1888.000000	27.247541
1887.000000	27.683717
1886.000000	28.035501
1885.000000	28.423825
1884.000000	28.825063
1883.000000	29.044903
1882.000000	29.309492
1881.000000	29.797925
1880.000000	29.985730
1879.000000	30.277148
1878.000000	30.557454
1877.000000	30.900929
1876.000000	31.031371
1875.000000	31.264226
1874.000000	31.632327
1873.000000	31.665263
1872.000000	31.830944
1871.000000	32.140782
1870.000000	32.158602
1869.000000	32.227077
1868.000000	32.580462
1867.000000	32.364426
1866.000000	32.233984
1865.000000	32.478851
1864.000000	32.663653
1863.000000	32.494569
1862.000000	32.557838
1861.000000	32.849656
1860.000000	33.094223
1859.000000	32.893104
1858.000000	32.908220
1857.000000	33.080208
1856.000000	33.014536
1855.000000	33.043167
1854.000000	33.282529
1853.000000	33.130963
1852.000000	33.029352
1851.000000	33.085614
1850.000000	33.159394
1849.000000	33.280426
1848.000000	33.541711
1847.000000	33.347499
1846.000000	32.995415
1845.000000	32.957574
1844.000000	32.985805
1843.000000	33.109740
1842.000000	33.289036
1841.000000	33.182419
1840.000000	32.988708
1839.000000	32.911223
1838.000000	32.976194
1837.000000	32.942257
1836.000000	32.922536
1835.000000	32.751549
1834.000000	32.627414
1833.000000	32.703396
1832.000000	32.700093
1831.000000	32.742039
1830.000000	32.609594
1829.000000	32.619905
1828.000000	32.547026
1827.000000	32.520797
1826.000000	32.552131
1825.000000	32.405972
1824.000000	32.392357
1823.000000	32.490864
1822.000000	32.591074
1821.000000	32.633020
1820.000000	32.588071
1819.000000	32.454325
1818.000000	32.411177
1817.000000	32.454825
1816.000000	32.447517
1815.000000	32.466438
1814.000000	32.381445
1813.000000	32.405371
1812.000000	32.428196
1811.000000	32.414481
1810.000000	32.386350
1809.000000	32.292748
1808.000000	32.297353
1807.000000	32.339599
1806.000000	32.290446
1805.000000	32.236086
1804.000000	32.229179
1803.000000	32.223673
1802.000000	32.222171
1801.000000	32.218267
1800.000000	32.157400
1799.000000	32.087424
1798.000000	32.081418
1797.000000	32.119759
1796.000000	32.104443
1795.000000	32.081818
1794.000000	32.029461
1793.000000	32.057792
1792.000000	32.045578
1791.000000	32.003032
1790.000000	32.011241
1789.000000	31.973400
1788.000000	31.991419
1787.000000	31.979406
1786.000000	32.032965
1785.000000	32.023154
1784.000000	31.986214
1783.000000	32.001030
1782.000000	31.997126
1781.000000	31.981408
1780.000000	31.956781
1779.000000	31.959585
1778.000000	31.967193
1777.000000	31.935058
1776.000000	31.945569
1775.000000	31.906627
1774.000000	31.851467
1773.000000	31.835449
1772.000000	31.827641
1771.000000	31.796006
1770.000000	31.778987
1769.000000	31.762169
1768.000000	31.742047
1767.000000	31.721224
1766.000000	31.739945
1765.000000	31.709612
1764.000000	31.694595
1763.000000	31.679479
1762.000000	31.659757
1761.000000	31.687788
1760.000000	31.709912
1759.000000	31.695096
1758.000000	31.718622
1757.000000	31.722326
1756.000000	31.730635
1755.000000	31.726630
1754.000000	31.714517
1753.000000	31.724328
1752.000000	31.732637
1751.000000	31.727431
1750.000000	31.718622
1749.000000	31.721324
1748.000000	31.715018
1747.000000	31.672071
1746.000000	31.639035
1745.000000	31.637733
1744.000000	31.608802
1743.000000	31.547635
1742.000000	31.498581
1741.000000	31.447125
1740.000000	31.431008
1739.000000	31.407081
1738.000000	31.356827
1737.000000	31.325793
1736.000000	31.271934
1735.000000	31.226084
1734.000000	31.218175
1733.000000	31.209366
1732.000000	31.177030
1731.000000	31.129579
1730.000000	31.131981
1729.000000	31.140891
1728.000000	31.081426
1727.000000	31.033874
1726.000000	31.046388
1725.000000	31.033574
1724.000000	31.018758
1723.000000	31.017957
1722.000000	31.070114
1721.000000	31.160312
1720.000000	31.252212
1719.000000	31.387660
1718.000000	31.540227
1717.000000	31.622417
1716.000000	31.722926
1715.000000	31.878997
1714.000000	31.995824
1713.000000	32.101039
1712.000000	32.214263
1711.000000	32.281636
1710.000000	32.357118
1709.000000	32.440610
1708.000000	32.492566
1707.000000	32.537816
1706.000000	32.548327
1705.000000	32.577559
1704.000000	32.627614
1703.000000	32.650138
1702.000000	32.675566
1701.000000	32.694687
1700.000000	32.746744
1699.000000	32.756254
1698.000000	32.778879
1697.000000	32.777878
1696.000000	32.769168
1695.000000	32.741939
1694.000000	32.713207
1693.000000	32.698491
1692.000000	32.646234
1691.000000	32.603487
1690.000000	32.560741
1689.000000	32.547026
1688.000000	32.547026
1687.000000	32.596580
1686.000000	32.657146
1685.000000	32.745943
1684.000000	32.864672
1683.000000	32.981700
1682.000000	33.097827
1681.000000	33.237079
1680.000000	33.355208
1679.000000	33.485450
1678.000000	33.590965
1677.000000	33.692576
1676.000000	33.782975
1675.000000	33.880381
1674.000000	33.958767
1673.000000	34.039054
1672.000000	34.145070
1671.000000	34.218450
1670.000000	34.327569
1669.000000	34.444697
1668.000000	34.547710
1667.000000	34.633503
1666.000000	34.724903
1665.000000	34.795780
1664.000000	34.878270
1663.000000	34.946044
1662.000000	35.020426
1661.000000	35.104617
1660.000000	35.161179
1659.000000	35.185305
1658.000000	35.230855
1657.000000	35.269898
1656.000000	35.280409
1655.000000	35.318050
1654.000000	35.312945
1653.000000	35.310843
1652.000000	35.323757
1651.000000	35.331365
1650.000000	35.354090
1649.000000	35.322455
1648.000000	35.324457
1647.000000	35.299931
1646.000000	35.316248
1645.000000	35.278207
1644.000000	35.255983
1643.000000	35.252879
1642.000000	35.214537
1641.000000	35.209732
1640.000000	35.199121
1639.000000	35.168487
1638.000000	35.143960
1637.000000	35.115730
1636.000000	35.109423
1635.000000	35.084395
1634.000000	35.046054
1633.000000	34.956356
1632.000000	34.918314
1631.000000	34.935433
1630.000000	34.911907
1629.000000	34.839828
1628.000000	34.800385
1627.000000	34.783167
1626.000000	34.686962
1625.000000	34.673447
1624.000000	34.631801
1623.000000	34.561625
1622.000000	34.554117
1621.000000	34.515975
1620.000000	34.505063
1619.000000	34.401850
1618.000000	34.377624
1617.000000	34.356901
1616.000000	34.274812
1615.000000	34.254289
1614.000000	34.189118
1613.000000	34.125449
1612.000000	34.084204
1611.000000	34.043259
1610.000000	33.987498
1609.000000	33.929535
1608.000000	33.833930
1607.000000	33.778970
1606.000000	33.691475
1605.000000	33.651732
1604.000000	33.574647
1603.000000	33.497964
1602.000000	33.437898
1601.000000	33.376932
1600.000000	33.290337
1599.000000	33.229471
1598.000000	33.167303
1597.000000	33.102532
1596.000000	33.038963
1595.000000	32.999920
1594.000000	32.947062
1593.000000	32.871280
1592.000000	32.794196
1591.000000	32.775775
1590.000000	32.745142
1589.000000	32.665956
1588.000000	32.643431
1587.000000	32.610195
1586.000000	32.558638
1585.000000	32.535613
1584.000000	32.477650
1583.000000	32.496671
1582.000000	32.438407
1581.000000	32.410377
1580.000000	32.381045
1579.000000	32.352213
1578.000000	32.308465
1577.000000	32.314572
1576.000000	32.297954
1575.000000	32.308766
1574.000000	32.286141
1573.000000	32.262916
1572.000000	32.254506
1571.000000	32.237087
1570.000000	32.236387
1569.000000	32.245797
1568.000000	32.226075
1567.000000	32.235886
1566.000000	32.238089
1565.000000	32.264117
1564.000000	32.231581
1563.000000	32.221771
1562.000000	32.225475
1561.000000	32.224574
1560.000000	32.190537
1559.000000	32.168713
1558.000000	32.124364
1557.000000	32.098937
1556.000000	32.065901
1555.000000	32.020151
1554.000000	31.986114
1553.000000	31.941965
1552.000000	31.895515
1551.000000	31.823936
1550.000000	31.780189
1549.000000	31.735840
1548.000000	31.672972
1547.000000	31.612806
1546.000000	31.574664
1545.000000	31.505389
1544.000000	31.478560
1543.000000	31.455534
1542.000000	31.430107
1541.000000	31.393066
1540.000000	31.340809
1539.000000	31.317784
1538.000000	31.315582
1537.000000	31.247808
1536.000000	31.242302
1535.000000	31.217575
1534.000000	31.175929
1533.000000	31.152203
1532.000000	31.107454
1531.000000	31.082527
1530.000000	31.066710
1529.000000	31.018457
1528.000000	30.982518
1527.000000	30.959993
1526.000000	30.892620
1525.000000	30.825447
1524.000000	30.786304
1523.000000	30.725638
1522.000000	30.700010
1521.000000	30.651457
1520.000000	30.610312
1519.000000	30.579078
1518.000000	30.515108
1517.000000	30.448936
1516.000000	30.418803
1515.000000	30.370750
1514.000000	30.331107
1513.000000	30.266336
1512.000000	30.197962
1511.000000	30.122379
1510.000000	30.074127
1509.000000	30.015262
1508.000000	29.955998
1507.000000	29.898335
1506.000000	29.861995
