PE UV       SUBTECH     SPECTRUM    ASCII       PEDS        4.00        
   -1
CICIMAUCR0113-1.Sample.ASC
24/04/18
14:46:15.00
24/04/18
14:46:15.00
Vinicio Soto Monge
C. kalinini
250,000000
1
Lambda 1050
1050L1511233
PerkinElmer UV WinLab 6.3.2.0749 / 2.02.05 Lambda 900 UV/VIS/NIR, Aug  7 2015 09:38:08

0
0
3350/servo 860,8/2
0
0
UV/VIS
1
1
1
DoubleDePol,CommonBeamDepol,RBeamAtt,SBeamAtt,60mm sphere, WB InGaAs Detector
0
0
0
0
Program
Program
3350/servo 860,8/2
3350/0,2 860,8/0,2
3350/0,2 860,8/0,2
0
15.00
 
 
 
0
 
860,8
319,2
860,8
Front
100
on
S:100 R:100
0
0
0
0
 
0
 
 
 
0
 
 
0
0
0
0
0
 
 
 
 
0
0


0
0
#HDR
-1
-1
#GR
nm
%R
1.0
0.0
2500,000000
-1,000000
2251
8
90,738500
4,918600
#DATA
2482.000000	7.708141
2481.000000	7.746629
2480.000000	7.673581
2479.000000	7.682670
2478.000000	7.758299
2477.000000	7.779506
2476.000000	7.752127
2475.000000	7.711844
2474.000000	7.706571
2473.000000	7.722953
2472.000000	7.768509
2471.000000	7.735969
2470.000000	7.705448
2469.000000	7.788483
2468.000000	7.780965
2467.000000	7.800713
2466.000000	7.844026
2465.000000	7.893061
2464.000000	7.890368
2463.000000	7.893958
2462.000000	7.924254
2461.000000	7.971045
2460.000000	8.014806
2459.000000	8.026925
2458.000000	8.084151
2457.000000	8.156750
2456.000000	8.202643
2455.000000	8.231256
2454.000000	8.277822
2453.000000	8.336732
2452.000000	8.388123
2451.000000	8.416063
2450.000000	8.479124
2449.000000	8.515928
2448.000000	8.574837
2447.000000	8.630381
2446.000000	8.693890
2445.000000	8.726992
2444.000000	8.800264
2443.000000	8.829999
2442.000000	8.875555
2441.000000	8.939739
2440.000000	8.994047
2439.000000	9.036350
2438.000000	9.102553
2437.000000	9.133859
2436.000000	9.172907
2435.000000	9.194788
2434.000000	9.237651
2433.000000	9.298580
2432.000000	9.350533
2431.000000	9.381502
2430.000000	9.406412
2429.000000	9.447144
2428.000000	9.479572
2427.000000	9.519182
2426.000000	9.540052
2425.000000	9.553742
2424.000000	9.568441
2423.000000	9.530851
2422.000000	9.463302
2421.000000	9.404280
2420.000000	9.367027
2419.000000	9.385429
2418.000000	9.395640
2417.000000	9.418531
2416.000000	9.413481
2415.000000	9.376116
2414.000000	9.353787
2413.000000	9.373311
2412.000000	9.385990
2411.000000	9.348289
2410.000000	9.315187
2409.000000	9.317992
2408.000000	9.352328
2407.000000	9.356255
2406.000000	9.308679
2405.000000	9.280403
2404.000000	9.293194
2403.000000	9.297234
2402.000000	9.283881
2401.000000	9.286686
2400.000000	9.300263
2399.000000	9.266489
2398.000000	9.259532
2397.000000	9.255941
2396.000000	9.283657
2395.000000	9.301161
2394.000000	9.292633
2393.000000	9.264245
2392.000000	9.269967
2391.000000	9.261439
2390.000000	9.232377
2389.000000	9.239559
2388.000000	9.232041
2387.000000	9.216781
2386.000000	9.227328
2385.000000	9.210609
2384.000000	9.185474
2383.000000	9.168643
2382.000000	9.146987
2381.000000	9.125555
2380.000000	9.089761
2379.000000	9.083253
2378.000000	9.081233
2377.000000	9.055650
2376.000000	9.027822
2375.000000	9.013459
2374.000000	8.968015
2373.000000	8.930537
2372.000000	8.913370
2371.000000	8.896763
2370.000000	8.865232
2369.000000	8.821471
2368.000000	8.791287
2367.000000	8.772212
2366.000000	8.730582
2365.000000	8.664380
2364.000000	8.625892
2363.000000	8.597504
2362.000000	8.546449
2361.000000	8.483724
2360.000000	8.445461
2359.000000	8.426723
2358.000000	8.375219
2357.000000	8.329326
2356.000000	8.301835
2355.000000	8.266265
2354.000000	8.246629
2353.000000	8.239335
2352.000000	8.240457
2351.000000	8.246741
2350.000000	8.245170
2349.000000	8.242365
2348.000000	8.246741
2347.000000	8.271988
2346.000000	8.293307
2345.000000	8.315524
2344.000000	8.332580
2343.000000	8.349299
2342.000000	8.352441
2341.000000	8.371516
2340.000000	8.391040
2339.000000	8.395753
2338.000000	8.397324
2337.000000	8.382288
2336.000000	8.374321
2335.000000	8.369160
2334.000000	8.356593
2333.000000	8.328204
2332.000000	8.301723
2331.000000	8.272100
2330.000000	8.256278
2329.000000	8.240457
2328.000000	8.210610
2327.000000	8.166736
2326.000000	8.131727
2325.000000	8.075623
2324.000000	8.037585
2323.000000	7.978339
2322.000000	7.935026
2321.000000	7.906077
2320.000000	7.859061
2319.000000	7.799928
2318.000000	7.742814
2317.000000	7.688729
2316.000000	7.608164
2315.000000	7.557446
2314.000000	7.492477
2313.000000	7.442320
2312.000000	7.397213
2311.000000	7.352329
2310.000000	7.328317
2309.000000	7.305875
2308.000000	7.291176
2307.000000	7.285341
2306.000000	7.272213
2305.000000	7.286575
2304.000000	7.309802
2303.000000	7.341782
2302.000000	7.381279
2301.000000	7.433568
2300.000000	7.488887
2299.000000	7.522998
2298.000000	7.583029
2297.000000	7.637226
2296.000000	7.698267
2295.000000	7.773334
2294.000000	7.811036
2293.000000	7.842455
2292.000000	7.865121
2291.000000	7.888572
2290.000000	7.904394
2289.000000	7.926611
2288.000000	7.923581
2287.000000	7.911126
2286.000000	7.927845
2285.000000	7.915053
2284.000000	7.900803
2283.000000	7.888348
2282.000000	7.854685
2281.000000	7.855807
2280.000000	7.807558
2279.000000	7.801611
2278.000000	7.779057
2277.000000	7.744609
2276.000000	7.733613
2275.000000	7.721943
2274.000000	7.725983
2273.000000	7.709600
2272.000000	7.714088
2271.000000	7.733837
2270.000000	7.766826
2269.000000	7.789941
2268.000000	7.832805
2267.000000	7.861530
2266.000000	7.939178
2265.000000	8.016153
2264.000000	8.103226
2263.000000	8.199052
2262.000000	8.293307
2261.000000	8.446135
2260.000000	8.577306
2259.000000	8.696135
2258.000000	8.887786
2257.000000	9.030515
2256.000000	9.193553
2255.000000	9.351991
2254.000000	9.502014
2253.000000	9.626228
2252.000000	9.799365
2251.000000	9.955896
2250.000000	10.074612
2249.000000	10.206008
2248.000000	10.361977
2247.000000	10.454212
2246.000000	10.587179
2245.000000	10.685025
2244.000000	10.768844
2243.000000	10.888795
2242.000000	10.944899
2241.000000	11.030514
2240.000000	11.120168
2239.000000	11.207915
2238.000000	11.258296
2237.000000	11.328763
2236.000000	11.441532
2235.000000	11.447704
2234.000000	11.498646
2233.000000	11.549140
2232.000000	11.592340
2231.000000	11.640477
2230.000000	11.664827
2229.000000	11.684126
2228.000000	11.698489
2227.000000	11.724297
2226.000000	11.724746
2225.000000	11.724634
2224.000000	11.702865
2223.000000	11.705895
2222.000000	11.695908
2221.000000	11.704212
2220.000000	11.682219
2219.000000	11.678067
2218.000000	11.662246
2217.000000	11.665500
2216.000000	11.630715
2215.000000	11.612986
2214.000000	11.589423
2213.000000	11.605132
2212.000000	11.555760
2211.000000	11.564512
2210.000000	11.530065
2209.000000	11.523220
2208.000000	11.493260
2207.000000	11.502012
2206.000000	11.480469
2205.000000	11.468911
2204.000000	11.454324
2203.000000	11.470033
2202.000000	11.492363
2201.000000	11.457802
2200.000000	11.456456
2199.000000	11.442879
2198.000000	11.426721
2197.000000	11.430648
2196.000000	11.427057
2195.000000	11.418305
2194.000000	11.399566
2193.000000	11.387224
2192.000000	11.402596
2191.000000	11.391375
2190.000000	11.378022
2189.000000	11.381613
2188.000000	11.368934
2187.000000	11.351766
2186.000000	11.345258
2185.000000	11.316196
2184.000000	11.296896
2183.000000	11.276362
2182.000000	11.285900
2181.000000	11.279279
2180.000000	11.238660
2179.000000	11.238884
2178.000000	11.211393
2177.000000	11.218238
2176.000000	11.207690
2175.000000	11.196021
2174.000000	11.192879
2173.000000	11.199275
2172.000000	11.184688
2171.000000	11.193777
2170.000000	11.206456
2169.000000	11.208588
2168.000000	11.224185
2167.000000	11.202417
2166.000000	11.203202
2165.000000	11.236752
2164.000000	11.254706
2163.000000	11.229347
2162.000000	11.246739
2161.000000	11.274342
2160.000000	11.281187
2159.000000	11.296559
2158.000000	11.328426
2157.000000	11.320011
2156.000000	11.328314
2155.000000	11.367138
2154.000000	11.407421
2153.000000	11.415276
2152.000000	11.439288
2151.000000	11.464872
2150.000000	11.507062
2149.000000	11.544764
2148.000000	11.557331
2147.000000	11.580558
2146.000000	11.609396
2145.000000	11.651810
2144.000000	11.684575
2143.000000	11.693327
2142.000000	11.712627
2141.000000	11.733498
2140.000000	11.748085
2139.000000	11.777708
2138.000000	11.796559
2137.000000	11.799028
2136.000000	11.823938
2135.000000	11.864782
2134.000000	11.877798
2133.000000	11.884306
2132.000000	11.924252
2131.000000	11.954997
2130.000000	11.955558
2129.000000	11.968125
2128.000000	11.966442
2127.000000	11.979346
2126.000000	11.994382
2125.000000	12.000217
2124.000000	12.017497
2123.000000	12.016150
2122.000000	12.011774
2121.000000	12.024903
2120.000000	12.013009
2119.000000	12.011662
2118.000000	12.020527
2117.000000	12.028044
2116.000000	12.015365
2115.000000	12.005154
2114.000000	12.011774
2113.000000	11.996514
2112.000000	11.991016
2111.000000	11.983498
2110.000000	11.972838
2109.000000	11.969023
2108.000000	11.963076
2107.000000	11.953538
2106.000000	11.943552
2105.000000	11.939400
2104.000000	11.949948
2103.000000	11.953650
2102.000000	11.934687
2101.000000	11.923915
2100.000000	11.916846
2099.000000	11.917856
2098.000000	11.927169
2097.000000	11.918754
2096.000000	11.904615
2095.000000	11.919427
2094.000000	11.935024
2093.000000	11.916510
2092.000000	11.914939
2091.000000	11.933229
2090.000000	11.932331
2089.000000	11.936931
2088.000000	11.934351
2087.000000	11.941869
2086.000000	11.963076
2085.000000	11.981590
2084.000000	11.978673
2083.000000	11.963974
2082.000000	11.966218
2081.000000	11.979571
2080.000000	11.975755
2079.000000	11.968238
2078.000000	11.965208
2077.000000	11.961617
2076.000000	11.948152
2075.000000	11.938727
2074.000000	11.948825
2073.000000	11.944001
2072.000000	11.950060
2071.000000	11.948040
2070.000000	11.941532
2069.000000	11.927394
2068.000000	11.926047
2067.000000	11.930199
2066.000000	11.914041
2065.000000	11.904615
2064.000000	11.900239
2063.000000	11.899678
2062.000000	11.893395
2061.000000	11.880491
2060.000000	11.885877
2059.000000	11.928628
2058.000000	11.940747
2057.000000	11.945571
2056.000000	11.976878
2055.000000	12.020414
2054.000000	12.044427
2053.000000	12.083700
2052.000000	12.140701
2051.000000	12.174588
2050.000000	12.264018
2049.000000	12.348511
2048.000000	12.440297
2047.000000	12.517160
2046.000000	12.605804
2045.000000	12.717676
2044.000000	12.830894
2043.000000	12.915611
2042.000000	13.024341
2041.000000	13.120391
2040.000000	13.245952
2039.000000	13.355580
2038.000000	13.452191
2037.000000	13.540947
2036.000000	13.628021
2035.000000	13.729682
2034.000000	13.808564
2033.000000	13.900575
2032.000000	13.993034
2031.000000	14.045211
2030.000000	14.141373
2029.000000	14.206342
2028.000000	14.293528
2027.000000	14.361302
2026.000000	14.407419
2025.000000	14.480354
2024.000000	14.528380
2023.000000	14.597275
2022.000000	14.646759
2021.000000	14.715543
2020.000000	14.766598
2019.000000	14.826853
2018.000000	14.862872
2017.000000	14.906521
2016.000000	14.947702
2015.000000	14.978671
2014.000000	15.021310
2013.000000	15.038815
2012.000000	15.070794
2011.000000	15.111301
2010.000000	15.117024
2009.000000	15.159775
2008.000000	15.177055
2007.000000	15.150013
2006.000000	15.185246
2005.000000	15.178402
2004.000000	15.165049
2003.000000	15.178626
2002.000000	15.181992
2001.000000	15.143168
2000.000000	15.146198
1999.000000	15.120278
1998.000000	15.101763
1997.000000	15.100417
1996.000000	15.071018
1995.000000	15.041844
1994.000000	15.014017
1993.000000	14.960157
1992.000000	14.925933
1991.000000	14.882509
1990.000000	14.839757
1989.000000	14.790610
1988.000000	14.757172
1987.000000	14.703873
1986.000000	14.636885
1985.000000	14.598958
1984.000000	14.561144
1983.000000	14.499542
1982.000000	14.441979
1981.000000	14.399003
1980.000000	14.334708
1979.000000	14.280960
1978.000000	14.241014
1977.000000	14.165162
1976.000000	14.108721
1975.000000	14.047792
1974.000000	14.005938
1973.000000	13.942765
1972.000000	13.903492
1971.000000	13.833362
1970.000000	13.790386
1969.000000	13.752572
1968.000000	13.702752
1967.000000	13.640813
1966.000000	13.616688
1965.000000	13.539489
1964.000000	13.483497
1963.000000	13.470930
1962.000000	13.395526
1961.000000	13.349296
1960.000000	13.266598
1959.000000	13.252797
1958.000000	13.199161
1957.000000	13.166733
1956.000000	13.133520
1955.000000	13.093125
1954.000000	13.020189
1953.000000	13.072142
1952.000000	13.069673
1951.000000	13.048915
1950.000000	12.998758
1949.000000	12.971715
1948.000000	12.950171
1947.000000	12.928852
1946.000000	12.907869
1945.000000	12.879592
1944.000000	12.854009
1943.000000	12.825171
1942.000000	12.837290
1941.000000	12.839197
1940.000000	12.852550
1939.000000	12.866352
1938.000000	12.888120
1937.000000	12.904503
1936.000000	12.913591
1935.000000	12.965768
1934.000000	12.998309
1933.000000	13.009305
1932.000000	13.084597
1931.000000	13.149229
1930.000000	13.205557
1929.000000	13.272209
1928.000000	13.351091
1927.000000	13.429749
1926.000000	13.537132
1925.000000	13.637895
1924.000000	13.743708
1923.000000	13.838299
1922.000000	13.957015
1921.000000	14.093909
1920.000000	14.225866
1919.000000	14.375103
1918.000000	14.531746
1917.000000	14.700058
1916.000000	14.829995
1915.000000	14.985403
1914.000000	15.182553
1913.000000	15.365453
1912.000000	15.552840
1911.000000	15.763006
1910.000000	15.950394
1909.000000	16.132283
1908.000000	16.330106
1907.000000	16.526359
1906.000000	16.740003
1905.000000	16.963409
1904.000000	17.210492
1903.000000	17.430308
1902.000000	17.672116
1901.000000	17.897430
1900.000000	18.151806
1899.000000	18.417740
1898.000000	18.647879
1897.000000	18.911007
1896.000000	19.160558
1895.000000	19.393390
1894.000000	19.642604
1893.000000	19.877456
1892.000000	20.141594
1891.000000	20.401468
1890.000000	20.633403
1889.000000	20.856921
1888.000000	21.140135
1887.000000	21.442424
1886.000000	21.721598
1885.000000	22.047338
1884.000000	22.417064
1883.000000	22.813047
1882.000000	23.214640
1881.000000	23.608603
1880.000000	24.030281
1879.000000	24.412126
1878.000000	24.776690
1877.000000	25.115671
1876.000000	25.421663
1875.000000	25.673682
1874.000000	25.921438
1873.000000	26.149894
1872.000000	26.347044
1871.000000	26.542398
1870.000000	26.713628
1869.000000	26.855234
1868.000000	27.022986
1867.000000	27.152137
1866.000000	27.226419
1865.000000	27.325723
1864.000000	27.413358
1863.000000	27.476643
1862.000000	27.540602
1861.000000	27.570562
1860.000000	27.566298
1859.000000	27.526127
1858.000000	27.492914
1857.000000	27.491567
1856.000000	27.478663
1855.000000	27.445562
1854.000000	27.413134
1853.000000	27.335373
1852.000000	27.256491
1851.000000	27.231693
1850.000000	27.219126
1849.000000	27.160890
1848.000000	27.039817
1847.000000	26.911563
1846.000000	26.800140
1845.000000	26.744822
1844.000000	26.731693
1843.000000	26.739323
1842.000000	26.733489
1841.000000	26.665490
1840.000000	26.577631
1839.000000	26.499310
1838.000000	26.440176
1837.000000	26.389795
1836.000000	26.328417
1835.000000	26.260307
1834.000000	26.177834
1833.000000	26.117802
1832.000000	26.073592
1831.000000	26.017039
1830.000000	25.939503
1829.000000	25.854225
1828.000000	25.751891
1827.000000	25.658758
1826.000000	25.590087
1825.000000	25.526802
1824.000000	25.482031
1823.000000	25.459701
1822.000000	25.476420
1821.000000	25.448032
1820.000000	25.366344
1819.000000	25.302497
1818.000000	25.284769
1817.000000	25.283085
1816.000000	25.283647
1815.000000	25.276129
1814.000000	25.262551
1813.000000	25.257951
1812.000000	25.235397
1811.000000	25.197471
1810.000000	25.138561
1809.000000	25.108377
1808.000000	25.083692
1807.000000	25.037574
1806.000000	24.985397
1805.000000	24.932098
1804.000000	24.889908
1803.000000	24.856694
1802.000000	24.819666
1801.000000	24.765245
1800.000000	24.697695
1799.000000	24.635195
1798.000000	24.602655
1797.000000	24.570227
1796.000000	24.533871
1795.000000	24.492242
1794.000000	24.434567
1793.000000	24.399109
1792.000000	24.338966
1791.000000	24.279495
1790.000000	24.243140
1789.000000	24.184455
1788.000000	24.125770
1787.000000	24.058670
1786.000000	23.998638
1785.000000	23.952745
1784.000000	23.857256
1783.000000	23.792400
1782.000000	23.713405
1781.000000	23.640806
1780.000000	23.562149
1779.000000	23.477768
1778.000000	23.401579
1777.000000	23.312149
1776.000000	23.218118
1775.000000	23.114438
1774.000000	22.988091
1773.000000	22.861408
1772.000000	22.728666
1771.000000	22.620722
1770.000000	22.505708
1769.000000	22.394510
1768.000000	22.266368
1767.000000	22.168186
1766.000000	22.099739
1765.000000	22.049582
1764.000000	21.999201
1763.000000	21.968680
1762.000000	22.002006
1761.000000	22.044421
1760.000000	22.111633
1759.000000	22.187823
1758.000000	22.252791
1757.000000	22.314057
1756.000000	22.359501
1755.000000	22.412015
1754.000000	22.463294
1753.000000	22.462508
1752.000000	22.438945
1751.000000	22.401579
1750.000000	22.377006
1749.000000	22.321799
1748.000000	22.258065
1747.000000	22.194667
1746.000000	22.074717
1745.000000	21.942423
1744.000000	21.807100
1743.000000	21.642715
1742.000000	21.443097
1741.000000	21.226647
1740.000000	21.011544
1739.000000	20.807662
1738.000000	20.593456
1737.000000	20.424583
1736.000000	20.292065
1735.000000	20.202748
1734.000000	20.161455
1733.000000	20.153600
1732.000000	20.189844
1731.000000	20.270072
1730.000000	20.376670
1729.000000	20.484278
1728.000000	20.595701
1727.000000	20.694332
1726.000000	20.802164
1725.000000	20.867244
1724.000000	20.882841
1723.000000	20.937936
1722.000000	20.940068
1721.000000	20.942761
1720.000000	20.962285
1719.000000	20.982258
1718.000000	21.007168
1717.000000	21.038362
1716.000000	21.082460
1715.000000	21.151917
1714.000000	21.204991
1713.000000	21.273999
1712.000000	21.320566
1711.000000	21.337958
1710.000000	21.356472
1709.000000	21.369601
1708.000000	21.345700
1707.000000	21.289708
1706.000000	21.274897
1705.000000	21.232707
1704.000000	21.196127
1703.000000	21.077747
1702.000000	20.994601
1701.000000	20.878129
1700.000000	20.721598
1699.000000	20.548573
1698.000000	20.403600
1697.000000	20.310019
1696.000000	20.223843
1695.000000	20.178511
1694.000000	20.220252
1693.000000	20.306765
1692.000000	20.430418
1691.000000	20.561253
1690.000000	20.713183
1689.000000	20.847384
1688.000000	20.883739
1687.000000	20.879812
1686.000000	20.887779
1685.000000	20.881495
1684.000000	20.947361
1683.000000	21.100637
1682.000000	21.389910
1681.000000	21.808110
1680.000000	22.321575
1679.000000	22.809119
1678.000000	23.343679
1677.000000	23.844015
1676.000000	24.281627
1675.000000	24.669868
1674.000000	25.025119
1673.000000	25.311362
1672.000000	25.586048
1671.000000	25.761092
1670.000000	25.968902
1669.000000	26.151913
1668.000000	26.293632
1667.000000	26.440737
1666.000000	26.547335
1665.000000	26.652474
1664.000000	26.730234
1663.000000	26.801823
1662.000000	26.881042
1661.000000	26.934229
1660.000000	26.994934
1659.000000	27.043295
1658.000000	27.057434
1657.000000	27.080773
1656.000000	27.103888
1655.000000	27.110059
1654.000000	27.131715
1653.000000	27.116006
1652.000000	27.099624
1651.000000	27.100521
1650.000000	27.057209
1649.000000	27.058107
1648.000000	27.034767
1647.000000	26.990445
1646.000000	26.961832
1645.000000	26.919530
1644.000000	26.871841
1643.000000	26.835149
1642.000000	26.798681
1641.000000	26.770181
1640.000000	26.713067
1639.000000	26.655728
1638.000000	26.595472
1637.000000	26.548345
1636.000000	26.501891
1635.000000	26.448480
1634.000000	26.401016
1633.000000	26.343677
1632.000000	26.279606
1631.000000	26.224400
1630.000000	26.157075
1629.000000	26.093341
1628.000000	26.021191
1627.000000	25.964526
1626.000000	25.905280
1625.000000	25.836384
1624.000000	25.776465
1623.000000	25.712170
1622.000000	25.647538
1621.000000	25.595136
1620.000000	25.529607
1619.000000	25.468341
1618.000000	25.420092
1617.000000	25.343902
1616.000000	25.284993
1615.000000	25.229562
1614.000000	25.167848
1613.000000	25.113876
1612.000000	25.068095
1611.000000	25.005595
1610.000000	24.957345
1609.000000	24.888786
1608.000000	24.853328
1607.000000	24.793633
1606.000000	24.730124
1605.000000	24.669082
1604.000000	24.600186
1603.000000	24.544531
1602.000000	24.494599
1601.000000	24.438270
1600.000000	24.390806
1599.000000	24.333916
1598.000000	24.267153
1597.000000	24.198032
1596.000000	24.166053
