PE UV       SUBTECH     SPECTRUM    ASCII       PEDS        4.00        
   -1
CICIMAUCR0012-3.Sample.ASC
24/04/04
15:58:33.00
24/04/04
15:58:33.00
Vinicio Soto Monge
C. cupreomarginata
250,000000
1
Lambda 1050
1050L1511233
PerkinElmer UV WinLab 6.3.2.0749 / 2.02.05 Lambda 900 UV/VIS/NIR, Aug  7 2015 09:38:08

0
0
3350/servo 860,8/2
0
0
UV/VIS
1
1
1
DoubleDePol,CommonBeamDepol,RBeamAtt,SBeamAtt,60mm sphere, WB InGaAs Detector
0
0
0
0
Program
Program
3350/servo 860,8/2
3350/0,2 860,8/0,2
3350/0,2 860,8/0,2
0
15.00
 
 
 
0
 
860,8
319,2
860,8
Front
100
on
S:100 R:100
0
0
0
0
 
0
 
 
 
0
 
 
0
0
0
0
0
 
 
 
 
0
0


0
0
#HDR
-1
-1
#GR
nm
%R
1.0
0.0
2500,000000
-1,000000
2251
8
59,015000
5,370900
#DATA
250.000000	1.884537
251.000000	1.901069
252.000000	1.878938
253.000000	1.859575
254.000000	1.857826
255.000000	1.863886
256.000000	1.844812
257.000000	1.855414
258.000000	1.838505
259.000000	1.835339
260.000000	1.843054
261.000000	1.816703
262.000000	1.803109
263.000000	1.821274
264.000000	1.777194
265.000000	1.772744
266.000000	1.789135
267.000000	1.771190
268.000000	1.738900
269.000000	1.744982
270.000000	1.737367
271.000000	1.713473
272.000000	1.741740
273.000000	1.716612
274.000000	1.738527
275.000000	1.725227
276.000000	1.714496
277.000000	1.703397
278.000000	1.712633
279.000000	1.719619
280.000000	1.713503
281.000000	1.680566
282.000000	1.686491
283.000000	1.689445
284.000000	1.663225
285.000000	1.694032
286.000000	1.687661
287.000000	1.695006
288.000000	1.670032
289.000000	1.706049
290.000000	1.688455
291.000000	1.670834
292.000000	1.701857
293.000000	1.664073
294.000000	1.694277
295.000000	1.681089
296.000000	1.643398
297.000000	1.666686
298.000000	1.692154
299.000000	1.675537
300.000000	1.651527
301.000000	1.647266
302.000000	1.646337
303.000000	1.664115
304.000000	1.659903
305.000000	1.650812
306.000000	1.635286
307.000000	1.641037
308.000000	1.648049
309.000000	1.640032
310.000000	1.609970
311.000000	1.636227
312.000000	1.629706
313.000000	1.625599
314.000000	1.641052
315.000000	1.596639
316.000000	1.617076
317.000000	1.607693
318.000000	1.441663
319.000000	1.705961
320.000000	1.486792
321.000000	1.591111
322.000000	1.484267
323.000000	1.607068
324.000000	1.583187
325.000000	1.471696
326.000000	1.393793
327.000000	1.453706
328.000000	1.477108
329.000000	1.602531
330.000000	1.465964
331.000000	1.410475
332.000000	1.521319
333.000000	1.523735
334.000000	1.525272
335.000000	1.523036
336.000000	1.558824
337.000000	1.630055
338.000000	1.492058
339.000000	1.524351
340.000000	1.524946
341.000000	1.490354
342.000000	1.499655
343.000000	1.583901
344.000000	1.538218
345.000000	1.546910
346.000000	1.572509
347.000000	1.555320
348.000000	1.591459
349.000000	1.528906
350.000000	1.563675
351.000000	1.560686
352.000000	1.530728
353.000000	1.557540
354.000000	1.586105
355.000000	1.623474
356.000000	1.574592
357.000000	1.538891
358.000000	1.539930
359.000000	1.559710
360.000000	1.547374
361.000000	1.540495
362.000000	1.581796
363.000000	1.547721
364.000000	1.596844
365.000000	1.617407
366.000000	1.577431
367.000000	1.577383
368.000000	1.599883
369.000000	1.576317
370.000000	1.614228
371.000000	1.648986
372.000000	1.649275
373.000000	1.654689
374.000000	1.665058
375.000000	1.626636
376.000000	1.630593
377.000000	1.804101
378.000000	1.799894
379.000000	1.805577
380.000000	1.812112
381.000000	1.822554
382.000000	1.830443
383.000000	1.834997
384.000000	1.846168
385.000000	1.855852
386.000000	1.870141
387.000000	1.877728
388.000000	1.896900
389.000000	1.905867
390.000000	1.923453
391.000000	1.939467
392.000000	1.956565
393.000000	1.972822
394.000000	1.993524
395.000000	2.015179
396.000000	2.050485
397.000000	2.076369
398.000000	2.093258
399.000000	2.126165
400.000000	2.161820
401.000000	2.196932
402.000000	2.229072
403.000000	2.263862
404.000000	2.314546
405.000000	2.357378
406.000000	2.399905
407.000000	2.449596
408.000000	2.499054
409.000000	2.552645
410.000000	2.607314
411.000000	2.659794
412.000000	2.713224
413.000000	2.770635
414.000000	2.835563
415.000000	2.889102
416.000000	2.943332
417.000000	3.000976
418.000000	3.057312
419.000000	3.113850
420.000000	3.169550
421.000000	3.228262
422.000000	3.291835
423.000000	3.351190
424.000000	3.403601
425.000000	3.449018
426.000000	3.509711
427.000000	3.566241
428.000000	3.618390
429.000000	3.663948
430.000000	3.714005
431.000000	3.765956
432.000000	3.807232
433.000000	3.856590
434.000000	3.900428
435.000000	3.947674
436.000000	3.987279
437.000000	4.028626
438.000000	4.071561
439.000000	4.105516
440.000000	4.146377
441.000000	4.171228
442.000000	4.186380
443.000000	4.218735
444.000000	4.250107
445.000000	4.273784
446.000000	4.288688
447.000000	4.298446
448.000000	4.309503
449.000000	4.313392
450.000000	4.311865
451.000000	4.307899
452.000000	4.300045
453.000000	4.289947
454.000000	4.278991
455.000000	4.268937
456.000000	4.262138
457.000000	4.237479
458.000000	4.212659
459.000000	4.199373
460.000000	4.186277
461.000000	4.168125
462.000000	4.153534
463.000000	4.147135
464.000000	4.144515
465.000000	4.145062
466.000000	4.151486
467.000000	4.163637
468.000000	4.174366
469.000000	4.202240
470.000000	4.239295
471.000000	4.275409
472.000000	4.321097
473.000000	4.380569
474.000000	4.447357
475.000000	4.525685
476.000000	4.619741
477.000000	4.715504
478.000000	4.814528
479.000000	4.919116
480.000000	5.032261
481.000000	5.153524
482.000000	5.272591
483.000000	5.372802
484.000000	5.459701
485.000000	5.541389
486.000000	5.624118
487.000000	5.694995
488.000000	5.768441
489.000000	5.847042
490.000000	5.904747
491.000000	5.965263
492.000000	6.031693
493.000000	6.080454
494.000000	6.123374
495.000000	6.157588
496.000000	6.202131
497.000000	6.253541
498.000000	6.297487
499.000000	6.351719
500.000000	6.404767
501.000000	6.460508
502.000000	6.532042
503.000000	6.591659
504.000000	6.657795
505.000000	6.751315
506.000000	6.846311
507.000000	6.963047
508.000000	7.094974
509.000000	7.225620
510.000000	7.370608
511.000000	7.516738
512.000000	7.685384
513.000000	7.860877
514.000000	8.052728
515.000000	8.250468
516.000000	8.465457
517.000000	8.685390
518.000000	8.907130
519.000000	9.129862
520.000000	9.357601
521.000000	9.576478
522.000000	9.804709
523.000000	10.038713
524.000000	10.272498
525.000000	10.528052
526.000000	10.768036
527.000000	11.010873
528.000000	11.261697
529.000000	11.506084
530.000000	11.747825
531.000000	11.974360
532.000000	12.208173
533.000000	12.441392
534.000000	12.664808
535.000000	12.900415
536.000000	13.094057
537.000000	13.287949
538.000000	13.480501
539.000000	13.659601
540.000000	13.826004
541.000000	13.989202
542.000000	14.111344
543.000000	14.232891
544.000000	14.343776
545.000000	14.437879
546.000000	14.537093
547.000000	14.628793
548.000000	14.697568
549.000000	14.784047
550.000000	14.869975
551.000000	14.931403
552.000000	15.025668
553.000000	15.122010
554.000000	15.200266
555.000000	15.278514
556.000000	15.346205
557.000000	15.403957
558.000000	15.461999
559.000000	15.498087
560.000000	15.905443
561.000000	15.965275
562.000000	15.956837
563.000000	15.946175
564.000000	15.930662
565.000000	15.909215
566.000000	15.869767
567.000000	15.869755
568.000000	15.831211
569.000000	15.804003
570.000000	15.802084
571.000000	15.800857
572.000000	15.797507
573.000000	15.802283
574.000000	15.829401
575.000000	15.843623
576.000000	15.867119
577.000000	15.866207
578.000000	15.885494
579.000000	15.877705
580.000000	15.843459
581.000000	15.823992
582.000000	15.772545
583.000000	15.743695
584.000000	15.680594
585.000000	15.610512
586.000000	15.544008
587.000000	15.461664
588.000000	15.382935
589.000000	15.276475
590.000000	15.196036
591.000000	15.098126
592.000000	15.000925
593.000000	14.927160
594.000000	14.816827
595.000000	14.693436
596.000000	14.601018
597.000000	14.493282
598.000000	14.347533
599.000000	14.248106
600.000000	14.112272
601.000000	14.000058
602.000000	13.876632
603.000000	13.761985
604.000000	13.651631
605.000000	13.529191
606.000000	13.426174
607.000000	13.298856
608.000000	13.180485
609.000000	13.044854
610.000000	12.938757
611.000000	12.820474
612.000000	12.689955
613.000000	12.534202
614.000000	12.412152
615.000000	12.243711
616.000000	12.100632
617.000000	11.934327
618.000000	11.773935
619.000000	11.604705
620.000000	11.440829
621.000000	11.285415
622.000000	11.150996
623.000000	11.028036
624.000000	10.937910
625.000000	10.831746
626.000000	10.776521
627.000000	10.703166
628.000000	10.680741
629.000000	10.661671
630.000000	10.638064
631.000000	10.615837
632.000000	10.612347
633.000000	10.622134
634.000000	10.605207
635.000000	10.604618
636.000000	10.601624
637.000000	10.586858
638.000000	10.591423
639.000000	10.592986
640.000000	10.599864
641.000000	10.622071
642.000000	10.659748
643.000000	10.698427
644.000000	10.742488
645.000000	10.798854
646.000000	10.879904
647.000000	10.964961
648.000000	11.072777
649.000000	11.162331
650.000000	11.255100
651.000000	11.363518
652.000000	11.466843
653.000000	11.561894
654.000000	11.630628
655.000000	11.693471
656.000000	11.772794
657.000000	11.821331
658.000000	11.873900
659.000000	11.930424
660.000000	11.967171
661.000000	12.020535
662.000000	12.072167
663.000000	12.133351
664.000000	12.210148
665.000000	12.290141
666.000000	12.348805
667.000000	12.410366
668.000000	12.491697
669.000000	12.554024
670.000000	12.635732
671.000000	12.708645
672.000000	12.765510
673.000000	12.813396
674.000000	12.887312
675.000000	12.949596
676.000000	12.999845
677.000000	13.038428
678.000000	13.066609
679.000000	13.097477
680.000000	13.130949
681.000000	13.152573
682.000000	13.171600
683.000000	13.216902
684.000000	13.260987
685.000000	13.289099
686.000000	13.294740
687.000000	13.331297
688.000000	13.392471
689.000000	13.440305
690.000000	13.468743
691.000000	13.510310
692.000000	13.532698
693.000000	13.563919
694.000000	13.593819
695.000000	13.615851
696.000000	13.655614
697.000000	13.695733
698.000000	13.714986
699.000000	13.751602
700.000000	13.758452
701.000000	13.779083
702.000000	13.813804
703.000000	13.861104
704.000000	13.899222
705.000000	13.962068
706.000000	14.005190
707.000000	14.048722
708.000000	14.095464
709.000000	14.137794
710.000000	14.176657
711.000000	14.228117
712.000000	14.267007
713.000000	14.329132
714.000000	14.394097
715.000000	14.431349
716.000000	14.465255
717.000000	14.493625
718.000000	14.510802
719.000000	14.573007
720.000000	14.627355
721.000000	14.649461
722.000000	14.686063
723.000000	14.714290
724.000000	14.737529
725.000000	14.795467
726.000000	14.831041
727.000000	14.864333
728.000000	14.926017
729.000000	14.949892
730.000000	14.974107
731.000000	15.000295
732.000000	15.025478
733.000000	15.049724
734.000000	15.065180
735.000000	15.093897
736.000000	15.110612
737.000000	15.114937
738.000000	15.131771
739.000000	15.145916
740.000000	15.179266
741.000000	15.197331
742.000000	15.202939
743.000000	15.226913
744.000000	15.256253
745.000000	15.300685
746.000000	15.361738
747.000000	15.411647
748.000000	15.423497
749.000000	15.441013
750.000000	15.465830
751.000000	15.481301
752.000000	15.477616
753.000000	15.488584
754.000000	15.493588
755.000000	15.496156
756.000000	15.514957
757.000000	15.527100
758.000000	15.535785
759.000000	15.560534
760.000000	15.601481
761.000000	15.622187
762.000000	15.646094
763.000000	15.685551
764.000000	15.718213
765.000000	15.748150
766.000000	15.772917
767.000000	15.777170
768.000000	15.795475
769.000000	15.815920
770.000000	15.840794
771.000000	15.872637
772.000000	15.913202
773.000000	15.878625
774.000000	15.876117
775.000000	15.909089
776.000000	15.943528
777.000000	15.976875
778.000000	16.015626
779.000000	16.055327
780.000000	16.106823
781.000000	16.197898
782.000000	16.286422
783.000000	16.325090
784.000000	16.371890
785.000000	16.438869
786.000000	16.509694
787.000000	16.558365
788.000000	16.622462
789.000000	16.636685
790.000000	16.686622
791.000000	16.716028
792.000000	16.751642
793.000000	16.843523
794.000000	16.891491
795.000000	16.949429
796.000000	17.000484
797.000000	17.095058
798.000000	17.163249
799.000000	17.170931
800.000000	17.227303
801.000000	17.322708
802.000000	17.372623
803.000000	17.449560
804.000000	17.488917
805.000000	17.546861
806.000000	17.628978
807.000000	17.695283
808.000000	17.662019
809.000000	17.635303
810.000000	17.679139
811.000000	17.759908
812.000000	17.840801
813.000000	17.820043
814.000000	17.866914
815.000000	17.869141
816.000000	17.921135
817.000000	18.005926
818.000000	18.009615
819.000000	18.038595
820.000000	18.102556
821.000000	18.165683
822.000000	18.169035
823.000000	18.171628
824.000000	18.257656
825.000000	18.305876
826.000000	18.375210
827.000000	18.412195
828.000000	18.471340
829.000000	18.471293
830.000000	18.487297
831.000000	18.502510
832.000000	18.499256
833.000000	18.582951
834.000000	18.722731
835.000000	18.757116
836.000000	18.708023
837.000000	18.661763
838.000000	18.719490
839.000000	18.773564
840.000000	18.773908
841.000000	18.829319
842.000000	18.793714
843.000000	18.764999
844.000000	18.745947
845.000000	18.872203
846.000000	19.017555
847.000000	18.997361
848.000000	19.000426
849.000000	19.011084
850.000000	19.052501
851.000000	19.050219
852.000000	19.025710
853.000000	19.002753
854.000000	18.828216
855.000000	18.960848
856.000000	18.929966
857.000000	18.858985
858.000000	18.371468
859.000000	19.189780
860.000000	19.266650
861.000000	19.319397
862.000000	19.332260
863.000000	19.317353
864.000000	19.324248
865.000000	19.305080
866.000000	19.276341
867.000000	19.245256
868.000000	19.230064
869.000000	19.190584
870.000000	19.174992
871.000000	19.124396
872.000000	19.099464
873.000000	19.050216
874.000000	19.017703
875.000000	18.964321
876.000000	18.924863
877.000000	18.884274
878.000000	18.823362
879.000000	18.788205
880.000000	18.760003
881.000000	18.701081
882.000000	18.677800
883.000000	18.601514
884.000000	18.549926
885.000000	18.525522
886.000000	18.497091
887.000000	18.443277
888.000000	18.397831
889.000000	18.349569
890.000000	18.313119
891.000000	18.276611
892.000000	18.226909
893.000000	18.171832
894.000000	18.124774
895.000000	18.057421
896.000000	18.015784
897.000000	17.980827
898.000000	17.932749
899.000000	17.882954
900.000000	17.835917
901.000000	17.793761
902.000000	17.754859
903.000000	17.724899
904.000000	17.672596
905.000000	17.628247
906.000000	17.580763
907.000000	17.571280
908.000000	17.528775
909.000000	17.499104
910.000000	17.453751
911.000000	17.425538
912.000000	17.413165
913.000000	17.385715
914.000000	17.379972
915.000000	17.332014
916.000000	17.303001
917.000000	17.303994
918.000000	17.281208
919.000000	17.260521
920.000000	17.233720
921.000000	17.217113
922.000000	17.199192
923.000000	17.198195
924.000000	17.163268
925.000000	17.150099
926.000000	17.134945
927.000000	17.122802
928.000000	17.118269
929.000000	17.098400
930.000000	17.094197
931.000000	17.089615
932.000000	17.059481
933.000000	17.056771
934.000000	17.037025
935.000000	17.037035
936.000000	17.003006
937.000000	17.002767
938.000000	16.986896
939.000000	16.984428
940.000000	16.983302
941.000000	16.984527
942.000000	16.967759
943.000000	16.978174
944.000000	16.982796
945.000000	16.987856
946.000000	16.991270
947.000000	16.992705
948.000000	17.009167
949.000000	17.008548
950.000000	17.009708
951.000000	17.020851
952.000000	17.023041
953.000000	17.023204
954.000000	17.031364
955.000000	17.034616
956.000000	17.031315
957.000000	17.038087
958.000000	17.036949
959.000000	17.042303
960.000000	17.042673
961.000000	17.038728
962.000000	17.030398
963.000000	17.033415
964.000000	17.017479
965.000000	17.033236
966.000000	17.035758
967.000000	17.039685
968.000000	17.036768
969.000000	17.028071
970.000000	17.036750
971.000000	17.029091
972.000000	17.032027
973.000000	17.020770
974.000000	17.023734
975.000000	17.020422
976.000000	17.018421
977.000000	17.002883
978.000000	17.008820
979.000000	17.001671
980.000000	16.996869
981.000000	16.989051
982.000000	16.969179
983.000000	16.967701
984.000000	16.954350
985.000000	16.941406
986.000000	16.938484
987.000000	16.937293
988.000000	16.938201
989.000000	16.924190
990.000000	16.908522
991.000000	16.908395
992.000000	16.910949
993.000000	16.896307
994.000000	16.885750
995.000000	16.888918
996.000000	16.890300
997.000000	16.885382
998.000000	16.881929
999.000000	16.877046
1000.000000	16.875620
1001.000000	16.875637
1002.000000	16.875952
1003.000000	16.877055
1004.000000	16.864458
1005.000000	16.854611
1006.000000	16.862689
1007.000000	16.865394
1008.000000	16.864412
1009.000000	16.861131
1010.000000	16.856698
1011.000000	16.864804
1012.000000	16.880528
1013.000000	16.885468
1014.000000	16.898171
1015.000000	16.918769
1016.000000	16.934897
1017.000000	16.957639
1018.000000	16.979984
1019.000000	16.986748
1020.000000	17.010411
1021.000000	17.044696
1022.000000	17.057740
1023.000000	17.075747
1024.000000	17.106778
1025.000000	17.127999
1026.000000	17.155909
1027.000000	17.179576
1028.000000	17.199449
1029.000000	17.225269
1030.000000	17.241394
1031.000000	17.259086
1032.000000	17.277680
1033.000000	17.294369
1034.000000	17.320556
1035.000000	17.344895
1036.000000	17.374541
1037.000000	17.393036
1038.000000	17.401428
1039.000000	17.416995
1040.000000	17.436022
1041.000000	17.446612
1042.000000	17.453377
1043.000000	17.470450
1044.000000	17.484071
1045.000000	17.497523
1046.000000	17.515924
1047.000000	17.534001
1048.000000	17.538910
1049.000000	17.551052
1050.000000	17.564074
1051.000000	17.573108
1052.000000	17.598360
1053.000000	17.612958
1054.000000	17.624366
1055.000000	17.642137
1056.000000	17.656782
1057.000000	17.666366
1058.000000	17.681511
1059.000000	17.682295
1060.000000	17.698448
1061.000000	17.713362
1062.000000	17.718702
1063.000000	17.725759
1064.000000	17.727612
1065.000000	17.748192
1066.000000	17.766371
1067.000000	17.764217
1068.000000	17.774911
1069.000000	17.792644
1070.000000	17.797887
1071.000000	17.799245
1072.000000	17.805074
1073.000000	17.813774
1074.000000	17.816695
1075.000000	17.824964
1076.000000	17.829340
1077.000000	17.837793
1078.000000	17.851826
1079.000000	17.855183
1080.000000	17.857402
1081.000000	17.867230
1082.000000	17.877740
1083.000000	17.886824
1084.000000	17.892218
1085.000000	17.895941
1086.000000	17.912675
1087.000000	17.927794
1088.000000	17.933921
1089.000000	17.941801
1090.000000	17.961133
1091.000000	17.971199
1092.000000	17.972545
1093.000000	17.993348
1094.000000	17.994311
1095.000000	17.987349
1096.000000	18.002696
1097.000000	18.012473
1098.000000	18.010207
1099.000000	18.016558
1100.000000	18.030518
1101.000000	18.041367
1102.000000	18.040130
1103.000000	18.050583
1104.000000	18.055062
1105.000000	18.067657
1106.000000	18.085817
1107.000000	18.068313
1108.000000	18.079593
1109.000000	18.086455
1110.000000	18.094143
1111.000000	18.102676
1112.000000	18.114054
1113.000000	18.124887
1114.000000	18.123810
1115.000000	18.128457
1116.000000	18.136251
1117.000000	18.139929
1118.000000	18.138675
1119.000000	18.135388
1120.000000	18.133557
1121.000000	18.132072
1122.000000	18.128783
1123.000000	18.101724
1124.000000	18.084127
1125.000000	18.055905
1126.000000	18.031209
1127.000000	18.016945
1128.000000	17.979237
1129.000000	17.944548
1130.000000	17.878362
1131.000000	17.823233
1132.000000	17.757105
1133.000000	17.698929
1134.000000	17.633824
1135.000000	17.544357
1136.000000	17.442714
1137.000000	17.318579
1138.000000	17.233577
1139.000000	17.164010
1140.000000	17.069681
1141.000000	16.979455
1142.000000	16.900627
1143.000000	16.827321
1144.000000	16.751254
1145.000000	16.703932
1146.000000	16.658882
1147.000000	16.630380
1148.000000	16.626018
1149.000000	16.633939
1150.000000	16.638530
1151.000000	16.643611
1152.000000	16.643408
1153.000000	16.609667
1154.000000	16.567835
1155.000000	16.520660
1156.000000	16.459368
1157.000000	16.379500
1158.000000	16.298933
1159.000000	16.206151
1160.000000	16.113376
1161.000000	16.020375
1162.000000	15.908934
1163.000000	15.800021
1164.000000	15.696984
1165.000000	15.595575
1166.000000	15.486162
1167.000000	15.391397
1168.000000	15.286905
1169.000000	15.173865
1170.000000	15.075315
1171.000000	14.963293
1172.000000	14.871748
