PE UV       SUBTECH     SPECTRUM    ASCII       PEDS        4.00        
   -1
CICIMAUCR0001-3.Sample.ASC
24/04/04
15:45:00.00
24/04/04
15:45:00.00
Vinicio Soto Monge
C. kalinini
250,000000
1
Lambda 1050
1050L1511233
PerkinElmer UV WinLab 6.3.2.0749 / 2.02.05 Lambda 900 UV/VIS/NIR, Aug  7 2015 09:38:08

0
0
3350/servo 860,8/2
0
0
UV/VIS
1
1
1
DoubleDePol,CommonBeamDepol,RBeamAtt,SBeamAtt,60mm sphere, WB InGaAs Detector
0
0
0
0
Program
Program
3350/servo 860,8/2
3350/0,2 860,8/0,2
3350/0,2 860,8/0,2
0
15.00
 
 
 
0
 
860,8
319,2
860,8
Front
100
on
S:100 R:100
0
0
0
0
 
0
 
 
 
0
 
 
0
0
0
0
0
 
 
 
 
0
0


0
0
#HDR
-1
-1
#GR
nm
%R
1.0
0.0
2500,000000
-1,000000
2251
8
73,921900
4,917300
#DATA
250.000000	1.524730
251.000000	1.537408
252.000000	1.506365
253.000000	1.514408
254.000000	1.533601
255.000000	1.489872
256.000000	1.501988
257.000000	1.499648
258.000000	1.480630
259.000000	1.455770
260.000000	1.471572
261.000000	1.486852
262.000000	1.480393
263.000000	1.479087
264.000000	1.440528
265.000000	1.472521
266.000000	1.440920
267.000000	1.436223
268.000000	1.425459
269.000000	1.466973
270.000000	1.418507
271.000000	1.418798
272.000000	1.399854
273.000000	1.402009
274.000000	1.408408
275.000000	1.398782
276.000000	1.434746
277.000000	1.441997
278.000000	1.379392
279.000000	1.374956
280.000000	1.351272
281.000000	1.353752
282.000000	1.391081
283.000000	1.379253
284.000000	1.392057
285.000000	1.375816
286.000000	1.357327
287.000000	1.364527
288.000000	1.375511
289.000000	1.392286
290.000000	1.378812
291.000000	1.379181
292.000000	1.388354
293.000000	1.400245
294.000000	1.361062
295.000000	1.411562
296.000000	1.391228
297.000000	1.379099
298.000000	1.371099
299.000000	1.360859
300.000000	1.368446
301.000000	1.422557
302.000000	1.413773
303.000000	1.385919
304.000000	1.405865
305.000000	1.391757
306.000000	1.401223
307.000000	1.428723
308.000000	1.390573
309.000000	1.375522
310.000000	1.362663
311.000000	1.392101
312.000000	1.376419
313.000000	1.366800
314.000000	1.343750
315.000000	1.364927
316.000000	1.401990
317.000000	1.492380
318.000000	1.225388
319.000000	1.273639
320.000000	1.203935
321.000000	1.357653
322.000000	1.245655
323.000000	1.328860
324.000000	1.372695
325.000000	1.435878
326.000000	1.192182
327.000000	1.239265
328.000000	1.410777
329.000000	1.295943
330.000000	1.383133
331.000000	1.426754
332.000000	1.373615
333.000000	1.366327
334.000000	1.263977
335.000000	1.344074
336.000000	1.472638
337.000000	1.467638
338.000000	1.415689
339.000000	1.321607
340.000000	1.353448
341.000000	1.383369
342.000000	1.449336
343.000000	1.462979
344.000000	1.420456
345.000000	1.391590
346.000000	1.369119
347.000000	1.366565
348.000000	1.402330
349.000000	1.410906
350.000000	1.390014
351.000000	1.404233
352.000000	1.419560
353.000000	1.408189
354.000000	1.423830
355.000000	1.397028
356.000000	1.443086
357.000000	1.424664
358.000000	1.463129
359.000000	1.443261
360.000000	1.481409
361.000000	1.461638
362.000000	1.480564
363.000000	1.554676
364.000000	1.492600
365.000000	1.525153
366.000000	1.547909
367.000000	1.517832
368.000000	1.490141
369.000000	1.562340
370.000000	1.527826
371.000000	1.514786
372.000000	1.582754
373.000000	1.618609
374.000000	1.632904
375.000000	1.609919
376.000000	1.624721
377.000000	1.752796
378.000000	1.771257
379.000000	1.777520
380.000000	1.782666
381.000000	1.783844
382.000000	1.797187
383.000000	1.798653
384.000000	1.801849
385.000000	1.810463
386.000000	1.818642
387.000000	1.828757
388.000000	1.837106
389.000000	1.844705
390.000000	1.849101
391.000000	1.846083
392.000000	1.850522
393.000000	1.863536
394.000000	1.868795
395.000000	1.876189
396.000000	1.875656
397.000000	1.875760
398.000000	1.888079
399.000000	1.898496
400.000000	1.903041
401.000000	1.906996
402.000000	1.921951
403.000000	1.928479
404.000000	1.929645
405.000000	1.937123
406.000000	1.955656
407.000000	1.959571
408.000000	1.967675
409.000000	1.986995
410.000000	2.002150
411.000000	2.017243
412.000000	2.034451
413.000000	2.060444
414.000000	2.083975
415.000000	2.107714
416.000000	2.137722
417.000000	2.158315
418.000000	2.187327
419.000000	2.221722
420.000000	2.253664
421.000000	2.292363
422.000000	2.335795
423.000000	2.376017
424.000000	2.419271
425.000000	2.464620
426.000000	2.514445
427.000000	2.565370
428.000000	2.623018
429.000000	2.691682
430.000000	2.759088
431.000000	2.826897
432.000000	2.897331
433.000000	2.968471
434.000000	3.043905
435.000000	3.132098
436.000000	3.210436
437.000000	3.291328
438.000000	3.376645
439.000000	3.463153
440.000000	3.557789
441.000000	3.651421
442.000000	3.752648
443.000000	3.855146
444.000000	3.950992
445.000000	4.041511
446.000000	4.132339
447.000000	4.229670
448.000000	4.328926
449.000000	4.421666
450.000000	4.509396
451.000000	4.609931
452.000000	4.706750
453.000000	4.791431
454.000000	4.877821
455.000000	4.972301
456.000000	5.059273
457.000000	5.136599
458.000000	5.215785
459.000000	5.301067
460.000000	5.390907
461.000000	5.469846
462.000000	5.543146
463.000000	5.616795
464.000000	5.681137
465.000000	5.746758
466.000000	5.819798
467.000000	5.892122
468.000000	5.956220
469.000000	6.021159
470.000000	6.088551
471.000000	6.158336
472.000000	6.227788
473.000000	6.297715
474.000000	6.370505
475.000000	6.443875
476.000000	6.509793
477.000000	6.570367
478.000000	6.635090
479.000000	6.697680
480.000000	6.778799
481.000000	6.841876
482.000000	6.898430
483.000000	6.941557
484.000000	6.961018
485.000000	6.978228
486.000000	6.992161
487.000000	7.006510
488.000000	7.028959
489.000000	7.049887
490.000000	7.059523
491.000000	7.073510
492.000000	7.102573
493.000000	7.123680
494.000000	7.137673
495.000000	7.161885
496.000000	7.187802
497.000000	7.219179
498.000000	7.252540
499.000000	7.288272
500.000000	7.320227
501.000000	7.362765
502.000000	7.420797
503.000000	7.464755
504.000000	7.540316
505.000000	7.617768
506.000000	7.708316
507.000000	7.812091
508.000000	7.919546
509.000000	8.044912
510.000000	8.189218
511.000000	8.339020
512.000000	8.500800
513.000000	8.673609
514.000000	8.864691
515.000000	9.065384
516.000000	9.275689
517.000000	9.468349
518.000000	9.673700
519.000000	9.890205
520.000000	10.104136
521.000000	10.307617
522.000000	10.512177
523.000000	10.711980
524.000000	10.913025
525.000000	11.130972
526.000000	11.331986
527.000000	11.540777
528.000000	11.739071
529.000000	11.947102
530.000000	12.139780
531.000000	12.340833
532.000000	12.522811
533.000000	12.711831
534.000000	12.878346
535.000000	13.057027
536.000000	13.230823
537.000000	13.391150
538.000000	13.543009
539.000000	13.698302
540.000000	13.849177
541.000000	14.019410
542.000000	14.162688
543.000000	14.300743
544.000000	14.433768
545.000000	14.563285
546.000000	14.699682
547.000000	14.819475
548.000000	14.940886
549.000000	15.055350
550.000000	15.178439
551.000000	15.287534
552.000000	15.385017
553.000000	15.491514
554.000000	15.567492
555.000000	15.640532
556.000000	15.711217
557.000000	15.774029
558.000000	15.833637
559.000000	15.883817
560.000000	16.424485
561.000000	16.527797
562.000000	16.566930
563.000000	16.613744
564.000000	16.646393
565.000000	16.665230
566.000000	16.693632
567.000000	16.713635
568.000000	16.742758
569.000000	16.788040
570.000000	16.818616
571.000000	16.819529
572.000000	16.857462
573.000000	16.879776
574.000000	16.857443
575.000000	16.863862
576.000000	16.862050
577.000000	16.841923
578.000000	16.832366
579.000000	16.813017
580.000000	16.804385
581.000000	16.769753
582.000000	16.725256
583.000000	16.696044
584.000000	16.645098
585.000000	16.541343
586.000000	16.482913
587.000000	16.407196
588.000000	16.321747
589.000000	16.262084
590.000000	16.183180
591.000000	16.079477
592.000000	16.004462
593.000000	15.921743
594.000000	15.816812
595.000000	15.698077
596.000000	15.584527
597.000000	15.460242
598.000000	15.340126
599.000000	15.211858
600.000000	15.066294
601.000000	14.931910
602.000000	14.784442
603.000000	14.644281
604.000000	14.490001
605.000000	14.319257
606.000000	14.137284
607.000000	13.970412
608.000000	13.763005
609.000000	13.572407
610.000000	13.380508
611.000000	13.162270
612.000000	13.000724
613.000000	12.810951
614.000000	12.662637
615.000000	12.531901
616.000000	12.417853
617.000000	12.301979
618.000000	12.198533
619.000000	12.123332
620.000000	12.060821
621.000000	12.027088
622.000000	12.001500
623.000000	11.972075
624.000000	11.977629
625.000000	11.997616
626.000000	12.020669
627.000000	12.040121
628.000000	12.089706
629.000000	12.161937
630.000000	12.231394
631.000000	12.338371
632.000000	12.452422
633.000000	12.565494
634.000000	12.683212
635.000000	12.822023
636.000000	12.951547
637.000000	13.092960
638.000000	13.203253
639.000000	13.299779
640.000000	13.389179
641.000000	13.478756
642.000000	13.538358
643.000000	13.572276
644.000000	13.619387
645.000000	13.617746
646.000000	13.613136
647.000000	13.590531
648.000000	13.538982
649.000000	13.480172
650.000000	13.417612
651.000000	13.358025
652.000000	13.305453
653.000000	13.257976
654.000000	13.226948
655.000000	13.233746
656.000000	13.273664
657.000000	13.311252
658.000000	13.379332
659.000000	13.497933
660.000000	13.614342
661.000000	13.765856
662.000000	13.905497
663.000000	14.093278
664.000000	14.279414
665.000000	14.481110
666.000000	14.651160
667.000000	14.847918
668.000000	15.020123
669.000000	15.191000
670.000000	15.309902
671.000000	15.452928
672.000000	15.549536
673.000000	15.628575
674.000000	15.721555
675.000000	15.796331
676.000000	15.814549
677.000000	15.877884
678.000000	15.931846
679.000000	15.959122
680.000000	15.990352
681.000000	16.008567
682.000000	16.050732
683.000000	16.101051
684.000000	16.141628
685.000000	16.237486
686.000000	16.332779
687.000000	16.434498
688.000000	16.532796
689.000000	16.645441
690.000000	16.736401
691.000000	16.857742
692.000000	16.996389
693.000000	17.098978
694.000000	17.188264
695.000000	17.297959
696.000000	17.431512
697.000000	17.540098
698.000000	17.585520
699.000000	17.659039
700.000000	17.767195
701.000000	17.844676
702.000000	17.891553
703.000000	17.983959
704.000000	18.078844
705.000000	18.145425
706.000000	18.253995
707.000000	18.344815
708.000000	18.413560
709.000000	18.497076
710.000000	18.624624
711.000000	18.755192
712.000000	18.860454
713.000000	18.993163
714.000000	19.153602
715.000000	19.329350
716.000000	19.467207
717.000000	19.599949
718.000000	19.712148
719.000000	19.883811
720.000000	20.004781
721.000000	20.118961
722.000000	20.253807
723.000000	20.390436
724.000000	20.502653
725.000000	20.588134
726.000000	20.695461
727.000000	20.800763
728.000000	20.889967
729.000000	20.961123
730.000000	21.031965
731.000000	21.057603
732.000000	21.112227
733.000000	21.188818
734.000000	21.259000
735.000000	21.316554
736.000000	21.359612
737.000000	21.424506
738.000000	21.462407
739.000000	21.507185
740.000000	21.566345
741.000000	21.676527
742.000000	21.753636
743.000000	21.748956
744.000000	21.823079
745.000000	21.907216
746.000000	21.929350
747.000000	21.970882
748.000000	21.999708
749.000000	22.048087
750.000000	22.085114
751.000000	22.117628
752.000000	22.172323
753.000000	22.208474
754.000000	22.304348
755.000000	22.352183
756.000000	22.341842
757.000000	22.386886
758.000000	22.395085
759.000000	22.422539
760.000000	22.445409
761.000000	22.432132
762.000000	22.424770
763.000000	22.485178
764.000000	22.505891
765.000000	22.463301
766.000000	22.454028
767.000000	22.485130
768.000000	22.497554
769.000000	22.523433
770.000000	22.528024
771.000000	22.548937
772.000000	22.554664
773.000000	22.530514
774.000000	22.587915
775.000000	22.618802
776.000000	22.593690
777.000000	22.616803
778.000000	22.640115
779.000000	22.653740
780.000000	22.656057
781.000000	22.651462
782.000000	22.670171
783.000000	22.641245
784.000000	22.616037
785.000000	22.604921
786.000000	22.617809
787.000000	22.597949
788.000000	22.648662
789.000000	22.690710
790.000000	22.660874
791.000000	22.596795
792.000000	22.522554
793.000000	22.539888
794.000000	22.558879
795.000000	22.466475
796.000000	22.399466
797.000000	22.331435
798.000000	22.286241
799.000000	22.205310
800.000000	22.107774
801.000000	22.056212
802.000000	21.993269
803.000000	21.912182
804.000000	21.848913
805.000000	21.826673
806.000000	21.728109
807.000000	21.614533
808.000000	21.454264
809.000000	21.413440
810.000000	21.316675
811.000000	21.242771
812.000000	21.101742
813.000000	21.083902
814.000000	21.001703
815.000000	20.896090
816.000000	20.826752
817.000000	20.708366
818.000000	20.664272
819.000000	20.542427
820.000000	20.495106
821.000000	20.439387
822.000000	20.344373
823.000000	20.212942
824.000000	20.169957
825.000000	20.072676
826.000000	19.972633
827.000000	19.898316
828.000000	19.846705
829.000000	19.797654
830.000000	19.693005
831.000000	19.686507
832.000000	19.630186
833.000000	19.498557
834.000000	19.389341
835.000000	19.263503
836.000000	19.203224
837.000000	19.277347
838.000000	19.110427
839.000000	19.013219
840.000000	18.948202
841.000000	18.893876
842.000000	18.891006
843.000000	18.950599
844.000000	18.766157
845.000000	18.756483
846.000000	18.720077
847.000000	18.601270
848.000000	18.605303
849.000000	18.532051
850.000000	18.583562
851.000000	18.587124
852.000000	18.675360
853.000000	18.721934
854.000000	18.684870
855.000000	18.669481
856.000000	18.570111
857.000000	18.574195
858.000000	18.491800
859.000000	18.925653
860.000000	18.984299
861.000000	19.046355
862.000000	19.056309
863.000000	18.985471
864.000000	18.932192
865.000000	18.850533
866.000000	18.757749
867.000000	18.672564
868.000000	18.628196
869.000000	18.570819
870.000000	18.525678
871.000000	18.474840
872.000000	18.428717
873.000000	18.365894
874.000000	18.312798
875.000000	18.248726
876.000000	18.200354
877.000000	18.131429
878.000000	18.061169
879.000000	18.002737
880.000000	17.976616
881.000000	17.938840
882.000000	17.905707
883.000000	17.874804
884.000000	17.800434
885.000000	17.769027
886.000000	17.711507
887.000000	17.680798
888.000000	17.642121
889.000000	17.618526
890.000000	17.593937
891.000000	17.570461
892.000000	17.535814
893.000000	17.533368
894.000000	17.522864
895.000000	17.496078
896.000000	17.482069
897.000000	17.464489
898.000000	17.474770
899.000000	17.450668
900.000000	17.435834
901.000000	17.439994
902.000000	17.442022
903.000000	17.443482
904.000000	17.456134
905.000000	17.455067
906.000000	17.450294
907.000000	17.452615
908.000000	17.451777
909.000000	17.475733
910.000000	17.477212
911.000000	17.479756
912.000000	17.489164
913.000000	17.495863
914.000000	17.488902
915.000000	17.508115
916.000000	17.513482
917.000000	17.509588
918.000000	17.527864
919.000000	17.531813
920.000000	17.537835
921.000000	17.547574
922.000000	17.547392
923.000000	17.541651
924.000000	17.536955
925.000000	17.560983
926.000000	17.557963
927.000000	17.555615
928.000000	17.571877
929.000000	17.570155
930.000000	17.578439
931.000000	17.573830
932.000000	17.575940
933.000000	17.573173
934.000000	17.593126
935.000000	17.582477
936.000000	17.593804
937.000000	17.588413
938.000000	17.564248
939.000000	17.589881
940.000000	17.598041
941.000000	17.608214
942.000000	17.601340
943.000000	17.641763
944.000000	17.643166
945.000000	17.654953
946.000000	17.674371
947.000000	17.688652
948.000000	17.696348
949.000000	17.708279
950.000000	17.740012
951.000000	17.737955
952.000000	17.760794
953.000000	17.768365
954.000000	17.769366
955.000000	17.788554
956.000000	17.794435
957.000000	17.804734
958.000000	17.811879
959.000000	17.822702
960.000000	17.822641
961.000000	17.836626
962.000000	17.841475
963.000000	17.840421
964.000000	17.842540
965.000000	17.853970
966.000000	17.856546
967.000000	17.865398
968.000000	17.874801
969.000000	17.876411
970.000000	17.886588
971.000000	17.887441
972.000000	17.899415
973.000000	17.903927
974.000000	17.907884
975.000000	17.906380
976.000000	17.916961
977.000000	17.932009
978.000000	17.932338
979.000000	17.936058
980.000000	17.945487
981.000000	17.953388
982.000000	17.955678
983.000000	17.946050
984.000000	17.949993
985.000000	17.972398
986.000000	17.975699
987.000000	17.980740
988.000000	17.994041
989.000000	18.004685
990.000000	18.018071
991.000000	18.024567
992.000000	18.037727
993.000000	18.044819
994.000000	18.045580
995.000000	18.060083
996.000000	18.066043
997.000000	18.078853
998.000000	18.088882
999.000000	18.107497
1000.000000	18.115826
1001.000000	18.124317
1002.000000	18.121124
1003.000000	18.120158
1004.000000	18.139981
1005.000000	18.156152
1006.000000	18.160665
1007.000000	18.162941
1008.000000	18.176268
1009.000000	18.187456
1010.000000	18.200754
1011.000000	18.212691
1012.000000	18.219006
1013.000000	18.226922
1014.000000	18.239294
1015.000000	18.248001
1016.000000	18.252196
1017.000000	18.263010
1018.000000	18.276119
1019.000000	18.292716
1020.000000	18.301738
1021.000000	18.316546
1022.000000	18.331354
1023.000000	18.334042
1024.000000	18.348974
1025.000000	18.368905
1026.000000	18.381228
1027.000000	18.391003
1028.000000	18.405538
1029.000000	18.408025
1030.000000	18.417307
1031.000000	18.437720
1032.000000	18.449514
1033.000000	18.448033
1034.000000	18.459657
1035.000000	18.480162
1036.000000	18.496012
1037.000000	18.516486
1038.000000	18.534936
1039.000000	18.549617
1040.000000	18.559895
1041.000000	18.572332
1042.000000	18.594559
1043.000000	18.606481
1044.000000	18.616391
1045.000000	18.638935
1046.000000	18.650816
1047.000000	18.667035
1048.000000	18.676417
1049.000000	18.694986
1050.000000	18.712914
1051.000000	18.725395
1052.000000	18.736735
1053.000000	18.747245
1054.000000	18.766952
1055.000000	18.785814
1056.000000	18.801223
1057.000000	18.818000
1058.000000	18.839227
1059.000000	18.852799
1060.000000	18.869842
1061.000000	18.887350
1062.000000	18.914021
1063.000000	18.935676
1064.000000	18.951787
1065.000000	18.966102
1066.000000	18.976620
1067.000000	18.995626
1068.000000	19.014022
1069.000000	19.028368
1070.000000	19.044203
1071.000000	19.058075
1072.000000	19.070664
1073.000000	19.081379
1074.000000	19.096542
1075.000000	19.098950
1076.000000	19.116199
1077.000000	19.132657
1078.000000	19.137307
1079.000000	19.145943
1080.000000	19.162184
1081.000000	19.180949
1082.000000	19.190820
1083.000000	19.203516
1084.000000	19.221637
1085.000000	19.236080
1086.000000	19.241185
1087.000000	19.250521
1088.000000	19.264690
1089.000000	19.280667
1090.000000	19.296307
1091.000000	19.312413
1092.000000	19.321027
1093.000000	19.331103
1094.000000	19.342217
1095.000000	19.356425
1096.000000	19.371218
1097.000000	19.392137
1098.000000	19.405196
1099.000000	19.416291
1100.000000	19.420971
1101.000000	19.430662
1102.000000	19.444334
1103.000000	19.452389
1104.000000	19.470943
1105.000000	19.483269
1106.000000	19.484789
1107.000000	19.504348
1108.000000	19.512488
1109.000000	19.519448
1110.000000	19.522014
1111.000000	19.544983
1112.000000	19.548572
1113.000000	19.551858
1114.000000	19.564665
1115.000000	19.575578
1116.000000	19.579124
1117.000000	19.580524
1118.000000	19.590461
1119.000000	19.580490
1120.000000	19.585704
1121.000000	19.583228
1122.000000	19.591257
1123.000000	19.584645
1124.000000	19.592348
1125.000000	19.573710
1126.000000	19.553970
1127.000000	19.534129
1128.000000	19.519776
1129.000000	19.512456
1130.000000	19.490622
1131.000000	19.465597
1132.000000	19.438147
1133.000000	19.433859
1134.000000	19.408182
1135.000000	19.361220
1136.000000	19.316713
1137.000000	19.264257
1138.000000	19.242207
1139.000000	19.219545
1140.000000	19.174220
1141.000000	19.147463
1142.000000	19.118458
1143.000000	19.088268
1144.000000	19.084677
1145.000000	19.046393
1146.000000	19.023737
1147.000000	19.007409
1148.000000	18.967018
1149.000000	18.951475
1150.000000	18.928084
1151.000000	18.908258
1152.000000	18.884327
1153.000000	18.872043
1154.000000	18.809807
1155.000000	18.777432
1156.000000	18.758946
1157.000000	18.720892
1158.000000	18.683255
1159.000000	18.660291
1160.000000	18.600992
1161.000000	18.563622
1162.000000	18.541259
1163.000000	18.484423
1164.000000	18.467598
1165.000000	18.426624
1166.000000	18.394701
1167.000000	18.361283
1168.000000	18.326290
1169.000000	18.288815
1170.000000	18.266658
1171.000000	18.246328
1172.000000	18.209211
