PE UV       SUBTECH     SPECTRUM    ASCII       PEDS        4.00        
   -1
CICIMAUCR0018-7.Sample.ASC
24/04/25
15:44:01.00
24/04/25
15:44:01.00
Vinicio Soto Monge
C. cupreomarginata
250,000000
1
Lambda 1050
1050L1511233
PerkinElmer UV WinLab 6.3.2.0749 / 2.02.05 Lambda 900 UV/VIS/NIR, Aug  7 2015 09:38:08

0
0
3350/servo 860,8/2
0
0
UV/VIS
1
1
1
DoubleDePol,CommonBeamDepol,RBeamAtt,SBeamAtt,60mm sphere, WB InGaAs Detector
0
0
0
0
Program
Program
3350/servo 860,8/2
3350/0,2 860,8/0,2
3350/0,2 860,8/0,2
0
15.00
 
 
 
0
 
860,8
319,2
860,8
Front
100
on
S:100 R:100
0
0
0
0
 
0
 
 
 
0
 
 
0
0
0
0
0
 
 
 
 
0
0


0
0
#HDR
-1
-1
#GR
nm
%R
1.0
0.0
2500,000000
-1,000000
2251
8
71,516000
5,467700
#DATA
2482.000000	8.077573
2481.000000	8.145597
2480.000000	8.059032
2479.000000	8.016966
2478.000000	8.081397
2477.000000	8.070620
2476.000000	8.136790
2475.000000	8.018125
2474.000000	8.109789
2473.000000	8.108166
2472.000000	8.097505
2471.000000	8.128910
2470.000000	8.107819
2469.000000	8.104806
2468.000000	8.118944
2467.000000	8.091943
2466.000000	8.125665
2465.000000	8.089509
2464.000000	8.141657
2463.000000	8.192182
2462.000000	8.192066
2461.000000	8.217793
2460.000000	8.252905
2459.000000	8.294276
2458.000000	8.349321
2457.000000	8.358244
2456.000000	8.414100
2455.000000	8.456514
2454.000000	8.495682
2453.000000	8.585376
2452.000000	8.652010
2451.000000	8.709604
2450.000000	8.771718
2449.000000	8.805904
2448.000000	8.868597
2447.000000	8.975674
2446.000000	9.037208
2445.000000	9.084720
2444.000000	9.160392
2443.000000	9.193883
2442.000000	9.304089
2441.000000	9.353803
2440.000000	9.404676
2439.000000	9.478262
2438.000000	9.537711
2437.000000	9.579197
2436.000000	9.640615
2435.000000	9.689866
2434.000000	9.763105
2433.000000	9.806098
2432.000000	9.843181
2431.000000	9.883972
2430.000000	9.950141
2429.000000	9.981198
2428.000000	10.013066
2427.000000	10.066025
2426.000000	10.101949
2425.000000	10.130804
2424.000000	10.193382
2423.000000	10.217370
2422.000000	10.245298
2421.000000	10.260479
2420.000000	10.274153
2419.000000	10.325374
2418.000000	10.353302
2417.000000	10.359907
2416.000000	10.391775
2415.000000	10.424107
2414.000000	10.454932
2413.000000	10.472778
2412.000000	10.495723
2411.000000	10.544047
2410.000000	10.613229
2409.000000	10.697477
2408.000000	10.772917
2407.000000	10.846388
2406.000000	10.875243
2405.000000	10.906531
2404.000000	10.925189
2403.000000	10.931099
2402.000000	10.971774
2401.000000	11.041884
2400.000000	11.069001
2399.000000	11.103418
2398.000000	11.140965
2397.000000	11.161940
2396.000000	11.224517
2395.000000	11.280721
2394.000000	11.300537
2393.000000	11.320816
2392.000000	11.357783
2391.000000	11.393592
2390.000000	11.401472
2389.000000	11.427893
2388.000000	11.471929
2387.000000	11.477607
2386.000000	11.506115
2385.000000	11.528712
2384.000000	11.517703
2383.000000	11.532768
2382.000000	11.558842
2381.000000	11.542387
2380.000000	11.525583
2379.000000	11.525468
2378.000000	11.529176
2377.000000	11.516660
2376.000000	11.506926
2375.000000	11.502870
2374.000000	11.484908
2373.000000	11.463354
2372.000000	11.447478
2371.000000	11.423026
2370.000000	11.397879
2369.000000	11.372732
2368.000000	11.331478
2367.000000	11.287326
2366.000000	11.249432
2365.000000	11.189288
2364.000000	11.147686
2363.000000	11.096349
2362.000000	11.030064
2361.000000	10.995762
2360.000000	10.942340
2359.000000	10.875475
2358.000000	10.834452
2357.000000	10.803047
2356.000000	10.761213
2355.000000	10.735371
2354.000000	10.716714
2353.000000	10.702692
2352.000000	10.710108
2351.000000	10.716714
2350.000000	10.752638
2349.000000	10.782536
2348.000000	10.816837
2347.000000	10.847083
2346.000000	10.876749
2345.000000	10.936314
2344.000000	10.984290
2343.000000	11.015115
2342.000000	11.067262
2341.000000	11.093800
2340.000000	11.135750
2339.000000	11.172137
2338.000000	11.174223
2337.000000	11.185696
2336.000000	11.182451
2335.000000	11.200529
2334.000000	11.196821
2333.000000	11.162867
2332.000000	11.133664
2331.000000	11.108285
2330.000000	11.070739
2329.000000	11.023111
2328.000000	10.974903
2327.000000	10.917888
2326.000000	10.865161
2325.000000	10.798528
2324.000000	10.730272
2323.000000	10.644518
2322.000000	10.585533
2321.000000	10.502908
2320.000000	10.395947
2319.000000	10.309613
2318.000000	10.221194
2317.000000	10.135903
2316.000000	10.038677
2315.000000	9.944811
2314.000000	9.834837
2313.000000	9.747460
2312.000000	9.673527
2311.000000	9.621958
2310.000000	9.540724
2309.000000	9.499237
2308.000000	9.482782
2307.000000	9.439325
2306.000000	9.444540
2305.000000	9.454622
2304.000000	9.468760
2303.000000	9.515345
2302.000000	9.570274
2301.000000	9.643744
2300.000000	9.729498
2299.000000	9.787672
2298.000000	9.886405
2297.000000	9.978997
2296.000000	10.059304
2295.000000	10.122577
2294.000000	10.212503
2293.000000	10.271603
2292.000000	10.332906
2291.000000	10.389457
2290.000000	10.395367
2289.000000	10.427004
2288.000000	10.433957
2287.000000	10.430944
2286.000000	10.431871
2285.000000	10.415068
2284.000000	10.376478
2283.000000	10.357126
2282.000000	10.325026
2281.000000	10.269633
2280.000000	10.238577
2279.000000	10.203116
2278.000000	10.164643
2277.000000	10.125126
2276.000000	10.078773
2275.000000	10.075528
2274.000000	10.064519
2273.000000	10.056986
2272.000000	10.061506
2271.000000	10.068343
2270.000000	10.109598
2269.000000	10.139148
2268.000000	10.201146
2267.000000	10.307296
2266.000000	10.385981
2265.000000	10.497229
2264.000000	10.634784
2263.000000	10.786707
2262.000000	10.977337
2261.000000	11.188825
2260.000000	11.413292
2259.000000	11.631154
2258.000000	11.872772
2257.000000	12.162829
2256.000000	12.389150
2255.000000	12.638301
2254.000000	12.907383
2253.000000	13.172642
2252.000000	13.396877
2251.000000	13.618447
2250.000000	13.858559
2249.000000	14.073987
2248.000000	14.292312
2247.000000	14.456288
2246.000000	14.616671
2245.000000	14.797798
2244.000000	14.986341
2243.000000	15.114740
2242.000000	15.257857
2241.000000	15.380578
2240.000000	15.525433
2239.000000	15.617792
2238.000000	15.713744
2237.000000	15.827774
2236.000000	15.913760
2235.000000	16.024081
2234.000000	16.073216
2233.000000	16.132549
2232.000000	16.200689
2231.000000	16.256892
2230.000000	16.283314
2229.000000	16.330363
2228.000000	16.345196
2227.000000	16.352844
2226.000000	16.382858
2225.000000	16.359681
2224.000000	16.359450
2223.000000	16.359797
2222.000000	16.329320
2221.000000	16.320281
2220.000000	16.317152
2219.000000	16.313096
2218.000000	16.288065
2217.000000	16.247506
2216.000000	16.214015
2215.000000	16.188753
2214.000000	16.148773
2213.000000	16.124205
2212.000000	16.096393
2211.000000	16.087006
2210.000000	16.062323
2209.000000	16.005308
2208.000000	15.988505
2207.000000	15.978076
2206.000000	15.970311
2205.000000	15.937169
2204.000000	15.941920
2203.000000	15.922451
2202.000000	15.908545
2201.000000	15.894755
2200.000000	15.873432
2199.000000	15.838667
2198.000000	15.856629
2197.000000	15.829049
2196.000000	15.826963
2195.000000	15.838204
2194.000000	15.839710
2193.000000	15.820126
2192.000000	15.804366
2191.000000	15.780725
2190.000000	15.759982
2189.000000	15.759055
2188.000000	15.761720
2187.000000	15.745033
2186.000000	15.700881
2185.000000	15.703547
2184.000000	15.675503
2183.000000	15.644214
2182.000000	15.621385
2181.000000	15.618024
2180.000000	15.603191
2179.000000	15.608290
2178.000000	15.582332
2177.000000	15.575611
2176.000000	15.553825
2175.000000	15.558228
2174.000000	15.572018
2173.000000	15.561009
2172.000000	15.565413
2171.000000	15.583723
2170.000000	15.588590
2169.000000	15.591139
2168.000000	15.606783
2167.000000	15.624514
2166.000000	15.633900
2165.000000	15.650588
2164.000000	15.667854
2163.000000	15.691495
2162.000000	15.715251
2161.000000	15.777249
2160.000000	15.806799
2159.000000	15.800889
2158.000000	15.843187
2157.000000	15.858252
2156.000000	15.898116
2155.000000	15.949916
2154.000000	15.995922
2153.000000	16.031614
2152.000000	16.070667
2151.000000	16.106127
2150.000000	16.142747
2149.000000	16.199761
2148.000000	16.237656
2147.000000	16.278447
2146.000000	16.321208
2145.000000	16.364433
2144.000000	16.401052
2143.000000	16.428053
2142.000000	16.459921
2141.000000	16.499321
2140.000000	16.522151
2139.000000	16.566534
2138.000000	16.588204
2137.000000	16.617291
2136.000000	16.646958
2135.000000	16.663065
2134.000000	16.675349
2133.000000	16.686822
2132.000000	16.695629
2131.000000	16.708260
2130.000000	16.714518
2129.000000	16.721007
2128.000000	16.719617
2127.000000	16.729815
2126.000000	16.724832
2125.000000	16.720660
2124.000000	16.711041
2123.000000	16.698294
2122.000000	16.676972
2121.000000	16.669555
2120.000000	16.656344
2119.000000	16.618450
2118.000000	16.599561
2117.000000	16.570938
2116.000000	16.527365
2115.000000	16.512416
2114.000000	16.491441
2113.000000	16.450534
2112.000000	16.417276
2111.000000	16.391549
2110.000000	16.364317
2109.000000	16.330826
2108.000000	16.305448
2107.000000	16.286559
2106.000000	16.237540
2105.000000	16.201384
2104.000000	16.174846
2103.000000	16.133592
2102.000000	16.110879
2101.000000	16.087702
2100.000000	16.051546
2099.000000	16.010755
2098.000000	15.983522
2097.000000	15.970080
2096.000000	15.937284
2095.000000	15.901708
2094.000000	15.890699
2093.000000	15.864046
2092.000000	15.833452
2091.000000	15.833568
2090.000000	15.833221
2089.000000	15.804134
2088.000000	15.784549
2087.000000	15.767514
2086.000000	15.745612
2085.000000	15.728462
2084.000000	15.713397
2083.000000	15.685932
2082.000000	15.640506
2081.000000	15.613157
2080.000000	15.595890
2079.000000	15.580362
2078.000000	15.552666
2077.000000	15.514076
2076.000000	15.482324
2075.000000	15.450340
2074.000000	15.411287
2073.000000	15.365050
2072.000000	15.338860
2071.000000	15.302588
2070.000000	15.254380
2069.000000	15.213473
2068.000000	15.194932
2067.000000	15.163875
2066.000000	15.130269
2065.000000	15.099791
2064.000000	15.064563
2063.000000	15.029797
2062.000000	15.002449
2061.000000	14.991903
2060.000000	14.983096
2059.000000	14.973594
2058.000000	14.984834
2057.000000	14.984950
2056.000000	15.006968
2055.000000	15.023192
2054.000000	15.066880
2053.000000	15.127835
2052.000000	15.199567
2051.000000	15.280338
2050.000000	15.346972
2049.000000	15.432262
2048.000000	15.521145
2047.000000	15.672142
2046.000000	15.789996
2045.000000	15.912949
2044.000000	16.036249
2043.000000	16.167546
2042.000000	16.277056
2041.000000	16.417623
2040.000000	16.552744
2039.000000	16.677435
2038.000000	16.796795
2037.000000	16.915345
2036.000000	17.035285
2035.000000	17.130309
2034.000000	17.264271
2033.000000	17.345969
2032.000000	17.448758
2031.000000	17.535440
2030.000000	17.615979
2029.000000	17.687248
2028.000000	17.768019
2027.000000	17.841489
2026.000000	17.916814
2025.000000	17.985417
2024.000000	18.028757
2023.000000	18.077660
2022.000000	18.136182
2021.000000	18.218228
2020.000000	18.247778
2019.000000	18.301664
2018.000000	18.361228
2017.000000	18.390084
2016.000000	18.456485
2015.000000	18.470275
2014.000000	18.472013
2013.000000	18.503534
2012.000000	18.509676
2011.000000	18.527870
2010.000000	18.540733
2009.000000	18.553016
2008.000000	18.548497
2007.000000	18.540269
2006.000000	18.504693
2005.000000	18.503882
2004.000000	18.487890
2003.000000	18.487426
2002.000000	18.448373
2001.000000	18.403990
2000.000000	18.384985
1999.000000	18.363894
1998.000000	18.308849
1997.000000	18.245692
1996.000000	18.188330
1995.000000	18.167239
1994.000000	18.112310
1993.000000	18.042779
1992.000000	17.998280
1991.000000	17.935934
1990.000000	17.871503
1989.000000	17.813329
1988.000000	17.719347
1987.000000	17.654916
1986.000000	17.592107
1985.000000	17.519795
1984.000000	17.429985
1983.000000	17.364858
1982.000000	17.280495
1981.000000	17.213630
1980.000000	17.138537
1979.000000	17.050350
1978.000000	16.978617
1977.000000	16.912795
1976.000000	16.841527
1975.000000	16.769215
1974.000000	16.690530
1973.000000	16.592376
1972.000000	16.559465
1971.000000	16.471973
1970.000000	16.417160
1969.000000	16.347977
1968.000000	16.307070
1967.000000	16.247158
1966.000000	16.184233
1965.000000	16.101840
1964.000000	16.031730
1963.000000	15.987926
1962.000000	15.920365
1961.000000	15.841217
1960.000000	15.794400
1959.000000	15.748509
1958.000000	15.674923
1957.000000	15.622775
1956.000000	15.550580
1955.000000	15.499243
1954.000000	15.442576
1953.000000	15.363311
1952.000000	15.315915
1951.000000	15.261565
1950.000000	15.231899
1949.000000	15.172798
1948.000000	15.156922
1947.000000	15.099560
1946.000000	15.044862
1945.000000	15.016703
1944.000000	14.993873
1943.000000	14.957138
1942.000000	14.974405
1941.000000	14.968031
1940.000000	14.958181
1939.000000	14.947752
1938.000000	14.935004
1937.000000	14.957718
1936.000000	15.001985
1935.000000	15.012878
1934.000000	15.068271
1933.000000	15.091100
1932.000000	15.159935
1931.000000	15.225641
1930.000000	15.294129
1929.000000	15.374204
1928.000000	15.476414
1927.000000	15.568889
1926.000000	15.676082
1925.000000	15.816881
1924.000000	15.910747
1923.000000	16.054327
1922.000000	16.186782
1921.000000	16.364664
1920.000000	16.544516
1919.000000	16.673843
1918.000000	16.873627
1917.000000	17.078162
1916.000000	17.246773
1915.000000	17.451308
1914.000000	17.696171
1913.000000	17.893405
1912.000000	18.117525
1911.000000	18.333416
1910.000000	18.566807
1909.000000	18.814450
1908.000000	19.068816
1907.000000	19.342997
1906.000000	19.609646
1905.000000	19.890665
1904.000000	20.176782
1903.000000	20.459075
1902.000000	20.744265
1901.000000	21.062715
1900.000000	21.398083
1899.000000	21.712823
1898.000000	22.022581
1897.000000	22.363164
1896.000000	22.685901
1895.000000	23.025325
1894.000000	23.359418
1893.000000	23.705679
1892.000000	24.089603
1891.000000	24.465067
1890.000000	24.853394
1889.000000	25.227583
1888.000000	25.651602
1887.000000	26.105172
1886.000000	26.600923
1885.000000	27.126689
1884.000000	27.690000
1883.000000	28.287382
1882.000000	28.877347
1881.000000	29.490489
1880.000000	30.042212
1879.000000	30.607146
1878.000000	31.180656
1877.000000	31.698078
1876.000000	32.163931
1875.000000	32.620398
1874.000000	33.045112
1873.000000	33.434714
1872.000000	33.782134
1871.000000	34.099656
1870.000000	34.363292
1869.000000	34.617889
1868.000000	34.805157
1867.000000	34.953373
1866.000000	35.076673
1865.000000	35.195107
1864.000000	35.303342
1863.000000	35.403930
1862.000000	35.502431
1861.000000	35.589344
1860.000000	35.643346
1859.000000	35.669883
1858.000000	35.689699
1857.000000	35.676373
1856.000000	35.659685
1855.000000	35.649604
1854.000000	35.615997
1853.000000	35.530938
1852.000000	35.477284
1851.000000	35.454919
1850.000000	35.431046
1849.000000	35.387126
1848.000000	35.289668
1847.000000	35.179347
1846.000000	35.058132
1845.000000	34.968206
1844.000000	34.947463
1843.000000	34.958008
1842.000000	34.929153
1841.000000	34.872138
1840.000000	34.804346
1839.000000	34.726936
1838.000000	34.669457
1837.000000	34.596219
1836.000000	34.495052
1835.000000	34.383340
1834.000000	34.273598
1833.000000	34.184483
1832.000000	34.122833
1831.000000	34.036731
1830.000000	33.920500
1829.000000	33.798821
1828.000000	33.674130
1827.000000	33.579685
1826.000000	33.493235
1825.000000	33.409451
1824.000000	33.344788
1823.000000	33.335865
1822.000000	33.331462
1821.000000	33.285919
1820.000000	33.226587
1819.000000	33.168645
1818.000000	33.133416
1817.000000	33.133995
1816.000000	33.140832
1815.000000	33.113947
1814.000000	33.111050
1813.000000	33.108733
1812.000000	33.074663
1811.000000	33.015794
1810.000000	32.956345
1809.000000	32.914164
1808.000000	32.881021
1807.000000	32.836058
1806.000000	32.743003
1805.000000	32.665940
1804.000000	32.605101
1803.000000	32.576825
1802.000000	32.538931
1801.000000	32.447035
1800.000000	32.362672
1799.000000	32.293837
1798.000000	32.238097
1797.000000	32.175635
1796.000000	32.146317
1795.000000	32.074237
1794.000000	32.002157
1793.000000	31.936103
1792.000000	31.869702
1791.000000	31.799824
1790.000000	31.750109
1789.000000	31.673974
1788.000000	31.579644
1787.000000	31.502234
1786.000000	31.411844
1785.000000	31.322266
1784.000000	31.218086
1783.000000	31.118194
1782.000000	31.025371
1781.000000	30.933128
1780.000000	30.818055
1779.000000	30.710515
1778.000000	30.600541
1777.000000	30.469592
1776.000000	30.345828
1775.000000	30.181273
1774.000000	30.021585
1773.000000	29.875223
1772.000000	29.703483
1771.000000	29.536147
1770.000000	29.387120
1769.000000	29.218973
1768.000000	29.059285
1767.000000	28.929611
1766.000000	28.823924
1765.000000	28.745355
1764.000000	28.713024
1763.000000	28.707461
1762.000000	28.723685
1761.000000	28.755205
1760.000000	28.834702
1759.000000	28.918718
1758.000000	29.003660
1757.000000	29.076667
1756.000000	29.115836
1755.000000	29.173778
1754.000000	29.199041
1753.000000	29.183165
1752.000000	29.185251
1751.000000	29.128120
1750.000000	29.067397
1749.000000	28.983728
1748.000000	28.888588
1747.000000	28.760536
1746.000000	28.618462
1745.000000	28.434439
1744.000000	28.251110
1743.000000	28.021197
1742.000000	27.770540
1741.000000	27.494736
1740.000000	27.226465
1739.000000	26.938609
1738.000000	26.667441
1737.000000	26.470670
1736.000000	26.315269
1735.000000	26.201703
1734.000000	26.181307
1733.000000	26.217927
1732.000000	26.280156
1731.000000	26.402066
1730.000000	26.526410
1729.000000	26.660488
1728.000000	26.810210
1727.000000	26.959004
1726.000000	27.068862
1725.000000	27.151719
1724.000000	27.212674
1723.000000	27.292287
1722.000000	27.321026
1721.000000	27.341074
1720.000000	27.393801
1719.000000	27.409677
1718.000000	27.498792
1717.000000	27.579447
1716.000000	27.645964
1715.000000	27.742496
1714.000000	27.846675
1713.000000	27.926519
1712.000000	27.976581
1711.000000	28.025368
1710.000000	28.054571
1709.000000	28.029077
1708.000000	28.025021
1707.000000	27.991183
1706.000000	27.948537
1705.000000	27.875646
1704.000000	27.782128
1703.000000	27.695215
1702.000000	27.550592
1701.000000	27.367843
1700.000000	27.162033
1699.000000	26.973722
1698.000000	26.800012
1697.000000	26.674625
1696.000000	26.596751
1695.000000	26.599185
1694.000000	26.683201
1693.000000	26.825390
1692.000000	27.011616
1691.000000	27.202593
1690.000000	27.386384
1689.000000	27.540162
1688.000000	27.629741
1687.000000	27.655003
1686.000000	27.660334
1685.000000	27.716769
1684.000000	27.885496
1683.000000	28.200469
1682.000000	28.643377
1681.000000	29.213642
1680.000000	29.882408
1679.000000	30.568673
1678.000000	31.243233
1677.000000	31.891720
1676.000000	32.457349
1675.000000	32.955071
1674.000000	33.404121
1673.000000	33.751425
1672.000000	34.073814
1671.000000	34.347068
1670.000000	34.610588
1669.000000	34.824510
1668.000000	35.016414
1667.000000	35.181201
1666.000000	35.326867
1665.000000	35.438463
1664.000000	35.539166
1663.000000	35.597340
1662.000000	35.708125
1661.000000	35.776728
1660.000000	35.789939
1659.000000	35.841855
1658.000000	35.881951
1657.000000	35.898986
1656.000000	35.918570
1655.000000	35.915905
1654.000000	35.895393
1653.000000	35.867581
1652.000000	35.832700
1651.000000	35.810682
1650.000000	35.773136
1649.000000	35.706271
1648.000000	35.648213
1647.000000	35.583897
1646.000000	35.499418
1645.000000	35.440897
1644.000000	35.342627
1643.000000	35.274024
1642.000000	35.183518
1641.000000	35.113640
1640.000000	35.054771
1639.000000	34.951403
1638.000000	34.861477
1637.000000	34.765177
1636.000000	34.665401
1635.000000	34.579763
1634.000000	34.478596
1633.000000	34.382297
1632.000000	34.276727
1631.000000	34.167564
1630.000000	34.067209
1629.000000	33.960827
1628.000000	33.838917
1627.000000	33.741227
1626.000000	33.617115
1625.000000	33.506099
1624.000000	33.402846
1623.000000	33.293220
1622.000000	33.180117
1621.000000	33.085208
1620.000000	32.978016
1619.000000	32.874879
1618.000000	32.765484
1617.000000	32.683902
1616.000000	32.583663
1615.000000	32.478672
1614.000000	32.381677
1613.000000	32.286884
1612.000000	32.191280
1611.000000	32.107959
1610.000000	32.023016
1609.000000	31.913738
1608.000000	31.834473
1607.000000	31.758685
1606.000000	31.657634
1605.000000	31.560755
1604.000000	31.467237
1603.000000	31.371517
