PE UV       SUBTECH     SPECTRUM    ASCII       PEDS        4.00        
   -1
CICIMAUCR0020-5.Sample.ASC
24/04/25
10:32:19.00
24/04/25
10:32:19.00
Vinicio Soto Monge
C. resplendens
250,000000
1
Lambda 1050
1050L1511233
PerkinElmer UV WinLab 6.3.2.0749 / 2.02.05 Lambda 900 UV/VIS/NIR, Aug  7 2015 09:38:08

0
0
3350/servo 860,8/2
0
0
UV/VIS
1
1
1
DoubleDePol,CommonBeamDepol,RBeamAtt,SBeamAtt,60mm sphere, WB InGaAs Detector
0
0
0
0
Program
Program
3350/servo 860,8/2
3350/0,2 860,8/0,2
3350/0,2 860,8/0,2
0
15.00
 
 
 
0
 
860,8
319,2
860,8
Front
100
on
S:100 R:100
0
0
0
0
 
0
 
 
 
0
 
 
0
0
0
0
0
 
 
 
 
0
0


0
0
#HDR
-1
-1
#GR
nm
%R
1.0
0.0
2500,000000
-1,000000
2251
8
88,766800
5,704900
#DATA
2482.000000	9.241720
2481.000000	9.216273
2480.000000	9.227702
2479.000000	9.200746
2478.000000	9.135726
2477.000000	9.213685
2476.000000	9.200853
2475.000000	9.214763
2474.000000	9.214224
2473.000000	9.228349
2472.000000	9.188130
2471.000000	9.173465
2470.000000	9.237407
2469.000000	9.227918
2468.000000	9.240749
2467.000000	9.255198
2466.000000	9.265010
2465.000000	9.297466
2464.000000	9.317953
2463.000000	9.346204
2462.000000	9.375748
2461.000000	9.366152
2460.000000	9.424486
2459.000000	9.473439
2458.000000	9.526598
2457.000000	9.577061
2456.000000	9.635287
2455.000000	9.711952
2454.000000	9.766728
2453.000000	9.815789
2452.000000	9.923400
2451.000000	9.962218
2450.000000	10.040500
2449.000000	10.097109
2448.000000	10.185958
2447.000000	10.281708
2446.000000	10.329476
2445.000000	10.426412
2444.000000	10.512134
2443.000000	10.580712
2442.000000	10.654681
2441.000000	10.709349
2440.000000	10.790327
2439.000000	10.857611
2438.000000	10.950881
2437.000000	10.997786
2436.000000	11.065501
2435.000000	11.122757
2434.000000	11.180228
2433.000000	11.230907
2432.000000	11.297328
2431.000000	11.345850
2430.000000	11.387256
2429.000000	11.435239
2428.000000	11.479663
2427.000000	11.520206
2426.000000	11.567758
2425.000000	11.604095
2424.000000	11.651323
2423.000000	11.665233
2422.000000	11.714833
2421.000000	11.765512
2420.000000	11.785568
2419.000000	11.812309
2418.000000	11.861478
2417.000000	11.874956
2416.000000	11.875819
2415.000000	11.915068
2414.000000	11.952807
2413.000000	11.979548
2412.000000	12.011680
2411.000000	12.075298
2410.000000	12.149051
2409.000000	12.214718
2408.000000	12.267337
2407.000000	12.318555
2406.000000	12.341846
2405.000000	12.363627
2404.000000	12.387349
2403.000000	12.439752
2402.000000	12.501214
2401.000000	12.549628
2400.000000	12.579927
2399.000000	12.600306
2398.000000	12.648936
2397.000000	12.709535
2396.000000	12.751048
2395.000000	12.788356
2394.000000	12.830408
2393.000000	12.864805
2392.000000	12.904485
2391.000000	12.922061
2390.000000	12.954194
2389.000000	13.002500
2388.000000	13.010803
2387.000000	13.030211
2386.000000	13.054796
2385.000000	13.074313
2384.000000	13.105798
2383.000000	13.118198
2382.000000	13.120894
2381.000000	13.117012
2380.000000	13.118198
2379.000000	13.118953
2378.000000	13.112483
2377.000000	13.109572
2376.000000	13.105798
2375.000000	13.105474
2374.000000	13.094907
2373.000000	13.082723
2372.000000	13.066765
2371.000000	13.038083
2370.000000	13.015331
2369.000000	12.990315
2368.000000	12.940176
2367.000000	12.902976
2366.000000	12.863727
2365.000000	12.792022
2364.000000	12.732825
2363.000000	12.689587
2362.000000	12.624999
2361.000000	12.566772
2360.000000	12.515770
2359.000000	12.452691
2358.000000	12.413443
2357.000000	12.368802
2356.000000	12.322006
2355.000000	12.304969
2354.000000	12.290304
2353.000000	12.295696
2352.000000	12.322437
2351.000000	12.330416
2350.000000	12.347345
2349.000000	12.402983
2348.000000	12.466062
2347.000000	12.522132
2346.000000	12.582838
2345.000000	12.651955
2344.000000	12.707810
2343.000000	12.776926
2342.000000	12.833751
2341.000000	12.885400
2340.000000	12.929501
2339.000000	12.971230
2338.000000	13.000559
2337.000000	13.012528
2336.000000	13.020938
2335.000000	13.018674
2334.000000	13.033123
2333.000000	13.011342
2332.000000	12.953439
2331.000000	12.905564
2330.000000	12.872461
2329.000000	12.836770
2328.000000	12.772290
2327.000000	12.684627
2326.000000	12.591141
2325.000000	12.526014
2324.000000	12.440723
2323.000000	12.340336
2322.000000	12.235636
2321.000000	12.127270
2320.000000	12.015023
2319.000000	11.893826
2318.000000	11.763787
2317.000000	11.647981
2316.000000	11.504571
2315.000000	11.375934
2314.000000	11.284066
2313.000000	11.189609
2312.000000	11.078979
2311.000000	10.974495
2310.000000	10.922199
2309.000000	10.872060
2308.000000	10.827743
2307.000000	10.805531
2306.000000	10.799816
2305.000000	10.824077
2304.000000	10.878314
2303.000000	10.944951
2302.000000	11.005010
2301.000000	11.110357
2300.000000	11.219801
2299.000000	11.325148
2298.000000	11.436856
2297.000000	11.546839
2296.000000	11.631375
2295.000000	11.741898
2294.000000	11.835384
2293.000000	11.910323
2292.000000	11.967148
2291.000000	12.023110
2290.000000	12.032706
2289.000000	12.051037
2288.000000	12.031628
2287.000000	12.050390
2286.000000	12.013513
2285.000000	11.969304
2284.000000	11.921321
2283.000000	11.879053
2282.000000	11.816406
2281.000000	11.754082
2280.000000	11.703943
2279.000000	11.642589
2278.000000	11.573365
2277.000000	11.523657
2276.000000	11.486025
2275.000000	11.445913
2274.000000	11.399764
2273.000000	11.381217
2272.000000	11.392755
2271.000000	11.398793
2270.000000	11.422407
2269.000000	11.490122
2268.000000	11.534655
2267.000000	11.638923
2266.000000	11.752573
2265.000000	11.891453
2264.000000	12.064300
2263.000000	12.269386
2262.000000	12.486765
2261.000000	12.722043
2260.000000	12.959801
2259.000000	13.214164
2258.000000	13.488691
2257.000000	13.766668
2256.000000	14.044969
2255.000000	14.325102
2254.000000	14.626478
2253.000000	14.876852
2252.000000	15.121079
2251.000000	15.369512
2250.000000	15.619239
2249.000000	15.837480
2248.000000	16.027363
2247.000000	16.212825
2246.000000	16.416833
2245.000000	16.564232
2244.000000	16.705485
2243.000000	16.848679
2242.000000	16.989500
2241.000000	17.127950
2240.000000	17.224671
2239.000000	17.346083
2238.000000	17.433639
2237.000000	17.533271
2236.000000	17.607887
2235.000000	17.681640
2234.000000	17.742994
2233.000000	17.780086
2232.000000	17.849203
2231.000000	17.875081
2230.000000	17.926838
2229.000000	17.954873
2228.000000	17.973527
2227.000000	17.979565
2226.000000	17.976223
2225.000000	17.996278
2224.000000	17.973096
2223.000000	17.942581
2222.000000	17.963930
2221.000000	17.941718
2220.000000	17.909478
2219.000000	17.888560
2218.000000	17.850065
2217.000000	17.851575
2216.000000	17.798524
2215.000000	17.790329
2214.000000	17.750541
2213.000000	17.711292
2212.000000	17.699216
2211.000000	17.651341
2210.000000	17.621257
2209.000000	17.590419
2208.000000	17.593114
2207.000000	17.565403
2206.000000	17.551062
2205.000000	17.544808
2204.000000	17.514185
2203.000000	17.495747
2202.000000	17.455096
2201.000000	17.449597
2200.000000	17.430512
2199.000000	17.436550
2198.000000	17.422209
2197.000000	17.387489
2196.000000	17.378755
2195.000000	17.384685
2194.000000	17.348887
2193.000000	17.343280
2192.000000	17.338428
2191.000000	17.315568
2190.000000	17.302629
2189.000000	17.297777
2188.000000	17.267909
2187.000000	17.242462
2186.000000	17.230493
2185.000000	17.222837
2184.000000	17.199008
2183.000000	17.175609
2182.000000	17.160621
2181.000000	17.158465
2180.000000	17.127519
2179.000000	17.117275
2178.000000	17.114040
2177.000000	17.086113
2176.000000	17.094739
2175.000000	17.113070
2174.000000	17.116520
2173.000000	17.105953
2172.000000	17.107355
2171.000000	17.096357
2170.000000	17.124392
2169.000000	17.149515
2168.000000	17.132479
2167.000000	17.166660
2166.000000	17.191676
2165.000000	17.207418
2164.000000	17.243432
2163.000000	17.268879
2162.000000	17.321175
2161.000000	17.341663
2160.000000	17.359670
2159.000000	17.378647
2158.000000	17.437844
2157.000000	17.473211
2156.000000	17.479357
2155.000000	17.542436
2154.000000	17.605514
2153.000000	17.626217
2152.000000	17.663525
2151.000000	17.719811
2150.000000	17.764020
2149.000000	17.806719
2148.000000	17.863220
2147.000000	17.906135
2146.000000	17.935033
2145.000000	17.983986
2144.000000	18.029058
2143.000000	18.072296
2142.000000	18.105076
2141.000000	18.140443
2140.000000	18.170203
2139.000000	18.205786
2138.000000	18.233605
2137.000000	18.245250
2136.000000	18.292910
2135.000000	18.331296
2134.000000	18.337227
2133.000000	18.356851
2132.000000	18.369035
2131.000000	18.381543
2130.000000	18.382514
2129.000000	18.409686
2128.000000	18.432006
2127.000000	18.411519
2126.000000	18.422302
2125.000000	18.435133
2124.000000	18.417018
2123.000000	18.397825
2122.000000	18.397070
2121.000000	18.395776
2120.000000	18.384562
2119.000000	18.364399
2118.000000	18.328708
2117.000000	18.307898
2116.000000	18.303477
2115.000000	18.284391
2114.000000	18.265522
2113.000000	18.232958
2112.000000	18.198346
2111.000000	18.185299
2110.000000	18.155970
2109.000000	18.120818
2108.000000	18.092460
2107.000000	18.065072
2106.000000	18.054613
2105.000000	18.020324
2104.000000	17.981183
2103.000000	17.952501
2102.000000	17.918428
2101.000000	17.886619
2100.000000	17.852761
2099.000000	17.821060
2098.000000	17.794535
2097.000000	17.772862
2096.000000	17.748277
2095.000000	17.722399
2094.000000	17.691129
2093.000000	17.661692
2092.000000	17.633334
2091.000000	17.602927
2090.000000	17.588586
2089.000000	17.563786
2088.000000	17.535427
2087.000000	17.520871
2086.000000	17.487768
2085.000000	17.461242
2084.000000	17.441834
2083.000000	17.410348
2082.000000	17.367864
2081.000000	17.329478
2080.000000	17.302306
2079.000000	17.264998
2078.000000	17.219171
2077.000000	17.174208
2076.000000	17.147359
2075.000000	17.122020
2074.000000	17.094955
2073.000000	17.041042
2072.000000	16.983247
2071.000000	16.953702
2070.000000	16.916394
2069.000000	16.875420
2068.000000	16.831319
2067.000000	16.788404
2066.000000	16.761770
2065.000000	16.734275
2064.000000	16.701819
2063.000000	16.662893
2062.000000	16.624723
2061.000000	16.615342
2060.000000	16.595178
2059.000000	16.588816
2058.000000	16.571995
2057.000000	16.584935
2056.000000	16.601971
2055.000000	16.608872
2054.000000	16.649738
2053.000000	16.687694
2052.000000	16.738049
2051.000000	16.805225
2050.000000	16.863990
2049.000000	16.916610
2048.000000	16.998127
2047.000000	17.084172
2046.000000	17.153397
2045.000000	17.260469
2044.000000	17.361287
2043.000000	17.447333
2042.000000	17.528526
2041.000000	17.617160
2040.000000	17.733828
2039.000000	17.817717
2038.000000	17.895676
2037.000000	17.968028
2036.000000	18.049006
2035.000000	18.108095
2034.000000	18.207619
2033.000000	18.267678
2032.000000	18.308113
2031.000000	18.365477
2030.000000	18.422517
2029.000000	18.460257
2028.000000	18.516650
2027.000000	18.550616
2026.000000	18.578974
2025.000000	18.605823
2024.000000	18.622105
2023.000000	18.665775
2022.000000	18.699524
2021.000000	18.705131
2020.000000	18.722599
2019.000000	18.737048
2018.000000	18.741577
2017.000000	18.753114
2016.000000	18.744812
2015.000000	18.752575
2014.000000	18.757212
2013.000000	18.751281
2012.000000	18.731549
2011.000000	18.714297
2010.000000	18.695535
2009.000000	18.648522
2008.000000	18.632456
2007.000000	18.612293
2006.000000	18.556115
2005.000000	18.530776
2004.000000	18.471255
2003.000000	18.419606
2002.000000	18.370329
2001.000000	18.304555
2000.000000	18.267678
1999.000000	18.219048
1998.000000	18.137639
1997.000000	18.096450
1996.000000	18.039301
1995.000000	17.943012
1994.000000	17.892765
1993.000000	17.815884
1992.000000	17.730917
1991.000000	17.653174
1990.000000	17.597967
1989.000000	17.507931
1988.000000	17.411642
1987.000000	17.342849
1986.000000	17.240845
1985.000000	17.153397
1984.000000	17.083957
1983.000000	16.975914
1982.000000	16.910571
1981.000000	16.825927
1980.000000	16.746351
1979.000000	16.671088
1978.000000	16.585797
1977.000000	16.502555
1976.000000	16.421793
1975.000000	16.334992
1974.000000	16.249270
1973.000000	16.158911
1972.000000	16.084834
1971.000000	16.000730
1970.000000	15.947679
1969.000000	15.859800
1968.000000	15.762972
1967.000000	15.732780
1966.000000	15.655145
1965.000000	15.561767
1964.000000	15.517450
1963.000000	15.444991
1962.000000	15.369835
1961.000000	15.348486
1960.000000	15.252089
1959.000000	15.186099
1958.000000	15.111806
1957.000000	15.048296
1956.000000	15.002685
1955.000000	14.939391
1954.000000	14.875234
1953.000000	14.824879
1952.000000	14.768701
1951.000000	14.704221
1950.000000	14.652033
1949.000000	14.614833
1948.000000	14.564046
1947.000000	14.518651
1946.000000	14.495684
1945.000000	14.473795
1944.000000	14.454063
1943.000000	14.440693
1942.000000	14.422039
1941.000000	14.425705
1940.000000	14.415785
1939.000000	14.421823
1938.000000	14.422039
1937.000000	14.418588
1936.000000	14.449858
1935.000000	14.492881
1934.000000	14.517034
1933.000000	14.591866
1932.000000	14.632732
1931.000000	14.717592
1930.000000	14.794472
1929.000000	14.882243
1928.000000	14.961711
1927.000000	15.052178
1926.000000	15.173483
1925.000000	15.285623
1924.000000	15.417710
1923.000000	15.551631
1922.000000	15.709813
1921.000000	15.866701
1920.000000	16.019815
1919.000000	16.187378
1918.000000	16.365723
1917.000000	16.554420
1916.000000	16.724031
1915.000000	16.950144
1914.000000	17.176256
1913.000000	17.374226
1912.000000	17.575000
1911.000000	17.812542
1910.000000	18.049868
1909.000000	18.289352
1908.000000	18.552341
1907.000000	18.826868
1906.000000	19.120156
1905.000000	19.417435
1904.000000	19.716222
1903.000000	20.002395
1902.000000	20.301398
1901.000000	20.625956
1900.000000	20.966581
1899.000000	21.287150
1898.000000	21.654731
1897.000000	21.982848
1896.000000	22.330373
1895.000000	22.682643
1894.000000	23.067045
1893.000000	23.465681
1892.000000	23.907662
1891.000000	24.351801
1890.000000	24.765855
1889.000000	25.224550
1888.000000	25.679794
1887.000000	26.131696
1886.000000	26.648617
1885.000000	27.230127
1884.000000	27.828134
1883.000000	28.369855
1882.000000	28.968294
1881.000000	29.557998
1880.000000	30.103385
1879.000000	30.621385
1878.000000	31.159117
1877.000000	31.647464
1876.000000	32.107992
1875.000000	32.550513
1874.000000	32.964675
1873.000000	33.341637
1872.000000	33.688731
1871.000000	33.987627
1870.000000	34.258056
1869.000000	34.532583
1868.000000	34.720957
1867.000000	34.865444
1866.000000	35.003247
1865.000000	35.138677
1864.000000	35.269902
1863.000000	35.394658
1862.000000	35.508415
1861.000000	35.613330
1860.000000	35.689456
1859.000000	35.741321
1858.000000	35.791460
1857.000000	35.812594
1856.000000	35.815506
1855.000000	35.834914
1854.000000	35.821328
1853.000000	35.790382
1852.000000	35.782295
1851.000000	35.793725
1850.000000	35.782618
1849.000000	35.752858
1848.000000	35.698837
1847.000000	35.606430
1846.000000	35.531490
1845.000000	35.511219
1844.000000	35.500112
1843.000000	35.521139
1842.000000	35.519413
1841.000000	35.457197
1840.000000	35.412018
1839.000000	35.363065
1838.000000	35.306132
1837.000000	35.243700
1836.000000	35.174584
1835.000000	35.094900
1834.000000	35.011657
1833.000000	34.935855
1832.000000	34.874394
1831.000000	34.821990
1830.000000	34.737885
1829.000000	34.650007
1828.000000	34.563206
1827.000000	34.477915
1826.000000	34.407073
1825.000000	34.353375
1824.000000	34.333104
1823.000000	34.332349
1822.000000	34.312509
1821.000000	34.268731
1820.000000	34.210289
1819.000000	34.165541
1818.000000	34.128880
1817.000000	34.121332
1816.000000	34.118637
1815.000000	34.093189
1814.000000	34.083593
1813.000000	34.071948
1812.000000	34.050059
1811.000000	34.005850
1810.000000	33.958514
1809.000000	33.915275
1808.000000	33.885839
1807.000000	33.835052
1806.000000	33.771974
1805.000000	33.705337
1804.000000	33.669107
1803.000000	33.639239
1802.000000	33.588021
1801.000000	33.521384
1800.000000	33.460139
1799.000000	33.396737
1798.000000	33.357164
1797.000000	33.326973
1796.000000	33.278451
1795.000000	33.221518
1794.000000	33.161567
1793.000000	33.091911
1792.000000	33.034870
1791.000000	32.991093
1790.000000	32.927690
1789.000000	32.875502
1788.000000	32.818139
1787.000000	32.756462
1786.000000	32.677425
1785.000000	32.590085
1784.000000	32.516332
1783.000000	32.436109
1782.000000	32.362679
1781.000000	32.301864
1780.000000	32.199752
1779.000000	32.110472
1778.000000	32.032837
1777.000000	31.927706
1776.000000	31.817938
1775.000000	31.706984
1774.000000	31.591071
1773.000000	31.462110
1772.000000	31.334443
1771.000000	31.209041
1770.000000	31.082021
1769.000000	30.961255
1768.000000	30.862701
1767.000000	30.780321
1766.000000	30.700314
1765.000000	30.635295
1764.000000	30.605966
1763.000000	30.602623
1762.000000	30.638745
1761.000000	30.697834
1760.000000	30.762422
1759.000000	30.833264
1758.000000	30.924162
1757.000000	30.998347
1756.000000	31.050535
1755.000000	31.083530
1754.000000	31.104233
1753.000000	31.111349
1752.000000	31.105096
1751.000000	31.067788
1750.000000	31.033499
1749.000000	30.978615
1748.000000	30.884482
1747.000000	30.801779
1746.000000	30.690717
1745.000000	30.551729
1744.000000	30.383196
1743.000000	30.193097
1742.000000	29.965259
1741.000000	29.742813
1740.000000	29.502683
1739.000000	29.275492
1738.000000	29.086148
1737.000000	28.911253
1736.000000	28.792967
1735.000000	28.729673
1734.000000	28.688699
1733.000000	28.719537
1732.000000	28.791997
1731.000000	28.892707
1730.000000	29.029431
1729.000000	29.155696
1728.000000	29.290695
1727.000000	29.412000
1726.000000	29.520151
1725.000000	29.605118
1724.000000	29.660865
1723.000000	29.708200
1722.000000	29.753380
1721.000000	29.778503
1720.000000	29.811822
1719.000000	29.853874
1718.000000	29.913287
1717.000000	29.970112
1716.000000	30.027907
1715.000000	30.115570
1714.000000	30.188784
1713.000000	30.243021
1712.000000	30.302541
1711.000000	30.342869
1710.000000	30.364434
1709.000000	30.348691
1708.000000	30.300169
1707.000000	30.267498
1706.000000	30.224906
1705.000000	30.169914
1704.000000	30.064029
1703.000000	29.947791
1702.000000	29.829290
1701.000000	29.662158
1700.000000	29.472815
1699.000000	29.274629
1698.000000	29.128308
1697.000000	29.022638
1696.000000	28.970450
1695.000000	28.983713
1694.000000	29.044958
1693.000000	29.203895
1692.000000	29.347412
1691.000000	29.537403
1690.000000	29.704750
1689.000000	29.805784
1688.000000	29.879861
1687.000000	29.944449
1686.000000	29.954369
1685.000000	30.030926
1684.000000	30.183608
1683.000000	30.462017
1682.000000	30.847713
1681.000000	31.354714
1680.000000	31.933744
1679.000000	32.510725
1678.000000	33.047378
1677.000000	33.598480
1676.000000	34.009300
1675.000000	34.425080
1674.000000	34.742522
1673.000000	35.038183
1672.000000	35.297614
1671.000000	35.504857
1670.000000	35.714364
1669.000000	35.891092
1668.000000	36.044745
1667.000000	36.197104
1666.000000	36.289404
1665.000000	36.391192
1664.000000	36.466455
1663.000000	36.556383
1662.000000	36.619138
1661.000000	36.648790
1660.000000	36.708203
1659.000000	36.729013
1658.000000	36.759421
1657.000000	36.761577
1656.000000	36.782172
1655.000000	36.768909
1654.000000	36.742600
1653.000000	36.753490
1652.000000	36.723946
1651.000000	36.706370
1650.000000	36.675208
1649.000000	36.627441
1648.000000	36.564578
1647.000000	36.522202
1646.000000	36.467210
1645.000000	36.416855
1644.000000	36.350973
1643.000000	36.311077
1642.000000	36.245842
1641.000000	36.183626
1640.000000	36.126909
1639.000000	36.045931
1638.000000	35.977893
1637.000000	35.903923
1636.000000	35.827474
1635.000000	35.762670
1634.000000	35.687192
1633.000000	35.610958
1632.000000	35.514561
1631.000000	35.436279
1630.000000	35.350557
1629.000000	35.273461
1628.000000	35.173613
1627.000000	35.076677
1626.000000	34.996130
1625.000000	34.918387
1624.000000	34.831695
1623.000000	34.755030
1622.000000	34.670601
1621.000000	34.572371
1620.000000	34.516086
1619.000000	34.424433
1618.000000	34.335584
1617.000000	34.270457
1616.000000	34.183225
1615.000000	34.116588
1614.000000	34.038306
1613.000000	33.950858
1612.000000	33.880771
1611.000000	33.821574
1610.000000	33.740596
1609.000000	33.667597
1608.000000	33.593520
1607.000000	33.510710
1606.000000	33.435015
1605.000000	33.364173
