PE UV       SUBTECH     SPECTRUM    ASCII       PEDS        4.00        
   -1
CICIMAUCR0015-2.Sample.ASC
24/04/12
12:09:01.00
24/04/12
12:09:01.00
Vinicio Soto Monge
C. resplendens
250,000000
1
Lambda 1050
1050L1511233
PerkinElmer UV WinLab 6.3.2.0749 / 2.02.05 Lambda 900 UV/VIS/NIR, Aug  7 2015 09:38:08

0
0
3350/servo 860,8/2
0
0
UV/VIS
1
1
1
DoubleDePol,CommonBeamDepol,RBeamAtt,SBeamAtt,60mm sphere, WB InGaAs Detector
0
0
0
0
Program
Program
3350/servo 860,8/2
3350/0,2 860,8/0,2
3350/0,2 860,8/0,2
0
15.00
 
 
 
0
 
860,8
319,2
860,8
Front
100
on
S:100 R:100
0
0
0
0
 
0
 
 
 
0
 
 
0
0
0
0
0
 
 
 
 
0
0


0
0
#HDR
-1
-1
#GR
nm
%R
1.0
0.0
2500,000000
-1,000000
2251
8
80,862600
5,142300
#DATA
2482.000000	8.615133
2481.000000	8.652613
2480.000000	8.574928
2479.000000	8.562435
2478.000000	8.579698
2477.000000	8.544035
2476.000000	8.590260
2475.000000	8.583105
2474.000000	8.591056
2473.000000	8.622743
2472.000000	8.643187
2471.000000	8.639439
2470.000000	8.662267
2469.000000	8.632851
2468.000000	8.687140
2467.000000	8.687822
2466.000000	8.674874
2465.000000	8.724393
2464.000000	8.759260
2463.000000	8.796627
2462.000000	8.866930
2461.000000	8.873063
2460.000000	8.932008
2459.000000	8.995156
2458.000000	9.060008
2457.000000	9.109413
2456.000000	9.201977
2455.000000	9.267964
2454.000000	9.339516
2453.000000	9.418110
2452.000000	9.505904
2451.000000	9.582113
2450.000000	9.655142
2449.000000	9.743049
2448.000000	9.849809
2447.000000	9.906711
2446.000000	10.015970
2445.000000	10.098880
2444.000000	10.202233
2443.000000	10.249935
2442.000000	10.337047
2441.000000	10.429838
2440.000000	10.523197
2439.000000	10.588275
2438.000000	10.670390
2437.000000	10.731494
2436.000000	10.827124
2435.000000	10.909466
2434.000000	10.955691
2433.000000	11.014410
2432.000000	11.098001
2431.000000	11.151836
2430.000000	11.216573
2429.000000	11.277223
2428.000000	11.305844
2427.000000	11.336622
2426.000000	11.341165
2425.000000	11.387277
2424.000000	11.427596
2423.000000	11.466212
2422.000000	11.497445
2421.000000	11.530495
2420.000000	11.569565
2419.000000	11.615109
2418.000000	11.665082
2417.000000	11.700972
2416.000000	11.732318
2415.000000	11.754806
2414.000000	11.800123
2413.000000	11.845667
2412.000000	11.890869
2411.000000	11.921535
2410.000000	11.937890
2409.000000	11.968896
2408.000000	11.993882
2407.000000	12.021595
2406.000000	12.052714
2405.000000	12.073385
2404.000000	12.104164
2403.000000	12.148799
2402.000000	12.187982
2401.000000	12.218761
2400.000000	12.276684
2399.000000	12.297242
2398.000000	12.316436
2397.000000	12.351076
2396.000000	12.394121
2395.000000	12.443981
2394.000000	12.472715
2393.000000	12.494749
2392.000000	12.518713
2391.000000	12.552104
2390.000000	12.581066
2389.000000	12.599919
2388.000000	12.612981
2387.000000	12.616615
2386.000000	12.618773
2385.000000	12.623543
2384.000000	12.624111
2383.000000	12.641034
2382.000000	12.629108
2381.000000	12.610936
2380.000000	12.599124
2379.000000	12.588448
2378.000000	12.554944
2377.000000	12.535749
2376.000000	12.540747
2375.000000	12.518145
2374.000000	12.479075
2373.000000	12.437280
2372.000000	12.409340
2371.000000	12.392418
2370.000000	12.371065
2369.000000	12.323023
2368.000000	12.255673
2367.000000	12.200930
2366.000000	12.161065
2365.000000	12.104277
2364.000000	12.024320
2363.000000	11.945158
2362.000000	11.877240
2361.000000	11.810118
2360.000000	11.732886
2359.000000	11.663946
2358.000000	11.616131
2357.000000	11.573086
2356.000000	11.520501
2355.000000	11.489495
2354.000000	11.480522
2353.000000	11.466893
2352.000000	11.455309
2351.000000	11.471436
2350.000000	11.505850
2349.000000	11.545942
2348.000000	11.596369
2347.000000	11.641231
2346.000000	11.693135
2345.000000	11.733681
2344.000000	11.791832
2343.000000	11.843281
2342.000000	11.862362
2341.000000	11.892005
2340.000000	11.934937
2339.000000	11.978095
2338.000000	11.986727
2337.000000	11.975597
2336.000000	11.972757
2335.000000	11.956175
2334.000000	11.920058
2333.000000	11.887349
2332.000000	11.867132
2331.000000	11.823406
2330.000000	11.772070
2329.000000	11.708241
2328.000000	11.657132
2327.000000	11.594438
2326.000000	11.503919
2325.000000	11.435433
2324.000000	11.367401
2323.000000	11.264389
2322.000000	11.167736
2321.000000	11.054047
2320.000000	10.949785
2319.000000	10.845183
2318.000000	10.736945
2317.000000	10.605425
2316.000000	10.467659
2315.000000	10.354765
2314.000000	10.230854
2313.000000	10.121709
2312.000000	10.043228
2311.000000	9.965202
2310.000000	9.885018
2309.000000	9.831751
2308.000000	9.787116
2307.000000	9.749523
2306.000000	9.762924
2305.000000	9.790410
2304.000000	9.826413
2303.000000	9.866051
2302.000000	9.926246
2301.000000	10.008133
2300.000000	10.089907
2299.000000	10.180313
2298.000000	10.278897
2297.000000	10.364078
2296.000000	10.462548
2295.000000	10.546934
2294.000000	10.608833
2293.000000	10.674025
2292.000000	10.745350
2291.000000	10.789304
2290.000000	10.824512
2289.000000	10.823263
2288.000000	10.815199
2287.000000	10.808952
2286.000000	10.781808
2285.000000	10.763863
2284.000000	10.734333
2283.000000	10.701169
2282.000000	10.643927
2281.000000	10.619849
2280.000000	10.558064
2279.000000	10.522061
2278.000000	10.469135
2277.000000	10.446874
2276.000000	10.400649
2275.000000	10.383386
2274.000000	10.351358
2273.000000	10.346360
2272.000000	10.334208
2271.000000	10.395993
2270.000000	10.406328
2269.000000	10.460844
2268.000000	10.530466
2267.000000	10.616669
2266.000000	10.727064
2265.000000	10.886297
2264.000000	11.030992
2263.000000	11.218618
2262.000000	11.416239
2261.000000	11.649976
2260.000000	11.918128
2259.000000	12.151525
2258.000000	12.430920
2257.000000	12.727692
2256.000000	13.009244
2255.000000	13.328732
2254.000000	13.568602
2253.000000	13.871394
2252.000000	14.151697
2251.000000	14.429843
2250.000000	14.660628
2249.000000	14.918217
2248.000000	15.151500
2247.000000	15.350029
2246.000000	15.525617
2245.000000	15.734482
2244.000000	15.898598
2243.000000	16.091676
2242.000000	16.230578
2241.000000	16.394921
2240.000000	16.503726
2239.000000	16.643537
2238.000000	16.745074
2237.000000	16.877048
2236.000000	16.986762
2235.000000	17.036167
2234.000000	17.124074
2233.000000	17.212208
2232.000000	17.258661
2231.000000	17.326011
2230.000000	17.364626
2229.000000	17.378937
2228.000000	17.414486
2227.000000	17.417780
2226.000000	17.420278
2225.000000	17.438791
2224.000000	17.421528
2223.000000	17.409489
2222.000000	17.410511
2221.000000	17.372690
2220.000000	17.352928
2219.000000	17.331122
2218.000000	17.291257
2217.000000	17.242079
2216.000000	17.236514
2215.000000	17.174047
2214.000000	17.145426
2213.000000	17.110559
2212.000000	17.086935
2211.000000	17.034350
2210.000000	17.001981
2209.000000	16.993690
2208.000000	16.980288
2207.000000	16.964955
2206.000000	16.941899
2205.000000	16.900331
2204.000000	16.906237
2203.000000	16.906010
2202.000000	16.877616
2201.000000	16.857513
2200.000000	16.869666
2199.000000	16.845928
2198.000000	16.847405
2197.000000	16.836275
2196.000000	16.808676
2195.000000	16.816058
2194.000000	16.785506
2193.000000	16.763019
2192.000000	16.757794
2191.000000	16.736783
2190.000000	16.723608
2189.000000	16.710320
2188.000000	16.682948
2187.000000	16.669773
2186.000000	16.662277
2185.000000	16.653078
2184.000000	16.626728
2183.000000	16.605944
2182.000000	16.591520
2181.000000	16.599697
2180.000000	16.584705
2179.000000	16.560287
2178.000000	16.537117
2177.000000	16.510200
2176.000000	16.507020
2175.000000	16.517128
2174.000000	16.529849
2173.000000	16.534165
2172.000000	16.541660
2171.000000	16.548021
2170.000000	16.547907
2169.000000	16.556766
2168.000000	16.581412
2167.000000	16.608216
2166.000000	16.625593
2165.000000	16.663527
2164.000000	16.676020
2163.000000	16.707707
2162.000000	16.736215
2161.000000	16.777897
2160.000000	16.819920
2159.000000	16.886702
2158.000000	16.934631
2157.000000	16.960412
2156.000000	17.013679
2155.000000	17.079439
2154.000000	17.136227
2153.000000	17.196762
2152.000000	17.261387
2151.000000	17.331690
2150.000000	17.403810
2149.000000	17.444129
2148.000000	17.491149
2147.000000	17.551117
2146.000000	17.613583
2145.000000	17.674460
2144.000000	17.721593
2143.000000	17.782924
2142.000000	17.836759
2141.000000	17.881621
2140.000000	17.929777
2139.000000	18.000080
2138.000000	18.049485
2137.000000	18.090599
2136.000000	18.124558
2135.000000	18.151475
2134.000000	18.190545
2133.000000	18.240859
2132.000000	18.271184
2131.000000	18.299123
2130.000000	18.328880
2129.000000	18.352731
2128.000000	18.367950
2127.000000	18.386235
2126.000000	18.404294
2125.000000	18.402022
2124.000000	18.412585
2123.000000	18.427917
2122.000000	18.420762
2121.000000	18.399637
2120.000000	18.391346
2119.000000	18.377490
2118.000000	18.358750
2117.000000	18.350232
2116.000000	18.323769
2115.000000	18.294126
2114.000000	18.265164
2113.000000	18.235407
2112.000000	18.214396
2111.000000	18.191795
2110.000000	18.163514
2109.000000	18.136938
2108.000000	18.104115
2107.000000	18.076856
2106.000000	18.044715
2105.000000	18.017116
2104.000000	17.986678
2103.000000	17.945450
2102.000000	17.925801
2101.000000	17.902519
2100.000000	17.870150
2099.000000	17.825060
2098.000000	17.780539
2097.000000	17.767250
2096.000000	17.756802
2095.000000	17.726023
2094.000000	17.714892
2093.000000	17.712167
2092.000000	17.687861
2091.000000	17.669235
2090.000000	17.652880
2089.000000	17.634027
2088.000000	17.625281
2087.000000	17.602680
2086.000000	17.582464
2085.000000	17.560203
2084.000000	17.531809
2083.000000	17.510798
2082.000000	17.501598
2081.000000	17.470024
2080.000000	17.436974
2079.000000	17.395405
2078.000000	17.354518
2077.000000	17.321468
2076.000000	17.285692
2075.000000	17.250483
2074.000000	17.210618
2073.000000	17.153717
2072.000000	17.102836
2071.000000	17.056043
2070.000000	17.019698
2069.000000	16.981197
2068.000000	16.922705
2067.000000	16.881705
2066.000000	16.832640
2065.000000	16.786301
2064.000000	16.736442
2063.000000	16.701574
2062.000000	16.679200
2061.000000	16.660801
2060.000000	16.650238
2059.000000	16.637859
2058.000000	16.623094
2057.000000	16.628205
2056.000000	16.666139
2055.000000	16.706345
2054.000000	16.755977
2053.000000	16.822986
2052.000000	16.907600
2051.000000	17.002321
2050.000000	17.123279
2049.000000	17.245600
2048.000000	17.381549
2047.000000	17.535898
2046.000000	17.693427
2045.000000	17.880712
2044.000000	18.070496
2043.000000	18.225867
2042.000000	18.431665
2041.000000	18.602028
2040.000000	18.778751
2039.000000	18.960017
2038.000000	19.131857
2037.000000	19.287227
2036.000000	19.456568
2035.000000	19.607169
2034.000000	19.777759
2033.000000	19.923249
2032.000000	20.068057
2031.000000	20.214569
2030.000000	20.326100
2029.000000	20.443082
2028.000000	20.572104
2027.000000	20.697377
2026.000000	20.824809
2025.000000	20.932478
2024.000000	21.030834
2023.000000	21.134869
2022.000000	21.232430
2021.000000	21.321700
2020.000000	21.416081
2019.000000	21.520684
2018.000000	21.575313
2017.000000	21.652431
2016.000000	21.727959
2015.000000	21.800192
2014.000000	21.860047
2013.000000	21.943184
2012.000000	21.966239
2011.000000	22.018143
2010.000000	22.047105
2009.000000	22.073341
2008.000000	22.106278
2007.000000	22.122632
2006.000000	22.140237
2005.000000	22.151708
2004.000000	22.131832
2003.000000	22.144780
2002.000000	22.110707
2001.000000	22.115931
2000.000000	22.093671
1999.000000	22.043016
1998.000000	22.025980
1997.000000	22.003492
1996.000000	21.932735
1995.000000	21.900820
1994.000000	21.842329
1993.000000	21.778613
1992.000000	21.714102
1991.000000	21.660381
1990.000000	21.578948
1989.000000	21.523637
1988.000000	21.467985
1987.000000	21.351570
1986.000000	21.276270
1985.000000	21.191543
1984.000000	21.106248
1983.000000	21.026518
1982.000000	20.941337
1981.000000	20.818789
1980.000000	20.734857
1979.000000	20.661715
1978.000000	20.534283
1977.000000	20.447625
1976.000000	20.370281
1975.000000	20.243644
1974.000000	20.184926
1973.000000	20.054542
1972.000000	20.001956
1971.000000	19.916548
1970.000000	19.822167
1969.000000	19.756066
1968.000000	19.641468
1967.000000	19.567872
1966.000000	19.480646
1965.000000	19.407958
1964.000000	19.307671
1963.000000	19.205567
1962.000000	19.157525
1961.000000	19.056329
1960.000000	18.958995
1959.000000	18.865068
1958.000000	18.787156
1957.000000	18.686982
1956.000000	18.628832
1955.000000	18.520368
1954.000000	18.437003
1953.000000	18.381919
1952.000000	18.269821
1951.000000	18.206787
1950.000000	18.110248
1949.000000	18.028019
1948.000000	17.978500
1947.000000	17.905926
1946.000000	17.850842
1945.000000	17.791896
1944.000000	17.734654
1943.000000	17.703989
1942.000000	17.641977
1941.000000	17.640955
1940.000000	17.638683
1939.000000	17.629597
1938.000000	17.645839
1937.000000	17.659922
1936.000000	17.672983
1935.000000	17.700355
1934.000000	17.727158
1933.000000	17.783037
1932.000000	17.823129
1931.000000	17.915239
1930.000000	17.972140
1929.000000	18.090713
1928.000000	18.233590
1927.000000	18.351708
1926.000000	18.503899
1925.000000	18.664835
1924.000000	18.774322
1923.000000	18.907432
1922.000000	19.081316
1921.000000	19.344242
1920.000000	19.584794
1919.000000	19.835114
1918.000000	20.053974
1917.000000	20.217749
1916.000000	20.366305
1915.000000	20.604473
1914.000000	20.919417
1913.000000	21.288082
1912.000000	21.646184
1911.000000	21.944660
1910.000000	22.229279
1909.000000	22.411227
1908.000000	22.670178
1907.000000	23.004317
1906.000000	23.428293
1905.000000	23.887818
1904.000000	24.328490
1903.000000	24.654337
1902.000000	24.987340
1901.000000	25.337379
1900.000000	25.759765
1899.000000	26.256883
1898.000000	26.694261
1897.000000	27.053727
1896.000000	27.395020
1895.000000	27.666011
1894.000000	28.021161
1893.000000	28.406408
1892.000000	28.864911
1891.000000	29.351013
1890.000000	29.771468
1889.000000	30.147175
1888.000000	30.571151
1887.000000	30.946403
1886.000000	31.384690
1885.000000	31.897028
1884.000000	32.490913
1883.000000	33.100584
1882.000000	33.679023
1881.000000	34.228613
1880.000000	34.787063
1879.000000	35.302013
1878.000000	35.805264
1877.000000	36.298749
1876.000000	36.742941
1875.000000	37.163397
1874.000000	37.541261
1873.000000	37.915719
1872.000000	38.309825
1871.000000	38.660431
1870.000000	38.941643
1869.000000	39.171179
1868.000000	39.379589
1867.000000	39.493619
1866.000000	39.559493
1865.000000	39.630818
1864.000000	39.658189
1863.000000	39.671932
1862.000000	39.728493
1861.000000	39.793685
1860.000000	39.862625
1859.000000	39.918958
1858.000000	39.950191
1857.000000	39.946557
1856.000000	39.891132
1855.000000	39.852517
1854.000000	39.847519
1853.000000	39.795956
1852.000000	39.721678
1851.000000	39.651829
1850.000000	39.542456
1849.000000	39.480785
1848.000000	39.496345
1847.000000	39.527805
1846.000000	39.448757
1845.000000	39.272942
1844.000000	39.128475
1843.000000	39.043748
1842.000000	39.074754
1841.000000	39.133813
1840.000000	39.099172
1839.000000	39.018420
1838.000000	38.924834
1837.000000	38.884742
1836.000000	38.861005
1835.000000	38.797176
1834.000000	38.675764
1833.000000	38.525504
1832.000000	38.399663
1831.000000	38.313232
1830.000000	38.249403
1829.000000	38.161723
1828.000000	38.055075
1827.000000	37.970803
1826.000000	37.907087
1825.000000	37.820770
1824.000000	37.728887
1823.000000	37.645864
1822.000000	37.624966
1821.000000	37.664377
1820.000000	37.682776
1819.000000	37.642457
1818.000000	37.579763
1817.000000	37.541829
1816.000000	37.543306
1815.000000	37.548189
1814.000000	37.540807
1813.000000	37.511164
1812.000000	37.487313
1811.000000	37.467551
1810.000000	37.399292
1809.000000	37.326263
1808.000000	37.276858
1807.000000	37.244830
1806.000000	37.187361
1805.000000	37.112401
1804.000000	37.040622
1803.000000	36.980427
1802.000000	36.928523
1801.000000	36.870145
1800.000000	36.793596
1799.000000	36.704893
1798.000000	36.636408
1797.000000	36.577689
1796.000000	36.511475
1795.000000	36.440377
1794.000000	36.382340
1793.000000	36.302156
1792.000000	36.218678
1791.000000	36.151101
1790.000000	36.077050
1789.000000	35.988688
1788.000000	35.908504
1787.000000	35.815940
1786.000000	35.728487
1785.000000	35.636492
1784.000000	35.513717
1783.000000	35.411613
1782.000000	35.298832
1781.000000	35.184235
1780.000000	35.066003
1779.000000	34.946181
1778.000000	34.813185
1777.000000	34.684845
1776.000000	34.523114
1775.000000	34.365358
1774.000000	34.173984
1773.000000	33.993172
1772.000000	33.802593
1771.000000	33.603155
1770.000000	33.426204
1769.000000	33.239260
1768.000000	33.071736
1767.000000	32.911822
1766.000000	32.760427
1765.000000	32.670248
1764.000000	32.588701
1763.000000	32.551903
1762.000000	32.557581
1761.000000	32.605624
1760.000000	32.659913
1759.000000	32.725105
1758.000000	32.819372
1757.000000	32.885246
1756.000000	32.934878
1755.000000	32.982353
1754.000000	32.994846
1753.000000	32.984283
1752.000000	32.959410
1751.000000	32.907166
1750.000000	32.826982
1749.000000	32.719994
1748.000000	32.618117
1747.000000	32.478874
1746.000000	32.322254
1745.000000	32.135649
1744.000000	31.915200
1743.000000	31.638985
1742.000000	31.357432
1741.000000	31.048053
1740.000000	30.729475
1739.000000	30.409761
1738.000000	30.119008
1737.000000	29.884135
1736.000000	29.669705
1735.000000	29.527963
1734.000000	29.474355
1733.000000	29.470834
1732.000000	29.539775
1731.000000	29.643923
1730.000000	29.761473
1729.000000	29.905600
1728.000000	30.043821
1727.000000	30.202486
1726.000000	30.323103
1725.000000	30.445083
1724.000000	30.515272
1723.000000	30.584439
1722.000000	30.593412
1721.000000	30.645770
1720.000000	30.689837
1719.000000	30.753666
1718.000000	30.823969
1717.000000	30.947766
1716.000000	31.035674
1715.000000	31.153905
1714.000000	31.264982
1713.000000	31.380829
1712.000000	31.477254
1711.000000	31.549942
1710.000000	31.588898
1709.000000	31.609342
1708.000000	31.608093
1707.000000	31.632852
1706.000000	31.580380
1705.000000	31.541765
1704.000000	31.450905
1703.000000	31.365837
1702.000000	31.259757
1701.000000	31.079173
1700.000000	30.883710
1699.000000	30.673028
1698.000000	30.470410
1697.000000	30.338322
1696.000000	30.224974
1695.000000	30.205552
1694.000000	30.258819
1693.000000	30.379436
1692.000000	30.575126
1691.000000	30.803867
1690.000000	31.018864
1689.000000	31.206491
1688.000000	31.282473
1687.000000	31.346415
1686.000000	31.375263
1685.000000	31.427167
1684.000000	31.525637
1683.000000	31.818320
1682.000000	32.247407
1681.000000	32.810400
1680.000000	33.530467
1679.000000	34.309820
1678.000000	35.015689
1677.000000	35.708157
1676.000000	36.310106
1675.000000	36.836186
1674.000000	37.325128
1673.000000	37.725253
1672.000000	38.093805
1671.000000	38.387169
1670.000000	38.639079
1669.000000	38.879859
1668.000000	39.090654
1667.000000	39.317010
1666.000000	39.457275
1665.000000	39.596972
1664.000000	39.714068
1663.000000	39.824123
1662.000000	39.894539
1661.000000	39.972452
1660.000000	40.036508
1659.000000	40.099997
1658.000000	40.138953
1657.000000	40.155081
1656.000000	40.190403
1655.000000	40.189494
1654.000000	40.185746
1653.000000	40.167120
1652.000000	40.150652
1651.000000	40.116465
1650.000000	40.063539
1649.000000	40.022652
1648.000000	39.979834
1647.000000	39.930884
1646.000000	39.860921
1645.000000	39.791640
1644.000000	39.727357
1643.000000	39.673863
1642.000000	39.597654
1641.000000	39.510428
1640.000000	39.432629
1639.000000	39.356761
1638.000000	39.277485
1637.000000	39.177880
1636.000000	39.092585
1635.000000	38.997636
1634.000000	38.898712
1633.000000	38.815689
1632.000000	38.731416
1631.000000	38.628517
1630.000000	38.508695
1629.000000	38.402388
1628.000000	38.292675
1627.000000	38.191934
1626.000000	38.098915
1625.000000	38.005897
1624.000000	37.879261
1623.000000	37.780451
1622.000000	37.685729
1621.000000	37.583057
1620.000000	37.482884
1619.000000	37.395317
1618.000000	37.281628
1617.000000	37.197923
1616.000000	37.123304
1615.000000	37.038805
1614.000000	36.947717
1613.000000	36.854586
1612.000000	36.758047
1611.000000	36.679680
1610.000000	36.611875
1609.000000	36.517040
1608.000000	36.432427
1607.000000	36.356672
1606.000000	36.260928
1605.000000	36.166206
1604.000000	36.083524
