PE UV       SUBTECH     SPECTRUM    ASCII       PEDS        4.00        
   -1
CICIMAUCR0002-3.Sample.ASC
24/05/03
15:09:39.00
24/05/03
15:09:39.00
Vinicio Soto Monge
C. kalinini
250,000000
1
Lambda 1050
1050L1511233
PerkinElmer UV WinLab 6.3.2.0749 / 2.02.05 Lambda 900 UV/VIS/NIR, Aug  7 2015 09:38:08

0
0
3350/servo 860,8/2
0
0
UV/VIS
1
1
1
DoubleDePol,CommonBeamDepol,RBeamAtt,SBeamAtt,60mm sphere, WB InGaAs Detector
0
0
0
0
Program
Program
3350/servo 860,8/2
3350/0,2 860,8/0,2
3350/0,2 860,8/0,2
0
15.00
 
 
 
0
 
860,8
319,2
860,8
Front
100
on
S:100 R:100
0
0
0
0
 
0
 
 
 
0
 
 
0
0
0
0
0
 
 
 
 
0
0


0
0
#HDR
-1
-1
#GR
nm
%R
1.0
0.0
2500,000000
-1,000000
2251
8
99,074100
5,519500
#DATA
250.000000	0.235304
251.000000	0.226195
252.000000	0.247196
253.000000	0.256274
254.000000	0.230959
255.000000	0.217757
256.000000	0.252740
257.000000	0.275761
258.000000	0.244577
259.000000	0.231947
260.000000	0.216226
261.000000	0.201547
262.000000	0.237275
263.000000	0.221460
264.000000	0.231879
265.000000	0.219045
266.000000	0.201771
267.000000	0.241400
268.000000	0.223745
269.000000	0.231045
270.000000	0.240491
271.000000	0.237871
272.000000	0.233061
273.000000	0.229364
274.000000	0.191664
275.000000	0.213182
276.000000	0.215540
277.000000	0.223255
278.000000	0.194313
279.000000	0.224459
280.000000	0.216524
281.000000	0.207816
282.000000	0.193204
283.000000	0.233956
284.000000	0.205018
285.000000	0.215622
286.000000	0.221986
287.000000	0.203331
288.000000	0.222256
289.000000	0.196171
290.000000	0.242044
291.000000	0.215091
292.000000	0.225998
293.000000	0.214629
294.000000	0.226572
295.000000	0.238446
296.000000	0.228907
297.000000	0.209939
298.000000	0.235846
299.000000	0.193562
300.000000	0.215188
301.000000	0.268890
302.000000	0.206487
303.000000	0.186214
304.000000	0.198187
305.000000	0.226886
306.000000	0.206801
307.000000	0.206322
308.000000	0.240463
309.000000	0.187608
310.000000	0.149953
311.000000	0.218146
312.000000	0.217494
313.000000	0.232461
314.000000	0.226853
315.000000	0.213429
316.000000	0.262501
317.000000	0.349194
318.000000	0.081700
319.000000	0.546373
320.000000	0.331202
321.000000	0.143835
322.000000	0.322142
323.000000	0.536357
324.000000	0.145098
325.000000	0.278115
326.000000	0.130360
327.000000	0.248533
328.000000	0.151366
329.000000	0.308140
330.000000	0.450520
331.000000	0.234981
332.000000	0.089579
333.000000	0.100462
334.000000	0.089130
335.000000	0.127846
336.000000	0.122225
337.000000	0.177002
338.000000	0.177132
339.000000	0.197536
340.000000	0.427301
341.000000	0.286313
342.000000	0.129708
343.000000	0.286329
344.000000	0.164746
345.000000	0.129234
346.000000	0.228286
347.000000	0.149592
348.000000	0.146199
349.000000	0.167136
350.000000	0.235278
351.000000	0.131434
352.000000	0.196193
353.000000	0.147852
354.000000	0.138974
355.000000	0.162659
356.000000	0.202696
357.000000	0.189837
358.000000	0.213331
359.000000	0.260452
360.000000	0.185708
361.000000	0.283514
362.000000	0.243329
363.000000	0.213800
364.000000	0.252459
365.000000	0.335921
366.000000	0.168148
367.000000	0.201967
368.000000	0.331420
369.000000	0.245500
370.000000	0.324051
371.000000	0.301246
372.000000	0.295739
373.000000	0.441893
374.000000	0.425833
375.000000	0.382512
376.000000	0.253932
377.000000	0.231823
378.000000	0.222096
379.000000	0.229367
380.000000	0.253821
381.000000	0.243632
382.000000	0.237093
383.000000	0.232060
384.000000	0.241581
385.000000	0.236472
386.000000	0.255710
387.000000	0.267265
388.000000	0.263142
389.000000	0.276244
390.000000	0.278515
391.000000	0.288200
392.000000	0.306106
393.000000	0.323408
394.000000	0.334082
395.000000	0.339816
396.000000	0.375700
397.000000	0.398787
398.000000	0.416621
399.000000	0.442884
400.000000	0.474493
401.000000	0.500587
402.000000	0.522726
403.000000	0.542263
404.000000	0.572779
405.000000	0.603582
406.000000	0.631950
407.000000	0.648244
408.000000	0.664885
409.000000	0.697705
410.000000	0.715044
411.000000	0.728535
412.000000	0.747909
413.000000	0.743513
414.000000	0.748256
415.000000	0.756500
416.000000	0.748219
417.000000	0.751802
418.000000	0.750124
419.000000	0.757053
420.000000	0.743188
421.000000	0.713785
422.000000	0.690317
423.000000	0.678078
424.000000	0.660037
425.000000	0.652262
426.000000	0.622297
427.000000	0.587263
428.000000	0.567752
429.000000	0.551922
430.000000	0.549259
431.000000	0.536349
432.000000	0.506646
433.000000	0.495389
434.000000	0.498193
435.000000	0.497565
436.000000	0.484742
437.000000	0.497563
438.000000	0.514995
439.000000	0.513376
440.000000	0.525769
441.000000	0.548734
442.000000	0.566583
443.000000	0.567783
444.000000	0.585004
445.000000	0.601032
446.000000	0.617208
447.000000	0.648816
448.000000	0.661681
449.000000	0.669410
450.000000	0.678814
451.000000	0.706030
452.000000	0.746399
453.000000	0.775723
454.000000	0.802814
455.000000	0.821543
456.000000	0.858311
457.000000	0.880889
458.000000	0.909370
459.000000	0.944782
460.000000	0.982031
461.000000	1.019960
462.000000	1.046387
463.000000	1.078884
464.000000	1.110502
465.000000	1.151994
466.000000	1.197918
467.000000	1.216807
468.000000	1.242346
469.000000	1.279085
470.000000	1.290981
471.000000	1.296105
472.000000	1.295599
473.000000	1.288526
474.000000	1.266388
475.000000	1.239729
476.000000	1.217523
477.000000	1.158457
478.000000	1.097248
479.000000	1.027961
480.000000	0.950571
481.000000	0.884820
482.000000	0.797942
483.000000	0.719413
484.000000	0.657250
485.000000	0.607586
486.000000	0.599369
487.000000	0.627495
488.000000	0.693385
489.000000	0.794834
490.000000	0.908624
491.000000	1.025601
492.000000	1.160909
493.000000	1.293597
494.000000	1.436823
495.000000	1.531551
496.000000	1.626966
497.000000	1.715395
498.000000	1.767235
499.000000	1.834849
500.000000	1.870826
501.000000	1.907344
502.000000	1.911489
503.000000	1.891768
504.000000	1.863330
505.000000	1.825969
506.000000	1.794546
507.000000	1.745166
508.000000	1.706601
509.000000	1.656396
510.000000	1.599991
511.000000	1.551406
512.000000	1.501796
513.000000	1.469147
514.000000	1.425580
515.000000	1.407327
516.000000	1.389221
517.000000	1.380608
518.000000	1.340322
519.000000	1.315953
520.000000	1.292204
521.000000	1.276850
522.000000	1.245546
523.000000	1.224349
524.000000	1.189303
525.000000	1.172320
526.000000	1.164208
527.000000	1.158027
528.000000	1.164534
529.000000	1.127005
530.000000	1.128031
531.000000	1.142209
532.000000	1.155650
533.000000	1.147282
534.000000	1.153016
535.000000	1.139253
536.000000	1.157994
537.000000	1.176404
538.000000	1.172345
539.000000	1.167378
540.000000	1.198797
541.000000	1.199640
542.000000	1.221142
543.000000	1.249359
544.000000	1.272359
545.000000	1.301983
546.000000	1.352855
547.000000	1.401016
548.000000	1.437381
549.000000	1.485083
550.000000	1.543957
551.000000	1.589506
552.000000	1.664693
553.000000	1.711767
554.000000	1.740947
555.000000	1.768928
556.000000	1.838374
557.000000	1.870806
558.000000	1.963273
559.000000	1.995331
560.000000	2.052191
561.000000	2.131847
562.000000	2.187025
563.000000	2.201660
564.000000	2.235509
565.000000	2.306896
566.000000	2.343218
567.000000	2.387337
568.000000	2.456125
569.000000	2.543064
570.000000	2.583379
571.000000	2.613905
572.000000	2.664999
573.000000	2.730604
574.000000	2.756278
575.000000	2.823311
576.000000	2.870588
577.000000	2.933647
578.000000	2.988552
579.000000	3.063331
580.000000	3.168184
581.000000	3.191418
582.000000	3.269060
583.000000	3.312085
584.000000	3.388653
585.000000	3.378290
586.000000	3.439124
587.000000	3.469382
588.000000	3.496364
589.000000	3.537792
590.000000	3.547792
591.000000	3.606938
592.000000	3.588903
593.000000	3.587920
594.000000	3.562301
595.000000	3.536676
596.000000	3.456781
597.000000	3.423583
598.000000	3.352633
599.000000	3.255841
600.000000	3.150256
601.000000	3.037102
602.000000	2.947652
603.000000	2.809307
604.000000	2.691106
605.000000	2.562895
606.000000	2.444128
607.000000	2.324847
608.000000	2.216600
609.000000	2.074324
610.000000	1.995674
611.000000	1.923840
612.000000	1.837255
613.000000	1.796552
614.000000	1.806483
615.000000	1.749147
616.000000	1.764649
617.000000	1.738267
618.000000	1.730978
619.000000	1.780747
620.000000	1.799251
621.000000	1.778212
622.000000	1.788423
623.000000	1.798076
624.000000	1.785013
625.000000	1.727991
626.000000	1.739383
627.000000	1.711871
628.000000	1.669023
629.000000	1.628855
630.000000	1.621892
631.000000	1.575848
632.000000	1.505287
633.000000	1.506685
634.000000	1.456794
635.000000	1.422498
636.000000	1.414408
637.000000	1.368531
638.000000	1.385590
639.000000	1.337958
640.000000	1.298290
641.000000	1.277503
642.000000	1.204020
643.000000	1.145761
644.000000	1.057620
645.000000	1.016963
646.000000	0.996211
647.000000	0.966610
648.000000	0.951850
649.000000	0.967685
650.000000	1.021280
651.000000	1.093257
652.000000	1.198681
653.000000	1.265268
654.000000	1.326297
655.000000	1.429845
656.000000	1.510608
657.000000	1.555444
658.000000	1.592262
659.000000	1.590266
660.000000	1.605308
661.000000	1.654576
662.000000	1.629148
663.000000	1.594032
664.000000	1.618300
665.000000	1.599821
666.000000	1.619550
667.000000	1.584627
668.000000	1.554368
669.000000	1.562114
670.000000	1.571895
671.000000	1.564088
672.000000	1.537159
673.000000	1.499175
674.000000	1.521039
675.000000	1.535618
676.000000	1.530315
677.000000	1.538395
678.000000	1.576041
679.000000	1.588643
680.000000	1.671569
681.000000	1.734443
682.000000	1.741556
683.000000	1.779292
684.000000	1.843720
685.000000	1.849096
686.000000	1.880273
687.000000	1.899254
688.000000	1.898672
689.000000	1.911493
690.000000	1.897609
691.000000	1.943595
692.000000	1.959836
693.000000	1.940162
694.000000	1.995665
695.000000	1.975560
696.000000	1.980006
697.000000	1.986785
698.000000	2.003392
699.000000	1.982478
700.000000	2.020658
701.000000	2.064724
702.000000	2.092775
703.000000	2.104574
704.000000	2.160632
705.000000	2.204333
706.000000	2.236353
707.000000	2.286334
708.000000	2.305400
709.000000	2.351169
710.000000	2.363539
711.000000	2.351864
712.000000	2.381782
713.000000	2.391217
714.000000	2.354027
715.000000	2.315851
716.000000	2.280813
717.000000	2.257219
718.000000	2.256207
719.000000	2.219671
720.000000	2.197372
721.000000	2.238675
722.000000	2.204900
723.000000	2.197125
724.000000	2.257605
725.000000	2.210037
726.000000	2.234403
727.000000	2.249969
728.000000	2.240600
729.000000	2.265778
730.000000	2.250399
731.000000	2.246138
732.000000	2.291006
733.000000	2.308309
734.000000	2.305056
735.000000	2.339056
736.000000	2.371752
737.000000	2.427117
738.000000	2.450306
739.000000	2.460877
740.000000	2.487558
741.000000	2.493412
742.000000	2.474507
743.000000	2.443776
744.000000	2.441726
745.000000	2.506883
746.000000	2.505643
747.000000	2.475966
748.000000	2.482503
749.000000	2.473730
750.000000	2.476330
751.000000	2.516639
752.000000	2.515797
753.000000	2.524593
754.000000	2.609472
755.000000	2.637500
756.000000	2.657946
757.000000	2.665382
758.000000	2.690159
759.000000	2.740718
760.000000	2.787775
761.000000	2.840730
762.000000	2.865588
763.000000	2.896746
764.000000	2.970738
765.000000	2.975378
766.000000	3.057802
767.000000	3.100946
768.000000	3.115996
769.000000	3.183334
770.000000	3.222602
771.000000	3.254337
772.000000	3.345623
773.000000	3.362083
774.000000	3.374830
775.000000	3.388384
776.000000	3.409874
777.000000	3.493469
778.000000	3.582356
779.000000	3.597684
780.000000	3.624869
781.000000	3.654242
782.000000	3.679633
783.000000	3.638224
784.000000	3.657433
785.000000	3.795806
786.000000	3.854117
787.000000	3.832474
788.000000	3.771937
789.000000	3.781899
790.000000	3.866900
791.000000	3.795605
792.000000	3.726051
793.000000	3.770673
794.000000	3.768828
795.000000	3.698188
796.000000	3.690155
797.000000	3.677482
798.000000	3.745109
799.000000	3.753382
800.000000	3.627680
801.000000	3.593469
802.000000	3.514953
803.000000	3.522080
804.000000	3.491691
805.000000	3.501822
806.000000	3.423688
807.000000	3.456640
808.000000	3.440867
809.000000	3.254240
810.000000	3.347523
811.000000	3.328019
812.000000	3.189042
813.000000	3.161583
814.000000	3.086292
815.000000	2.942167
816.000000	2.749928
817.000000	2.849266
818.000000	2.787727
819.000000	2.716825
820.000000	2.628185
821.000000	2.388359
822.000000	2.386272
823.000000	2.422285
824.000000	2.305293
825.000000	2.028863
826.000000	2.104813
827.000000	2.052935
828.000000	2.142917
829.000000	2.012882
830.000000	1.960025
831.000000	1.894355
832.000000	1.828624
833.000000	1.857729
834.000000	1.831176
835.000000	1.851233
836.000000	1.775990
837.000000	1.720830
838.000000	1.719210
839.000000	1.833010
840.000000	1.657109
841.000000	1.775849
842.000000	1.809033
843.000000	1.841921
844.000000	1.858178
845.000000	1.935965
846.000000	2.007417
847.000000	1.976969
848.000000	2.048083
849.000000	1.913882
850.000000	2.109361
851.000000	1.827265
852.000000	1.856281
853.000000	2.195988
854.000000	2.148114
855.000000	1.900794
856.000000	1.878152
857.000000	1.733398
858.000000	1.556448
859.000000	1.777793
860.000000	1.780692
861.000000	1.779059
862.000000	1.790669
863.000000	1.793886
864.000000	1.817701
865.000000	1.825106
866.000000	1.832331
867.000000	1.820463
868.000000	1.836225
869.000000	1.832372
870.000000	1.838926
871.000000	1.851056
872.000000	1.850138
873.000000	1.853193
874.000000	1.835550
875.000000	1.796306
876.000000	1.757331
877.000000	1.707825
878.000000	1.706386
879.000000	1.690837
880.000000	1.693189
881.000000	1.676735
882.000000	1.697948
883.000000	1.706618
884.000000	1.732067
885.000000	1.738206
886.000000	1.768509
887.000000	1.786905
888.000000	1.816235
889.000000	1.847634
890.000000	1.891950
891.000000	1.923201
892.000000	1.962939
893.000000	2.007983
894.000000	2.048670
895.000000	2.091216
896.000000	2.132570
897.000000	2.171748
898.000000	2.222284
899.000000	2.266326
900.000000	2.308692
901.000000	2.371287
902.000000	2.423884
903.000000	2.476618
904.000000	2.522502
905.000000	2.557466
906.000000	2.611984
907.000000	2.653844
908.000000	2.694580
909.000000	2.743623
910.000000	2.773534
911.000000	2.811634
912.000000	2.841490
913.000000	2.848466
914.000000	2.883050
915.000000	2.911407
916.000000	2.934587
917.000000	2.945216
918.000000	2.978463
919.000000	3.002266
920.000000	3.018119
921.000000	3.032725
922.000000	3.053244
923.000000	3.081831
924.000000	3.092787
925.000000	3.108074
926.000000	3.129255
927.000000	3.136091
928.000000	3.172368
929.000000	3.172631
930.000000	3.171844
931.000000	3.190937
932.000000	3.216620
933.000000	3.220991
934.000000	3.230426
935.000000	3.235239
936.000000	3.247970
937.000000	3.277018
938.000000	3.288721
939.000000	3.305136
940.000000	3.319710
941.000000	3.345091
942.000000	3.358269
943.000000	3.376474
944.000000	3.373602
945.000000	3.393490
946.000000	3.402340
947.000000	3.409838
948.000000	3.422848
949.000000	3.452029
950.000000	3.450834
951.000000	3.455395
952.000000	3.472635
953.000000	3.484230
954.000000	3.499043
955.000000	3.514826
956.000000	3.524507
957.000000	3.544280
958.000000	3.561800
959.000000	3.579919
960.000000	3.594614
961.000000	3.608207
962.000000	3.626299
963.000000	3.645511
964.000000	3.662514
965.000000	3.684136
966.000000	3.703350
967.000000	3.724151
968.000000	3.743099
969.000000	3.753545
970.000000	3.776366
971.000000	3.794574
972.000000	3.811908
973.000000	3.832235
974.000000	3.861452
975.000000	3.876662
976.000000	3.903498
977.000000	3.931819
978.000000	3.962151
979.000000	3.980528
980.000000	4.013250
981.000000	4.038507
982.000000	4.054794
983.000000	4.083955
984.000000	4.111633
985.000000	4.148184
986.000000	4.180821
987.000000	4.217246
988.000000	4.247609
989.000000	4.269176
990.000000	4.306296
991.000000	4.336351
992.000000	4.375948
993.000000	4.411593
994.000000	4.440737
995.000000	4.478953
996.000000	4.521505
997.000000	4.560976
998.000000	4.588256
999.000000	4.623872
1000.000000	4.665936
1001.000000	4.713722
1002.000000	4.748621
1003.000000	4.780571
1004.000000	4.818804
1005.000000	4.858569
1006.000000	4.903970
1007.000000	4.944805
1008.000000	4.977731
1009.000000	5.015110
1010.000000	5.062069
1011.000000	5.102229
1012.000000	5.148185
1013.000000	5.185043
1014.000000	5.231834
1015.000000	5.286357
1016.000000	5.325530
1017.000000	5.350358
1018.000000	5.384284
1019.000000	5.419841
1020.000000	5.454209
1021.000000	5.506135
1022.000000	5.537550
1023.000000	5.570502
1024.000000	5.616472
1025.000000	5.649043
1026.000000	5.685948
1027.000000	5.727022
1028.000000	5.756408
1029.000000	5.776265
1030.000000	5.811212
1031.000000	5.859417
1032.000000	5.896082
1033.000000	5.933347
1034.000000	5.977618
1035.000000	6.009450
1036.000000	6.040608
1037.000000	6.081437
1038.000000	6.124337
1039.000000	6.155484
1040.000000	6.182953
1041.000000	6.226538
1042.000000	6.268697
1043.000000	6.302014
1044.000000	6.341971
1045.000000	6.382656
1046.000000	6.413385
1047.000000	6.439529
1048.000000	6.477855
1049.000000	6.515916
1050.000000	6.544070
1051.000000	6.565156
1052.000000	6.605516
1053.000000	6.639738
1054.000000	6.673930
1055.000000	6.701457
1056.000000	6.725174
1057.000000	6.753358
1058.000000	6.789510
1059.000000	6.811759
1060.000000	6.842673
1061.000000	6.878990
1062.000000	6.908810
1063.000000	6.943932
1064.000000	6.967471
1065.000000	6.987538
1066.000000	7.022947
1067.000000	7.051971
1068.000000	7.082090
1069.000000	7.105957
1070.000000	7.131010
1071.000000	7.158962
1072.000000	7.187350
1073.000000	7.221522
1074.000000	7.255496
1075.000000	7.273414
1076.000000	7.294679
1077.000000	7.322449
1078.000000	7.346094
1079.000000	7.375909
1080.000000	7.392319
1081.000000	7.414206
1082.000000	7.441224
1083.000000	7.463885
1084.000000	7.489503
1085.000000	7.514300
1086.000000	7.527110
1087.000000	7.538286
1088.000000	7.566969
1089.000000	7.585683
1090.000000	7.599793
1091.000000	7.617583
1092.000000	7.638651
1093.000000	7.657133
1094.000000	7.658482
1095.000000	7.680574
1096.000000	7.702886
1097.000000	7.733565
1098.000000	7.740327
1099.000000	7.739767
1100.000000	7.765297
1101.000000	7.790801
1102.000000	7.799108
1103.000000	7.806406
1104.000000	7.824494
1105.000000	7.829505
1106.000000	7.839287
1107.000000	7.866974
1108.000000	7.875135
1109.000000	7.904557
1110.000000	7.913858
1111.000000	7.919962
1112.000000	7.939585
1113.000000	7.953059
1114.000000	7.971148
1115.000000	7.983994
1116.000000	7.993177
1117.000000	8.017713
1118.000000	8.034479
1119.000000	8.035070
1120.000000	8.036719
1121.000000	8.057201
1122.000000	8.075384
1123.000000	8.098404
1124.000000	8.111187
1125.000000	8.120662
1126.000000	8.141459
1127.000000	8.156965
1128.000000	8.172467
1129.000000	8.182825
1130.000000	8.197246
1131.000000	8.220555
1132.000000	8.244292
1133.000000	8.289540
1134.000000	8.345028
1135.000000	8.371601
1136.000000	8.432262
1137.000000	8.499903
1138.000000	8.558254
1139.000000	8.632041
1140.000000	8.712427
1141.000000	8.797442
1142.000000	8.865581
1143.000000	8.942366
1144.000000	9.023030
1145.000000	9.088974
1146.000000	9.168295
1147.000000	9.232622
1148.000000	9.266105
1149.000000	9.283632
1150.000000	9.296445
1151.000000	9.273357
1152.000000	9.259530
1153.000000	9.234715
1154.000000	9.235967
1155.000000	9.220980
1156.000000	9.205261
1157.000000	9.206036
1158.000000	9.241199
1159.000000	9.281766
1160.000000	9.316932
1161.000000	9.355800
1162.000000	9.381479
1163.000000	9.450632
1164.000000	9.476147
1165.000000	9.541463
1166.000000	9.585832
1167.000000	9.625767
1168.000000	9.686355
1169.000000	9.719971
1170.000000	9.756420
1171.000000	9.798202
1172.000000	9.841889
1173.000000	9.872457
1174.000000	9.933455
1175.000000	9.982594
1176.000000	10.004625
1177.000000	10.034580
1178.000000	10.069090
1179.000000	10.070158
1180.000000	10.104915
1181.000000	10.169218
1182.000000	10.222618
1183.000000	10.288278
1184.000000	10.362681
1185.000000	10.425070
1186.000000	10.477804
1187.000000	10.535819
1188.000000	10.589324
1189.000000	10.607825
1190.000000	10.624986
1191.000000	10.604704
1192.000000	10.581968
1193.000000	10.537496
1194.000000	10.490420
1195.000000	10.449994
1196.000000	10.405390
1197.000000	10.369096
1198.000000	10.362024
1199.000000	10.348258
1200.000000	10.354187
1201.000000	10.358707
1202.000000	10.361869
