PE UV       SUBTECH     SPECTRUM    ASCII       PEDS        4.00        
   -1
CICIMAUCR0257-2.ASC
24/06/27
10:47:58.00
24/06/27
10:47:58.00
Vinicio Soto Monge
C. resplendens. Sex F. Ventral
250,000000
1
Lambda 1050
1050L1511233
PerkinElmer UV WinLab 6.3.2.0749 / 2.02.05 Lambda 900 UV/VIS/NIR, Aug  7 2015 09:38:08

0
0
3350/servo 860,8/2
0
0
UV/VIS
1
1
1
DoubleDePol,CommonBeamDepol,RBeamAtt,SBeamAtt,60mm sphere, WB InGaAs Detector
0
0
0
0
Program
Program
3350/servo 860,8/2
3350/0,2 860,8/0,2
3350/0,2 860,8/0,2
0
15.00
 
 
 
0
 
860,8
319,2
860,8
Front
100
on
S:100 R:100
0
0
0
0
 
0
 
 
 
0
 
 
0
0
0
0
0
 
 
 
 
0
0


0
0
#HDR
-1
-1
#GR
nm
%R
1.0
0.0
2500,000000
-1,000000
2251
8
58,971800
4,417200
#DATA
2482.000000	5.695369
2481.000000	5.686808
2480.000000	5.577095
2479.000000	5.619561
2478.000000	5.701338
2477.000000	5.593991
2476.000000	5.685118
2475.000000	5.620800
2474.000000	5.608635
2473.000000	5.615506
2472.000000	5.626657
2471.000000	5.629699
2470.000000	5.601426
2469.000000	5.622828
2468.000000	5.573265
2467.000000	5.583516
2466.000000	5.613028
2465.000000	5.597709
2464.000000	5.618435
2463.000000	5.642878
2462.000000	5.634993
2461.000000	5.611789
2460.000000	5.626995
2459.000000	5.666307
2458.000000	5.609648
2457.000000	5.677571
2456.000000	5.653804
2455.000000	5.685343
2454.000000	5.719136
2453.000000	5.720375
2452.000000	5.737947
2451.000000	5.784806
2450.000000	5.815669
2449.000000	5.833016
2448.000000	5.834818
2447.000000	5.848899
2446.000000	5.879875
2445.000000	5.882916
2444.000000	5.927860
2443.000000	5.934844
2442.000000	5.974832
2441.000000	5.989925
2440.000000	6.013805
2439.000000	6.027886
2438.000000	6.039713
2437.000000	6.066972
2436.000000	6.061227
2435.000000	6.105270
2434.000000	6.145934
2433.000000	6.119463
2432.000000	6.125095
2431.000000	6.157085
2430.000000	6.181979
2429.000000	6.200903
2428.000000	6.207999
2427.000000	6.223769
2426.000000	6.231766
2425.000000	6.259025
2424.000000	6.280653
2423.000000	6.291466
2422.000000	6.283243
2421.000000	6.308362
2420.000000	6.318275
2419.000000	6.311742
2418.000000	6.332242
2417.000000	6.339677
2416.000000	6.358037
2415.000000	6.376398
2414.000000	6.372568
2413.000000	6.373018
2412.000000	6.370428
2411.000000	6.381692
2410.000000	6.403544
2409.000000	6.413569
2408.000000	6.415484
2407.000000	6.427312
2406.000000	6.432944
2405.000000	6.444320
2404.000000	6.461217
2403.000000	6.477212
2402.000000	6.472255
2401.000000	6.482956
2400.000000	6.503344
2399.000000	6.502443
2398.000000	6.519114
2397.000000	6.527900
2396.000000	6.548964
2395.000000	6.555497
2394.000000	6.550541
2393.000000	6.563495
2392.000000	6.563720
2391.000000	6.562256
2390.000000	6.563044
2389.000000	6.565184
2388.000000	6.571380
2387.000000	6.570929
2386.000000	6.578589
2385.000000	6.593120
2384.000000	6.600329
2383.000000	6.602243
2382.000000	6.592218
2381.000000	6.587487
2380.000000	6.585235
2379.000000	6.582982
2378.000000	6.569352
2377.000000	6.549077
2376.000000	6.553582
2375.000000	6.544796
2374.000000	6.537700
2373.000000	6.537024
2372.000000	6.512694
2371.000000	6.491404
2370.000000	6.487237
2369.000000	6.476648
2368.000000	6.461667
2367.000000	6.440829
2366.000000	6.413682
2365.000000	6.392167
2364.000000	6.368400
2363.000000	6.351955
2362.000000	6.328413
2361.000000	6.296310
2360.000000	6.270177
2359.000000	6.248775
2358.000000	6.231879
2357.000000	6.208900
2356.000000	6.199326
2355.000000	6.196059
2354.000000	6.185358
2353.000000	6.173981
2352.000000	6.179839
2351.000000	6.193919
2350.000000	6.172517
2349.000000	6.159225
2348.000000	6.196847
2347.000000	6.206760
2346.000000	6.206760
2345.000000	6.234582
2344.000000	6.249676
2343.000000	6.250577
2342.000000	6.285609
2341.000000	6.295521
2340.000000	6.291354
2339.000000	6.296535
2338.000000	6.294170
2337.000000	6.294057
2336.000000	6.300477
2335.000000	6.292818
2334.000000	6.284933
2333.000000	6.281328
2332.000000	6.264432
2331.000000	6.245621
2330.000000	6.245509
2329.000000	6.217348
2328.000000	6.188061
2327.000000	6.157648
2326.000000	6.137373
2325.000000	6.104482
2324.000000	6.071703
2323.000000	6.053342
2322.000000	6.030364
2321.000000	5.997810
2320.000000	5.966609
2319.000000	5.927522
2318.000000	5.898235
2317.000000	5.867597
2316.000000	5.837747
2315.000000	5.791789
2314.000000	5.762277
2313.000000	5.720488
2312.000000	5.707083
2311.000000	5.681852
2310.000000	5.649636
2309.000000	5.651664
2308.000000	5.633416
2307.000000	5.602777
2306.000000	5.615731
2305.000000	5.623278
2304.000000	5.619110
2303.000000	5.651326
2302.000000	5.645694
2301.000000	5.656057
2300.000000	5.683541
2299.000000	5.703141
2298.000000	5.737496
2297.000000	5.762953
2296.000000	5.749436
2295.000000	5.785819
2294.000000	5.809474
2293.000000	5.821189
2292.000000	5.825357
2291.000000	5.846871
2290.000000	5.875707
2289.000000	5.868386
2288.000000	5.848110
2287.000000	5.854756
2286.000000	5.857121
2285.000000	5.856783
2284.000000	5.833129
2283.000000	5.823442
2282.000000	5.811276
2281.000000	5.806771
2280.000000	5.798773
2279.000000	5.769374
2278.000000	5.768585
2277.000000	5.753829
2276.000000	5.732090
2275.000000	5.729949
2274.000000	5.726795
2273.000000	5.703591
2272.000000	5.702915
2271.000000	5.709336
2270.000000	5.722966
2269.000000	5.736595
2268.000000	5.754956
2267.000000	5.775682
2266.000000	5.777033
2265.000000	5.824230
2264.000000	5.867034
2263.000000	5.929212
2262.000000	5.959512
2261.000000	6.024394
2260.000000	6.112367
2259.000000	6.181528
2258.000000	6.260152
2257.000000	6.310052
2256.000000	6.406135
2255.000000	6.516974
2254.000000	6.613282
2253.000000	6.714322
2252.000000	6.812319
2251.000000	6.910768
2250.000000	6.974072
2249.000000	7.071845
2248.000000	7.154298
2247.000000	7.247453
2246.000000	7.324161
2245.000000	7.406052
2244.000000	7.456966
2243.000000	7.540433
2242.000000	7.623900
2241.000000	7.682023
2240.000000	7.725390
2239.000000	7.789595
2238.000000	7.849633
2237.000000	7.882299
2236.000000	7.927468
2235.000000	7.977819
2234.000000	8.014315
2233.000000	8.049121
2232.000000	8.099697
2231.000000	8.112763
2230.000000	8.153427
2229.000000	8.172125
2228.000000	8.204340
2227.000000	8.205692
2226.000000	8.202200
2225.000000	8.249622
2224.000000	8.228671
2223.000000	8.235542
2222.000000	8.239484
2221.000000	8.253565
2220.000000	8.263590
2219.000000	8.236781
2218.000000	8.229234
2217.000000	8.229347
2216.000000	8.217857
2215.000000	8.216055
2214.000000	8.220673
2213.000000	8.192964
2212.000000	8.211324
2211.000000	8.179109
2210.000000	8.168633
2209.000000	8.163339
2208.000000	8.175392
2207.000000	8.181362
2206.000000	8.167845
2205.000000	8.169872
2204.000000	8.124928
2203.000000	8.167169
2202.000000	8.140473
2201.000000	8.152188
2200.000000	8.161537
2199.000000	8.145880
2198.000000	8.157932
2197.000000	8.153652
2196.000000	8.126055
2195.000000	8.142951
2194.000000	8.142050
2193.000000	8.141937
2192.000000	8.138558
2191.000000	8.142050
2190.000000	8.133827
2189.000000	8.125717
2188.000000	8.119296
2187.000000	8.122112
2186.000000	8.103526
2185.000000	8.089221
2184.000000	8.094515
2183.000000	8.101499
2182.000000	8.108595
2181.000000	8.088770
2180.000000	8.083138
2179.000000	8.074240
2178.000000	8.063877
2177.000000	8.073902
2176.000000	8.051937
2175.000000	8.070748
2174.000000	8.077732
2173.000000	8.062750
2172.000000	8.087757
2171.000000	8.081111
2170.000000	8.105554
2169.000000	8.093276
2168.000000	8.093727
2167.000000	8.084941
2166.000000	8.110510
2165.000000	8.142613
2164.000000	8.134615
2163.000000	8.132250
2162.000000	8.160185
2161.000000	8.168971
2160.000000	8.171900
2159.000000	8.186318
2158.000000	8.204228
2157.000000	8.214140
2156.000000	8.245117
2155.000000	8.267194
2154.000000	8.251424
2153.000000	8.260210
2152.000000	8.283753
2151.000000	8.297945
2150.000000	8.319572
2149.000000	8.344579
2148.000000	8.363277
2147.000000	8.359335
2146.000000	8.363277
2145.000000	8.386819
2144.000000	8.412276
2143.000000	8.421513
2142.000000	8.430862
2141.000000	8.443478
2140.000000	8.458797
2139.000000	8.466795
2138.000000	8.478284
2137.000000	8.479073
2136.000000	8.492927
2135.000000	8.483803
2134.000000	8.479523
2133.000000	8.512978
2132.000000	8.518384
2131.000000	8.508697
2130.000000	8.500136
2129.000000	8.504304
2128.000000	8.513541
2127.000000	8.494166
2126.000000	8.486619
2125.000000	8.484705
2124.000000	8.473103
2123.000000	8.468822
2122.000000	8.453503
2121.000000	8.426018
2120.000000	8.410699
2119.000000	8.414642
2118.000000	8.414191
2117.000000	8.390086
2116.000000	8.364066
2115.000000	8.345593
2114.000000	8.340636
2113.000000	8.315067
2112.000000	8.286005
2111.000000	8.276093
2110.000000	8.257845
2109.000000	8.245905
2108.000000	8.228333
2107.000000	8.211099
2106.000000	8.195442
2105.000000	8.182826
2104.000000	8.165254
2103.000000	8.143401
2102.000000	8.110736
2101.000000	8.098120
2100.000000	8.084603
2099.000000	8.075929
2098.000000	8.055316
2097.000000	8.034815
2096.000000	8.026255
2095.000000	8.019046
2094.000000	8.012174
2093.000000	7.994828
2092.000000	7.968920
2091.000000	7.952024
2090.000000	7.946505
2089.000000	7.938056
2088.000000	7.932086
2087.000000	7.931298
2086.000000	7.913163
2085.000000	7.902349
2084.000000	7.898069
2083.000000	7.888156
2082.000000	7.882524
2081.000000	7.864276
2080.000000	7.851548
2079.000000	7.840960
2078.000000	7.830259
2077.000000	7.821135
2076.000000	7.809195
2075.000000	7.791735
2074.000000	7.772361
2073.000000	7.755690
2072.000000	7.746341
2071.000000	7.738231
2070.000000	7.726516
2069.000000	7.707930
2068.000000	7.701397
2067.000000	7.702636
2066.000000	7.687317
2065.000000	7.669858
2064.000000	7.662423
2063.000000	7.660959
2062.000000	7.661522
2061.000000	7.668731
2060.000000	7.669970
2059.000000	7.664676
2058.000000	7.662874
2057.000000	7.658481
2056.000000	7.655665
2055.000000	7.674138
2054.000000	7.707254
2053.000000	7.740033
2052.000000	7.764251
2051.000000	7.792524
2050.000000	7.827105
2049.000000	7.871711
2048.000000	7.924427
2047.000000	7.975791
2046.000000	8.021974
2045.000000	8.083927
2044.000000	8.142951
2043.000000	8.199046
2042.000000	8.258408
2041.000000	8.316418
2040.000000	8.370261
2039.000000	8.423090
2038.000000	8.478847
2037.000000	8.528747
2036.000000	8.586532
2035.000000	8.648710
2034.000000	8.708973
2033.000000	8.744681
2032.000000	8.794806
2031.000000	8.841214
2030.000000	8.879174
2029.000000	8.923330
2028.000000	8.958361
2027.000000	8.989788
2026.000000	9.028537
2025.000000	9.055120
2024.000000	9.085533
2023.000000	9.112117
2022.000000	9.129351
2021.000000	9.179701
2020.000000	9.199414
2019.000000	9.221829
2018.000000	9.242442
2017.000000	9.259902
2016.000000	9.271279
2015.000000	9.281980
2014.000000	9.306648
2013.000000	9.314195
2012.000000	9.313406
2011.000000	9.303381
2010.000000	9.315096
2009.000000	9.322756
2008.000000	9.313857
2007.000000	9.318475
2006.000000	9.319376
2005.000000	9.335822
2004.000000	9.308450
2003.000000	9.284908
2002.000000	9.259113
2001.000000	9.253031
2000.000000	9.218788
1999.000000	9.208087
1998.000000	9.186347
1997.000000	9.167761
1996.000000	9.115383
1995.000000	9.098374
1994.000000	9.073255
1993.000000	9.013217
1992.000000	8.984494
1991.000000	8.950138
1990.000000	8.910489
1989.000000	8.876809
1988.000000	8.849099
1987.000000	8.809111
1986.000000	8.764055
1985.000000	8.717421
1984.000000	8.674392
1983.000000	8.645669
1982.000000	8.584054
1981.000000	8.541926
1980.000000	8.492589
1979.000000	8.438860
1978.000000	8.406081
1977.000000	8.368008
1976.000000	8.316306
1975.000000	8.279923
1974.000000	8.241850
1973.000000	8.201750
1972.000000	8.140360
1971.000000	8.127744
1970.000000	8.093952
1969.000000	8.054190
1968.000000	8.019046
1967.000000	7.984239
1966.000000	7.957769
1965.000000	7.915979
1964.000000	7.888044
1963.000000	7.847718
1962.000000	7.815165
1961.000000	7.771798
1960.000000	7.746904
1959.000000	7.703199
1958.000000	7.675490
1957.000000	7.652285
1956.000000	7.635164
1955.000000	7.602273
1954.000000	7.587742
1953.000000	7.535139
1952.000000	7.494700
1951.000000	7.457529
1950.000000	7.452347
1949.000000	7.438380
1948.000000	7.435000
1947.000000	7.392084
1946.000000	7.367754
1945.000000	7.366965
1944.000000	7.329343
1943.000000	7.320782
1942.000000	7.347478
1941.000000	7.313348
1940.000000	7.300619
1939.000000	7.304111
1938.000000	7.315150
1937.000000	7.297578
1936.000000	7.331483
1935.000000	7.330695
1934.000000	7.309180
1933.000000	7.344662
1932.000000	7.367528
1931.000000	7.374850
1930.000000	7.431734
1929.000000	7.478480
1928.000000	7.502811
1927.000000	7.574338
1926.000000	7.626491
1925.000000	7.637529
1924.000000	7.692048
1923.000000	7.755690
1922.000000	7.790384
1921.000000	7.894239
1920.000000	7.959909
1919.000000	8.048783
1918.000000	8.109496
1917.000000	8.188120
1916.000000	8.282964
1915.000000	8.353140
1914.000000	8.441000
1913.000000	8.547671
1912.000000	8.690050
1911.000000	8.810238
1910.000000	8.906321
1909.000000	9.030564
1908.000000	9.146472
1907.000000	9.239063
1906.000000	9.373782
1905.000000	9.554008
1904.000000	9.734910
1903.000000	9.888553
1902.000000	10.031833
1901.000000	10.193923
1900.000000	10.365138
1899.000000	10.562486
1898.000000	10.762311
1897.000000	10.963714
1896.000000	11.130536
1895.000000	11.299610
1894.000000	11.453253
1893.000000	11.631564
1892.000000	11.854143
1891.000000	12.146109
1890.000000	12.391893
1889.000000	12.625736
1888.000000	12.869604
1887.000000	13.151996
1886.000000	13.450383
1885.000000	13.792362
1884.000000	14.174892
1883.000000	14.623091
1882.000000	15.122655
1881.000000	15.593045
1880.000000	16.086414
1879.000000	16.571222
1878.000000	17.040261
1877.000000	17.539712
1876.000000	17.988024
1875.000000	18.426086
1874.000000	18.846689
1873.000000	19.245214
1872.000000	19.642161
1871.000000	20.006556
1870.000000	20.369937
1869.000000	20.662354
1868.000000	20.939676
1867.000000	21.130491
1866.000000	21.298214
1865.000000	21.409841
1864.000000	21.520680
1863.000000	21.618002
1862.000000	21.698991
1861.000000	21.796088
1860.000000	21.881245
1859.000000	21.928442
1858.000000	21.979693
1857.000000	22.012810
1856.000000	22.007065
1855.000000	21.985889
1854.000000	21.967190
1853.000000	21.932609
1852.000000	21.866038
1851.000000	21.809267
1850.000000	21.770744
1849.000000	21.691106
1848.000000	21.629492
1847.000000	21.594122
1846.000000	21.524961
1845.000000	21.438565
1844.000000	21.357463
1843.000000	21.291230
1842.000000	21.259803
1841.000000	21.236937
1840.000000	21.215648
1839.000000	21.178926
1838.000000	21.121367
1837.000000	21.057387
1836.000000	20.996673
1835.000000	20.941253
1834.000000	20.868712
1833.000000	20.763731
1832.000000	20.658974
1831.000000	20.565144
1830.000000	20.507247
1829.000000	20.414768
1828.000000	20.308097
1827.000000	20.217984
1826.000000	20.119873
1825.000000	20.035054
1824.000000	19.962851
1823.000000	19.889409
1822.000000	19.868345
1821.000000	19.853251
1820.000000	19.821148
1819.000000	19.786117
1818.000000	19.756943
1817.000000	19.732275
1816.000000	19.703551
1815.000000	19.697130
1814.000000	19.688006
1813.000000	19.660297
1812.000000	19.644978
1811.000000	19.626392
1810.000000	19.597668
1809.000000	19.551598
1808.000000	19.504964
1807.000000	19.463738
1806.000000	19.409332
1805.000000	19.334425
1804.000000	19.262898
1803.000000	19.209281
1802.000000	19.173799
1801.000000	19.135276
1800.000000	19.071408
1799.000000	18.990532
1798.000000	18.916526
1797.000000	18.875975
1796.000000	18.826075
1795.000000	18.763785
1794.000000	18.693159
1793.000000	18.627601
1792.000000	18.572295
1791.000000	18.508314
1790.000000	18.453345
1789.000000	18.374159
1788.000000	18.279540
1787.000000	18.214433
1786.000000	18.136485
1785.000000	18.040290
1784.000000	17.945558
1783.000000	17.845420
1782.000000	17.753505
1781.000000	17.664406
1780.000000	17.571702
1779.000000	17.462215
1778.000000	17.360612
1777.000000	17.249323
1776.000000	17.146932
1775.000000	17.015592
1774.000000	16.873439
1773.000000	16.716642
1772.000000	16.558156
1771.000000	16.430308
1770.000000	16.284438
1769.000000	16.125951
1768.000000	15.989881
1767.000000	15.865299
1766.000000	15.759867
1765.000000	15.654210
1764.000000	15.579190
1763.000000	15.552494
1762.000000	15.540104
1761.000000	15.569278
1760.000000	15.620079
1759.000000	15.675949
1758.000000	15.733171
1757.000000	15.827114
1756.000000	15.897289
1755.000000	15.948091
1754.000000	15.968817
1753.000000	15.985375
1752.000000	15.992471
1751.000000	15.969267
1750.000000	15.916213
1749.000000	15.859104
1748.000000	15.797489
1747.000000	15.729341
1746.000000	15.611969
1745.000000	15.485360
1744.000000	15.337124
1743.000000	15.167036
1742.000000	14.967548
1741.000000	14.740463
1740.000000	14.508197
1739.000000	14.256331
1738.000000	14.037469
1737.000000	13.838995
1736.000000	13.664063
1735.000000	13.544326
1734.000000	13.455564
1733.000000	13.441709
1732.000000	13.461760
1731.000000	13.507041
1730.000000	13.592424
1729.000000	13.700897
1728.000000	13.828858
1727.000000	13.951411
1726.000000	14.047156
1725.000000	14.149435
1724.000000	14.235493
1723.000000	14.272439
1722.000000	14.313328
1721.000000	14.326169
1720.000000	14.322114
1719.000000	14.334842
1718.000000	14.339686
1717.000000	14.373591
1716.000000	14.397245
1715.000000	14.440387
1714.000000	14.516307
1713.000000	14.556746
1712.000000	14.597296
1711.000000	14.630300
1710.000000	14.658235
1709.000000	14.681101
1708.000000	14.664994
1707.000000	14.622641
1706.000000	14.609687
1705.000000	14.573642
1704.000000	14.516420
1703.000000	14.416958
1702.000000	14.325831
1701.000000	14.212401
1700.000000	14.072388
1699.000000	13.931586
1698.000000	13.793263
1697.000000	13.659445
1696.000000	13.562461
1695.000000	13.504225
1694.000000	13.508055
1693.000000	13.582398
1692.000000	13.731761
1691.000000	13.898019
1690.000000	14.065292
1689.000000	14.202827
1688.000000	14.308371
1687.000000	14.395218
1686.000000	14.421463
1685.000000	14.416169
1684.000000	14.451764
1683.000000	14.590763
1682.000000	14.822917
1681.000000	15.208939
1680.000000	15.685974
1679.000000	16.285564
1678.000000	16.888871
1677.000000	17.524167
1676.000000	18.076335
1675.000000	18.600342
1674.000000	19.045839
1673.000000	19.465089
1672.000000	19.782287
1671.000000	20.098471
1670.000000	20.346845
1669.000000	20.594544
1668.000000	20.768574
1667.000000	20.956347
1666.000000	21.080703
1665.000000	21.220266
1664.000000	21.317813
1663.000000	21.422344
1662.000000	21.511669
1661.000000	21.566412
1660.000000	21.627351
1659.000000	21.664636
1658.000000	21.712734
1657.000000	21.728278
1656.000000	21.750694
1655.000000	21.744949
1654.000000	21.736388
1653.000000	21.735600
1652.000000	21.702483
1651.000000	21.676576
1650.000000	21.641206
1649.000000	21.611131
1648.000000	21.554473
1647.000000	21.495336
1646.000000	21.434847
1645.000000	21.378302
1644.000000	21.332682
1643.000000	21.255635
1642.000000	21.169690
1641.000000	21.097599
1640.000000	21.023369
1639.000000	20.931904
1638.000000	20.861053
1637.000000	20.776910
1636.000000	20.687247
1635.000000	20.609863
1634.000000	20.532478
1633.000000	20.441239
1632.000000	20.361489
1631.000000	20.251776
1630.000000	20.172364
1629.000000	20.058484
1628.000000	19.964766
1627.000000	19.842776
1626.000000	19.778232
1625.000000	19.668857
1624.000000	19.566129
1623.000000	19.494489
1622.000000	19.392886
1621.000000	19.294776
1620.000000	19.196327
1619.000000	19.096978
1618.000000	19.013060
1617.000000	18.908191
1616.000000	18.843535
1615.000000	18.735061
1614.000000	18.663421
1613.000000	18.579278
1612.000000	18.499416
1611.000000	18.417300
1610.000000	18.329665
1609.000000	18.273457
1608.000000	18.194270
1607.000000	18.109114
1606.000000	18.036009
1605.000000	17.966284
1604.000000	17.902304
1603.000000	17.823117
1602.000000	17.738862
1601.000000	17.660576
1600.000000	17.592203
1599.000000	17.522590
1598.000000	17.464017
1597.000000	17.388435
1596.000000	17.326482
1595.000000	17.260362
1594.000000	17.194016
1593.000000	17.133978
1592.000000	17.092977
1591.000000	17.028884
1590.000000	16.976280
1589.000000	16.920861
1588.000000	16.875692
1587.000000	16.840998
1586.000000	16.805854
1585.000000	16.766993
1584.000000	16.738157
1583.000000	16.711686
1582.000000	16.700985
1581.000000	16.667643
1580.000000	16.633513
