PE UV       SUBTECH     SPECTRUM    ASCII       PEDS        4.00        
   -1
CICIMAUCR0261-3.ASC
24/07/01
17:03:09.00
24/07/01
17:03:09.00
Vinicio Soto Monge
C. resplendens. Sex M. Ventral
250,000000
1
Lambda 1050
1050L1511233
PerkinElmer UV WinLab 6.3.2.0749 / 2.02.05 Lambda 900 UV/VIS/NIR, Aug  7 2015 09:38:08

0
0
3350/servo 860,8/2
0
0
UV/VIS
1
1
1
DoubleDePol,CommonBeamDepol,RBeamAtt,SBeamAtt,60mm sphere, WB InGaAs Detector
0
0
0
0
Program
Program
3350/servo 860,8/2
3350/0,2 860,8/0,2
3350/0,2 860,8/0,2
0
15.00
 
 
 
0
 
860,8
319,2
860,8
Front
100
on
S:100 R:100
0
0
0
0
 
0
 
 
 
0
 
 
0
0
0
0
0
 
 
 
 
0
0


0
0
#HDR
-1
-1
#GR
nm
%R
1.0
0.0
2500,000000
-1,000000
2251
8
46,448200
4,460900
#DATA
250.000000	5.611367	6.460100
251.000000	5.602641	6.441300
252.000000	5.591872	6.439000
253.000000	5.578646	6.410800
254.000000	5.564922	6.404200
255.000000	5.554248	6.375500
256.000000	5.543066	6.381800
257.000000	5.532456	6.332900
258.000000	5.516719	6.337900
259.000000	5.502475	6.286900
260.000000	5.484216	6.257000
261.000000	5.463169	6.242200
262.000000	5.443334	6.227700
263.000000	5.418147	6.187300
264.000000	5.392859	6.156500
265.000000	5.369603	6.127900
266.000000	5.349076	6.084800
267.000000	5.329059	6.034300
268.000000	5.312483	6.052400
269.000000	5.293671	6.058700
270.000000	5.279656	6.014100
271.000000	5.269354	5.954000
272.000000	5.252468	5.947500
273.000000	5.238788	5.978600
274.000000	5.232394	5.943800
275.000000	5.219717	5.923200
276.000000	5.208681	5.933800
277.000000	5.199947	5.908900
278.000000	5.188506	5.902400
279.000000	5.183616	5.905900
280.000000	5.172714	5.882600
281.000000	5.166034	5.876800
282.000000	5.161531	5.876700
283.000000	5.154345	5.865600
284.000000	5.146779	5.862200
285.000000	5.140518	5.847000
286.000000	5.134853	5.847700
287.000000	5.129177	5.851100
288.000000	5.124321	5.846900
289.000000	5.120260	5.825200
290.000000	5.118521	5.825500
291.000000	5.114035	5.843700
292.000000	5.108667	5.856700
293.000000	5.107018	5.812200
294.000000	5.101529	5.799000
295.000000	5.099697	5.823500
296.000000	5.093620	5.855000
297.000000	5.090111	5.850800
298.000000	5.085752	5.833300
299.000000	5.079388	5.837000
300.000000	5.078419	5.817900
301.000000	5.075227	5.803900
302.000000	5.070934	5.781500
303.000000	5.072299	5.775100
304.000000	5.066213	5.804000
305.000000	5.064765	5.793200
306.000000	5.063511	5.795500
307.000000	5.060790	5.810800
308.000000	5.058030	5.786100
309.000000	5.055622	5.744400
310.000000	5.051928	5.747100
311.000000	5.047436	5.747600
312.000000	5.040763	5.764400
313.000000	5.042071	5.775900
314.000000	5.039260	5.766000
315.000000	5.038284	5.768400
316.000000	5.275909	5.638000
317.000000	5.754442	5.466400
318.000000	5.680877	5.658900
319.000000	5.609468	5.834600
320.000000	5.567288	5.760200
321.000000	5.499446	5.739500
322.000000	5.439656	5.727600
323.000000	5.391511	5.751600
324.000000	5.380813	5.854600
325.000000	5.348293	5.832600
326.000000	5.332541	5.624400
327.000000	5.312659	5.615500
328.000000	5.274054	5.762900
329.000000	5.259694	5.746300
330.000000	5.256150	5.641900
331.000000	5.251527	5.682700
332.000000	5.230434	5.658200
333.000000	5.212969	5.706300
334.000000	5.207602	5.775200
335.000000	5.207692	5.775200
336.000000	5.209078	5.683300
337.000000	5.194003	5.665300
338.000000	5.184895	5.703800
339.000000	5.196059	5.718500
340.000000	5.196028	5.702900
341.000000	5.192957	5.705900
342.000000	5.203285	5.785600
343.000000	5.192300	5.795100
344.000000	5.194543	5.799300
345.000000	5.198321	5.755400
346.000000	5.186760	5.732500
347.000000	5.188748	5.769900
348.000000	5.199247	5.775600
349.000000	5.209901	5.809400
350.000000	5.232799	5.803500
351.000000	5.246386	5.776300
352.000000	5.250994	5.784600
353.000000	5.259373	5.760000
354.000000	5.271302	5.846000
355.000000	5.282635	5.917300
356.000000	5.303811	5.917400
357.000000	5.326780	5.858100
358.000000	5.334468	5.872400
359.000000	5.349845	5.904700
360.000000	5.369164	5.919100
361.000000	5.379190	5.969400
362.000000	5.397877	5.996900
363.000000	5.408831	5.938400
364.000000	5.430697	5.906900
365.000000	5.450361	5.943000
366.000000	5.467157	6.055800
367.000000	5.485657	6.045700
368.000000	5.496068	6.017100
369.000000	5.501200	6.078400
370.000000	5.508199	6.162000
371.000000	5.519911	6.080400
372.000000	5.517385	6.083300
373.000000	5.511850	6.158000
374.000000	5.507460	6.193000
375.000000	5.666055	6.148700
376.000000	5.840724	6.138300
377.000000	5.882106	6.178700
378.000000	5.931527	6.205000
379.000000	5.984087	6.232100
380.000000	6.040146	6.247000
381.000000	6.101380	6.288200
382.000000	6.164726	6.322300
383.000000	6.231867	6.352300
384.000000	6.303848	6.396500
385.000000	6.380995	6.467800
386.000000	6.459359	6.530800
387.000000	6.539920	6.580200
388.000000	6.626446	6.639800
389.000000	6.717372	6.717600
390.000000	6.813076	6.802700
391.000000	6.912510	6.871800
392.000000	7.017322	6.963100
393.000000	7.126589	7.073300
394.000000	7.239814	7.187700
395.000000	7.357501	7.324100
396.000000	7.478317	7.430700
397.000000	7.604414	7.579000
398.000000	7.733969	7.702100
399.000000	7.868782	7.883200
400.000000	8.009040	8.045500
401.000000	8.155209	8.221700
402.000000	8.306284	8.395600
403.000000	8.462040	8.621700
404.000000	8.622366	8.838200
405.000000	8.786801	9.051400
406.000000	8.956002	9.282200
407.000000	9.129672	9.531800
408.000000	9.306715	9.793500
409.000000	9.489437	10.062400
410.000000	9.677760	10.319000
411.000000	9.870551	10.616200
412.000000	10.068677	10.870000
413.000000	10.271777	11.122300
414.000000	10.477865	11.412500
415.000000	10.687983	11.713400
416.000000	10.898302	11.975200
417.000000	11.110359	12.261500
418.000000	11.326726	12.539000
419.000000	11.543916	12.776600
420.000000	11.765638	13.074500
421.000000	11.989193	13.354500
422.000000	12.212895	13.621700
423.000000	12.437510	13.863100
424.000000	12.661833	14.145300
425.000000	12.886911	14.408900
426.000000	13.107941	14.652700
427.000000	13.326493	14.883000
428.000000	13.543820	15.132700
429.000000	13.761226	15.347200
430.000000	13.976934	15.591100
431.000000	14.191385	15.819100
432.000000	14.404833	16.024400
433.000000	14.614338	16.224000
434.000000	14.820917	16.437300
435.000000	15.024036	16.647300
436.000000	15.221566	16.851400
437.000000	15.413802	17.023400
438.000000	15.603292	17.212400
439.000000	15.789162	17.395200
440.000000	15.970377	17.599700
441.000000	16.147511	17.780000
442.000000	16.319188	17.942600
443.000000	16.487873	18.093600
444.000000	16.647924	18.257900
445.000000	16.798633	18.346600
446.000000	16.941238	18.452000
447.000000	17.080000	18.554100
448.000000	17.214912	18.637800
449.000000	17.344930	18.736900
450.000000	17.470751	18.781700
451.000000	17.592497	18.840600
452.000000	17.708976	18.907800
453.000000	17.823779	18.914900
454.000000	17.933315	18.907800
455.000000	18.041762	18.915800
456.000000	18.143814	18.856600
457.000000	18.244808	18.832300
458.000000	18.345102	18.776600
459.000000	18.444600	18.719300
460.000000	18.543809	18.638800
461.000000	18.641713	18.557400
462.000000	18.740912	18.436300
463.000000	18.840542	18.404300
464.000000	18.940129	18.292300
465.000000	19.041312	18.228000
466.000000	19.143001	18.189500
467.000000	19.244694	18.166000
468.000000	19.349145	18.153600
469.000000	19.455011	18.203100
470.000000	19.563891	18.255500
471.000000	19.675939	18.356900
472.000000	19.789619	18.532700
473.000000	19.905356	18.729900
474.000000	20.023084	18.956900
475.000000	20.145705	19.221600
476.000000	20.268781	19.524800
477.000000	20.396344	19.880700
478.000000	20.528540	20.253000
479.000000	20.664270	20.651800
480.000000	20.810084	21.067300
481.000000	20.963405	21.500200
482.000000	21.121426	21.955300
483.000000	21.281801	22.463200
484.000000	21.443100	22.880000
485.000000	21.608800	23.279600
486.000000	21.781339	23.737500
487.000000	21.963034	24.139400
488.000000	22.154995	24.521700
489.000000	22.357726	24.901300
490.000000	22.572159	25.273400
491.000000	22.798363	25.647400
492.000000	23.036997	26.007100
493.000000	23.284966	26.347500
494.000000	23.541449	26.634900
495.000000	23.809632	26.970100
496.000000	24.089240	27.280100
497.000000	24.376440	27.584700
498.000000	24.674435	27.881900
499.000000	24.984797	28.154900
500.000000	25.308841	28.386500
501.000000	25.643616	28.673300
502.000000	25.994458	28.936800
503.000000	26.357385	29.169800
504.000000	26.731623	29.448900
505.000000	27.119828	29.710700
506.000000	27.517191	29.965800
507.000000	27.928031	30.268700
508.000000	28.352378	30.547100
509.000000	28.794873	30.861800
510.000000	29.254466	31.195700
511.000000	29.731762	31.549200
512.000000	30.227265	31.963000
513.000000	30.740044	32.387200
514.000000	31.272389	32.852900
515.000000	31.819939	33.341400
516.000000	32.382107	33.816200
517.000000	32.958306	34.343100
518.000000	33.552501	34.861400
519.000000	34.163765	35.410300
520.000000	34.792516	36.020500
521.000000	35.440895	36.613900
522.000000	36.105586	37.221100
523.000000	36.782684	37.858500
524.000000	37.473695	38.480300
525.000000	38.170652	39.087600
526.000000	38.871791	39.701500
527.000000	39.578335	40.297800
528.000000	40.287290	40.862400
529.000000	41.004038	41.451800
530.000000	41.724324	42.009200
531.000000	42.446648	42.594000
532.000000	43.170907	43.158800
533.000000	43.889565	43.735200
534.000000	44.601352	44.295700
535.000000	45.302342	44.872500
536.000000	45.987556	45.462100
537.000000	46.660274	46.089000
538.000000	47.314890	46.711000
539.000000	47.956587	47.335800
540.000000	48.586511	48.003000
541.000000	49.200985	48.703100
542.000000	49.798258	49.427300
543.000000	50.376486	50.166900
544.000000	50.930203	50.873700
545.000000	51.463947	51.598600
546.000000	51.969375	52.321700
547.000000	52.455606	53.026200
548.000000	52.916299	53.705700
549.000000	53.358067	54.352900
550.000000	53.783704	55.009300
551.000000	54.188974	55.627100
552.000000	54.579218	56.214700
553.000000	54.948316	56.810500
554.000000	55.296793	57.319700
555.000000	55.627994	57.784800
556.000000	55.937377	58.186500
557.000000	56.227762	58.565900
558.000000	56.500195	58.842600
559.000000	56.758592	59.049100
560.000000	56.993409	59.116000
561.000000	57.221604	59.211000
562.000000	57.438591	59.241200
563.000000	57.643878	59.227500
564.000000	57.828048	59.188500
565.000000	58.000492	59.149700
566.000000	58.157558	59.071200
567.000000	58.300239	58.974400
568.000000	58.428083	58.938100
569.000000	58.544613	58.908100
570.000000	58.648474	58.902100
571.000000	58.737807	58.944600
572.000000	58.816663	58.992000
573.000000	58.884892	59.050100
574.000000	58.943531	59.165500
575.000000	58.991897	59.262500
576.000000	59.029046	59.393800
577.000000	59.059302	59.499200
578.000000	59.078019	59.593100
579.000000	59.085779	59.682400
580.000000	59.086482	59.694200
581.000000	59.076745	59.692900
582.000000	59.059079	59.664100
583.000000	59.028289	59.563800
584.000000	58.989029	59.410700
585.000000	58.938353	59.239900
586.000000	58.877596	59.074000
587.000000	58.809032	58.918000
588.000000	58.725303	58.723100
589.000000	58.630722	58.558400
590.000000	58.524110	58.438100
591.000000	58.403629	58.356800
592.000000	58.268662	58.281300
593.000000	58.125546	58.261100
594.000000	57.967433	58.255000
595.000000	57.798024	58.287900
596.000000	57.621930	58.329600
597.000000	57.435406	58.411200
598.000000	57.236929	58.516900
599.000000	57.026308	58.555000
600.000000	56.808183	58.633200
601.000000	56.576977	58.680400
602.000000	56.332649	58.692800
603.000000	56.080239	58.713000
604.000000	55.817459	58.650000
605.000000	55.548455	58.505100
606.000000	55.272892	58.305400
607.000000	54.989796	58.102200
608.000000	54.698490	57.806400
609.000000	54.400382	57.447600
610.000000	54.095886	57.077100
611.000000	53.780497	56.670300
612.000000	53.458861	56.210900
613.000000	53.130325	55.745800
614.000000	52.795181	55.279200
615.000000	52.454784	54.812700
616.000000	52.115097	54.332300
617.000000	51.771378	53.867100
618.000000	51.426518	53.456600
619.000000	51.078074	53.041400
620.000000	50.726324	52.632600
621.000000	50.373539	52.210900
622.000000	50.020201	51.797200
623.000000	49.667279	51.391300
624.000000	49.314701	50.975200
625.000000	48.968758	50.572600
626.000000	48.629994	50.157700
627.000000	48.295405	49.718800
628.000000	47.966314	49.282500
629.000000	47.642107	48.818100
630.000000	47.324784	48.303000
631.000000	47.017854	47.824400
632.000000	46.723875	47.331800
633.000000	46.439870	46.827400
634.000000	46.171637	46.373600
635.000000	45.924476	45.942400
636.000000	45.693656	45.502700
637.000000	45.485770	45.091600
638.000000	45.300187	44.778200
639.000000	45.131804	44.509000
640.000000	44.985149	44.281600
641.000000	44.862269	44.119300
642.000000	44.763871	43.996500
643.000000	44.688049	43.991400
644.000000	44.637495	43.995600
645.000000	44.612110	44.034900
646.000000	44.609490	44.114800
647.000000	44.631170	44.181200
648.000000	44.679487	44.296800
649.000000	44.748440	44.396000
650.000000	44.840460	44.539000
651.000000	44.956596	44.726000
652.000000	45.094826	44.892600
653.000000	45.250866	45.067400
654.000000	45.424574	45.289100
655.000000	45.615903	45.564700
656.000000	45.818446	45.821600
657.000000	46.033322	46.078000
658.000000	46.259774	46.390700
659.000000	46.496335	46.711400
660.000000	46.741861	46.971200
661.000000	46.992840	47.216600
662.000000	47.248298	47.516100
663.000000	47.509064	47.806700
664.000000	47.770947	48.064700
665.000000	48.033287	48.313000
666.000000	48.290666	48.574000
667.000000	48.547437	48.842800
668.000000	48.806728	49.060800
669.000000	49.061049	49.306700
670.000000	49.316456	49.536900
671.000000	49.570756	49.730500
672.000000	49.821029	49.951800
673.000000	50.069769	50.184000
674.000000	50.309405	50.402300
675.000000	50.547146	50.604900
676.000000	50.782419	50.776500
677.000000	51.012857	50.944900
678.000000	51.239635	51.104500
679.000000	51.467270	51.255900
680.000000	51.690845	51.432300
681.000000	51.911008	51.585200
682.000000	52.135719	51.699400
683.000000	52.355178	51.846300
684.000000	52.568186	51.995200
685.000000	52.778018	52.129900
686.000000	52.982593	52.276100
687.000000	53.181304	52.407400
688.000000	53.374577	52.541100
689.000000	53.571098	52.594000
690.000000	53.763361	52.698100
691.000000	53.952043	52.763000
692.000000	54.138812	52.904800
693.000000	54.323524	53.044000
694.000000	54.507664	53.155600
695.000000	54.685871	53.272600
696.000000	54.859932	53.434600
697.000000	55.035302	53.539300
698.000000	55.211453	53.596600
699.000000	55.389311	53.690700
700.000000	55.569535	53.840800
701.000000	55.748524	53.939200
702.000000	55.929783	54.023300
703.000000	56.119287	54.158000
704.000000	56.309036	54.209500
705.000000	56.495526	54.254600
706.000000	56.680865	54.342300
707.000000	56.868560	54.451600
708.000000	57.059930	54.507100
709.000000	57.253127	54.603900
710.000000	57.451204	54.792500
711.000000	57.645865	54.898600
712.000000	57.844824	54.919900
713.000000	58.040599	55.035400
714.000000	58.239574	55.240300
715.000000	58.439386	55.369500
716.000000	58.642187	55.517100
717.000000	58.841936	55.668000
718.000000	59.043646	55.815800
719.000000	59.248585	55.970500
720.000000	59.454292	56.134900
721.000000	59.658482	56.342200
722.000000	59.864865	56.562300
723.000000	60.075443	56.600600
724.000000	60.289167	56.817100
725.000000	60.494277	57.031000
726.000000	60.696569	57.238600
727.000000	60.896531	57.345700
728.000000	61.098905	57.561400
729.000000	61.297499	57.757100
730.000000	61.495342	57.905700
731.000000	61.693171	58.044300
732.000000	61.892751	58.224800
733.000000	62.091864	58.408100
734.000000	62.279664	58.508700
735.000000	62.466799	58.685400
736.000000	62.657367	58.835400
737.000000	62.837978	58.969400
738.000000	63.021353	58.999100
739.000000	63.204124	59.140900
740.000000	63.380742	59.287400
741.000000	63.556093	59.324300
742.000000	63.730795	59.484300
743.000000	63.902526	59.528600
744.000000	64.065914	59.724400
745.000000	64.225604	59.704300
746.000000	64.377559	59.762900
747.000000	64.525577	59.845600
748.000000	64.675455	59.976500
749.000000	64.808928	60.027200
750.000000	64.942326	60.058400
751.000000	65.074538	60.143800
752.000000	65.207085	60.274400
753.000000	65.319386	60.312700
754.000000	65.439702	60.329500
755.000000	65.554631	60.490700
756.000000	65.660940	60.578000
757.000000	65.766597	60.606100
758.000000	65.873305	60.686100
759.000000	65.975702	60.723700
760.000000	66.076366	60.889200
761.000000	66.167916	61.023200
762.000000	66.258552	60.970800
763.000000	66.337750	61.118600
764.000000	66.416970	61.139900
765.000000	66.487543	61.423000
766.000000	66.559675	61.412800
767.000000	66.626981	61.504800
768.000000	66.691502	61.682800
769.000000	66.763193	61.819500
770.000000	66.828955	62.031200
771.000000	66.891294	62.081900
772.000000	66.948525	62.161800
773.000000	67.004473	62.327600
774.000000	67.063115	62.370700
775.000000	67.115852	62.467100
776.000000	67.174230	62.468100
777.000000	67.228207	62.857800
778.000000	67.281694	62.797800
779.000000	67.343027	62.909700
780.000000	67.393045	63.071500
781.000000	67.440180	63.247900
782.000000	67.483897	63.451300
783.000000	67.523185	63.487100
784.000000	67.571282	63.770200
785.000000	67.601562	63.709200
786.000000	67.638750	64.016300
787.000000	67.666451	64.140900
788.000000	67.688426	64.242200
789.000000	67.712260	64.354500
790.000000	67.727144	64.338700
791.000000	67.749403	64.657400
792.000000	67.761194	64.674800
793.000000	67.771845	64.799700
794.000000	67.773779	64.986200
795.000000	67.777990	65.076400
796.000000	67.784688	65.329300
797.000000	67.778627	65.399000
798.000000	67.779199	65.528400
799.000000	67.770016	65.491400
800.000000	67.764744	65.775600
801.000000	67.747238	65.752900
802.000000	67.722898	65.864900
803.000000	67.709479	66.006200
804.000000	67.684015	66.245300
805.000000	67.655223	66.402300
806.000000	67.627201	66.305500
807.000000	67.588638	66.557000
808.000000	67.558837	66.560500
809.000000	67.524637	66.710300
810.000000	67.477208	66.701700
811.000000	67.446616	67.045600
812.000000	67.402286	67.087900
813.000000	67.357414	67.050500
814.000000	67.315165	67.137200
815.000000	67.267259	67.136900
816.000000	67.209453	67.279800
817.000000	67.159766	67.148700
818.000000	67.098693	67.247100
819.000000	67.052536	67.416700
820.000000	67.000828	67.669500
821.000000	66.931424	67.389700
822.000000	66.876813	67.398900
823.000000	66.811753	67.454600
824.000000	66.751409	67.342800
825.000000	66.668618	67.601200
826.000000	66.599691	67.429300
827.000000	66.525145	67.521100
828.000000	66.457345	67.398000
829.000000	66.382285	67.197100
830.000000	66.302398	67.485700
831.000000	66.212603	67.539100
832.000000	66.126064	67.648900
833.000000	66.050827	67.776100
834.000000	65.965227	67.454600
835.000000	65.873359	67.636300
836.000000	65.772309	67.717500
837.000000	65.686137	67.575100
838.000000	65.585245	67.685200
839.000000	65.503792	67.901500
840.000000	65.405944	67.641000
841.000000	65.313875	67.508200
842.000000	65.195541	67.725500
843.000000	65.112205	67.732900
844.000000	64.997775	67.707300
845.000000	64.893427	67.480500
846.000000	64.810865	67.772900
847.000000	64.706091	67.988100
848.000000	64.592860	67.458200
849.000000	64.457428	67.697200
850.000000	64.365985	67.592100
851.000000	64.251928	67.986800
852.000000	64.157553	67.501600
853.000000	64.079660	67.359000
854.000000	63.923668	67.178400
855.000000	63.813768	67.317100
856.000000	63.726368	67.280500
857.000000	63.337791	66.619300
858.000000	59.998451	64.161900
859.000000	59.698396	64.078300
860.000000	59.642671	63.974500
861.000000	59.602836	63.878100
862.000000	59.552393	63.775300
863.000000	59.488714	63.669600
864.000000	59.422820	63.557300
865.000000	59.358282	63.442200
866.000000	59.306088	63.334200
867.000000	59.257007	63.212700
868.000000	59.205896	63.069300
869.000000	59.160250	62.943200
870.000000	59.116114	62.809600
871.000000	59.104930	62.692800
872.000000	59.129402	62.588900
873.000000	59.190953	62.552600
874.000000	59.258617	62.567800
875.000000	59.310560	62.562700
876.000000	59.357730	62.495100
877.000000	59.387854	62.445200
878.000000	59.412177	62.392300
879.000000	59.419534	62.333700
880.000000	59.425827	62.248200
881.000000	59.421043	62.162500
